"Fp1","Fpz","Fp2","F7","F3","Fz","F4","F8","FC5","FC1","FC2","FC6","T7","C3","Cz","C4","T8","CP5","CP1","CP2","CP6","P7","P3","Pz","P4","P8","POz","O1","Oz","O2"
-9.3612578125,-1.35392578125,-2.52523828125,-12.0716484375,-3.98251171875,-6.36783203125,-7.89421484375,-0.3152890625,-6.522890625,-6.71047265625,-7.73094921875,-6.33498046875,-10.20216015625,-3.0678046875,-7.479734375,-8.4846640625,-7.672359375,-8.70843359375,-8.4948984375,-10.71106640625,-8.14237890625,-32.4862578125,-10.93272265625,-10.81048828125,-9.54608203125,-11.32878515625,-10.56084375,-8.72812890625,-8.8055,-9.12800390625
-8.5432578125,-0.76892578125,-0.69323828125,-11.2306484375,-1.77851171875,-3.72183203125,-4.38721484375,-2.1682890625,-4.453890625,-3.09647265625,-5.04794921875,-4.18898046875,-6.78816015625,-1.9698046875,-6.192734375,-6.2516640625,-5.994359375,-5.76043359375,-7.7058984375,-8.95406640625,-6.31837890625,-30.7072578125,-9.45672265625,-9.90848828125,-8.49608203125,-9.87978515625,-10.32184375,-9.45112890625,-8.5315,-8.66400390625
-7.6272578125,-0.39992578125,-0.0222382812500001,-10.9006484375,-1.15451171875,-2.31583203125,-2.42221484375,-3.2172890625,-4.368890625,-1.79647265625,-3.73494921875,-3.13898046875,-4.79716015625,-2.5688046875,-6.026734375,-4.9136640625,-4.964359375,-5.24143359375,-7.9778984375,-8.06006640625,-5.04537890625,-30.0002578125,-9.33872265625,-9.72248828125,-8.09708203125,-9.05578515625,-10.57284375,-10.33312890625,-8.8385,-8.81100390625
-6.8732578125,-0.28192578125,-0.31123828125,-11.1926484375,-2.20651171875,-2.28083203125,-2.10021484375,-3.4122890625,-6.296890625,-2.86247265625,-3.89694921875,-3.11798046875,-4.37616015625,-4.8128046875,-7.015734375,-4.5826640625,-4.614359375,-6.94943359375,-9.3248984375,-8.11606640625,-4.47037890625,-30.2022578125,-10.50572265625,-10.25448828125,-8.38408203125,-8.86578515625,-11.25084375,-11.29912890625,-9.6825,-9.53600390625
-6.5872578125,-0.36792578125,-1.00023828125,-12.0406484375,-4.46551171875,-3.34183203125,-3.04721484375,-2.9682890625,-9.527890625,-5.52947265625,-5.19794921875,-3.71198046875,-5.20816015625,-7.9838046875,-8.798734375,-5.1126640625,-4.821359375,-9.80443359375,-11.3528984375,-8.93406640625,-4.62637890625,-30.7892578125,-12.38272265625,-11.24548828125,-9.17608203125,-9.12878515625,-12.10084375,-12.17512890625,-10.8025,-10.59000390625
-6.9452578125,-0.56092578125,-1.55423828125,-13.2256484375,-7.08751171875,-4.94583203125,-4.60921484375,-2.2442890625,-12.921890625,-8.58447265625,-7.03294921875,-4.40298046875,-6.67816015625,-11.0218046875,-10.769734375,-6.1696640625,-5.480359375,-12.44443359375,-13.4158984375,-10.13906640625,-5.40237890625,-31.2242578125,-14.18772265625,-12.30048828125,-10.15308203125,-9.57578515625,-12.81684375,-12.77212890625,-11.8545,-11.63200390625
-7.9032578125,-0.75892578125,-1.72723828125,-14.4616484375,-9.17851171875,-6.48283203125,-6.10321484375,-1.5122890625,-15.393890625,-10.87847265625,-8.74794921875,-4.79798046875,-8.15316015625,-12.9768046875,-12.293734375,-7.3136640625,-6.545359375,-13.88243359375,-14.8598984375,-11.27906640625,-6.47737890625,-31.2592578125,-15.29972265625,-13.02648828125,-10.94908203125,-9.94478515625,-13.17084375,-12.98512890625,-12.5425,-12.35400390625
-9.1882578125,-0.87892578125,-1.55223828125,-15.4286484375,-10.15251171875,-7.48083203125,-7.03721484375,-0.8012890625,-16.292890625,-11.73847265625,-9.84694921875,-4.74498046875,-9.20416015625,-13.3918046875,-12.914734375,-8.1146640625,-7.868359375,-13.85743359375,-15.2508984375,-11.94206640625,-7.35337890625,-30.9862578125,-15.47772265625,-13.16048828125,-11.25408203125,-10.02078515625,-13.09284375,-12.84212890625,-12.7235,-12.57500390625
-10.3732578125,-0.86992578125,-1.14923828125,-15.8016484375,-9.92651171875,-7.72883203125,-7.24821484375,0.0737109374999998,-15.561890625,-11.11447265625,-10.11094921875,-4.32198046875,-9.68416015625,-12.4258046875,-12.490734375,-8.2816640625,-8.999359375,-12.77943359375,-14.5108984375,-11.85406640625,-7.51637890625,-30.6662578125,-14.87572265625,-12.63248828125,-10.89808203125,-9.66578515625,-12.65584375,-12.47012890625,-12.4295,-12.28300390625
-11.0442578125,-0.71692578125,-0.57223828125,-15.3526484375,-8.85851171875,-7.27383203125,-6.90921484375,1.3377109375,-13.656890625,-9.46747265625,-9.60594921875,-3.73798046875,-9.66916015625,-10.6978046875,-11.195734375,-7.7476640625,-9.216359375,-11.39143359375,-12.9168984375,-10.95806640625,-6.67437890625,-30.4932578125,-13.88572265625,-11.55948828125,-9.89508203125,-8.82978515625,-11.99584375,-12.02112890625,-11.7905,-11.58600390625
-10.9622578125,-0.44192578125,0.19176171875,-14.0776484375,-7.46651171875,-6.31883203125,-6.36321484375,3.0697109375,-11.306890625,-7.47147265625,-8.57194921875,-3.17198046875,-9.33716015625,-8.9628046875,-9.395734375,-6.6666640625,-7.882359375,-10.35843359375,-10.9518984375,-9.43206640625,-4.91037890625,-30.4612578125,-12.92072265625,-10.16648828125,-8.41508203125,-7.57178515625,-11.21284375,-11.57212890625,-10.9095,-10.62700390625
-10.0892578125,-0.0769257812499999,1.11676171875,-12.2266484375,-6.14451171875,-5.08483203125,-5.84421484375,5.0787109375,-9.175890625,-5.67947265625,-7.26894921875,-2.64698046875,-8.85716015625,-7.7708046875,-7.486734375,-5.3256640625,-4.885359375,-9.97243359375,-9.1088984375,-7.61306640625,-2.66337890625,-30.3862578125,-12.21572265625,-8.70048828125,-6.73208203125,-6.05878515625,-10.31784375,-11.06812890625,-9.8045,-9.50100390625
-8.5052578125,0.36207421875,2.01876171875,-10.1686484375,-5.02851171875,-3.71483203125,-5.27821484375,6.9007109375,-7.589890625,-4.30647265625,-5.86394921875,-2.00598046875,-8.35516015625,-7.2678046875,-5.767734375,-4.0156640625,-0.843359375,-10.07443359375,-7.7028984375,-5.85506640625,-0.54437890625,-30.0372578125,-11.74272265625,-7.35048828125,-5.13808203125,-4.53678515625,-9.26484375,-10.35712890625,-8.4535,-8.25200390625
-6.3482578125,0.88107421875,2.57176171875,-8.2436484375,-4.03351171875,-2.28083203125,-4.34521484375,7.9257109375,-6.482890625,-3.23547265625,-4.41294921875,-1.02298046875,-7.91216015625,-7.1918046875,-4.362734375,-2.9186640625,3.096640625,-10.19743359375,-6.7848984375,-4.39106640625,0.92462109375,-29.2892578125,-11.26872265625,-6.19548828125,-3.85208203125,-3.25778515625,-8.01284375,-9.29612890625,-6.8955,-6.92200390625
-3.8792578125,1.48307421875,2.47176171875,-6.6656484375,-2.99151171875,-0.85483203125,-2.77421484375,7.6557109375,-5.587890625,-2.20847265625,-2.92994921875,0.40601953125,-7.56016015625,-7.0598046875,-3.228734375,-2.0636640625,5.766640625,-9.84443359375,-6.1688984375,-3.29006640625,1.49462109375,-28.2022578125,-10.53472265625,-5.19348828125,-2.95908203125,-2.39878515625,-6.59184375,-7.88812890625,-5.2835,-5.61600390625
-1.5382578125,2.12307421875,1.64376171875,-5.5226484375,-1.84051171875,0.41416796875,-0.66721484375,5.9447109375,-4.709890625,-1.06347265625,-1.51094921875,2.09401953125,-7.26516015625,-6.4728046875,-2.257734375,-1.4106640625,6.471640625,-8.75443359375,-5.6058984375,-2.51606640625,1.20562109375,-26.9912578125,-9.44672265625,-4.26548828125,-2.44208203125,-2.05378515625,-5.14584375,-6.35012890625,-3.8875,-4.54700390625
0.1137421875,2.67307421875,0.33176171875,-4.8276484375,-0.731511718750001,1.27016796875,1.38778515625,3.1327109375,-3.893890625,0.12252734375,-0.403949218749999,3.51401953125,-6.91716015625,-5.3708046875,-1.429734375,-1.0026640625,5.222640625,-7.04843359375,-4.9868984375,-2.04906640625,0.24662109375,-25.9292578125,-8.17472265625,-3.43048828125,-2.29908203125,-2.29078515625,-3.94384375,-5.06812890625,-3.0325,-4.03100390625
0.5657421875,2.95407421875,-1.00723828125,-4.5626484375,0.0264882812499994,1.42716796875,2.51078515625,0.000710937499999842,-3.391890625,1.06052734375,0.0420507812500004,3.98401953125,-6.36516015625,-4.0918046875,-0.872734375,-1.0156640625,2.617640625,-5.18643359375,-4.4398984375,-1.95906640625,-1.16837890625,-25.2342578125,-7.08872265625,-2.86248828125,-2.59808203125,-3.19078515625,-3.29784375,-4.43912890625,-2.9795,-4.37200390625
-0.4132578125,2.82807421875,-1.92423828125,-4.6966484375,0.20248828125,0.74116796875,1.99178515625,-2.4352890625,-3.440890625,1.45252734375,-0.40794921875,3.05401953125,-5.48916015625,-3.1538046875,-0.743734375000001,-1.6206640625,-0.477359375,-3.74143359375,-4.2088984375,-2.34806640625,-2.80837890625,-24.9832578125,-6.55872265625,-2.76848828125,-3.39808203125,-4.77878515625,-3.39184375,-4.66112890625,-3.7585,-5.65700390625
-2.5772578125,2.32007421875,-2.19323828125,-5.1256484375,-0.13251171875,-0.60783203125,-0.20621484375,-3.2872890625,-4.021890625,1.22152734375,-1.65094921875,0.88601953125,-4.28216015625,-2.9098046875,-1.051734375,-2.7676640625,-3.237359375,-3.09143359375,-4.4228984375,-3.19606640625,-4.34537890625,-25.0522578125,-6.72472265625,-3.17948828125,-4.59008203125,-6.89178515625,-4.11284375,-5.57312890625,-5.0605,-7.60400390625
-5.1352578125,1.65207421875,-1.88123828125,-5.6116484375,-0.601511718750001,-2.08783203125,-3.25621484375,-2.2132890625,-4.782890625,0.619527343750001,-3.17594921875,-1.66598046875,-2.91016015625,-3.3038046875,-1.569734375,-4.0766640625,-5.082359375,-3.21243359375,-4.9218984375,-4.23906640625,-5.35237890625,-25.1322578125,-7.35772265625,-3.81748828125,-5.81508203125,-9.12078515625,-5.02484375,-6.66412890625,-6.2945,-9.58000390625
-7.0062578125,1.11407421875,-1.23323828125,-5.8396484375,-0.768511718750001,-3.02183203125,-5.81321484375,0.3747109375,-5.261890625,0.0985273437500003,-4.27494921875,-3.41298046875,-1.71516015625,-3.9138046875,-1.930734375,-4.9806640625,-5.764359375,-3.70843359375,-5.2878984375,-5.01506640625,-5.42537890625,-24.8602578125,-7.93972265625,-4.17548828125,-6.56808203125,-10.90778515625,-5.52784375,-7.28412890625,-6.8145,-10.84400390625
-7.3622578125,0.85107421875,-0.43323828125,-5.6476484375,-0.45951171875,-2.95283203125,-6.75221484375,3.4787109375,-5.243890625,0.00652734375000019,-4.39894921875,-3.45998046875,-1.13316015625,-4.2308046875,-1.824734375,-5.0126640625,-5.375359375,-4.06543359375,-5.0798984375,-5.07406640625,-4.40237890625,-24.0452578125,-7.94072265625,-3.77048828125,-6.40808203125,-11.74578515625,-5.13284375,-6.94112890625,-6.1685,-10.84700390625
-6.1202578125,0.75307421875,0.54576171875,-5.1966484375,0.0594882812499993,-1.92483203125,-5.80321484375,5.9797109375,-4.944890625,0.337527343750001,-3.47894921875,-1.71498046875,-1.53916015625,-3.9848046875,-1.187734375,-4.0846640625,-4.280359375,-3.96643359375,-4.1188984375,-4.24206640625,-2.52337890625,-22.8222578125,-7.13072265625,-2.41948828125,-5.18308203125,-11.37978515625,-3.68984375,-5.53112890625,-4.2855,-9.44800390625
-3.9652578125,0.60407421875,1.82876171875,-4.8986484375,0.19048828125,-0.49783203125,-3.67621484375,7.1197109375,-4.867890625,0.70952734375,-1.99894921875,1.00301953125,-3.05116015625,-3.3238046875,-0.285734375000001,-2.5936640625,-2.999359375,-3.44443359375,-2.6538984375,-2.77206640625,-0.44537890625,-21.6242578125,-5.72972265625,-0.394488281249999,-3.17308203125,-9.95578515625,-1.49684375,-3.37512890625,-1.5395,-6.97300390625
-1.9082578125,0.35007421875,3.33476171875,-5.1466484375,-0.661511718750001,0.50316796875,-1.65521484375,6.7487109375,-5.438890625,0.57252734375,-0.80094921875,3.33801953125,-5.41416015625,-2.7368046875,0.351265625,-1.2926640625,-2.062359375,-2.84443359375,-1.3118984375,-1.28506640625,0.96162109375,-21.0022578125,-4.32672265625,1.62651171875,-1.05208203125,-8.03478515625,0.787156249999999,-1.08112890625,1.3335,-4.13700390625
-0.7602578125,0.21507421875,4.58476171875,-6.1106484375,-2.72651171875,0.35416796875,-0.96521484375,5.2487109375,-6.759890625,-0.51247265625,-0.71694921875,4.02101953125,-8.05016015625,-2.8038046875,0.130265625,-0.9736640625,-1.886359375,-2.64843359375,-0.8418984375,-0.551066406249999,0.96762109375,-21.4082578125,-3.64172265625,2.81251171875,0.32691796875,-6.45278515625,2.35915625,0.66387109375,3.4355,-1.84400390625
-0.8692578125,0.49407421875,4.88476171875,-7.7286484375,-5.72851171875,-1.28683203125,-2.24221484375,3.2377109375,-8.605890625,-2.69347265625,-2.22194921875,2.41701953125,-10.30116015625,-3.9268046875,-1.354734375,-2.1226640625,-2.653359375,-3.28843359375,-1.7958984375,-1.19706640625,-0.70637890625,-23.0512578125,-4.23572265625,2.50651171875,0.25191796875,-6.01278515625,2.56215625,1.31387109375,4.0125,-0.912003906250001
-2.1322578125,1.20507421875,3.76376171875,-9.8276484375,-9.05351171875,-4.27083203125,-5.33721484375,1.2317109375,-10.594890625,-5.78447265625,-5.25294921875,-1.26798046875,-11.71516015625,-6.1598046875,-4.175734375,-4.7406640625,-4.238359375,-4.98443359375,-4.3088984375,-3.47306640625,-3.80237890625,-25.8332578125,-6.29772265625,0.462511718750001,-1.58408203125,-7.13778515625,1.09815625,0.60687109375,2.7115,-1.78600390625
-4.1312578125,1.97707421875,1.33376171875,-12.2236484375,-12.09451171875,-8.05483203125,-9.47021484375,-0.5292890625,-12.394890625,-9.35947265625,-9.28094921875,-6.17398046875,-12.23016015625,-9.2238046875,-8.066734375,-8.4016640625,-6.232359375,-7.64343359375,-8.0658984375,-7.15706640625,-7.67737890625,-29.3462578125,-9.56972265625,-3.10048828125,-4.97808203125,-9.67978515625,-1.89984375,-1.37212890625,-0.2955,-4.36500390625
-6.2962578125,2.29807421875,-1.74023828125,-14.7526484375,-14.50851171875,-11.90083203125,-13.60821484375,-1.9982890625,-13.834890625,-12.90247265625,-13.53094921875,-11.16998046875,-12.11716015625,-12.6288046875,-12.501734375,-12.4406640625,-8.092359375,-10.86243359375,-12.4308984375,-11.62006640625,-11.56137890625,-32.9442578125,-13.44472265625,-7.58948828125,-9.29108203125,-12.95678515625,-5.92884375,-4.23112890625,-4.3665,-8.01400390625
-8.0612578125,1.93607421875,-4.58523828125,-17.2646484375,-16.22451171875,-15.09683203125,-16.86321484375,-3.1052890625,-14.894890625,-15.92647265625,-17.23694921875,-15.21898046875,-11.78316015625,-15.8258046875,-16.806734375,-16.1466640625,-9.352359375,-14.03243359375,-16.6478984375,-16.00806640625,-14.75637890625,-35.8782578125,-17.17772265625,-12.21648828125,-13.63108203125,-16.01078515625,-10.25884375,-7.39112890625,-8.5955,-11.77600390625
-8.9812578125,1.14607421875,-6.55623828125,-19.5476484375,-17.29651171875,-17.12283203125,-18.72421484375,-3.6572890625,-15.611890625,-18.05147265625,-19.83594921875,-17.61298046875,-11.55716015625,-18.3408046875,-20.288734375,-18.9216640625,-9.784359375,-16.52043359375,-20.0408984375,-19.48306640625,-16.77537890625,-37.4922578125,-20.10872265625,-16.18648828125,-17.12208203125,-17.95878515625,-14.10984375,-10.24012890625,-12.0805,-14.69600390625
-8.7882578125,0.52007421875,-7.48023828125,-21.2806484375,-17.78751171875,-17.74983203125,-19.09421484375,-3.4822890625,-15.996890625,-19.05247265625,-21.06394921875,-18.06698046875,-11.61916015625,-19.8698046875,-22.413734375,-20.4116640625,-9.461359375,-17.86643359375,-22.1698984375,-21.46206640625,-17.42337890625,-37.4412578125,-21.80972265625,-18.89948828125,-19.16808203125,-18.30178515625,-16.83384375,-12.27112890625,-14.1955,-16.14700390625
-7.4772578125,0.57007421875,-7.62023828125,-22.0986484375,-17.75251171875,-17.08183203125,-18.19121484375,-2.6712890625,-16.051890625,-18.92547265625,-20.97794921875,-16.74298046875,-12.04216015625,-20.3468046875,-22.978734375,-20.5776640625,-8.746359375,-17.93743359375,-22.9198984375,-21.78406640625,-16.82637890625,-35.8652578125,-22.16572265625,-20.09648828125,-19.61408203125,-17.06678515625,-18.06584375,-13.19012890625,-14.7325,-15.99500390625
-5.4472578125,1.35007421875,-7.40423828125,-21.7866484375,-17.30051171875,-15.53983203125,-16.44021484375,-1.6662890625,-15.856890625,-17.94347265625,-19.90594921875,-14.19698046875,-12.85916015625,-19.9448046875,-22.168734375,-19.6816640625,-8.204359375,-16.99743359375,-22.4948984375,-20.75706640625,-15.37237890625,-33.3932578125,-21.37572265625,-19.89548828125,-18.73608203125,-14.73678515625,-17.80684375,-12.96412890625,-13.8735,-14.55800390625
-3.5682578125,2.34307421875,-7.08223828125,-20.4756484375,-16.65151171875,-13.76083203125,-14.36021484375,-1.0672890625,-15.605890625,-16.61747265625,-18.36294921875,-11.27498046875,-14.06216015625,-19.0298046875,-20.505734375,-18.2086640625,-8.436359375,-15.63743359375,-21.3308984375,-19.04006640625,-13.57437890625,-30.9222578125,-19.89472265625,-18.73148828125,-17.09608203125,-12.03478515625,-16.41784375,-11.81212890625,-12.0725,-12.42300390625
-2.9392578125,2.71407421875,-6.55423828125,-18.6606484375,-16.13351171875,-12.40183203125,-12.48421484375,-1.3082890625,-15.536890625,-15.52647265625,-16.91794921875,-8.90798046875,-15.54716015625,-18.0518046875,-18.675734375,-16.7406640625,-9.823359375,-14.54443359375,-19.9558984375,-17.41006640625,-11.93337890625,-29.2532578125,-18.28972265625,-17.21248828125,-15.35308203125,-9.66778515625,-14.52684375,-10.13212890625,-9.9125,-10.24500390625
-4.3902578125,1.77707421875,-5.49823828125,-17.0396484375,-16.06051171875,-11.91183203125,-11.27021484375,-2.4122890625,-15.818890625,-15.07647265625,-16.02994921875,-7.84898046875,-17.09516015625,-17.3848046875,-17.289734375,-15.7916640625,-12.290359375,-14.21243359375,-18.8238984375,-16.48406640625,-10.82637890625,-28.7732578125,-17.04772265625,-15.92648828125,-14.06908203125,-8.13478515625,-12.83184375,-8.39012890625,-7.9955,-8.60300390625
-8.0112578125,-0.59892578125,-3.71523828125,-16.2426484375,-16.52751171875,-12.36283203125,-10.98721484375,-4.0022890625,-16.449890625,-15.31247265625,-15.87694921875,-8.40398046875,-18.43916015625,-17.1648046875,-16.643734375,-15.6266640625,-15.258359375,-14.72043359375,-18.1518984375,-16.50906640625,-10.44737890625,-29.3702578125,-16.41772265625,-15.22548828125,-13.55608203125,-7.62778515625,-11.86084375,-6.98812890625,-6.8055,-7.88800390625
-12.9802578125,-3.86092578125,-1.42123828125,-16.5636484375,-17.26651171875,-13.41283203125,-11.57221484375,-5.5362890625,-17.221890625,-15.87747265625,-16.25494921875,-10.28298046875,-19.36916015625,-17.2228046875,-16.593734375,-16.1396640625,-17.845359375,-15.72043359375,-17.8518984375,-17.30406640625,-10.77837890625,-30.5682578125,-16.33972265625,-15.08848828125,-13.78508203125,-8.03778515625,-11.77184375,-6.15212890625,-6.5645,-8.22100390625
-17.8052578125,-6.98392578125,0.74576171875,-17.7976484375,-17.72651171875,-14.42483203125,-12.54921484375,-6.6212890625,-17.764890625,-16.15147265625,-16.63994921875,-12.66698046875,-19.79616015625,-17.1478046875,-16.641734375,-16.8916640625,-19.234359375,-16.60443359375,-17.5788984375,-18.35106640625,-11.61937890625,-31.7452578125,-16.46872265625,-15.15648828125,-14.42308203125,-9.04178515625,-12.30984375,-5.85612890625,-7.1525,-9.40500390625
-20.8682578125,-8.88792578125,2.02076171875,-19.2866484375,-17.32551171875,-14.70383203125,-13.12321484375,-7.1972890625,-17.677890625,-15.51047265625,-16.38994921875,-14.49898046875,-19.74316015625,-16.4808046875,-16.175734375,-17.2916640625,-19.021359375,-16.73643359375,-16.8828984375,-18.98006640625,-12.63437890625,-32.3262578125,-16.29672265625,-14.91848828125,-14.97508203125,-10.21678515625,-12.92884375,-5.83012890625,-8.1435,-10.95300390625
-21.0712578125,-8.86592578125,1.90976171875,-20.2086484375,-15.71351171875,-13.73983203125,-12.47821484375,-7.4432890625,-16.707890625,-13.58247265625,-14.97894921875,-14.87798046875,-19.28616015625,-14.9038046875,-14.711734375,-16.7976640625,-17.341359375,-15.68043359375,-15.3868984375,-18.58506640625,-13.40037890625,-31.9192578125,-15.33372265625,-13.93248828125,-14.93308203125,-11.13078515625,-13.01284375,-5.65612890625,-8.9425,-12.19500390625
-18.2462578125,-6.80592578125,0.45076171875,-19.9426484375,-12.87951171875,-11.35883203125,-10.11321484375,-7.5192890625,-14.846890625,-10.38447265625,-12.15294921875,-13.37498046875,-18.50816015625,-12.3628046875,-12.027734375,-15.0616640625,-14.716359375,-13.34643359375,-12.9098984375,-16.78906640625,-13.45637890625,-30.4342578125,-13.29672265625,-11.97948828125,-13.89408203125,-11.39078515625,-12.10184375,-4.92512890625,-8.9785,-12.45400390625
-13.1722578125,-3.19292578125,-1.76523828125,-18.2936484375,-9.13351171875,-7.75083203125,-6.04421484375,-7.3472890625,-12.287890625,-6.27947265625,-8.00894921875,-10.16198046875,-17.48516015625,-9.0618046875,-8.214734375,-12.0036640625,-11.723359375,-10.02443359375,-9.5318984375,-13.53306640625,-12.38537890625,-28.1162578125,-10.24072265625,-9.12648828125,-11.64908203125,-10.69278515625,-10.05784375,-3.40212890625,-7.9055,-11.26900390625
-7.2262578125,1.06607421875,-3.80923828125,-15.5396484375,-5.01951171875,-3.40783203125,-0.85421484375,-6.6062890625,-9.338890625,-1.83147265625,-3.00194921875,-5.94698046875,-16.27016015625,-5.4078046875,-3.662734375,-7.8686640625,-8.725359375,-6.31643359375,-5.6028984375,-9.11106640625,-9.96237890625,-25.4782578125,-6.56372265625,-5.70448828125,-8.26808203125,-8.89978515625,-7.11584375,-1.12812890625,-5.7485,-8.58400390625
-1.9372578125,4.91707421875,-4.77123828125,-12.3526484375,-1.19351171875,0.96916796875,4.40978515625,-4.9322890625,-6.405890625,2.32552734375,2.09105078125,-1.75998046875,-14.92316015625,-1.9158046875,0.995265625,-3.2166640625,-5.846359375,-2.96943359375,-1.6758984375,-4.13006640625,-6.29337890625,-23.1202578125,-2.90072265625,-2.21848828125,-4.14408203125,-6.12678515625,-3.80784375,1.58287109375,-2.9035,-4.80900390625
1.4337421875,7.46907421875,-4.12223828125,-9.6226484375,1.74248828125,4.61616796875,8.50478515625,-2.2042890625,-3.994890625,5.60852734375,6.34105078125,1.37601953125,-13.52616015625,0.8941953125,5.014265625,1.1863359375,-3.136359375,-0.64943359375,1.6291015625,0.59593359375,-1.87137890625,-21.5072578125,0.0642773437499997,0.795511718750001,0.0779179687500005,-2.77178515625,-0.76684375,4.24687109375,0.0295000000000005,-0.67500390625
2.2157421875,8.27307421875,-1.93223828125,-8.1436484375,3.41848828125,6.92816796875,10.43778515625,1.2677109375,-2.601890625,7.61752734375,8.96505078125,2.80801953125,-12.20316015625,2.6221953125,7.748265625,4.5703359375,-0.730359375,0.28356640625,3.8121015625,4.25193359375,2.50062109375,-20.7782578125,1.82427734375,2.92551171875,3.66191796875,0.56021484375,1.48115625,6.39587109375,2.4795,3.02299609375
0.5397421875,7.42707421875,1.14476171875,-8.2536484375,3.81348828125,7.65616796875,9.91678515625,4.7487109375,-2.472890625,8.24752734375,9.61805078125,2.49601953125,-11.09216015625,3.1011953125,8.828265625,6.3853359375,1.135640625,-0.0884335937499996,4.6471015625,6.24493359375,5.91562109375,-20.7052578125,2.22727734375,3.97051171875,5.97591796875,3.22021484375,2.65015625,7.75287109375,4.0745,5.67899609375
-2.7192578125,5.46707421875,4.11076171875,-9.6836484375,3.24648828125,6.98816796875,7.52478515625,7.2997109375,-3.426890625,7.71452734375,8.53005078125,0.99601953125,-10.29116015625,2.4481953125,8.274265625,6.4553359375,2.187640625,-1.27143359375,4.2381015625,6.37893359375,7.64462109375,-20.8332578125,1.51127734375,3.94851171875,6.65391796875,4.69021484375,2.72215625,8.30087109375,4.6815,6.99499609375
-6.3002578125,3.11607421875,5.97176171875,-11.7226484375,2.25948828125,5.46216796875,4.47178515625,8.1097109375,-4.902890625,6.45552734375,6.39605078125,-0.81898046875,-9.78716015625,1.0321953125,6.501265625,5.0333359375,2.161640625,-2.55743359375,2.9751015625,4.88693359375,7.38062109375,-20.7442578125,0.174277343749999,3.05951171875,5.69291796875,4.71321484375,1.87915625,8.21487109375,4.3555,6.95599609375
-9.0182578125,1.05307421875,6.05176171875,-13.5736484375,1.41148828125,3.75516796875,2.05478515625,6.7717109375,-6.184890625,4.96552734375,4.07505078125,-2.17798046875,-9.41116015625,-0.625804687500001,4.181265625,2.7033359375,0.827640625,-3.31343359375,1.3811015625,2.32993359375,5.35362109375,-20.2682578125,-1.24772265625,1.59851171875,3.43991796875,3.34321484375,0.395156249999999,7.69087109375,3.2405,5.72899609375
-10.1072578125,-0.23092578125,4.16676171875,-14.6556484375,1.05848828125,2.44516796875,1.09978515625,3.4447109375,-6.682890625,3.66052734375,2.24905078125,-2.76698046875,-8.86716015625,-2.0188046875,2.005265625,0.1463359375,-1.932359375,-3.24243359375,-0.0638984375000007,-0.60306640625,2.23362109375,-19.5282578125,-2.39072265625,-0.143488281249999,0.463917968750001,0.91521484375,-1.46784375,6.79987109375,1.4795,3.55699609375
-9.3482578125,-0.48592578125,0.65476171875,-14.7266484375,1.23548828125,1.83616796875,1.63878515625,-1.1282890625,-6.145890625,2.79952734375,1.19105078125,-2.82398046875,-7.83416015625,-2.8068046875,0.432265624999999,-2.1116640625,-5.933359375,-2.49443359375,-1.0768984375,-3.30006640625,-1.10937890625,-18.8352578125,-3.14972265625,-1.94148828125,-2.62408203125,-2.02178515625,-3.50984375,5.48087109375,-0.7825,0.733996093749999
-7.0802578125,0.28307421875,-3.70923828125,-13.8716484375,1.73648828125,1.90416796875,2.95578515625,-5.7512890625,-4.745890625,2.45752734375,0.75705078125,-2.90898046875,-6.13016015625,-2.9128046875,-0.416734375000001,-3.8046640625,-10.507359375,-1.57843359375,-1.6088984375,-5.35406640625,-3.88737890625,-18.5082578125,-3.63172265625,-3.63248828125,-5.29708203125,-4.80778515625,-5.55484375,3.68387109375,-3.3135,-2.35900390625
-4.0922578125,1.84507421875,-7.88723828125,-12.4136484375,2.28148828125,2.37116796875,4.00578515625,-9.1232890625,-2.984890625,2.53452734375,0.577050781250001,-3.47598046875,-3.86116015625,-2.5258046875,-0.704734375,-4.8936640625,-14.508359375,-1.09743359375,-1.7968984375,-6.60206640625,-5.62537890625,-18.7642578125,-4.02672265625,-5.07748828125,-7.18808203125,-6.82178515625,-7.38784375,1.53587109375,-5.7355,-5.24500390625
-1.3642578125,3.77507421875,-10.86923828125,-10.7756484375,2.62748828125,2.85916796875,3.99178515625,-10.3742890625,-1.469890625,2.80252734375,0.30505078125,-4.57298046875,-1.48016015625,-2.0248046875,-0.742734375,-5.4816640625,-16.678359375,-1.47843359375,-1.8878984375,-7.10606640625,-6.31037890625,-19.6802578125,-4.49672265625,-6.17848828125,-8.16308203125,-7.70278515625,-8.78684375,-0.64012890625,-7.6265,-7.46800390625
0.301742187499999,5.53507421875,-12.02423828125,-9.3806484375,2.56648828125,3.02916796875,2.75178515625,-9.5152890625,-0.702890625000001,2.95452734375,-0.24094921875,-5.85798046875,0.312839843750001,-1.8638046875,-0.877734375,-5.7666640625,-16.247359375,-2.80843359375,-2.1728984375,-7.11906640625,-6.35937890625,-21.2282578125,-5.14172265625,-6.94848828125,-8.37508203125,-7.52378515625,-9.63784375,-2.49112890625,-8.7535,-8.80000390625
0.5297421875,6.58007421875,-11.35023828125,-8.5976484375,1.89348828125,2.64616796875,0.70678515625,-7.4452890625,-0.991890625000001,2.66752734375,-1.08594921875,-6.89798046875,0.785839843750001,-2.4198046875,-1.393734375,-6.0076640625,-13.421359375,-4.86943359375,-2.9108984375,-7.02206640625,-6.38737890625,-23.2992578125,-6.02972265625,-7.54548828125,-8.21208203125,-6.78478515625,-10.03084375,-3.85612890625,-9.2225,-9.36500390625
-0.637257812500001,6.48607421875,-9.41123828125,-8.7106484375,0.456488281249999,1.60416796875,-1.53221484375,-5.4162890625,-2.442890625,1.66952734375,-2.19894921875,-7.48798046875,-0.551160156249999,-3.8448046875,-2.457734375,-6.4466640625,-9.368359375,-7.28943359375,-4.2488984375,-7.21606640625,-6.85637890625,-25.6612578125,-7.22672265625,-8.19948828125,-8.12108203125,-6.14778515625,-10.22984375,-4.86312890625,-9.4025,-9.54500390625
-2.9082578125,5.05607421875,-6.99123828125,-9.8246484375,-1.75651171875,-0.0918320312500001,-3.55921484375,-4.3162890625,-4.914890625,-0.15247265625,-3.57294921875,-7.74198046875,-3.75616015625,-5.9818046875,-4.079734375,-7.2336640625,-5.650359375,-9.69643359375,-6.1468984375,-7.98606640625,-7.84837890625,-27.8932578125,-8.75272265625,-9.07848828125,-8.39608203125,-6.06478515625,-10.52184375,-5.80912890625,-9.6805,-9.73200390625
-5.8692578125,2.40907421875,-4.71323828125,-11.7356484375,-4.55451171875,-2.32183203125,-5.29821484375,-4.2652890625,-7.963890625,-2.67047265625,-5.21894921875,-7.92098046875,-8.39316015625,-8.4078046875,-6.126734375,-8.3796640625,-3.444359375,-11.79443359375,-8.3648984375,-9.37506640625,-9.08637890625,-29.3742578125,-10.51472265625,-10.18548828125,-9.07308203125,-6.54878515625,-11.05584375,-6.91612890625,-10.2235,-10.11000390625
-8.9592578125,-0.95592578125,-2.90423828125,-13.9016484375,-7.53351171875,-4.82383203125,-6.82721484375,-4.7182890625,-10.879890625,-5.50547265625,-7.06494921875,-8.15298046875,-13.62216015625,-10.5828046875,-8.324734375,-9.7316640625,-3.024359375,-13.37043359375,-10.5128984375,-11.13506640625,-10.12837890625,-29.4372578125,-12.27372265625,-11.33748828125,-9.94508203125,-7.20378515625,-11.75684375,-8.15312890625,-10.9075,-10.59300390625
-11.4192578125,-4.15592578125,-1.72323828125,-15.5826484375,-10.13051171875,-7.17983203125,-8.11821484375,-4.8902890625,-12.890890625,-8.10947265625,-8.84894921875,-8.27498046875,-18.41816015625,-12.0248046875,-10.272734375,-10.9726640625,-3.793359375,-14.26943359375,-12.1418984375,-12.78606640625,-10.57537890625,-27.6432578125,-13.70272265625,-12.21848828125,-10.66208203125,-7.48578515625,-12.35984375,-9.22512890625,-11.3905,-10.91900390625
-12.3792578125,-6.10492578125,-1.32223828125,-16.1026484375,-11.75851171875,-8.85983203125,-8.89921484375,-4.1862890625,-13.430890625,-9.91547265625,-10.12894921875,-7.91598046875,-21.81916015625,-12.4548046875,-11.511734375,-11.6896640625,-4.767359375,-14.38743359375,-12.8638984375,-13.78206640625,-10.20237890625,-24.0462578125,-14.48672265625,-12.50348828125,-10.87208203125,-7.02278515625,-12.54284375,-9.72812890625,-11.3195,-10.83200390625
-11.1692578125,-5.93892578125,-1.82323828125,-15.1076484375,-12.02651171875,-9.38183203125,-8.77721484375,-2.4572890625,-12.347890625,-10.51147265625,-10.45894921875,-6.79298046875,-23.12716015625,-11.8428046875,-11.688734375,-11.5396640625,-5.164359375,-13.67543359375,-12.4818984375,-13.73006640625,-9.01537890625,-19.2622578125,-14.43072265625,-12.02148828125,-10.38308203125,-5.84578515625,-12.09084375,-9.38012890625,-10.5505,-10.25900390625
-7.7582578125,-3.49892578125,-3.13423828125,-12.7656484375,-10.94851171875,-8.55583203125,-7.53921484375,-0.0432890625000002,-9.994890625,-9.81047265625,-9.65294921875,-4.98898046875,-22.05616015625,-10.3988046875,-10.739734375,-10.4396640625,-4.786359375,-12.19643359375,-11.0858984375,-12.56706640625,-7.25037890625,-14.3062578125,-13.52772265625,-10.86448828125,-9.26608203125,-4.39078515625,-11.02384375,-8.20512890625,-9.2755,-9.38900390625
-3.0302578125,0.42007421875,-4.80423828125,-9.8016484375,-8.97651171875,-6.65083203125,-5.40721484375,2.3737109375,-7.147890625,-8.12947265625,-7.94094921875,-3.00998046875,-18.85716015625,-8.4848046875,-8.961734375,-8.6326640625,-4.010359375,-10.16643359375,-9.0468984375,-10.62206640625,-5.30537890625,-10.2592578125,-11.97972265625,-9.35948828125,-7.83608203125,-3.28078515625,-9.59284375,-6.57412890625,-7.9535,-8.59500390625
1.4407421875,4.33807421875,-6.10423828125,-7.2466484375,-6.82351171875,-4.32583203125,-3.00221484375,4.0737109375,-4.731890625,-6.07447265625,-5.89594921875,-1.53398046875,-14.32516015625,-6.4858046875,-6.891734375,-6.5916640625,-3.448359375,-7.93443359375,-6.8758984375,-8.46806640625,-3.60937890625,-7.8782578125,-10.12472265625,-7.89948828125,-6.49608203125,-2.98078515625,-8.14684375,-5.03612890625,-7.0645,-8.21100390625
4.1267421875,6.76907421875,-6.32423828125,-5.9346484375,-5.15051171875,-2.31183203125,-1.02121484375,4.6497109375,-3.408890625,-4.23847265625,-4.14494921875,-1.02898046875,-9.57916015625,-4.6648046875,-5.050734375,-4.8026640625,-3.484359375,-5.86443359375,-5.0048984375,-6.65806640625,-2.48137890625,-7.3142578125,-8.29172265625,-6.74048828125,-5.53208203125,-3.53678515625,-6.94584375,-4.01712890625,-6.8265,-8.29200390625
4.3437421875,6.93507421875,-5.12123828125,-6.0296484375,-4.26251171875,-1.04283203125,0.11978515625,4.2327109375,-3.271890625,-2.89347265625,-3.04994921875,-1.48898046875,-5.62716015625,-3.0858046875,-3.694734375,-3.5446640625,-3.972359375,-4.21243359375,-3.5918984375,-5.44706640625,-2.00937890625,-8.0952578125,-6.64772265625,-5.87148828125,-4.95608203125,-4.52778515625,-6.02084375,-3.57112890625,-7.0495,-8.52400390625
2.5587421875,5.07607421875,-2.70523828125,-6.9536484375,-3.97551171875,-0.47483203125,0.43278515625,3.4497109375,-3.830890625,-1.86547265625,-2.53994921875,-2.45798046875,-2.97816015625,-1.6258046875,-2.690734375,-2.7596640625,-4.302359375,-3.06643359375,-2.4608984375,-4.67306640625,-1.97937890625,-9.3892578125,-5.13972265625,-5.01848828125,-4.48308203125,-5.25778515625,-5.14684375,-3.35012890625,-7.2005,-8.32900390625
-0.000257812500000121,2.22407421875,0.27876171875,-7.7506484375,-3.71851171875,-0.17083203125,0.27178515625,3.0937109375,-4.294890625,-0.67247265625,-2.17694921875,-3.26898046875,-1.53416015625,-0.0758046874999998,-1.595734375,-2.0886640625,-3.766359375,-2.37243359375,-1.2068984375,-3.84406640625,-1.93037890625,-10.4102578125,-3.57472265625,-3.77448828125,-3.64808203125,-5.07878515625,-3.96584375,-2.81612890625,-6.6535,-7.14000390625
-2.0462578125,-0.33492578125,3.05676171875,-7.6166484375,-2.84751171875,0.43616796875,0.16178515625,3.7117109375,-3.925890625,1.18852734375,-1.39094921875,-3.30798046875,-0.801160156249999,1.7411953125,0.0852656249999999,-1.0526640625,-2.022359375,-1.97943359375,0.5691015625,-2.38506640625,-1.33937890625,-10.7072578125,-1.75972265625,-1.80948828125,-2.04108203125,-3.68578515625,-2.18584375,-1.55512890625,-5.0185,-4.70600390625
-2.7762578125,-1.59492578125,5.04076171875,-6.2586484375,-0.97951171875,1.76516796875,0.62478515625,5.3037109375,-2.310890625,3.96552734375,0.242050781250001,-2.17798046875,-0.239160156249999,3.8871953125,2.601265625,0.6913359375,0.650640625,-1.67743359375,3.0251015625,0.05093359375,0.12762109375,-10.2532578125,0.369277343749999,0.93451171875,0.45791796875,-1.26578515625,0.232156249999999,0.48787109375,-2.3705,-1.27000390625
-2.0522578125,-1.12992578125,5.93876171875,-3.9516484375,1.83148828125,3.91516796875,2.00278515625,7.2917109375,0.532109374999998,7.50952734375,2.80405078125,0.21601953125,0.473839843750001,6.2691953125,5.787265625,3.1743359375,3.442640625,-1.25943359375,5.9751015625,3.37793359375,2.45762109375,-9.3342578125,2.68427734375,4.18351171875,3.58291796875,1.59921484375,3.01915625,2.97587109375,0.759500000000001,2.50199609375
-0.2722578125,0.88307421875,5.70476171875,-1.3306484375,5.18648828125,6.63216796875,4.29878515625,8.7677109375,4.213109375,11.31152734375,5.98605078125,3.65001953125,1.36283984375,8.6731953125,9.123265625,6.0923359375,5.404640625,-0.60443359375,8.9501015625,7.06393359375,5.31762109375,-8.3702578125,4.89627734375,7.41851171875,6.78091796875,4.21121484375,5.70915625,5.34087109375,3.6275,5.80099609375
1.9117421875,3.81707421875,4.45776171875,0.932351562500001,8.53448828125,9.41716796875,7.12178515625,8.9067109375,8.138109375,14.69152734375,9.18605078125,7.58201953125,2.25883984375,10.8141953125,11.946265625,8.9093359375,5.933640625,0.265566406250001,11.3871015625,10.32993359375,8.18662109375,-7.7162578125,6.66827734375,10.06451171875,9.41791796875,6.05521484375,7.81915625,7.05087109375,5.5945,8.01499609375
3.8637421875,6.83907421875,2.49376171875,2.4043515625,11.32548828125,11.68216796875,9.78178515625,7.3847109375,11.686109375,17.04352734375,11.69305078125,11.21101953125,2.96383984375,12.3981953125,13.679265625,11.0043359375,5.064640625,1.21156640625,12.8211015625,12.43793359375,10.48962109375,-7.5312578125,7.74827734375,11.66551171875,10.96691796875,6.92021484375,9.00515625,7.84087109375,6.3545,8.90499609375
5.0897421875,9.13807421875,0.32476171875,2.9683515625,13.08948828125,12.90016796875,11.50378515625,4.5847109375,14.287109375,18.00252734375,12.89305078125,13.60901953125,3.37783984375,13.1801953125,14.005265625,11.8333359375,3.415640625,2.04656640625,13.0201015625,12.94593359375,11.66762109375,-7.7722578125,8.05527734375,11.99551171875,11.12791796875,6.82421484375,9.14415625,7.78787109375,5.9885,8.59699609375
5.2577421875,10.12207421875,-1.38323828125,2.7573515625,13.53648828125,12.76716796875,11.72478515625,1.4717109375,15.512109375,17.52852734375,12.48405078125,13.98801953125,3.54683984375,13.0551953125,12.967265625,11.1253359375,1.847640625,2.64056640625,12.0671015625,11.83893359375,11.30362109375,-8.2662578125,7.69727734375,11.11851171875,9.91591796875,5.89821484375,8.35615625,7.23987109375,4.8945,7.45699609375
4.2687421875,9.58107421875,-2.03323828125,2.0663515625,12.70848828125,11.34816796875,10.40578515625,-0.8442890625,15.248109375,15.94652734375,10.64205078125,12.07301953125,3.62283984375,12.1531953125,10.987265625,9.0523359375,1.051640625,3.01556640625,10.3541015625,9.54493359375,9.32162109375,-8.7892578125,6.94027734375,9.39551171875,7.69591796875,4.35121484375,6.98915625,6.64887109375,3.6275,5.96899609375
2.4057421875,7.77807421875,-1.39923828125,1.3233515625,11.06948828125,9.16716796875,8.19278515625,-1.6422890625,13.884109375,13.91552734375,8.05505078125,8.37301953125,3.79283984375,10.8761953125,8.755265625,6.2653359375,1.265640625,3.39056640625,8.4891015625,6.82493359375,6.15162109375,-9.1142578125,6.16027734375,7.40551171875,5.12691796875,2.50021484375,5.53515625,6.41387109375,2.7195,4.61999609375
0.3847421875,5.39107421875,0.20676171875,0.9853515625,9.39148828125,7.07716796875,6.21678515625,-0.9172890625,12.232109375,12.25852734375,5.72505078125,4.10001953125,4.18483984375,9.7851953125,7.016265625,3.7113359375,2.209640625,4.11456640625,7.1081015625,4.53493359375,2.69462109375,-9.0322578125,5.76227734375,5.77051171875,2.98591796875,0.770214843750001,4.48915625,6.76587109375,2.5025,3.79599609375
-0.8862578125,3.28707421875,2.02376171875,1.3563515625,8.43448828125,5.91216796875,5.53878515625,0.6927109375,11.121109375,11.62552734375,4.56905078125,0.66101953125,4.81683984375,9.3571953125,6.308265625,2.2513359375,3.260640625,5.46456640625,6.6471015625,3.32593359375,-0.0103789062499997,-8.4372578125,6.02727734375,4.94851171875,1.89391796875,-0.421785156249999,4.17915625,7.69987109375,3.0165,3.68499609375
-0.7442578125,2.20107421875,3.16476171875,2.4143515625,8.58248828125,6.08416796875,6.55878515625,2.3117109375,10.927109375,12.17652734375,4.99105078125,-1.01698046875,5.59083984375,9.7401953125,6.763265625,2.2733359375,3.769640625,7.43456640625,7.1581015625,3.39193359375,-1.25837890625,-7.4102578125,6.96927734375,5.05951171875,2.07691796875,-0.83578515625,4.63415625,8.95887109375,4.0135,4.21099609375
0.8887421875,2.44407421875,2.99276171875,3.8543515625,9.63648828125,7.37016796875,8.77578515625,3.2747109375,11.430109375,13.48552734375,6.67705078125,-0.89498046875,6.32983984375,10.6541953125,8.046265625,3.5043359375,3.320640625,9.64156640625,8.2801015625,4.40493359375,-1.03137890625,-6.2342578125,8.28827734375,5.82651171875,3.24291796875,-0.548785156249999,5.54715625,10.09787109375,5.0235,5.05099609375
3.4387421875,3.75607421875,1.36976171875,5.2773515625,10.92748828125,9.01916796875,11.03078515625,3.3677109375,12.060109375,14.74552734375,8.72505078125,0.25401953125,6.82183984375,11.5251953125,9.494265625,5.1333359375,1.826640625,11.43456640625,9.3741015625,5.67493359375,0.00462109374999997,-5.3272578125,9.46527734375,6.67251171875,4.68491796875,0.0602148437500007,6.37115625,10.61487109375,5.5055,5.73499609375
5.9007421875,5.41507421875,-1.29323828125,6.3873515625,11.67148828125,10.10816796875,12.08478515625,2.7617109375,12.293109375,15.15552734375,10.07205078125,1.33501953125,6.93083984375,11.7731953125,10.401265625,6.2013359375,-0.515359375,12.15256640625,9.7941015625,6.45693359375,0.88562109375,-5.0932578125,9.96727734375,6.96751171875,5.58691796875,0.50921484375,6.54715625,10.14387109375,5.0655,5.84299609375
7.2867421875,6.58407421875,-4.20723828125,7.0553515625,11.39748828125,10.00216796875,11.24678515625,1.7787109375,11.945109375,14.31052734375,10.01805078125,1.54401953125,6.72683984375,11.1121953125,10.344265625,6.0813359375,-3.278359375,11.41756640625,9.1971015625,6.29493359375,0.918621093750001,-5.7112578125,9.49127734375,6.35351171875,5.42591796875,0.49621484375,5.79815625,8.65387109375,3.6845,5.22399609375
7.1447421875,6.77807421875,-6.52123828125,7.3173515625,10.20148828125,8.68816796875,8.76778515625,0.6697109375,11.232109375,12.41852734375,8.59605078125,0.77001953125,6.55683984375,9.7071953125,9.384265625,4.7913359375,-5.832359375,9.36356640625,7.7341015625,5.24793359375,0.0656210937500004,-6.9452578125,8.15627734375,4.95851171875,4.24991796875,0.10721484375,4.32715625,6.56887109375,1.8135,4.10999609375
5.8527421875,6.13207421875,-7.65023828125,7.3193515625,8.67948828125,6.79416796875,5.74378515625,-0.4452890625,10.612109375,10.22952734375,6.54605078125,-0.38998046875,6.90083984375,8.1031953125,8.031265625,2.9693359375,-7.439359375,6.66156640625,6.0091015625,3.85993359375,-1.08037890625,-8.1352578125,6.51027734375,3.37251171875,2.65291796875,-0.21278515625,2.77915625,4.68187109375,0.219500000000001,3.02599609375
4.3887421875,5.25407421875,-7.44923828125,7.2233515625,7.59148828125,5.23816796875,3.52578515625,-1.4982890625,10.465109375,8.64652734375,4.90805078125,-1.01998046875,8.06083984375,6.9331953125,6.960265625,1.5263359375,-7.493359375,4.26956640625,4.7931015625,2.87693359375,-1.69437890625,-8.4542578125,5.29927734375,2.35351171875,1.46391796875,0.0882148437500003,1.94215625,3.83987109375,-0.355499999999999,2.53499609375
3.6567421875,4.76007421875,-6.13723828125,7.1023515625,7.40848828125,4.69016796875,2.96178515625,-2.3682890625,10.803109375,8.21352734375,4.43405078125,-0.45798046875,9.88283984375,6.5781953125,6.646265625,1.1693359375,-5.806359375,3.00156640625,4.6141015625,2.82793359375,-1.20737890625,-7.3172578125,5.08327734375,2.43551171875,1.31191796875,1.33521484375,2.33415625,4.52887109375,0.450500000000001,2.94599609375
3.8877421875,4.83907421875,-4.07423828125,6.8913515625,8.02748828125,5.19816796875,3.97678515625,-2.9082890625,11.224109375,8.80752734375,5.20305078125,1.30201953125,11.74083984375,6.9571953125,7.107265625,2.0583359375,-2.782359375,3.14056640625,5.4831015625,3.74693359375,0.386621093750001,-4.6332578125,5.94127734375,3.63651171875,2.31591796875,3.40021484375,3.90815625,6.60487109375,2.4345,4.16299609375
4.5747421875,5.17607421875,-1.61023828125,6.4613515625,8.81348828125,6.21616796875,5.74778515625,-3.0662890625,11.165109375,9.75252734375,6.63905078125,3.60801953125,12.81283984375,7.6041953125,7.909265625,3.7713359375,0.666640625,4.35256640625,6.9071015625,5.17893359375,2.56662109375,-0.779257812500003,7.46027734375,5.45251171875,4.05391796875,5.72021484375,6.05415625,9.36087109375,4.9225,5.74199609375
4.9467421875,5.24907421875,0.87576171875,5.7473515625,9.00048828125,6.98916796875,7.25678515625,-2.9992890625,10.258109375,10.26452734375,7.90605078125,5.53401953125,12.48183984375,7.9631953125,8.446265625,5.5763359375,3.417640625,5.92156640625,8.1811015625,6.46993359375,4.60062109375,3.6277421875,8.97027734375,7.13451171875,5.82591796875,7.55721484375,7.91215625,11.85087109375,7.0875,7.13199609375
4.5577421875,4.75607421875,2.87276171875,4.8203515625,8.19948828125,7.01716796875,7.84278515625,-3.0302890625,8.548109375,9.90652734375,8.38605078125,6.37401953125,10.64383984375,7.7331953125,8.318265625,6.8433359375,4.546640625,7.13256640625,8.7811015625,7.12393359375,5.94262109375,7.95374218749999,9.89027734375,8.08651171875,7.04491796875,8.37421484375,8.81215625,13.30687109375,8.3315,7.94799609375
3.5657421875,3.84007421875,3.78376171875,3.8933515625,6.65548828125,6.31516796875,7.44078515625,-3.4642890625,6.494109375,8.79852734375,7.96305078125,5.97101953125,7.77083984375,7.0371953125,7.562265625,7.3213359375,3.710640625,7.58156640625,8.6171015625,7.04993359375,6.45262109375,11.6827421875,9.97227734375,8.14951171875,7.50591796875,8.09121484375,8.58515625,13.40887109375,8.5085,8.11999609375
2.6037421875,3.00107421875,3.17076171875,3.2493515625,5.07248828125,5.33116796875,6.47778515625,-4.3982890625,4.759109375,7.50252734375,6.99105078125,4.71501953125,4.70683984375,6.3241953125,6.610265625,7.1543359375,1.314640625,7.29056640625,8.0171015625,6.55993359375,6.34262109375,14.4597421875,9.38227734375,7.61751171875,7.40291796875,7.06021484375,7.57615625,12.31187109375,7.8705,7.83499609375
2.3627421875,2.76007421875,1.04676171875,3.1023515625,4.14948828125,4.60216796875,5.52878515625,-5.6262890625,3.889109375,6.66552734375,6.01505078125,3.25101953125,2.30183984375,6.0951953125,6.011265625,6.6973359375,-1.647359375,6.59556640625,7.5031015625,6.16293359375,5.93962109375,16.0897421875,8.56627734375,7.00951171875,7.12391796875,5.81621484375,6.40115625,10.45687109375,6.8085,7.32899609375
3.1507421875,3.32107421875,-2.01923828125,3.4303515625,4.16548828125,4.40516796875,4.94378515625,-6.7032890625,4.009109375,6.64452734375,5.44905078125,2.11301953125,1.07783984375,6.6061953125,6.138265625,6.3023359375,-4.014359375,5.90356640625,7.4991015625,6.28393359375,5.49662109375,16.5227421875,7.99927734375,6.79051171875,7.02091796875,4.80021484375,5.62115625,8.32987109375,5.6385,6.74299609375
4.6787421875,4.42007421875,-5.05323828125,3.9223515625,4.86548828125,4.61516796875,4.69278515625,-7.1632890625,4.768109375,7.33252734375,5.40805078125,1.50401953125,1.06283984375,7.7551953125,7.032265625,6.1993359375,-4.926359375,5.47756640625,8.1541015625,7.07293359375,5.16762109375,15.8537421875,7.96227734375,7.19351171875,7.29491796875,4.23821484375,5.53915625,6.32587109375,4.5465,6.13199609375
6.2477421875,5.49207421875,-7.03623828125,4.1623515625,5.68148828125,4.85916796875,4.51078515625,-6.7602890625,5.578109375,8.28952734375,5.74405078125,1.33201953125,1.88383984375,9.1841953125,8.446265625,6.4843359375,-4.104359375,5.37556640625,9.3451015625,8.40193359375,5.06662109375,14.3787421875,8.48927734375,8.19651171875,7.99391796875,4.18721484375,6.19315625,4.76687109375,3.6835,5.59199609375
7.1827421875,6.03207421875,-7.30523828125,3.9073515625,6.09248828125,4.81616796875,4.19778515625,-5.6082890625,5.964109375,9.04152734375,6.23105078125,1.40801953125,3.03283984375,10.5151953125,10.021265625,7.1493359375,-1.868359375,5.54556640625,10.8201015625,10.01093359375,5.31762109375,12.6017421875,9.46227734375,9.62151171875,9.07691796875,4.63821484375,7.45815625,3.95887109375,3.2565,5.35099609375
7.2107421875,5.90807421875,-5.79923828125,3.2273515625,5.91548828125,4.44616796875,3.80778515625,-4.1152890625,5.755109375,9.35452734375,6.74305078125,1.65001953125,4.13283984375,11.5541953125,11.476265625,8.1363359375,1.066640625,5.94556640625,12.3581015625,11.66693359375,6.01362109375,11.1087421875,10.73427734375,11.24951171875,10.45891796875,5.57121484375,9.16715625,4.15587109375,3.5095,5.70499609375
6.5147421875,5.38407421875,-3.01823828125,2.4273515625,5.34648828125,3.99716796875,3.60478515625,-2.7462890625,5.042109375,9.29952734375,7.30805078125,2.14001953125,5.04083984375,12.3261953125,12.719265625,9.3723359375,3.906640625,6.56856640625,13.8511015625,13.24993359375,7.17262109375,10.3527421875,12.17527734375,12.90951171875,12.02891796875,6.94321484375,11.15715625,5.42587109375,4.6075,6.84999609375
5.5447421875,4.88207421875,0.28576171875,1.8453515625,4.77148828125,3.83016796875,3.85078515625,-1.7432890625,4.065109375,9.13652734375,8.02405078125,2.99601953125,5.77383984375,12.9691953125,13.790265625,10.7453359375,6.088640625,7.37656640625,15.2711015625,14.71893359375,8.69162109375,10.4817421875,13.65527734375,14.48651171875,13.63691796875,8.65221484375,13.24715625,7.55887109375,6.5095,8.72199609375
4.7527421875,4.67807421875,3.41876171875,1.7083515625,4.49348828125,4.17816796875,4.59078515625,-0.9842890625,3.129109375,9.11152734375,8.91405078125,4.18201953125,6.36483984375,13.5581953125,14.712265625,12.0633359375,7.437640625,8.24256640625,16.5721015625,16.03893359375,10.35362109375,11.3177421875,15.02127734375,15.88351171875,15.07591796875,10.48721484375,15.20915625,10.09587109375,8.9085,10.96399609375
4.4217421875,4.78507421875,5.88976171875,2.0623515625,4.56648828125,4.99916796875,5.56878515625,-0.0792890625,2.501109375,9.28952734375,9.83505078125,5.41101953125,6.74683984375,13.9981953125,15.380265625,13.0443359375,8.076640625,8.94256640625,17.6111015625,17.10293359375,11.86162109375,12.4417421875,16.09227734375,16.97451171875,16.09591796875,12.13421484375,16.77215625,12.47987109375,11.2975,13.03899609375
4.6157421875,5.06907421875,7.36076171875,2.7933515625,4.82148828125,6.00016796875,6.31878515625,1.2827109375,2.299109375,9.50752734375,10.52205078125,6.25801953125,6.75083984375,14.0461953125,15.580265625,13.4213359375,8.175640625,9.23456640625,18.1491015625,17.72393359375,12.90362109375,13.3597421875,16.67227734375,17.59951171875,16.48591796875,13.24821484375,17.68615625,14.24087109375,13.1515,14.43899609375
5.2517421875,5.43107421875,7.57976171875,3.7023515625,4.99448828125,6.78416796875,6.42378515625,2.9287109375,2.412109375,9.47152734375,10.73105078125,6.41101953125,6.17483984375,13.4441953125,15.120265625,13.0653359375,7.764640625,8.95956640625,17.9381015625,17.70793359375,13.22962109375,13.6707421875,16.59627734375,17.59651171875,16.15391796875,13.58121484375,17.80415625,15.13187109375,14.1105,14.88599609375
6.1957421875,5.84707421875,6.44376171875,4.5973515625,4.85748828125,7.03616796875,5.79078515625,4.0277109375,2.560109375,8.94052734375,10.37305078125,5.91501953125,4.88983984375,12.0711953125,13.949265625,12.0703359375,6.723640625,8.10856640625,16.8331015625,16.95693359375,12.74462109375,13.2177421875,15.79027734375,16.86151171875,15.16691796875,13.10021484375,17.12815625,15.16587109375,14.0955,14.41699609375
7.2577421875,6.24907421875,4.15176171875,5.3213515625,4.29248828125,6.62316796875,4.71678515625,3.3727109375,2.432109375,7.87752734375,9.56205078125,5.17401953125,2.91783984375,10.0461953125,12.224265625,10.7383359375,4.928640625,6.84956640625,14.8991015625,15.55493359375,11.58762109375,12.1467421875,14.33627734375,15.42251171875,13.74891796875,12.02921484375,15.83315625,14.56187109375,13.3115,13.35899609375
8.0917421875,6.39907421875,1.31176171875,5.7193515625,3.34948828125,5.60816796875,3.65978515625,0.0947109374999999,1.846109375,6.47652734375,8.53405078125,4.68201953125,0.481839843750001,7.7251953125,10.275265625,9.4623359375,2.446640625,5.48256640625,12.4501015625,13.76893359375,10.14062109375,10.8597421875,12.46527734375,13.49651171875,12.22391796875,10.77121484375,14.23215625,13.64187109375,12.1635,12.18399609375
8.2027421875,5.97007421875,-1.16923828125,5.6573515625,2.23448828125,4.19616796875,2.88778515625,-5.5542890625,0.856109374999998,5.06752734375,7.49805078125,4.61501953125,-1.95716015625,5.5861953125,8.486265625,8.5333359375,-0.317359375,4.35756640625,9.9741015625,11.94193359375,8.87362109375,9.8677421875,10.51127734375,11.45651171875,10.89891796875,9.71021484375,12.68915625,12.71687109375,11.0995,11.30299609375
7.2007421875,4.78207421875,-2.41523828125,5.1293515625,1.24048828125,2.66916796875,2.28478515625,-11.9112890625,-0.219890625000001,3.97552734375,6.51905078125,4.63201953125,-3.72016015625,4.0511953125,7.119265625,7.9583359375,-2.612359375,3.75656640625,7.9481015625,10.34193359375,8.05962109375,9.6017421875,8.80827734375,9.69251171875,9.90291796875,8.99321484375,11.47215625,12.00087109375,10.4015,10.85799609375
5.1157421875,2.99107421875,-1.98923828125,4.3333515625,0.622488281249999,1.31016796875,1.47478515625,-16.4602890625,-0.936890625000001,3.37252734375,5.51405078125,4.08101953125,-4.08516015625,3.2941953125,6.191265625,7.4453359375,-3.582359375,3.75656640625,6.6331015625,9.05093359375,7.55962109375,10.2437421875,7.58427734375,8.42851171875,9.10191796875,8.43721484375,10.63915625,11.56187109375,10.0575,10.64899609375
2.4967421875,1.05707421875,-0.13723828125,3.5963515625,0.50348828125,0.32216796875,0.15478515625,-17.0682890625,-0.966890625000001,3.21152734375,4.37105078125,2.50501953125,-2.63216015625,3.1701953125,5.499265625,6.6073359375,-2.711359375,4.16756640625,5.9811015625,7.96593359375,6.90762109375,11.6247421875,6.88027734375,7.64551171875,8.19691796875,7.66121484375,10.03215625,11.32787109375,9.8015,10.25299609375
0.1747421875,-0.46392578125,2.28576171875,3.2173515625,0.845488281249999,-0.20583203125,-1.60921484375,-13.1892890625,-0.291890625000001,3.26952734375,3.09805078125,0.0450195312499999,0.422839843750001,3.3011953125,4.790265625,5.2573359375,-0.197359375,4.60556640625,5.7071015625,6.91493359375,5.65962109375,13.2807421875,6.55027734375,7.13551171875,6.94291796875,6.36721484375,9.40615625,11.14687109375,9.3165,9.30699609375
-1.0762578125,-1.12892578125,4.17876171875,3.3803515625,1.48948828125,-0.27883203125,-3.33021484375,-6.2512890625,0.801109374999998,3.28752734375,1.87905078125,-2.58298046875,4.20583984375,3.2891953125,3.927265625,3.5563359375,3.065640625,4.69756640625,5.4651015625,5.80193359375,3.75662109375,14.6617421875,6.37427734375,6.64851171875,5.33691796875,4.57721484375,8.57315625,10.87487109375,8.4325,7.73599609375
-0.8192578125,-0.74492578125,4.65476171875,4.1433515625,2.22148828125,0.0261679687500003,-4.35921484375,1.0747109375,1.915109375,3.11752734375,0.96605078125,-4.49498046875,7.54083984375,2.9201953125,2.944265625,1.9093359375,5.900640625,4.29056640625,5.0181015625,4.66893359375,1.61262109375,15.3817421875,6.18927734375,6.01651171875,3.62891796875,2.65321484375,7.48815625,10.43187109375,7.2025,5.79599609375
0.8817421875,0.56507421875,3.38476171875,5.4183515625,2.84148828125,0.56216796875,-4.27721484375,6.2297109375,2.744109375,2.75352734375,0.50405078125,-5.11198046875,9.46483984375,2.2311953125,1.977265625,0.7163359375,7.378640625,3.50656640625,4.2961015625,3.64793359375,-0.10537890625,15.3487421875,5.93927734375,5.19251171875,2.17391796875,1.11521484375,6.22415625,9.79587109375,5.8265,3.92799609375
3.4077421875,2.35707421875,0.70976171875,6.9023515625,3.22748828125,1.09716796875,-3.16421484375,7.8827109375,3.148109375,2.26952734375,0.42105078125,-4.41098046875,9.58883984375,1.4321953125,1.145265625,0.1663359375,7.145640625,2.61756640625,3.3491015625,2.84093359375,-0.84537890625,14.7127421875,5.61127734375,4.22251171875,1.23891796875,0.39621484375,4.89915625,8.94987109375,4.5255,2.53899609375
5.7417421875,3.98107421875,-2.51423828125,8.1313515625,3.34148828125,1.37416796875,-1.54021484375,6.2227109375,3.121109375,1.73352734375,0.47205078125,-2.85798046875,8.16783984375,0.7501953125,0.475265625,0.171335937499999,5.475640625,1.85956640625,2.2631015625,2.25193359375,-0.46137890625,13.7167421875,5.16927734375,3.18951171875,0.87191796875,0.667214843750001,3.60315625,7.86287109375,3.4385,1.85599609375
6.8727421875,4.80507421875,-5.24023828125,8.6793515625,3.21048828125,1.21916796875,-0.0512148437500004,2.4987109375,2.742109375,1.19152734375,0.40005078125,-1.12798046875,5.92983984375,0.3151953125,-0.101734375,0.4523359375,3.109640625,1.31156640625,1.1061015625,1.80993359375,0.70262109375,12.5907421875,4.55927734375,2.17451171875,0.89691796875,1.79221484375,2.38315625,6.52987109375,2.5995,1.86899609375
6.2597421875,4.47807421875,-6.59423828125,8.3983515625,2.91248828125,0.64616796875,0.83278515625,-1.7092890625,2.139109375,0.696527343750001,0.0990507812499999,0.23501953125,3.81183984375,0.1531953125,-0.661734375,0.7283359375,0.986640625,0.914566406250001,-0.0378984375000009,1.46793359375,2.01562109375,11.5397421875,3.79327734375,1.27951171875,1.04691796875,3.42721484375,1.29015625,5.04387109375,1.9955,2.39799609375
4.0647421875,3.09007421875,-6.13223828125,7.5013515625,2.57948828125,-0.11983203125,0.93978515625,-5.0322890625,1.490109375,0.32452734375,-0.31294921875,1.03801953125,2.66283984375,0.2441953125,-1.167734375,0.9023359375,-0.0673593749999997,0.58456640625,-1.0088984375,1.28793359375,2.91562109375,10.7697421875,3.02127734375,0.666511718750001,1.16691796875,5.19921484375,0.453156249999999,3.64587109375,1.6545,3.20199609375
1.0637421875,1.14707421875,-3.93723828125,6.4713515625,2.39148828125,-0.72383203125,0.36478515625,-6.5542890625,1.041109375,0.18352734375,-0.55794921875,1.42501953125,2.99083984375,0.5831953125,-1.436734375,1.1013359375,0.382640625,0.33556640625,-1.5598984375,1.44793359375,3.21362109375,10.4957421875,2.52827734375,0.543511718750001,1.31591796875,6.83721484375,0.06715625,2.67487109375,1.6665,4.06199609375
-1.6862578125,-0.63992578125,-0.58823828125,5.8583515625,2.52148828125,-0.82983203125,-0.63421484375,-5.8882890625,1.100109375,0.37852734375,-0.36094921875,1.66401953125,4.78883984375,1.1741953125,-1.247734375,1.5463359375,2.201640625,0.340566406250001,-1.4598984375,2.11593359375,3.11262109375,10.8847421875,2.61827734375,1.04651171875,1.67791796875,8.18721484375,0.29215625,2.41887109375,2.0935,4.79199609375
-3.2422578125,-1.64792578125,2.95476171875,6.0563515625,3.05348828125,-0.26683203125,-1.73121484375,-3.2342890625,1.907109375,0.95752734375,0.37605078125,1.90701953125,7.51283984375,1.9841953125,-0.510734375,2.3393359375,4.707640625,0.856566406250001,-0.648898437500001,3.29693359375,2.97162109375,11.9647421875,3.44427734375,2.10451171875,2.36091796875,9.13221484375,1.10615625,2.93787109375,2.8205,5.19199609375
-3.1202578125,-1.56792578125,5.59276171875,7.1303515625,3.94448828125,0.88216796875,-2.61021484375,0.5907109375,3.464109375,1.85152734375,1.50305078125,2.13301953125,10.24583984375,2.9121953125,0.639265624999999,3.3693359375,6.903640625,2.05456640625,0.686101562499999,4.75993359375,3.02262109375,13.5677421875,4.88127734375,3.41851171875,3.26991796875,9.54921484375,2.26715625,3.96187109375,3.5465,5.06499609375
-1.4402578125,-0.48592578125,6.43476171875,8.7583515625,5.04248828125,2.31516796875,-2.99821484375,4.2587109375,5.463109375,2.88452734375,2.70405078125,2.26601953125,12.03183984375,3.8231953125,1.913265625,4.3963359375,7.879640625,3.86756640625,2.1821015625,6.13193359375,3.27862109375,15.3697421875,6.55827734375,4.61151171875,4.16691796875,9.37221484375,3.43315625,4.99587109375,3.9255,4.34199609375
1.1717421875,1.20607421875,5.15276171875,10.3723515625,6.15048828125,3.64116796875,-2.67121484375,6.2907109375,7.419109375,3.85852734375,3.66305078125,2.33601953125,12.26883984375,4.6211953125,3.027265625,5.2193359375,7.227640625,5.99956640625,3.4981015625,7.10893359375,3.62762109375,17.0607421875,8.06127734375,5.43651171875,4.84691796875,8.70921484375,4.36315625,5.59287109375,3.8035,3.21599609375
3.8727421875,2.99207421875,2.17176171875,11.4073515625,7.10948828125,4.54916796875,-1.52021484375,5.6427109375,8.910109375,4.67552734375,4.22705078125,2.48001953125,11.01283984375,5.3201953125,3.866265625,5.7923359375,5.267640625,8.07156640625,4.5031015625,7.64393359375,4.02362109375,18.5187421875,9.18227734375,5.92051171875,5.31391796875,7.89021484375,5.07415625,5.63387109375,3.3635,2.15999609375
5.8997421875,4.43907421875,-1.44923828125,11.5403515625,7.88448828125,4.93216796875,0.35078515625,2.2647109375,9.750109375,5.38452734375,4.46305078125,2.82101953125,9.02383984375,6.0661953125,4.554265625,6.2493359375,2.936640625,9.80156640625,5.3511015625,7.98293359375,4.58562109375,19.8727421875,10.04227734375,6.36251171875,5.82091796875,7.38221484375,5.84915625,5.41787109375,3.0855,1.77899609375
6.7797421875,5.32707421875,-4.41923828125,10.8073515625,8.60548828125,4.93616796875,2.55878515625,-2.7052890625,10.033109375,6.14352734375,4.60405078125,3.34601953125,7.47283984375,7.0721953125,5.389265625,6.8073359375,1.351640625,11.11456640625,6.3991015625,8.53793359375,5.53062109375,21.4047421875,10.99827734375,7.19051171875,6.75591796875,7.57421484375,7.10315625,5.51287109375,3.5405,2.54699609375
6.4497421875,5.67407421875,-5.73123828125,9.5983515625,9.48348828125,4.87516796875,4.52378515625,-7.3242890625,10.064109375,7.12152734375,4.90705078125,3.89301953125,7.40783984375,8.5091953125,6.645265625,7.6193359375,1.263640625,12.14456640625,7.9901015625,9.64593359375,6.96662109375,23.3437421875,12.44527734375,8.73251171875,8.40791796875,8.56321484375,9.14615625,6.44687109375,5.0845,4.56499609375
5.2667421875,5.65607421875,-5.06423828125,8.5053515625,10.64548828125,5.06716796875,5.68178515625,-9.7182890625,10.210109375,8.39552734375,5.50305078125,4.24001953125,9.22383984375,10.4021953125,8.375265625,8.6303359375,2.687640625,13.14756640625,10.2581015625,11.36593359375,8.69462109375,25.6917421875,14.60627734375,11.03451171875,10.75391796875,10.05621484375,12.00115625,8.43487109375,7.6545,7.48199609375
3.8397421875,5.50407421875,-2.85423828125,8.0703515625,12.02448828125,5.68216796875,5.73678515625,-8.9992890625,10.719109375,9.90952734375,6.36405078125,4.25101953125,12.44983984375,12.6091953125,10.381265625,9.6113359375,4.908640625,14.37356640625,13.0591015625,13.45093359375,10.24462109375,28.1787421875,17.44027734375,13.84251171875,13.44391796875,11.51021484375,15.38215625,11.28487109375,10.7855,10.63399609375
2.7717421875,5.45307421875,0.00376171874999992,8.5303515625,13.39748828125,6.71516796875,4.85478515625,-5.6852890625,11.632109375,11.53952734375,7.41105078125,4.00101953125,16.00083984375,14.9141953125,12.404265625,10.3583359375,6.883640625,15.96856640625,16.0951015625,15.51093359375,11.15062109375,30.4047421875,20.68127734375,16.76651171875,15.99791796875,12.43621484375,18.84815625,14.50687109375,13.8465,13.33599609375
2.4567421875,5.71807421875,2.64876171875,9.7533515625,14.55448828125,8.09916796875,3.68878515625,-1.3472890625,12.856109375,13.21652734375,8.67205078125,3.81201953125,18.76883984375,17.1781953125,14.353265625,10.9053359375,7.800640625,17.93756640625,19.0991015625,17.27793359375,11.28862109375,32.0947421875,23.97027734375,19.48751171875,18.06991796875,12.66721484375,22.01415625,17.56687109375,16.3515,15.16899609375
3.0407421875,6.46707421875,4.64176171875,11.3663515625,15.44448828125,9.82616796875,3.15278515625,2.2837109375,14.306109375,15.03552734375,10.34205078125,4.13201953125,20.17083984375,19.4111953125,16.374265625,11.5673359375,7.460640625,20.17256640625,21.9531015625,18.76993359375,11.01262109375,33.2757421875,27.00227734375,21.86451171875,19.59291796875,12.45021484375,24.67615625,20.10987109375,18.1275,16.10099609375
4.4507421875,7.72807421875,6.03076171875,12.9743515625,16.23448828125,11.95616796875,4.01078515625,4.1727109375,15.944109375,17.21252734375,12.66605078125,5.30901953125,20.36983984375,21.7161953125,18.721265625,12.7713359375,6.293640625,22.47556640625,24.6571015625,20.25493359375,11.01262109375,34.2447421875,29.58527734375,23.91151171875,20.75391796875,12.30221484375,26.80115625,22.04387109375,19.3035,16.43099609375
6.3997421875,9.30207421875,7.11976171875,14.3113515625,17.23648828125,14.51016796875,6.51478515625,4.3107109375,17.721109375,19.92052734375,15.74105078125,7.39301953125,20.06283984375,24.1491953125,21.533265625,14.8013359375,5.064640625,24.58156640625,27.2161015625,22.03293359375,11.95862109375,35.3287421875,31.59727734375,25.68051171875,21.83491796875,12.74521484375,28.42315625,23.44187109375,20.1505,16.59299609375
8.4057421875,10.77807421875,8.17076171875,15.2993515625,18.74948828125,17.35316796875,10.28078515625,3.4467109375,19.543109375,23.10652734375,19.35805078125,10.06001953125,20.02583984375,26.6021953125,24.653265625,17.5853359375,4.476640625,26.20056640625,29.5231015625,24.18693359375,14.11362109375,36.6287421875,32.92327734375,27.15851171875,23.00891796875,14.03521484375,29.52815625,24.37887109375,20.8805,16.91699609375
9.9207421875,11.69207421875,9.21176171875,16.0363515625,20.85148828125,20.14716796875,14.44978515625,2.4987109375,21.317109375,26.41152734375,22.97405078125,12.70201953125,20.66383984375,28.8091953125,27.604265625,20.6423359375,4.874640625,27.12156640625,31.3441015625,26.46393359375,17.11762109375,37.9257421875,33.43227734375,28.20451171875,24.19691796875,15.99821484375,29.98415625,24.81687109375,21.4825,17.45099609375
10.5277421875,11.76407421875,10.05076171875,16.7083515625,23.28148828125,22.43116796875,18.01178515625,2.0617109375,22.972109375,29.25852734375,25.86405078125,14.64801953125,21.81683984375,30.4451953125,29.751265625,23.2303359375,6.173640625,27.32056640625,32.3901015625,28.35693359375,20.08562109375,38.7977421875,33.03627734375,28.60451171875,25.07791796875,18.07221484375,29.59315625,24.61887109375,21.7205,17.93599609375
10.0787421875,11.06907421875,10.43776171875,17.4403515625,25.50848828125,23.76416796875,20.16078515625,2.2307109375,24.402109375,31.05652734375,27.39505078125,15.43701953125,22.92383984375,31.2791953125,30.596265625,24.6673359375,7.986640625,26.97856640625,32.4681015625,29.35393359375,22.02162109375,38.8517421875,31.75527734375,28.21251171875,25.28491796875,19.56221484375,28.24215625,23.65787109375,21.2895,17.98299609375
8.7117421875,10.01007421875,10.25376171875,18.1873515625,26.95748828125,23.90316796875,20.57778515625,2.7467109375,25.402109375,31.43152734375,27.30705078125,15.02501953125,23.42683984375,31.2601953125,30.028265625,24.6613359375,9.855640625,26.40256640625,31.5961015625,29.19893359375,22.32462109375,37.9607421875,29.76427734375,27.08651171875,24.66591796875,19.99321484375,26.05415625,21.93887109375,20.0385,17.32599609375
6.8217421875,9.11307421875,9.59276171875,18.7603515625,27.24348828125,22.89316796875,19.52978515625,3.2697109375,25.713109375,30.36052734375,25.81805078125,13.79901953125,23.15083984375,30.5071953125,28.360265625,23.4253359375,11.408640625,25.86556640625,29.9961015625,28.01293359375,21.09662109375,36.3577421875,27.36627734375,25.49051171875,23.39791796875,19.34221484375,23.40715625,19.64687109375,18.0945,16.01099609375
4.9877421875,8.76607421875,8.69776171875,18.9563515625,26.29348828125,21.06516796875,17.67878515625,3.6187109375,25.136109375,28.15752734375,23.49205078125,12.37101953125,22.38683984375,29.2031953125,26.137265625,21.5353359375,12.426640625,25.48056640625,27.9921015625,26.20993359375,19.05162109375,34.5337421875,24.92127734375,23.75451171875,21.87991796875,18.02621484375,20.80515625,17.11287109375,15.8205,14.37199609375
3.7977421875,9.07107421875,7.81776171875,18.6663515625,24.34948828125,18.90116796875,15.70878515625,3.8367109375,23.631109375,25.32452734375,20.97205078125,11.26901953125,21.64983984375,27.5051953125,23.874265625,19.6263359375,12.828640625,25.13356640625,25.8761015625,24.27393359375,17.12762109375,32.9637421875,22.72427734375,22.11151171875,20.50691796875,16.66921484375,18.66015625,14.71687109375,13.6695,12.85099609375
3.6067421875,9.88007421875,7.08776171875,17.9143515625,21.86948828125,16.87616796875,14.01378515625,4.0967109375,21.370109375,22.37152734375,18.73705078125,10.71301953125,21.29283984375,25.5261953125,21.903265625,18.1263359375,12.661640625,24.52556640625,23.8351015625,22.54393359375,16.00862109375,31.8247421875,20.89827734375,20.61851171875,19.46291796875,15.77721484375,17.14215625,12.76887109375,12.0125,11.77099609375
4.3987421875,10.92507421875,6.50676171875,16.8523515625,19.36248828125,15.32616796875,12.65278515625,4.5017109375,18.744109375,19.70952734375,16.99905078125,10.59001953125,21.27883984375,23.3721953125,20.330265625,17.1353359375,12.110640625,23.31256640625,21.9451015625,21.11493359375,15.82062109375,30.8827421875,19.37027734375,19.20051171875,18.66391796875,15.51221484375,16.14615625,11.41787109375,11.0115,11.20099609375
5.8287421875,11.91407421875,5.99776171875,15.7123515625,17.22848828125,14.37516796875,11.52178515625,4.9577109375,16.295109375,17.59752734375,15.73905078125,10.59901953125,21.24483984375,21.1941953125,19.093265625,16.4703359375,11.445640625,21.30256640625,20.2061015625,19.87793359375,16.13162109375,29.6717421875,17.95627734375,17.73951171875,17.84291796875,15.64321484375,15.39415625,10.61587109375,10.5845,10.96399609375
7.3527421875,12.55307421875,5.49076171875,14.6933515625,15.65948828125,13.91416796875,10.51478515625,5.2297109375,14.513109375,16.12452734375,14.80605078125,10.45901953125,20.78183984375,19.1751953125,18.045265625,15.8133359375,10.909640625,18.60756640625,18.5841015625,18.62193359375,16.23362109375,27.8277421875,16.48027734375,16.16351171875,16.71891796875,15.71121484375,14.59015625,10.14087109375,10.4655,10.77099609375
8.3547421875,12.53907421875,5.00476171875,13.8193515625,14.62348828125,13.64416796875,9.56178515625,5.1477109375,13.606109375,15.16052734375,14.00005078125,10.04801953125,19.68683984375,17.4451953125,17.008265625,14.8883359375,10.567640625,15.62556640625,17.0321015625,17.12793359375,15.53462109375,25.3417421875,14.85627734375,14.46851171875,15.14791796875,15.28121484375,13.55315625,9.67787109375,10.3295,10.37799609375
8.2807421875,11.60807421875,4.66676171875,12.9183515625,13.87948828125,13.15316796875,8.56778515625,4.7377109375,13.388109375,14.34652734375,13.09305078125,9.40301953125,18.04783984375,15.9811953125,15.788265625,13.5513359375,10.264640625,12.85656640625,15.4621015625,15.22793359375,13.81662109375,22.5577421875,13.07927734375,12.67351171875,13.15291796875,14.13421484375,12.23215625,8.92487109375,9.8825,9.65799609375
6.8617421875,9.67807421875,4.64776171875,11.7693515625,13.02348828125,12.07516796875,7.41678515625,4.1417109375,13.378109375,13.18752734375,11.85105078125,8.61501953125,16.14783984375,14.5661953125,14.164265625,11.7893359375,9.725640625,10.66456640625,13.7281015625,12.84093359375,11.26262109375,19.9337421875,11.17227734375,10.74451171875,10.85291796875,12.30821484375,10.64415625,7.70287109375,8.9115,8.56499609375
4.3387421875,7.02507421875,5.01076171875,10.3163515625,11.62748828125,10.25616796875,6.06178515625,3.4057109375,13.029109375,11.25552734375,10.11505078125,7.76401953125,14.32183984375,12.8901953125,11.957265625,9.7043359375,8.755640625,9.14356640625,11.6761015625,10.03093359375,8.31862109375,17.7657421875,9.16027734375,8.60851171875,8.38991796875,9.99821484375,8.82615625,6.01287109375,7.3085,7.06599609375
1.4907421875,4.34107421875,5.56576171875,8.7593515625,9.49448828125,7.89616796875,4.63478515625,2.3877109375,11.984109375,8.43152734375,7.94505078125,6.92901953125,12.84983984375,10.7651953125,9.197265625,7.5203359375,7.384640625,8.14256640625,9.2821015625,7.04693359375,5.51462109375,16.0787421875,7.09627734375,6.26351171875,5.93491796875,7.43421484375,6.85315625,4.01787109375,5.1175,5.12799609375
-0.6562578125,2.49407421875,5.88876171875,7.4773515625,6.83648828125,5.51616796875,3.45578515625,0.8777109375,10.267109375,5.05452734375,5.69105078125,6.20201953125,11.91983984375,8.3131953125,6.229265625,5.5643359375,5.841640625,7.42856640625,6.7711015625,4.30793359375,3.29662109375,14.7127421875,5.12727734375,3.89951171875,3.72391796875,4.80521484375,4.88615625,1.95487109375,2.5535,2.77499609375
-1.3032578125,2.08707421875,5.52576171875,6.8233515625,4.22348828125,3.74216796875,2.86178515625,-1.1472890625,8.309109375,1.83552734375,3.87005078125,5.63401953125,11.58183984375,5.9691953125,3.620265625,4.1393359375,4.388640625,6.84956640625,4.5931015625,2.26493359375,1.90562109375,13.5117421875,3.51427734375,1.88151171875,2.01291796875,2.25421484375,3.15615625,0.040871093749999,-0.0544999999999991,0.14999609375
-0.2982578125,3.07407421875,4.24576171875,6.9403515625,2.30348828125,2.96516796875,2.92478515625,-3.3502890625,6.731109375,-0.45147265625,2.88105078125,5.13701953125,11.67983984375,4.2801953125,1.883265625,3.3563359375,3.137640625,6.41656640625,3.2181015625,1.20193359375,1.32562109375,12.4427421875,2.55127734375,0.578511718750001,0.96791796875,-0.0877851562499998,1.87015625,-1.59412890625,-2.3715,-2.46400390625
1.7437421875,4.74207421875,2.16076171875,7.6863515625,1.48648828125,3.11216796875,3.28578515625,-5.0792890625,5.986109375,-1.35647265625,2.73505078125,4.48201953125,11.82083984375,3.5941953125,1.190265625,3.0493359375,1.981640625,6.22056640625,2.8631015625,1.07093359375,1.32862109375,11.5657421875,2.38827734375,0.154511718750001,0.55891796875,-2.06578515625,1.09315625,-2.90712890625,-4.1375,-4.67700390625
3.6997421875,6.05207421875,-0.33223828125,8.7033515625,1.77548828125,3.66216796875,3.27678515625,-5.6612890625,6.105109375,-0.99747265625,3.00205078125,3.44401953125,11.47683984375,3.8441953125,1.257265625,2.8463359375,0.704640625000001,6.26156640625,3.3051015625,1.45893359375,1.57462109375,10.9247421875,2.86327734375,0.433511718750001,0.53891796875,-3.52178515625,0.690156249999999,-3.91612890625,-5.2225,-6.11300390625
4.4607421875,6.12407421875,-2.70123828125,9.5883515625,2.77748828125,3.91116796875,2.31178515625,-4.8052890625,6.758109375,-0.00247265624999971,3.01105078125,1.97501953125,10.22983984375,4.5481953125,1.457265625,2.3313359375,-0.792359375,6.32456640625,3.9211015625,1.72893359375,1.69662109375,10.4507421875,3.49227734375,0.913511718750001,0.50791796875,-4.35978515625,0.338156249999999,-4.68512890625,-5.6635,-6.57100390625
3.4747421875,4.59307421875,-4.43723828125,10.0693515625,3.86848828125,3.32516796875,0.26578515625,-2.8302890625,7.499109375,0.80052734375,2.19105078125,0.28301953125,8.04683984375,5.0251953125,1.115265625,1.2293359375,-2.308359375,6.03956640625,3.9461015625,1.29293359375,1.38062109375,9.9787421875,3.65327734375,0.948511718750002,0.0689179687500001,-4.60878515625,-0.339843750000001,-5.30612890625,-5.6725,-6.16200390625
1.0187421875,1.75807421875,-5.20823828125,10.0953515625,4.46348828125,1.80016796875,-2.41021484375,-0.5242890625,7.993109375,0.77752734375,0.386050781250001,-1.26998046875,5.39283984375,4.7371953125,-0.143734375,-0.4476640625,-3.357359375,5.09356640625,2.8661015625,-0.0990664062499995,0.46862109375,9.3697421875,2.89527734375,0.0605117187500008,-0.975082031249999,-4.39678515625,-1.58084375,-5.86012890625,-5.5315,-5.25700390625
-1.9382578125,-1.52392578125,-4.97423828125,9.8213515625,4.27648828125,-0.28483203125,-4.91721484375,1.3077109375,8.085109375,-0.22747265625,-2.03394921875,-2.34498046875,3.07283984375,3.5561953125,-2.156734375,-2.3646640625,-3.416359375,3.44756640625,0.7171015625,-2.19806640625,-0.93837890625,8.6627421875,1.18627734375,-1.76748828125,-2.47308203125,-3.85878515625,-3.29484375,-6.35512890625,-5.4215,-4.29200390625
-4.1792578125,-4.15892578125,-4.02223828125,9.5373515625,3.42848828125,-2.24683203125,-6.47921484375,2.2467109375,7.816109375,-1.84147265625,-4.30794921875,-2.77898046875,1.87883984375,1.8391953125,-4.256734375,-3.9816640625,-2.290359375,1.44056640625,-1.8858984375,-4.32006640625,-2.46437890625,8.14874218749999,-1.02172265625,-4.02748828125,-3.96208203125,-3.09678515625,-5.05184375,-6.69312890625,-5.3285,-3.55700390625
-4.7872578125,-5.26492578125,-2.84823828125,9.5593515625,2.35348828125,-3.41483203125,-6.66821484375,2.3357109375,7.390109375,-3.35747265625,-5.63194921875,-2.63998046875,2.22083984375,0.2581953125,-5.590734375,-4.8046640625,-0.313359375,-0.30143359375,-4.0168984375,-5.64506640625,-3.60437890625,8.2697421875,-2.96472265625,-5.91748828125,-4.89908203125,-2.21078515625,-6.27684375,-6.71312890625,-5.0955,-3.11800390625
-3.5662578125,-4.57892578125,-1.93623828125,10.0753515625,1.55848828125,-3.45183203125,-5.58521484375,1.8617109375,7.079109375,-4.07447265625,-5.53594921875,-2.17498046875,3.96183984375,-0.5118046875,-5.530734375,-4.6316640625,1.785640625,-1.11243359375,-4.8678984375,-5.60406640625,-3.96337890625,9.3617421875,-3.90172265625,-6.72848828125,-4.94308203125,-1.33178515625,-6.54084375,-6.30912890625,-4.5815,-2.88300390625
-1.1422578125,-2.60192578125,-1.50523828125,10.9793515625,1.40348828125,-2.50183203125,-3.83621484375,1.1107109375,7.074109375,-3.62747265625,-4.10594921875,-1.69698046875,6.52283984375,-0.0978046875,-3.956734375,-3.6366640625,3.298640625,-0.579433593749999,-4.0968984375,-4.16406640625,-3.44437890625,11.3877421875,-3.44672265625,-6.15948828125,-4.10208203125,-0.59278515625,-5.75084375,-5.53112890625,-3.7725,-2.70600390625
1.3527421875,-0.37492578125,-1.40823828125,11.8643515625,1.94648828125,-1.08983203125,-2.29021484375,0.3347109375,7.383109375,-2.13347265625,-1.94794921875,-1.44598046875,9.16183984375,1.4221953125,-1.309734375,-2.2796640625,3.935640625,1.23356640625,-1.9598984375,-1.84806640625,-2.27637890625,13.8557421875,-1.72972265625,-4.42748828125,-2.70108203125,-0.0657851562499996,-4.17584375,-4.58412890625,-2.7975,-2.47300390625
2.8687421875,1.02707421875,-1.23423828125,12.1913515625,2.92148828125,0.13016796875,-1.71321484375,-0.1482890625,7.831109375,-0.12447265625,0.0690507812500005,-1.50198046875,11.24583984375,3.5321953125,1.564265625,-1.1106640625,3.927640625,3.76156640625,0.805101562499999,0.488933593750001,-0.89837890625,15.9727421875,0.65727734375,-2.18448828125,-1.24008203125,0.26221484375,-2.32884375,-3.75612890625,-1.8825,-2.15800390625
2.9337421875,0.99607421875,-0.58523828125,11.5653515625,3.82048828125,0.65316796875,-2.44121484375,0.0517109375,8.108109375,1.67152734375,1.17505078125,-1.77498046875,12.40783984375,5.4571953125,3.710265625,-0.5606640625,3.781640625,6.11956640625,3.2441015625,2.00393359375,0.22462109375,16.9637421875,2.88027734375,-0.273488281249999,-0.21008203125,0.433214843750001,-0.799843750000001,-3.30612890625,-1.2805,-1.84900390625
1.7737421875,-0.35392578125,0.65176171875,9.9223515625,4.12748828125,0.30516796875,-4.21421484375,1.1667109375,7.875109375,2.61652734375,1.03205078125,-2.06798046875,12.56483984375,6.4591953125,4.449265625,-0.7666640625,3.904640625,7.43056640625,4.5511015625,2.19193359375,0.78862109375,16.4107421875,4.15727734375,0.591511718750001,0.0909179687500004,0.47921484375,-0.0668437500000003,-3.37912890625,-1.1695,-1.68600390625
0.0747421875000001,-2.32592578125,2.21876171875,7.6003515625,3.60248828125,-0.68783203125,-6.21621484375,2.9667109375,6.960109375,2.44152734375,-0.0869492187500001,-2.17098046875,11.88183984375,6.1721953125,3.676265625,-1.4976640625,4.383640625,7.20856640625,4.3851015625,1.08493359375,0.76462109375,14.4657421875,4.06127734375,0.134511718750001,-0.310082031249999,0.45121484375,-0.30884375,-3.93412890625,-1.5505,-1.74100390625
-1.3612578125,-4.01492578125,3.62076171875,5.2823515625,2.44748828125,-1.78383203125,-7.34421484375,4.6997109375,5.564109375,1.39452734375,-1.39894921875,-1.93298046875,10.69883984375,4.8061953125,1.918265625,-2.2466640625,5.040640625,5.60756640625,3.0191015625,-0.76206640625,0.38862109375,11.8407421875,2.71627734375,-1.35548828125,-1.07108203125,0.47621484375,-1.32484375,-4.72112890625,-2.2005,-1.91400390625
-1.9172578125,-4.68292578125,4.38176171875,3.7643515625,1.22548828125,-2.33883203125,-6.63621484375,5.4657109375,4.266109375,0.14152734375,-1.98094921875,-1.28198046875,9.41483984375,3.0521953125,0.0742656249999998,-2.4716640625,5.634640625,3.36656640625,1.1901015625,-2.51506640625,0.0256210937500003,9.5027421875,0.741277343749999,-3.16548828125,-1.71708203125,0.725214843750001,-2.61784375,-5.35512890625,-2.7665,-1.98400390625
-1.3512578125,-3.99092578125,4.26576171875,3.5963515625,0.58048828125,-1.89683203125,-3.75021484375,4.8487109375,3.724109375,-0.58547265625,-1.22194921875,-0.19198046875,8.30783984375,1.7151953125,-1.017734375,-1.8506640625,6.029640625,1.41756640625,-0.273898437500001,-3.44806640625,-0.00537890624999982,8.1717421875,-1.06272265625,-4.51648828125,-1.87808203125,1.31921484375,-3.62884375,-5.50012890625,-2.9285,-1.75100390625
0.1547421875,-2.03592578125,3.37076171875,4.8073515625,0.92148828125,-0.37183203125,0.812785156249999,3.3137109375,4.282109375,-0.36647265625,0.87905078125,1.34901953125,7.40083984375,1.3121953125,-0.939734375,-0.3986640625,6.242640625,0.404566406250001,-0.824898437500001,-3.25106640625,0.43862109375,7.95974218749999,-2.09372265625,-4.89548828125,-1.43908203125,2.24221484375,-3.96484375,-5.03912890625,-2.5365,-1.15600390625
2.1077421875,0.70007421875,2.10076171875,6.8873515625,2.22948828125,1.93816796875,5.85978515625,2.0017109375,5.794109375,0.73752734375,3.73705078125,3.29301953125,6.50483984375,1.8731953125,0.189265625,1.5633359375,6.402640625,0.42456640625,-0.3848984375,-2.09106640625,1.30062109375,8.38974218749999,-2.15872265625,-4.21848828125,-0.52508203125,3.33121484375,-3.50684375,-4.12012890625,-1.6355,-0.29000390625
3.9137421875,3.46007421875,1.02676171875,9.0413515625,4.04948828125,4.46016796875,9.97178515625,2.0127109375,7.714109375,2.26852734375,6.46105078125,5.40801953125,5.40183984375,3.0071953125,1.837265625,3.5523359375,6.654640625,1.09356640625,0.7241015625,-0.45206640625,2.35962109375,8.7597421875,-1.45472265625,-2.77848828125,0.59391796875,4.33221484375,-2.38584375,-3.06212890625,-0.427499999999999,0.66599609375
5.0377421875,5.37907421875,0.68776171875,10.5013515625,5.66548828125,6.52416796875,12.04378515625,3.7257109375,9.323109375,3.59352734375,8.24105078125,7.24701953125,4.05783984375,4.1311953125,3.346265625,5.1043359375,7.056640625,1.80856640625,1.9881015625,1.13293359375,3.32862109375,8.5507421875,-0.405722656250001,-1.05048828125,1.64591796875,4.97621484375,-0.878843750000001,-2.21312890625,0.820500000000001,1.52699609375
5.0867421875,5.74707421875,1.40876171875,10.7603515625,6.41948828125,7.58116796875,11.69078515625,6.6067109375,9.970109375,4.17152734375,8.68505078125,8.31701953125,2.69483984375,4.7291953125,4.240265625,5.9643359375,7.497640625,2.04956640625,2.9501015625,2.30393359375,3.98762109375,7.6367421875,0.525277343749998,0.530511718750001,2.45291796875,5.06321484375,0.700156249999999,-1.82212890625,1.8685,2.15299609375
3.9397421875,4.30507421875,3.15976171875,9.7273515625,6.00448828125,7.40816796875,9.37978515625,9.5587109375,9.292109375,3.77552734375,7.94805078125,8.36001953125,1.67883984375,4.5441953125,4.407265625,6.1723359375,7.721640625,1.60456640625,3.3811015625,2.97093359375,4.29062109375,6.2567421875,0.995277343749999,1.71051171875,2.96991796875,4.54821484375,2.07815625,-1.95912890625,2.5675,2.48599609375
1.8997421875,1.43007421875,5.48076171875,7.7613515625,4.57748828125,6.19916796875,6.21578515625,11.4857109375,7.351109375,2.55852734375,6.59805078125,7.51301953125,1.29883984375,3.6401953125,4.050265625,5.9843359375,7.441640625,0.641566406250001,3.3021015625,3.25893359375,4.35262109375,4.84374218749999,0.877277343749999,2.41151171875,3.24691796875,3.57221484375,3.04715625,-2.50912890625,2.8615,2.54799609375
-0.3102578125,-1.94792578125,7.56976171875,5.5153515625,2.62748828125,4.43716796875,3.41278515625,11.7447109375,4.585109375,0.92652734375,5.27405078125,6.20201953125,1.56683984375,2.3041953125,3.477265625,5.6823359375,6.503640625,-0.42343359375,2.8861015625,3.34093359375,4.32662109375,3.8197421875,0.257277343749999,2.64451171875,3.35191796875,2.41021484375,3.46715625,-3.23912890625,2.7645,2.41099609375
-1.8602578125,-4.71992578125,8.57976171875,3.6183515625,0.67648828125,2.59316796875,1.71578515625,10.3007109375,1.582109375,-0.73947265625,4.32805078125,4.85201953125,2.17783984375,0.8671953125,2.863265625,5.3963359375,4.984640625,-1.18843359375,2.3031015625,3.26793359375,4.25862109375,3.4307421875,-0.660722656250002,2.41551171875,3.31191796875,1.35621484375,3.26615625,-3.92012890625,2.3445,2.16399609375
-2.2552578125,-6.12492578125,8.02976171875,2.3723515625,-0.996511718750001,0.86216796875,1.08978515625,7.6137109375,-1.165890625,-2.31347265625,3.65105078125,3.62301953125,2.63583984375,-0.4648046875,2.130265625,5.0273359375,3.202640625,-1.48743359375,1.6031015625,2.90293359375,4.02462109375,3.6807421875,-1.66572265625,1.70551171875,3.07991796875,0.58621484375,2.45215625,-4.42912890625,1.7015,1.85599609375
-1.5822578125,-6.10292578125,6.08376171875,1.6723515625,-2.46551171875,-0.89483203125,0.86478515625,4.3647109375,-3.359890625,-3.94047265625,2.78505078125,2.36701953125,2.47383984375,-1.6568046875,1.010265625,4.3183359375,1.613640625,-1.43843359375,0.7101015625,2.00293359375,3.40262109375,4.3827421875,-2.59672265625,0.498511718750001,2.54291796875,0.0732148437500006,1.12415625,-4.76212890625,0.926500000000001,1.46899609375
-0.3892578125,-5.26292578125,3.48276171875,1.1753515625,-4.01451171875,-2.97283203125,0.211785156249999,1.2297109375,-4.877890625,-5.84947265625,1.24305078125,0.81801953125,1.44783984375,-2.7688046875,-0.742734375,3.0353359375,0.620640625,-1.31343359375,-0.479898437500001,0.41593359375,2.23862109375,5.2877421875,-3.33272265625,-1.14348828125,1.58391796875,-0.36078515625,-0.527843750000001,-4.96612890625,0.0865000000000009,0.936996093749999
0.6557421875,-4.49692578125,1.17176171875,0.5683515625,-5.84751171875,-5.51883203125,-1.32721484375,-1.2242890625,-5.693890625,-8.10947265625,-1.13294921875,-1.09998046875,-0.351160156249999,-3.8298046875,-3.097734375,1.1773359375,0.385640625,-1.36843359375,-1.9548984375,-1.75706640625,0.62162109375,6.1917421875,-3.78772265625,-3.01848828125,0.19491796875,-0.88478515625,-2.23284375,-5.07212890625,-0.744499999999999,0.218996093749999
1.1317421875,-4.47092578125,-0.17223828125,-0.2226484375,-7.85151171875,-8.32983203125,-3.55921484375,-2.6212890625,-5.833890625,-10.49647265625,-4.01694921875,-3.10298046875,-2.49516015625,-4.7778046875,-5.666734375,-0.9466640625,0.774640625,-1.74643359375,-3.5378984375,-4.15006640625,-1.10437890625,6.9757421875,-3.94272265625,-4.82548828125,-1.47408203125,-1.51478515625,-3.72684375,-5.09512890625,-1.4755,-0.641003906250001
1.0807421875,-5.31292578125,-0.44523828125,-0.9706484375,-9.63351171875,-10.88283203125,-5.76621484375,-2.9322890625,-5.375890625,-12.58147265625,-6.75494921875,-4.65298046875,-4.36016015625,-5.5258046875,-7.891734375,-2.8726640625,1.470640625,-2.46243359375,-4.9898984375,-6.30906640625,-2.52237890625,7.5777421875,-3.90572265625,-6.32448828125,-3.18808203125,-2.11678515625,-4.89084375,-5.11312890625,-2.0565,-1.55300390625
0.9397421875,-6.65692578125,-0.11623828125,-1.2816484375,-10.78551171875,-12.61283203125,-7.15921484375,-2.6142890625,-4.537890625,-13.99447265625,-8.75594921875,-5.27398046875,-5.40816015625,-6.1058046875,-9.390734375,-4.2726640625,2.139640625,-3.46143359375,-6.1998984375,-7.95206640625,-3.42637890625,7.9267421875,-3.94372265625,-7.51248828125,-4.79708203125,-2.57678515625,-5.86084375,-5.32512890625,-2.5625,-2.48100390625
1.2247421875,-7.93292578125,0.0657617187499999,-0.8836484375,-11.19351171875,-13.25983203125,-7.39721484375,-2.4882890625,-3.754890625,-14.70247265625,-9.84894921875,-4.82498046875,-5.49416015625,-6.7458046875,-10.209734375,-5.1486640625,2.524640625,-4.66843359375,-7.3078984375,-9.12706640625,-3.95937890625,7.9027421875,-4.42872265625,-8.65448828125,-6.31908203125,-2.94878515625,-6.97884375,-5.99412890625,-3.1985,-3.48600390625
2.1377421875,-8.68092578125,-0.50123828125,0.1173515625,-11.14951171875,-13.05383203125,-6.81021484375,-3.2902890625,-3.604890625,-15.07947265625,-10.35494921875,-3.57398046875,-5.01716015625,-7.7958046875,-10.774734375,-5.7946640625,2.476640625,-6.02543359375,-8.6298984375,-10.14306640625,-4.49737890625,7.3727421875,-5.67572265625,-10.09948828125,-7.85808203125,-3.43578515625,-8.57484375,-7.27412890625,-4.1485,-4.63700390625
3.4267421875,-8.72692578125,-1.93723828125,1.2293515625,-11.19651171875,-12.59983203125,-6.19121484375,-5.1642890625,-4.504890625,-15.68547265625,-10.85294921875,-2.06698046875,-4.75416015625,-9.5178046875,-11.602734375,-6.5726640625,1.993640625,-7.47043359375,-10.4278984375,-11.31606640625,-5.36937890625,6.3257421875,-7.73072265625,-12.00348828125,-9.42908203125,-4.18478515625,-10.68284375,-9.00812890625,-5.3845,-5.85300390625
4.5487421875,-8.18792578125,-3.82123828125,1.8373515625,-11.80051171875,-12.54283203125,-6.31421484375,-7.4712890625,-6.391890625,-16.89547265625,-11.79594921875,-0.91598046875,-5.42816015625,-11.8568046875,-12.965734375,-7.6596640625,1.252640625,-8.88543359375,-12.6618984375,-12.69506640625,-6.60537890625,4.9867421875,-10.22872265625,-14.13648828125,-10.84408203125,-5.09578515625,-12.91284375,-10.67512890625,-6.5695,-6.82900390625
4.9917421875,-7.38892578125,-5.44123828125,1.5453515625,-13.01651171875,-13.21383203125,-7.50921484375,-9.0742890625,-8.641890625,-18.61847265625,-13.23594921875,-0.58398046875,-7.24416015625,-14.3618046875,-14.696734375,-8.9166640625,0.559640625,-10.06443359375,-14.9008984375,-13.96306640625,-7.88037890625,3.8047421875,-12.46672265625,-15.92048828125,-11.73408203125,-5.79478515625,-14.54784375,-11.54812890625,-7.1595,-7.11500390625
4.5297421875,-6.70992578125,-6.16523828125,0.4153515625,-14.36551171875,-14.44583203125,-9.51321484375,-8.9162890625,-10.336890625,-20.28647265625,-14.78294921875,-1.20098046875,-9.66316015625,-16.3048046875,-16.244734375,-9.9176640625,0.209640625,-10.74343359375,-16.4508984375,-14.57106640625,-8.63637890625,3.2847421875,-13.66372265625,-16.66248828125,-11.69308203125,-5.81878515625,-14.84284375,-11.00912890625,-6.6265,-6.32400390625
3.3597421875,-6.40092578125,-5.74823828125,-1.0296484375,-15.03151171875,-15.65683203125,-11.61821484375,-6.5512890625,-10.670890625,-21.11547265625,-15.81894921875,-2.47498046875,-11.57916015625,-16.9768046875,-16.944734375,-10.1536640625,0.343640625,-10.70243359375,-16.6708984375,-14.01106640625,-8.35537890625,3.7717421875,-13.29172265625,-15.87648828125,-10.48808203125,-4.88578515625,-13.37784375,-8.83412890625,-4.7285,-4.34400390625
2.0457421875,-6.47192578125,-4.39823828125,-2.0366484375,-14.31751171875,-16.15883203125,-13.01221484375,-2.3732890625,-9.309890625,-20.50947265625,-15.82994921875,-3.78498046875,-11.86616015625,-16.0158046875,-16.391734375,-9.3256640625,0.896640625,-9.88343359375,-15.3178984375,-12.11506640625,-6.83737890625,5.3027421875,-11.31172265625,-13.56248828125,-8.22708203125,-3.09578515625,-10.29484375,-5.32612890625,-1.6695,-1.46500390625
1.2227421875,-6.73292578125,-2.63323828125,-2.0366484375,-12.09351171875,-15.54283203125,-13.16421484375,2.5277109375,-6.569890625,-18.40447265625,-14.69794921875,-4.47998046875,-10.00916015625,-13.6258046875,-14.676734375,-7.5696640625,1.631640625,-8.46443359375,-12.7228984375,-9.22106640625,-4.35437890625,7.5707421875,-8.22272265625,-10.27048828125,-5.40408203125,-0.926785156249999,-6.30484375,-1.24212890625,1.9075,1.66499609375
1.2087421875,-6.98492578125,-0.99823828125,-1.0036484375,-8.92451171875,-13.91583203125,-12.02021484375,6.8207109375,-3.353890625,-15.36847265625,-12.75194921875,-4.20298046875,-6.46116015625,-10.5388046875,-12.354734375,-5.4366640625,2.241640625,-6.83743359375,-9.6938984375,-6.10106640625,-1.59537890625,10.0217421875,-4.90072265625,-6.91148828125,-2.75508203125,0.94421484375,-2.44084375,2.45287109375,5.1515,4.24399609375
1.8157421875,-7.16292578125,0.17676171875,0.5243515625,-5.81951171875,-11.81883203125,-9.92821484375,9.4667109375,-0.821890625000001,-12.36647265625,-10.57494921875,-3.02998046875,-2.46116015625,-7.7318046875,-10.157734375,-3.6356640625,2.486640625,-5.47143359375,-7.1548984375,-3.64906640625,0.58162109375,12.0537421875,-2.26572265625,-4.38048828125,-0.96908203125,1.93521484375,0.34615625,4.91887109375,7.3205,5.59999609375
2.5327421875,-7.32992578125,0.85676171875,1.7863515625,-3.74951171875,-9.91783203125,-7.36521484375,10.1137109375,0.113109374999999,-10.30247265625,-8.69094921875,-1.36298046875,0.568839843750001,-6.0088046875,-8.638734375,-2.6786640625,2.320640625,-4.69143359375,-5.7318984375,-2.46606640625,1.47862109375,13.2717421875,-0.901722656250001,-3.19348828125,-0.41808203125,1.78521484375,1.54615625,5.74587109375,8.0465,5.43399609375
2.8907421875,-7.56692578125,1.21776171875,2.2673515625,-3.22451171875,-8.67783203125,-4.72021484375,9.1517109375,-0.826890625000001,-9.60747265625,-7.34794921875,0.29801953125,1.70683984375,-5.6798046875,-7.953734375,-2.6596640625,1.899640625,-4.51643359375,-5.5038984375,-2.59106640625,0.82662109375,13.6277421875,-0.84272265625,-3.31548828125,-1.02508203125,0.622214843750001,1.24015625,5.04787109375,7.4005,3.89699609375
2.6907421875,-7.88592578125,1.46376171875,1.9403515625,-4.11551171875,-8.20383203125,-2.29121484375,7.4367109375,-3.198890625,-10.10647265625,-6.50394921875,1.53801953125,0.913839843750001,-6.4808046875,-7.869734375,-3.2616640625,1.455640625,-4.67243359375,-6.0408984375,-3.53006640625,-1.10437890625,13.3627421875,-1.64172265625,-4.24448828125,-2.33008203125,-1.13578515625,-0.0228437500000007,3.31287109375,5.7765,1.48799609375
2.0007421875,-8.24792578125,1.69576171875,1.1953515625,-5.77351171875,-8.27383203125,-0.35421484375,5.7927109375,-6.065890625,-11.19547265625,-5.97294921875,2.11801953125,-1.04216015625,-7.7648046875,-7.958734375,-3.9556640625,1.136640625,-4.79443359375,-6.6908984375,-4.55806640625,-3.58637890625,12.8177421875,-2.67172265625,-5.28548828125,-3.70308203125,-2.95178515625,-1.52684375,1.13287109375,3.6905,-1.13500390625
1.0567421875,-8.63592578125,1.87476171875,0.589351562500001,-7.38651171875,-8.50283203125,0.82778515625,4.5597109375,-8.382890625,-12.16547265625,-5.59294921875,2.00401953125,-3.05116015625,-8.8358046875,-7.856734375,-4.2826640625,0.938640625000001,-4.65943359375,-6.9268984375,-5.08406640625,-5.72137890625,12.2787421875,-3.43972265625,-5.86948828125,-4.61208203125,-4.33778515625,-2.69984375,-1.01612890625,1.5995,-3.36400390625
0.176742187499999,-9.09892578125,1.86876171875,0.5743515625,-8.36751171875,-8.54983203125,1.11078515625,3.4367109375,-9.383890625,-12.52447265625,-5.31694921875,1.35801953125,-4.23416015625,-9.2448046875,-7.450734375,-4.0426640625,0.744640625,-4.31543359375,-6.5768984375,-4.89406640625,-6.79037890625,11.9237421875,-3.77372265625,-5.77048828125,-4.80708203125,-4.98678515625,-3.31084375,-2.87412890625,-0.211499999999999,-4.79400390625
-0.3582578125,-9.72492578125,1.51476171875,1.2943515625,-8.56051171875,-8.28983203125,0.54878515625,1.7677109375,-8.851890625,-12.16447265625,-5.20494921875,0.46801953125,-4.33916015625,-8.9238046875,-6.885734375,-3.3346640625,0.392640625,-4.02043359375,-5.8398984375,-4.16906640625,-6.52037890625,11.7957421875,-3.80472265625,-5.12548828125,-4.36708203125,-4.84178515625,-3.47084375,-4.39712890625,-1.6465,-5.31100390625
-0.4192578125,-10.56692578125,0.70776171875,2.5303515625,-8.19651171875,-7.86383203125,-0.64721484375,-0.8862890625,-7.147890625,-11.33847265625,-5.34994921875,-0.39798046875,-3.73516015625,-8.1198046875,-6.433734375,-2.4566640625,-0.244359375,-4.05143359375,-5.1198984375,-3.33906640625,-5.13237890625,11.8127421875,-3.81572265625,-4.29248828125,-3.59208203125,-4.08078515625,-3.47084375,-5.67612890625,-2.7315,-5.07100390625
-0.0802578125000002,-11.56892578125,-0.49523828125,3.8373515625,-7.67151171875,-7.57983203125,-2.21521484375,-4.2622890625,-4.993890625,-10.47347265625,-5.80194921875,-1.10198046875,-3.05816015625,-7.2308046875,-6.336734375,-1.7506640625,-1.148359375,-4.50143359375,-4.8128984375,-2.86806640625,-3.20037890625,11.8217421875,-4.05672265625,-3.66648828125,-2.85608203125,-3.01778515625,-3.59284375,-6.82012890625,-3.5255,-4.39600390625
0.4617421875,-12.54692578125,-1.81023828125,4.7753515625,-7.35051171875,-7.71283203125,-3.91221484375,-7.3632890625,-3.150890625,-9.94347265625,-6.51994921875,-1.64798046875,-2.78516015625,-6.6588046875,-6.718734375,-1.5046640625,-2.078359375,-5.22643359375,-5.1658984375,-3.08806640625,-1.43037890625,11.7067421875,-4.62772265625,-3.55748828125,-2.50208203125,-2.00378515625,-4.01184375,-7.85712890625,-4.0895,-3.66100390625
0.9897421875,-13.21792578125,-2.80623828125,5.0723515625,-7.45051171875,-8.34083203125,-5.53921484375,-8.9562890625,-2.166890625,-9.93847265625,-7.37794921875,-2.10798046875,-3.02216015625,-6.7098046875,-7.581734375,-1.8756640625,-2.632359375,-5.95043359375,-6.2478984375,-4.12106640625,-0.43437890625,11.4447421875,-5.50772265625,-4.15048828125,-2.78008203125,-1.34478515625,-4.79184375,-8.74212890625,-4.5045,-3.20300390625
1.3057421875,-13.29692578125,-3.11723828125,4.6353515625,-8.01351171875,-9.29283203125,-6.91421484375,-8.2762890625,-2.289890625,-10.45647265625,-8.19494921875,-2.54198046875,-3.59216015625,-7.5418046875,-8.802734375,-2.8566640625,-2.469359375,-6.44943359375,-7.9598984375,-5.87706640625,-0.56537890625,11.0747421875,-6.63972265625,-5.49048828125,-3.78608203125,-1.22478515625,-5.93084375,-9.42012890625,-4.8835,-3.23600390625
1.2457421875,-12.62392578125,-2.64423828125,3.5113515625,-8.91551171875,-10.22483203125,-7.84421484375,-5.4902890625,-3.450890625,-11.34347265625,-8.78494921875,-2.96498046875,-4.24816015625,-9.0918046875,-10.153734375,-4.2576640625,-1.545359375,-6.66643359375,-10.0538984375,-8.07206640625,-1.82637890625,10.6407421875,-7.96672265625,-7.43448828125,-5.40508203125,-1.65778515625,-7.34984375,-9.87412890625,-5.3315,-3.77900390625
0.7507421875,-11.27292578125,-1.60023828125,1.8943515625,-9.91951171875,-10.75383203125,-8.10221484375,-1.6352890625,-5.300890625,-12.33347265625,-8.98794921875,-3.35298046875,-4.80916015625,-11.0428046875,-11.324734375,-5.7386640625,-0.175359375,-6.68443359375,-12.1488984375,-10.25306640625,-3.85937890625,10.1677421875,-9.36172265625,-9.62048828125,-7.28808203125,-2.45978515625,-8.85384375,-10.10812890625,-5.8705,-4.62400390625
-0.0652578125000005,-9.57492578125,-0.39723828125,0.128351562500001,-10.71851171875,-10.59083203125,-7.48121484375,1.9077109375,-7.315890625,-13.09147265625,-8.68994921875,-3.62998046875,-5.17516015625,-12.8698046875,-11.980734375,-6.8796640625,1.143640625,-6.62043359375,-13.7688984375,-11.86406640625,-6.03637890625,9.6867421875,-10.55972265625,-11.50448828125,-8.91508203125,-3.30878515625,-10.11184375,-10.08912890625,-6.4045,-5.38900390625
-0.9462578125,-7.99592578125,0.53276171875,-1.3896484375,-10.99651171875,-9.62883203125,-5.91521484375,4.0637109375,-8.974890625,-13.29547265625,-7.83294921875,-3.68198046875,-5.30016015625,-14.0008046875,-11.832734375,-7.2916640625,1.990640625,-6.52543359375,-14.4578984375,-12.39006640625,-7.63037890625,9.2557421875,-11.19472265625,-12.48948828125,-9.74708203125,-3.87078515625,-10.71384375,-9.73812890625,-6.7225,-5.65400390625
-1.6192578125,-6.95492578125,0.89876171875,-2.3586484375,-10.51651171875,-7.98283203125,-3.60521484375,4.4497109375,-9.907890625,-12.75247265625,-6.44694921875,-3.43498046875,-5.20016015625,-14.0368046875,-10.747734375,-6.7736640625,2.197640625,-6.35043359375,-13.9148984375,-11.55006640625,-8.08137890625,8.9697421875,-10.93772265625,-12.13048828125,-9.42508203125,-3.94378515625,-10.30984375,-8.96412890625,-6.5865,-5.13700390625
-1.8942578125,-6.68092578125,0.63076171875,-2.6606484375,-9.24151171875,-5.96283203125,-1.05121484375,3.3567109375,-9.948890625,-11.46847265625,-4.69294921875,-2.95198046875,-4.94216015625,-12.8928046875,-8.837734375,-5.4326640625,1.833640625,-5.93943359375,-12.1148984375,-9.43806640625,-7.25737890625,8.9467421875,-9.63972265625,-10.31948828125,-7.94408203125,-3.54778515625,-8.77584375,-7.74412890625,-5.8445,-3.81800390625
-1.6862578125,-7.16192578125,-0.10823828125,-2.3456484375,-7.39151171875,-3.96583203125,1.08978515625,1.4657109375,-9.129890625,-9.63447265625,-2.84494921875,-2.44598046875,-4.57716015625,-10.8128046875,-6.446734375,-3.6826640625,1.082640625,-5.07843359375,-9.3188984375,-6.51506640625,-5.54837890625,9.3067421875,-7.38872265625,-7.35748828125,-5.68208203125,-2.89178515625,-6.30484375,-6.17712890625,-4.5195,-1.96200390625
-1.0072578125,-8.17292578125,-0.99223828125,-1.5586484375,-5.35551171875,-2.30883203125,2.25678515625,-0.4762890625,-7.658890625,-7.53747265625,-1.19294921875,-2.13898046875,-4.07016015625,-8.2338046875,-4.000734375,-2.0466640625,0.136640625,-3.59543359375,-5.9768984375,-3.43906640625,-3.68337890625,10.1017421875,-4.48472265625,-3.83548828125,-3.23508203125,-2.24278515625,-3.35184375,-4.49812890625,-2.8075,0.00399609374999876
0.0437421874999995,-9.34192578125,-1.62923828125,-0.465648437500001,-3.50551171875,-1.09483203125,2.26578515625,-1.8772890625,-5.864890625,-5.44447265625,0.10205078125,-2.05598046875,-3.28416015625,-5.6068046875,-1.827734375,-0.8866640625,-0.814359375,-1.47543359375,-2.5898984375,-0.806066406249999,-2.35937890625,11.2697421875,-1.34772265625,-0.410488281249999,-1.15508203125,-1.77678515625,-0.469843750000001,-3.01912890625,-0.9925,1.68299609375
1.3207421875,-10.26792578125,-1.69223828125,0.814351562500001,-2.05151171875,-0.17783203125,1.45978515625,-2.4232890625,-4.077890625,-3.51547265625,1.07905078125,-1.93698046875,-2.07916015625,-3.2588046875,-0.0547343750000007,-0.259664062500001,-1.546359375,1.06856640625,0.402101562499999,1.04293359375,-1.90237890625,12.6177421875,1.59627734375,2.40951171875,0.24291796875,-1.51278515625,1.87715625,-2.00112890625,0.650500000000001,2.86299609375
2.6847421875,-10.65692578125,-1.03723828125,2.2363515625,-1.01351171875,0.73716796875,0.59778515625,-2.1192890625,-2.520890625,-1.79247265625,1.92405078125,-1.38098046875,-0.466160156249999,-1.3618046875,1.337265625,0.0323359375000001,-1.813359375,3.62256640625,2.6691015625,2.07993359375,-2.15137890625,13.8517421875,4.00527734375,4.35951171875,0.92491796875,-1.37878515625,3.42215625,-1.55812890625,1.9085,3.52899609375
3.9757421875,-10.43092578125,0.20576171875,3.7543515625,-0.280511718750001,1.91216796875,0.48178515625,-1.2362890625,-1.301890625,-0.26647265625,2.83205078125,-0.13198046875,1.25383984375,0.0231953124999995,2.422265625,0.2733359375,-1.483359375,5.66356640625,4.0071015625,2.49393359375,-2.61337890625,14.5917421875,5.65127734375,5.39751171875,1.04591796875,-1.31678515625,4.11415625,-1.64612890625,2.6395,3.77099609375
4.9357421875,-9.73692578125,1.64776171875,5.1913515625,0.30248828125,3.39416796875,1.55178515625,-0.1882890625,-0.479890625000001,1.02852734375,3.87205078125,1.71001953125,2.50583984375,0.8761953125,3.242265625,0.671335937499999,-0.668359375,6.70556640625,4.3551015625,2.53793359375,-2.75737890625,14.4407421875,6.38727734375,5.63951171875,0.84191796875,-1.34478515625,4.06115625,-2.14212890625,2.7965,3.69399609375
5.2547421875,-8.84092578125,2.78976171875,6.2223515625,0.83548828125,4.97416796875,3.67678515625,0.6197109375,-0.0938906250000011,1.98552734375,4.94405078125,3.69501953125,2.64783984375,1.1811953125,3.790265625,1.2833359375,0.302640625,6.46756640625,3.8151015625,2.41593359375,-2.29837890625,13.1417421875,6.15427734375,5.27451171875,0.53091796875,-1.51078515625,3.45715625,-2.91612890625,2.4365,3.37599609375
4.7687421875,-7.97292578125,3.23176171875,6.5103515625,1.28348828125,6.27216796875,6.24678515625,0.9257109375,-0.163890625000001,2.46852734375,5.81205078125,5.23901953125,1.31083984375,0.9241953125,4.006265625,2.0113359375,1.078640625,5.00156640625,2.6271015625,2.24093359375,-1.33837890625,10.7867421875,5.02627734375,4.50451171875,0.25691796875,-1.83578515625,2.51015625,-3.84512890625,1.7115,2.87899609375
3.6327421875,-7.23692578125,2.83776171875,5.8783515625,1.47148828125,6.89616796875,8.42878515625,0.7027109375,-0.679890625000001,2.36952734375,6.18805078125,5.88301953125,-1.31816015625,0.1101953125,3.801265625,2.6373359375,1.487640625,2.69456640625,1.1021015625,2.04093359375,-0.31037890625,7.8737421875,3.22927734375,3.49951171875,0.0539179687500004,-2.27678515625,1.38715625,-4.81412890625,0.810500000000001,2.25199609375
2.2827421875,-6.64592578125,1.76676171875,4.4013515625,1.17148828125,6.58316796875,9.44278515625,0.1707109375,-1.615890625,1.64452734375,5.82705078125,5.45801953125,-4.46516015625,-1.2158046875,3.094265625,2.9063359375,1.570640625,0.11356640625,-0.4938984375,1.76693359375,0.23862109375,5.1197421875,1.08927734375,2.37251171875,-0.13608203125,-2.75878515625,0.20215625,-5.71612890625,-0.111499999999999,1.53199609375
1.1977421875,-6.23692578125,0.37776171875,2.4183515625,0.240488281249999,5.29016796875,8.81978515625,-0.2962890625,-2.880890625,0.32652734375,4.60705078125,4.10901953125,-7.07716015625,-2.9488046875,1.845265625,2.6023359375,1.466640625,-2.20943359375,-2.0128984375,1.30493359375,-0.07637890625,3.1277421875,-1.06472265625,1.18351171875,-0.43208203125,-3.20678515625,-0.97884375,-6.47912890625,-0.9715,0.75199609375
0.6567421875,-6.15092578125,-0.92023828125,0.4503515625,-1.27351171875,3.21316796875,6.58978515625,-0.3292890625,-4.255890625,-1.44847265625,2.58105078125,2.18801953125,-8.33816015625,-4.9148046875,0.0742656249999998,1.6083359375,1.288640625,-3.90643359375,-3.4408984375,0.52193359375,-1.30037890625,2.1737421875,-2.98072265625,-0.0444882812499987,-0.97008203125,-3.57478515625,-2.11784375,-7.07912890625,-1.7695,-0.0480039062500008
0.5867421875,-6.61892578125,-1.78723828125,-1.0086484375,-3.13251171875,0.72216796875,3.29078515625,0.2777109375,-5.428890625,-3.45247265625,-0.0199492187499999,0.11401953125,-8.07816015625,-6.8778046875,-2.115734375,-0.0546640625000006,1.075640625,-4.83143359375,-4.8288984375,-0.65806640625,-3.13837890625,2.1937421875,-4.51772265625,-1.29448828125,-1.84908203125,-3.83778515625,-3.17984375,-7.52912890625,-2.5375,-0.80200390625
0.5587421875,-7.82692578125,-2.00723828125,-1.8256484375,-4.98651171875,-1.75683203125,-0.24721484375,1.5037109375,-6.183890625,-5.42347265625,-2.82294921875,-1.74698046875,-6.82016015625,-8.5998046875,-4.505734375,-2.1866640625,0.836640625,-5.05443359375,-6.2078984375,-2.17606640625,-5.08837890625,2.9237421875,-5.65972265625,-2.51148828125,-3.05808203125,-3.96478515625,-4.11284375,-7.85412890625,-3.2665,-1.41400390625
-0.00625781250000035,-9.70892578125,-1.50723828125,-2.4066484375,-6.49251171875,-3.85383203125,-3.24121484375,3.1487109375,-6.593890625,-7.15047265625,-5.38594921875,-3.12598046875,-5.44716015625,-9.9218046875,-6.761734375,-4.4126640625,0.588640625,-4.84843359375,-7.5298984375,-3.82106640625,-6.61937890625,4.0367421875,-6.49972265625,-3.58248828125,-4.41608203125,-3.90478515625,-4.83984375,-8.06212890625,-3.8425,-1.76500390625
-1.4702578125,-11.81392578125,-0.40723828125,-3.5186484375,-7.43651171875,-5.31483203125,-5.20721484375,4.9487109375,-7.032890625,-8.53047265625,-7.28594921875,-3.85298046875,-4.73016015625,-10.8248046875,-8.528734375,-6.2756640625,0.365640625,-4.61443359375,-8.6848984375,-5.28306640625,-7.34437890625,5.21574218749999,-7.19872265625,-4.37548828125,-5.61208203125,-3.61478515625,-5.28884375,-8.13512890625,-4.0905,-1.75900390625
-3.6802578125,-13.40692578125,0.94876171875,-5.8016484375,-7.81251171875,-6.03783203125,-6.06221484375,6.6527109375,-7.980890625,-9.57747265625,-8.25294921875,-3.87998046875,-5.01216015625,-11.4288046875,-9.587734375,-7.4186640625,0.181640625,-4.75543359375,-9.5878984375,-6.29906640625,-7.14837890625,6.1447421875,-7.91472265625,-4.82148828125,-6.35808203125,-3.12378515625,-5.45484375,-8.06912890625,-3.8945,-1.39200390625
-6.0022578125,-13.84792578125,2.05376171875,-9.2516484375,-7.82151171875,-6.11883203125,-6.06421484375,7.9887109375,-9.713890625,-10.40647265625,-8.30894921875,-3.33898046875,-6.16016015625,-11.9438046875,-10.004734375,-7.7746640625,0.00164062500000028,-5.52043359375,-10.2648984375,-6.80606640625,-6.26537890625,6.5037421875,-8.75972265625,-5.00648828125,-6.57908203125,-2.56878515625,-5.45984375,-7.95712890625,-3.3465,-0.817003906250001
-7.6272578125,-13.01292578125,2.39876171875,-12.9536484375,-7.82951171875,-5.86183203125,-5.65621484375,8.5437109375,-12.040890625,-11.20047265625,-7.84994921875,-2.58398046875,-7.72516015625,-12.5938046875,-10.171734375,-7.6646640625,-0.255359375,-6.88743359375,-10.8898984375,-7.02106640625,-5.24537890625,6.0387421875,-9.79472265625,-5.19348828125,-6.52408203125,-2.18478515625,-5.57084375,-8.04112890625,-2.8125,-0.34400390625
-7.8682578125,-11.44092578125,1.65176171875,-15.2506484375,-8.30151171875,-5.71483203125,-5.24421484375,7.7007109375,-14.228890625,-12.13447265625,-7.58594921875,-2.14198046875,-9.15416015625,-13.5498046875,-10.747734375,-7.7526640625,-0.687359375,-8.53943359375,-11.7568984375,-7.39206640625,-4.84837890625,4.6927421875,-11.01572265625,-5.79648828125,-6.74908203125,-2.25378515625,-6.16784375,-8.67412890625,-2.8815,-0.391003906250001
-6.2972578125,-10.07092578125,-0.26723828125,-14.3316484375,-9.70851171875,-6.11483203125,-5.03421484375,4.7717109375,-15.232890625,-13.30347265625,-8.31894921875,-2.55898046875,-9.98316015625,-14.9068046875,-12.457734375,-8.8396640625,-1.378359375,-9.98443359375,-13.1748984375,-8.41706640625,-5.82737890625,2.6727421875,-12.36372265625,-7.27448828125,-7.93808203125,-3.02478515625,-7.65184375,-10.18912890625,-4.2005,-1.35900390625
-2.7932578125,-9.72992578125,-3.21423828125,-9.0566484375,-12.36151171875,-7.30583203125,-5.01221484375,-0.6642890625,-14.196890625,-14.68147265625,-10.60494921875,-4.17898046875,-9.97216015625,-16.6658046875,-15.801734375,-11.5246640625,-2.377359375,-10.79443359375,-15.3418984375,-10.41306640625,-8.64237890625,0.349742187499999,-13.73972265625,-9.94048828125,-10.59908203125,-4.62878515625,-10.27684375,-12.73812890625,-7.2045,-3.47700390625
2.3797421875,-10.69192578125,-6.89823828125,0.391351562500001,-16.21951171875,-9.24283203125,-5.05021484375,-8.4202890625,-10.971890625,-16.17247265625,-14.45994921875,-6.96498046875,-9.17416015625,-18.7428046875,-20.767734375,-15.8636640625,-3.663359375,-10.83043359375,-18.2248984375,-13.35506640625,-13.20637890625,-1.9662578125,-15.06172265625,-13.76748828125,-14.76108203125,-6.98478515625,-13.98684375,-16.20612890625,-11.8455,-6.66200390625
8.5207421875,-12.54892578125,-10.95323828125,12.3983515625,-20.81051171875,-11.60683203125,-5.04421484375,-17.5792890625,-6.319890625,-17.68547265625,-19.28594921875,-10.45198046875,-7.92016015625,-20.9818046875,-26.740734375,-21.2496640625,-5.126359375,-10.33643359375,-21.5418984375,-16.87706640625,-18.82237890625,-4.1842578125,-16.31572265625,-18.31348828125,-19.87608203125,-9.78778515625,-18.35884375,-20.21012890625,-17.5005,-10.48700390625
8.5207421875,-12.54892578125,-10.95323828125,12.3983515625,-20.81051171875,-11.60683203125,-5.04421484375,-17.5792890625,-6.319890625,-17.68547265625,-19.28594921875,-10.45198046875,-7.92016015625,-20.9818046875,-26.740734375,-21.2496640625,-5.126359375,-10.33643359375,-21.5418984375,-16.87706640625,-18.82237890625,-4.1842578125,-16.31572265625,-18.31348828125,-19.87608203125,-9.78778515625,-18.35884375,-20.21012890625,-17.5005,-10.48700390625
