"Fp1","Fpz","Fp2","F7","F3","Fz","F4","F8","FC5","FC1","FC2","FC6","T7","C3","Cz","C4","T8","CP5","CP1","CP2","CP6","P7","P3","Pz","P4","P8","POz","O1","Oz","O2"
21.1076796875,12.80521484375,13.361125,29.62298046875,6.61107421875,12.1197578125,-0.43942578125,23.13148046875,6.8714609375,8.87510546875,7.5661171875,17.45694921875,10.06453515625,5.169890625,3.22050390625,-6.425046875,12.2605859375,9.8951171875,1.3800390625,-7.34378515625,0.20195703125,8.02965625,-2.7569375,-3.04796875,-14.41277734375,0.38556640625,-6.78816015625,-0.116656249999999,-3.01665625,-3.525234375
22.7726796875,16.83221484375,12.273125,29.45998046875,6.22507421875,9.7607578125,6.36357421875,27.89248046875,7.6644609375,9.45210546875,5.9241171875,17.21794921875,8.99353515625,4.156890625,1.72150390625,-4.907046875,13.9595859375,8.3511171875,0.1910390625,-7.42878515625,0.50495703125,6.43165625,-3.4279375,-3.64396875,-14.75577734375,2.34856640625,-7.67916015625,-0.55365625,-3.38365625,-2.601234375
22.1596796875,18.16321484375,10.991125,28.55998046875,5.80707421875,8.1007578125,10.44657421875,29.73648046875,8.1414609375,9.33610546875,4.7361171875,17.33094921875,7.53653515625,3.202890625,0.555503906249999,-3.766046875,14.8815859375,6.6511171875,-0.924960937500001,-7.51878515625,1.17295703125,4.55465625,-4.4989375,-4.33996875,-15.05077734375,3.49456640625,-8.49016015625,-1.42565625,-3.76465625,-1.994234375
18.9866796875,16.47621484375,9.290125,26.83498046875,5.07607421875,6.8247578125,11.65857421875,28.75248046875,8.0814609375,8.25910546875,3.7021171875,17.66194921875,5.71853515625,2.113890625,-0.479496093750001,-3.304046875,15.0105859375,4.8001171875,-2.0059609375,-7.72878515625,1.96895703125,2.49565625,-5.9759375,-5.14396875,-15.33077734375,3.89956640625,-9.19816015625,-2.67465625,-4.07865625,-1.718234375
13.7806796875,12.35421484375,7.051125,24.43698046875,3.74807421875,5.4187578125,10.53357421875,25.87048046875,7.3494609375,6.13010546875,2.3811171875,17.95694921875,3.79253515625,0.686890624999999,-1.68049609375,-3.747046875,14.5645859375,2.9161171875,-3.0649609375,-8.15978515625,2.52995703125,0.54165625,-7.6649375,-5.97496875,-15.59677734375,3.90856640625,-9.74516015625,-3.97665625,-4.13065625,-1.652234375
7.7716796875,7.13721484375,4.442125,21.72098046875,1.75807421875,3.5617578125,7.95057421875,22.34048046875,6.0044609375,3.14110546875,0.5191171875,18.03694921875,2.18253515625,-1.109109375,-3.20449609375,-5.066046875,13.8485859375,1.2191171875,-4.0379609375,-8.80078515625,2.61195703125,-0.93134375,-9.2059375,-6.67196875,-15.76977734375,3.90956640625,-10.03716015625,-4.83565625,-3.64665625,-1.574234375
2.5016796875,2.48621484375,1.898125,19.14798046875,-0.64192578125,1.3277578125,4.90757421875,19.31948046875,4.3164609375,-0.21289453125,-1.7798828125,17.95094921875,1.26753515625,-3.071109375,-4.95649609375,-6.924046875,13.0985859375,-0.0678828124999998,-4.8179609375,-9.51078515625,2.21395703125,-1.66034375,-10.2359375,-7.09696875,-15.74377734375,4.08156640625,-10.01216015625,-4.83865625,-2.45665625,-1.287234375
-0.8173203125,-0.30178515625,-0.0928749999999998,17.10598046875,-3.00292578125,-0.8952421875,2.30757421875,17.57348046875,2.6294609375,-3.26089453125,-4.1198828125,17.92694921875,1.12553515625,-4.890109375,-6.66549609375,-8.800046875,12.4235859375,-0.8678828125,-5.3479609375,-10.10478515625,1.52095703125,-1.68434375,-10.6019375,-7.26996875,-15.50277734375,4.28456640625,-9.75016015625,-3.94465625,-0.70265625,-0.766234375
-1.8903203125,-0.91078515625,-1.254875,15.71398046875,-4.91492578125,-2.6542421875,0.70657421875,17.26048046875,1.1964609375,-5.43289453125,-6.0348828125,18.15594921875,1.43053515625,-6.351109375,-8.05349609375,-10.234046875,11.8475859375,-1.3308828125,-5.6999609375,-10.48578515625,0.74495703125,-1.39434375,-10.4869375,-7.40296875,-15.20077734375,4.15656640625,-9.51116015625,-2.61765625,1.08334375,-0.227234375
-1.4313203125,-0.11178515625,-1.669875,14.77098046875,-6.20092578125,-3.6842421875,0.20357421875,17.96248046875,0.1064609375,-6.49389453125,-7.2298828125,18.60294921875,1.60253515625,-7.448109375,-8.99449609375,-11.021046875,11.3795859375,-1.7658828125,-6.0649609375,-10.70378515625,-0.01104296875,-1.36634375,-10.3319375,-7.79996875,-15.12477734375,3.35456640625,-9.63316015625,-1.65265625,2.15934375,-0.0302343749999998
-0.6163203125,0.81821484375,-1.679875,13.92498046875,-6.91092578125,-4.0132421875,0.59257421875,19.02548046875,-0.6345390625,-6.59789453125,-7.7018828125,19.00094921875,1.14953515625,-8.308109375,-9.54949609375,-11.245046875,11.0515859375,-2.4478828125,-6.6319609375,-10.92478515625,-0.76004296875,-2.04134375,-10.5849375,-8.66596875,-15.52577734375,1.79656640625,-10.33016015625,-1.75365625,1.96534375,-0.464234375
-0.2943203125,0.96821484375,-1.632875,12.94498046875,-7.16892578125,-3.8652421875,1.59457421875,19.95748046875,-0.956539062500001,-6.15889453125,-7.6828828125,19.01494921875,-0.0224648437500004,-9.002109375,-9.87449609375,-11.172046875,10.8955859375,-3.4058828125,-7.4459609375,-11.30478515625,-1.55104296875,-3.44834375,-11.4049375,-9.93796875,-16.44877734375,-0.24343359375,-11.52816015625,-3.12265625,0.48334375,-1.528234375
-0.5633203125,0.30921484375,-1.650875,11.85698046875,-7.01392578125,-3.4662421875,2.93657421875,20.57648046875,-0.6865390625,-5.65289453125,-7.4638828125,18.41494921875,-1.51246484375,-9.422109375,-10.08949609375,-11.104046875,10.8985859375,-4.3718828125,-8.3299609375,-11.89978515625,-2.36004296875,-5.14034375,-12.5209375,-11.26096875,-17.65877734375,-2.24443359375,-12.86116015625,-5.32865625,-1.66565625,-2.863234375
-0.9393203125,-0.44778515625,-1.596875,10.87598046875,-6.40392578125,-2.9362421875,4.32057421875,20.94748046875,0.3484609375,-5.46389453125,-7.2538828125,17.18294921875,-2.62646484375,-9.342109375,-10.22849609375,-11.275046875,10.9485859375,-4.9278828125,-8.9759609375,-12.64278515625,-3.06104296875,-6.40434375,-13.3629375,-12.15696875,-18.74277734375,-3.68743359375,-13.84816015625,-7.51565625,-3.48265625,-3.884234375
-0.8733203125,-0.45278515625,-1.269875,10.21498046875,-5.36192578125,-2.3582421875,5.44957421875,21.27048046875,2.1454609375,-5.79989453125,-7.1728828125,15.52094921875,-2.75546484375,-8.643109375,-10.31049609375,-11.815046875,10.8295859375,-4.7638828125,-9.1409609375,-13.41078515625,-3.49304296875,-6.61634375,-13.3969375,-12.30296875,-19.31877734375,-4.28643359375,-14.15516015625,-8.82465625,-4.06365625,-4.069234375
-0.2233203125,0.62521484375,-0.650875,9.91498046875,-4.10892578125,-1.8962421875,6.10857421875,21.79048046875,4.4124609375,-6.68489453125,-7.3188828125,13.77594921875,-1.70046484375,-7.500109375,-10.43049609375,-12.743046875,10.2805859375,-3.8758828125,-8.8169609375,-14.10878515625,-3.56904296875,-5.54534375,-12.4389375,-11.72796875,-19.21477734375,-4.10243359375,-13.76416015625,-8.77765625,-3.02665625,-3.224234375
0.5636796875,2.27821484375,0.0201250000000002,9.79698046875,-3.05592578125,-1.8122421875,6.17857421875,22.64948046875,6.6244609375,-7.99989453125,-7.7828828125,12.29694921875,0.20753515625,-6.380109375,-10.76249609375,-13.968046875,9.1235859375,-2.5858828125,-8.2499609375,-14.72678515625,-3.34404296875,-3.44434375,-10.7559375,-10.79096875,-18.53877734375,-3.46743359375,-12.96216015625,-7.43665625,-0.66965625,-1.587234375
0.6806796875,3.38921484375,0.384125,9.53298046875,-2.64692578125,-2.3382421875,5.63457421875,23.76148046875,8.2004609375,-9.54789453125,-8.5928828125,11.31194921875,2.24653515625,-5.833109375,-11.45649609375,-15.297046875,7.4075859375,-1.3798828125,-7.8089609375,-15.32278515625,-2.98304296875,-0.93434375,-8.9269375,-9.96696875,-17.59777734375,-2.79343359375,-12.16916015625,-5.32665625,2.17234375,0.280765625
-0.4993203125,2.92221484375,0.190125,8.83998046875,-3.15492578125,-3.5262421875,4.62057421875,24.87048046875,8.7324609375,-11.11889453125,-9.6638828125,10.87994921875,3.61453515625,-6.228109375,-12.53549609375,-16.454046875,5.4635859375,-0.6878828125,-7.8099609375,-15.95678515625,-2.69104296875,1.23665625,-7.5759375,-9.62796875,-16.75377734375,-2.39343359375,-11.74916015625,-3.19065625,4.49134375,1.731765625
-2.9453203125,0.61421484375,-0.564875,7.64198046875,-4.54592578125,-5.2042421875,3.51157421875,25.73648046875,8.1334609375,-12.53289453125,-10.8148828125,10.91794921875,3.77753515625,-7.575109375,-13.87349609375,-17.163046875,3.8295859375,-0.7148828125,-8.3959609375,-16.63778515625,-2.62404296875,2.46565625,-7.1389375,-9.91496875,-16.28377734375,-2.37243359375,-11.87016015625,-1.69765625,5.51834375,2.302765625
-5.9873203125,-2.90078515625,-1.661875,6.08498046875,-6.50192578125,-7.0472421875,2.73557421875,26.21948046875,6.6424609375,-13.69889453125,-11.8528828125,11.23594921875,2.71953515625,-9.536109375,-15.26349609375,-17.256046875,3.0195859375,-1.3888828125,-9.5179609375,-17.31078515625,-2.81904296875,2.49465625,-7.7289375,-10.73296875,-16.28977734375,-2.62543359375,-12.45916015625,-1.18665625,5.04734375,1.908765625
-8.8053203125,-6.58178515625,-2.821875,4.40298046875,-8.57492578125,-8.7442421875,2.42957421875,26.20748046875,4.6754609375,-14.65189453125,-12.6698828125,11.53694921875,0.91753515625,-11.585109375,-16.52549609375,-16.771046875,3.2675859375,-2.4298828125,-10.9699609375,-17.89978515625,-3.17604296875,1.47765625,-9.1369375,-11.82596875,-16.66677734375,-2.89043359375,-13.24516015625,-1.53965625,3.51134375,0.874765625
-10.9463203125,-9.64278515625,-3.914875,2.78398046875,-10.36692578125,-10.1642421875,2.28157421875,25.58348046875,2.6354609375,-15.53089453125,-13.3118828125,11.44394921875,-0.96346484375,-13.259109375,-17.59049609375,-15.960046875,4.4005859375,-3.4848828125,-12.4959609375,-18.35378515625,-3.52704296875,-0.12234375,-10.9639375,-12.91496875,-17.15577734375,-2.85543359375,-13.88216015625,-2.28165625,1.72734375,-0.234234375
-12.4523203125,-11.88378515625,-5.055875,1.34298046875,-11.64492578125,-11.4142421875,1.72957421875,24.30848046875,0.7884609375,-16.49089453125,-13.9588828125,10.59994921875,-2.48046484375,-14.343109375,-18.50949609375,-15.194046875,5.9475859375,-4.2768828125,-13.8719609375,-18.67978515625,-3.74004296875,-1.76434375,-12.7959375,-13.81896875,-17.44377734375,-2.28443359375,-14.11616015625,-2.86165625,0.45634375,-0.897234375
-13.6873203125,-13.61778515625,-6.525875,0.150980468749999,-12.37692578125,-12.7412421875,0.31257421875,22.49348046875,-0.757539062500001,-17.61989453125,-14.8328828125,8.80894921875,-3.61046484375,-14.911109375,-19.39749609375,-14.808046875,7.3975859375,-4.6888828125,-14.9689609375,-18.92178515625,-3.79104296875,-3.06034375,-14.3409375,-14.50996875,-17.29577734375,-1.14143359375,-13.89816015625,-2.96665625,0.0263437500000001,-0.871234375
-15.1163203125,-15.41578515625,-8.549875,-0.77001953125,-12.72792578125,-14.3492421875,-2.11342578125,20.32748046875,-2.0015390625,-18.92089453125,-16.0438828125,6.11694921875,-4.61846484375,-15.219109375,-20.33949609375,-14.984046875,8.4145859375,-4.7818828125,-15.7439609375,-19.13578515625,-3.75104296875,-3.89334375,-15.4709375,-15.06296875,-16.66977734375,0.38156640625,-13.38216015625,-2.65565625,0.25734375,-0.266234375
-17.0973203125,-17.77978515625,-11.110875,-1.45601953125,-13.01092578125,-16.2432421875,-5.30342578125,17.99948046875,-2.9815390625,-20.31989453125,-17.5128828125,2.83794921875,-5.71146484375,-15.539109375,-21.32249609375,-15.706046875,8.9015859375,-4.7418828125,-16.2149609375,-19.36378515625,-3.72304296875,-4.36734375,-16.1939375,-15.56296875,-15.74377734375,1.93656640625,-12.83516015625,-2.27965625,0.69734375,0.571765625
-19.6413203125,-20.81478515625,-13.879875,-1.95101953125,-13.56892578125,-18.2102421875,-8.61042578125,15.76148046875,-3.7155390625,-21.65489453125,-18.9848828125,-0.49905078125,-6.80546484375,-16.031109375,-22.23249609375,-16.763046875,8.9225859375,-4.7868828125,-16.4259609375,-19.59778515625,-3.77404296875,-4.66534375,-16.5919375,-16.02196875,-14.83377734375,3.18856640625,-12.47916015625,-2.25065625,0.97734375,1.278765625
-22.2443203125,-24.05678515625,-16.303875,-2.22701953125,-14.59592578125,-19.8772421875,-11.12742578125,13.98648046875,-4.1725390625,-22.67289453125,-20.1048828125,-3.27005078125,-7.55346484375,-16.679109375,-22.88249609375,-17.817046875,8.5885859375,-5.0638828125,-16.4179609375,-19.75478515625,-3.89204296875,-4.90134375,-16.7509375,-16.34596875,-14.22977734375,3.97856640625,-12.38416015625,-2.79065625,1.04834375,1.667765625
-24.0143203125,-26.60478515625,-17.773875,-2.16601953125,-15.98792578125,-20.8142421875,-12.06242578125,13.06548046875,-4.3135390625,-23.07789453125,-20.5198828125,-4.96605078125,-7.61146484375,-17.340109375,-23.04949609375,-18.511046875,7.9635859375,-5.5928828125,-16.2069609375,-19.68478515625,-4.00904296875,-5.07634375,-16.7309375,-16.36696875,-14.06077734375,4.38856640625,-12.44216015625,-3.80765625,1.16534375,1.802765625
-24.0673203125,-27.52378515625,-17.838875,-1.64701953125,-17.34792578125,-20.6722421875,-11.12742578125,13.20048046875,-4.1605390625,-22.65189453125,-19.9898828125,-5.39005078125,-6.92446484375,-17.865109375,-22.56049609375,-18.603046875,7.0535859375,-6.3028828125,-15.8299609375,-19.25878515625,-4.06804296875,-5.15134375,-16.5919375,-15.95796875,-14.29577734375,4.68556640625,-12.46716015625,-4.93965625,1.66034375,1.899765625
-21.9733203125,-26.26578515625,-16.418875,-0.65701953125,-18.19892578125,-19.3622421875,-8.65242578125,14.31148046875,-3.8635390625,-21.37789453125,-18.5228828125,-4.74405078125,-5.84546484375,-18.235109375,-21.40949609375,-18.072046875,5.8655859375,-7.1378828125,-15.4079609375,-18.47378515625,-4.10704296875,-5.17134375,-16.4749375,-15.19096875,-14.83777734375,5.15456640625,-12.35916015625,-5.77365625,2.65334375,2.142765625
-18.0563203125,-22.99078515625,-13.900875,0.61198046875,-18.28392578125,-17.1922421875,-5.41742578125,16.08148046875,-3.7095390625,-19.51689453125,-16.4558828125,-3.56705078125,-5.00646484375,-18.621109375,-19.84849609375,-17.149046875,4.5205859375,-8.1338828125,-15.1869609375,-17.54178515625,-4.28304296875,-5.32334375,-16.6389375,-14.39796875,-15.63377734375,5.92556640625,-12.23516015625,-6.08965625,3.90534375,2.550765625
-13.4423203125,-18.65078515625,-11.038875,1.72498046875,-17.76692578125,-14.8322421875,-2.40242578125,18.00948046875,-4.0635390625,-17.58589453125,-14.3958828125,-2.55405078125,-5.02846484375,-19.318109375,-18.34949609375,-16.252046875,3.3005859375,-9.4138828125,-15.4899609375,-16.86278515625,-4.80204296875,-5.86834375,-17.3749375,-14.06996875,-16.69677734375,6.87856640625,-12.41516015625,-5.98765625,4.90434375,2.973765625
-9.7793203125,-14.74478515625,-8.698875,2.10598046875,-17.19592578125,-13.0932421875,-0.53842578125,19.47448046875,-5.2525390625,-16.22889453125,-13.0208828125,-2.31905078125,-6.22646484375,-20.588109375,-17.45249609375,-15.851046875,2.5425859375,-11.0938828125,-16.5669609375,-16.87878515625,-5.80204296875,-6.98534375,-18.8349375,-14.62296875,-18.04377734375,7.67456640625,-13.25616015625,-5.81865625,5.12034375,3.214765625
-8.5743203125,-12.68978515625,-7.546875,1.27298046875,-17.23992578125,-12.6362421875,-0.39542578125,19.92048046875,-7.4205390625,-16.00289453125,-12.8448828125,-3.15505078125,-8.48146484375,-22.494109375,-17.56349609375,-16.279046875,2.4245859375,-13.1738828125,-18.4669609375,-17.87078515625,-7.26004296875,-8.64534375,-20.9009375,-16.18396875,-19.60777734375,7.90556640625,-14.91316015625,-5.96165625,4.28534375,3.168765625
-10.4253203125,-13.07878515625,-7.838875,-0.880019531250001,-18.35192578125,-13.7292421875,-1.92442578125,19.10848046875,-10.4125390625,-17.16289453125,-14.0448828125,-4.86605078125,-11.29246484375,-24.841109375,-18.81449609375,-17.588046875,2.8105859375,-15.4678828125,-20.9739609375,-19.81278515625,-8.98504296875,-10.57834375,-23.1769375,-18.52196875,-21.19577734375,7.28156640625,-17.21016015625,-6.57965625,2.54234375,2.901765625
-14.6443203125,-15.32878515625,-9.346875,-3.95701953125,-20.52492578125,-16.1462421875,-4.49142578125,17.22448046875,-13.7805390625,-19.56889453125,-16.3948828125,-6.81405078125,-13.96746484375,-27.233109375,-21.01949609375,-19.509046875,3.3195859375,-17.6088828125,-23.6489609375,-22.35978515625,-10.66004296875,-12.34034375,-25.1179375,-21.12196875,-22.52177734375,5.78456640625,-19.66516015625,-7.49165625,0.40234375,2.633765625
-19.5503203125,-17.97478515625,-11.444875,-7.19801953125,-23.28192578125,-19.2262421875,-7.23642578125,14.75848046875,-16.9125390625,-22.72789453125,-19.3258828125,-8.15705078125,-15.84146484375,-29.212109375,-23.72049609375,-21.542046875,3.5815859375,-19.1288828125,-25.9439609375,-24.96378515625,-11.92804296875,-13.44434375,-26.2279375,-23.35996875,-23.28377734375,3.72456640625,-21.67216015625,-8.22665625,-1.45865625,2.654765625
-23.2423203125,-19.41878515625,-13.353875,-9.77701953125,-25.87292578125,-22.1082421875,-9.45242578125,12.32748046875,-19.2375390625,-25.94689453125,-22.0988828125,-8.19805078125,-16.47946484375,-30.406109375,-26.31749609375,-23.139046875,3.4895859375,-19.6038828125,-27.3639609375,-27.04978515625,-12.48404296875,-13.51134375,-26.2289375,-24.69496875,-23.24677734375,1.65356640625,-22.73016015625,-8.25165625,-2.47865625,3.205765625
-24.4313203125,-18.72378515625,-14.451875,-11.08601953125,-27.60092578125,-24.0592421875,-10.74242578125,10.57048046875,-20.3895390625,-28.50889453125,-24.0628828125,-6.64505078125,-15.78946484375,-30.635109375,-28.24849609375,-23.879046875,3.2815859375,-18.8288828125,-27.6199609375,-28.18478515625,-12.17204296875,-12.39634375,-25.1569375,-24.84996875,-22.31977734375,0.16856640625,-22.62316015625,-7.27665625,-2.43365625,4.358765625
-22.9623203125,-16.07378515625,-14.507875,-10.91701953125,-28.10892578125,-24.7272421875,-11.04642578125,10.00848046875,-20.3015390625,-29.86689453125,-24.8678828125,-3.71705078125,-14.01146484375,-29.939109375,-29.14849609375,-23.604046875,3.3795859375,-16.9378828125,-26.7199609375,-28.18878515625,-11.03504296875,-10.24034375,-23.3339375,-23.87796875,-20.59377734375,-0.33143359375,-21.48816015625,-5.45765625,-1.51865625,5.953765625
-19.8573203125,-12.69078515625,-13.725875,-9.50201953125,-27.49292578125,-24.2142421875,-10.65042578125,10.81548046875,-19.1855390625,-29.78889453125,-24.5488828125,-0.0880507812500007,-11.61246484375,-28.543109375,-28.92449609375,-22.458046875,4.0835859375,-14.3928828125,-24.9419609375,-27.17178515625,-9.30204296875,-7.41934375,-21.2199375,-22.09496875,-18.35477734375,0.19456640625,-19.72016015625,-3.35465625,-0.23865625,7.622765625
-16.8033203125,-10.19678515625,-12.619875,-7.41701953125,-26.21692578125,-22.9762421875,-10.10442578125,12.67348046875,-17.4515390625,-28.43389453125,-23.4748828125,3.29194921875,-9.14546484375,-26.799109375,-27.76549609375,-20.816046875,5.3085859375,-11.8398828125,-22.7259609375,-25.49678515625,-7.33204296875,-4.43334375,-19.2429375,-19.95896875,-16.04077734375,1.42656640625,-17.81516015625,-1.68065625,0.81834375,8.904765625
-15.3133203125,-9.74078515625,-11.797875,-5.35701953125,-24.86692578125,-21.6572421875,-9.93642578125,14.89948046875,-15.5735390625,-26.29289453125,-22.2088828125,5.48294921875,-7.13746484375,-25.119109375,-26.08949609375,-19.145046875,6.5395859375,-9.8898828125,-20.5539609375,-23.68378515625,-5.54604296875,-1.78634375,-17.7079375,-17.95796875,-14.15077734375,2.84856640625,-16.22116015625,-1.00165625,1.20534375,9.391765625
-16.0123203125,-11.42078515625,-11.734875,-3.90901953125,-23.89592578125,-20.8642421875,-10.37242578125,16.75248046875,-13.9665390625,-24.04189453125,-21.3098828125,5.83394921875,-6.00146484375,-23.899109375,-24.42149609375,-17.846046875,7.0735859375,-8.9298828125,-18.8449609375,-22.28278515625,-4.34604296875,0.11165625,-16.7849375,-16.52496875,-13.12377734375,3.96656640625,-15.27616015625,-1.54165625,0.72734375,8.843765625
-18.4253203125,-14.32878515625,-12.575875,-3.39101953125,-23.43792578125,-20.9372421875,-11.28942578125,17.68648046875,-12.8905390625,-22.33189453125,-21.1058828125,4.18894921875,-5.94746484375,-23.420109375,-23.21749609375,-17.154046875,6.4215859375,-9.0138828125,-17.8589609375,-21.70978515625,-4.00904296875,1.02665625,-16.5229375,-15.96396875,-13.19977734375,4.47656640625,-15.18316015625,-3.15365625,-0.54365625,7.253765625
-21.3063203125,-17.08978515625,-14.058875,-3.80001953125,-23.29192578125,-21.7962421875,-12.36542578125,17.48148046875,-12.4225390625,-21.56189453125,-21.5498828125,0.950949218750001,-6.91646484375,-23.763109375,-22.69349609375,-17.098046875,4.6295859375,-9.8938828125,-17.6469609375,-22.11378515625,-4.59504296875,0.94565625,-16.8609375,-16.36496875,-14.33077734375,4.33256640625,-16.00316015625,-5.43565625,-2.33665625,4.855765625
-23.2393203125,-18.52678515625,-15.641875,-4.85101953125,-23.06992578125,-23.0102421875,-13.25042578125,16.30648046875,-12.4665390625,-21.72789453125,-22.2758828125,-3.00505078125,-8.58246484375,-24.794109375,-22.77349609375,-17.533046875,2.2835859375,-11.1488828125,-18.0739609375,-23.32578515625,-5.92504296875,0.0596562499999999,-17.6539375,-17.59196875,-16.17777734375,3.69956640625,-17.64816015625,-7.92265625,-4.28665625,2.072765625
-23.2963203125,-18.15178515625,-16.772875,-6.11401953125,-22.45392578125,-24.0282421875,-13.66542578125,14.65648046875,-12.8245390625,-22.44889453125,-22.8178828125,-6.58905078125,-10.47246484375,-26.226109375,-23.18649609375,-18.204046875,0.173585937499999,-12.3908828125,-18.9209609375,-24.93278515625,-7.65004296875,-1.31534375,-18.7289375,-19.35396875,-18.21777734375,2.84456640625,-19.90016015625,-10.26265625,-6.05965625,-0.604234375
-21.4633203125,-16.33078515625,-17.127875,-7.19001953125,-21.40692578125,-24.4312421875,-13.53142578125,13.09448046875,-13.2875390625,-23.16889453125,-22.8138828125,-8.85505078125,-12.11746484375,-27.727109375,-23.60949609375,-18.839046875,-1.1284140625,-13.3998828125,-19.9609609375,-26.45578515625,-9.36504296875,-2.84334375,-19.9359375,-21.30496875,-19.92077734375,2.03456640625,-22.45016015625,-12.28865625,-7.42665625,-2.756234375
-18.6163203125,-14.04178515625,-16.661875,-7.86101953125,-20.18492578125,-24.0372421875,-13.02542578125,11.94748046875,-13.6995390625,-23.41889453125,-22.1068828125,-9.29205078125,-13.18446484375,-28.984109375,-23.75949609375,-19.206046875,-1.5024140625,-14.1468828125,-20.9859609375,-27.51678515625,-10.70904296875,-4.23634375,-21.1459375,-23.10596875,-20.92177734375,1.48956640625,-24.93816015625,-13.93965625,-8.26965625,-4.131234375
-15.9703203125,-12.30478515625,-15.506875,-8.09801953125,-19.15492578125,-22.8732421875,-12.44242578125,11.22748046875,-13.9725390625,-22.95289453125,-20.7108828125,-7.91605078125,-13.52546484375,-29.733109375,-23.41449609375,-19.129046875,-1.1874140625,-14.6928828125,-21.7799609375,-27.90378515625,-11.42404296875,-5.26634375,-22.1939375,-24.45296875,-21.09477734375,1.36456640625,-26.98516015625,-15.12465625,-8.55065625,-4.662234375
-14.3293203125,-11.62878515625,-13.820875,-7.95901953125,-18.52292578125,-21.0892421875,-11.90342578125,10.80548046875,-14.0385390625,-21.73089453125,-18.7318828125,-5.12305078125,-13.16446484375,-29.754109375,-22.40549609375,-18.476046875,-0.5174140625,-15.0468828125,-22.0889609375,-27.52178515625,-11.37204296875,-5.76834375,-22.8409375,-25.06696875,-20.50477734375,1.73956640625,-28.22416015625,-15.64365625,-8.28965625,-4.427234375
-13.6603203125,-11.81078515625,-11.713875,-7.48701953125,-18.16492578125,-18.8662421875,-11.24142578125,10.60548046875,-13.8095390625,-19.81389453125,-16.2858828125,-1.45905078125,-12.22346484375,-28.891109375,-20.61049609375,-17.147046875,0.305585937499998,-15.0828828125,-21.6419609375,-26.31778515625,-10.50804296875,-5.62734375,-22.7929375,-24.71196875,-19.29177734375,2.61056640625,-28.34716015625,-15.22865625,-7.56065625,-3.582234375
-13.2263203125,-12.16878515625,-9.255875,-6.69901953125,-17.68392578125,-16.3512421875,-10.16942578125,10.63148046875,-13.1525390625,-17.32489453125,-13.4788828125,2.54094921875,-10.83946484375,-27.086109375,-17.98949609375,-15.124046875,1.2325859375,-14.5678828125,-20.2249609375,-24.27778515625,-8.87204296875,-4.79434375,-21.8059375,-23.24496875,-17.59077734375,3.88756640625,-27.19616015625,-13.70065625,-6.49865625,-2.322234375
-12.1263203125,-11.94278515625,-6.563875,-5.62001953125,-16.65392578125,-13.6942421875,-8.54242578125,10.91548046875,-11.9405390625,-14.47889453125,-10.4638828125,6.41694921875,-9.12646484375,-24.469109375,-14.68149609375,-12.535046875,2.2325859375,-13.3128828125,-17.8179609375,-21.51378515625,-6.60804296875,-3.31034375,-19.8339375,-20.72896875,-15.54477734375,5.40556640625,-24.85916015625,-11.14565625,-5.29165625,-0.862234375
-9.8803203125,-10.65278515625,-3.881875,-4.34601953125,-14.90892578125,-11.1332421875,-6.44442578125,11.49848046875,-10.1565390625,-11.63589453125,-7.5278828125,9.79594921875,-7.19646484375,-21.410109375,-11.08649609375,-9.699046875,3.1295859375,-11.3498828125,-14.7109609375,-18.36778515625,-3.99404296875,-1.34634375,-17.1219375,-17.51496875,-13.37677734375,6.94756640625,-21.72316015625,-7.99565625,-4.15765625,0.567765625
-6.7913203125,-8.34878515625,-1.564875,-3.10001953125,-12.69192578125,-9.0302421875,-4.14942578125,12.38648046875,-7.9915390625,-9.29289453125,-5.0888828125,12.41194921875,-5.21646484375,-18.494109375,-7.82749609375,-7.082046875,3.6045859375,-9.0238828125,-11.4899609375,-15.40078515625,-1.43104296875,0.78465625,-14.1829375,-14.20696875,-11.43077734375,8.26356640625,-18.40516015625,-4.94765625,-3.30565625,1.754765625
-3.9033203125,-5.70078515625,0.0491250000000001,-2.24901953125,-10.57492578125,-7.7702421875,-2.06842578125,13.43648046875,-5.8775390625,-7.96389453125,-3.5438828125,14.16094921875,-3.45846484375,-16.366109375,-5.53849609375,-5.162046875,3.3555859375,-6.9148828125,-8.8619609375,-13.23478515625,0.66795703125,2.64665625,-11.6319375,-11.47096875,-10.11177734375,9.10656640625,-15.56816015625,-2.73965625,-2.90265625,2.529765625
-2.4793203125,-3.74578515625,0.814125,-2.22101953125,-9.17492578125,-7.5752421875,-0.631425781249999,14.34848046875,-4.3635390625,-7.95989453125,-3.0688828125,15.14494921875,-2.30846484375,-15.507109375,-4.58149609375,-4.242046875,2.3425859375,-5.6208828125,-7.4009609375,-12.29878515625,2.00995703125,3.76865625,-9.9829375,-9.79296875,-9.71577734374999,9.33156640625,-13.70416015625,-1.87865625,-3.04465625,2.793765625
-3.1523203125,-3.28078515625,0.869125,-3.27401953125,-8.82692578125,-8.3572421875,-0.0644257812499998,14.87148046875,-3.8665390625,-9.17589453125,-3.5118828125,15.69394921875,-2.15646484375,-16.027109375,-4.87249609375,-4.298046875,0.9245859375,-5.4948828125,-7.3229609375,-12.62478515625,2.52795703125,3.80165625,-9.4699375,-9.30996875,-10.24777734375,8.99956640625,-12.97316015625,-2.45165625,-3.73465625,2.542765625
-5.3293203125,-4.25978515625,0.615125,-5.27601953125,-9.36992578125,-9.6862421875,-0.22442578125,15.04948046875,-4.4365390625,-11.04289453125,-4.4278828125,16.26794921875,-3.22146484375,-17.575109375,-5.90049609375,-4.957046875,-0.223414062500002,-6.4498828125,-8.3869609375,-13.80278515625,2.39895703125,2.68165625,-9.9699375,-9.76896875,-11.32477734375,8.43956640625,-13.16916015625,-4.07665625,-4.84065625,1.889765625
-7.4053203125,-5.72478515625,0.561125,-7.67401953125,-10.19392578125,-10.9022421875,-0.71542578125,15.19848046875,-5.6805390625,-12.69689453125,-5.2258828125,17.24194921875,-5.35246484375,-19.421109375,-6.92049609375,-5.649046875,-0.431414062500002,-7.9548828125,-9.9459609375,-15.14378515625,1.95495703125,0.72765625,-11.0309375,-10.61796875,-12.26177734375,8.14756640625,-13.82316015625,-6.04465625,-6.07365625,1.064765625
-7.7153203125,-6.38678515625,1.102125,-9.73001953125,-10.53492578125,-11.3542421875,-1.15342578125,15.64748046875,-6.9335390625,-13.31789453125,-5.3838828125,18.69394921875,-7.98946484375,-20.699109375,-7.23449609375,-5.868046875,0.585585937499999,-9.2358828125,-11.1539609375,-15.95778515625,1.52795703125,-1.43934375,-12.0209375,-11.21096875,-12.33177734375,8.55856640625,-14.39416015625,-7.58465625,-7.03265625,0.363765625
-5.5393203125,-5.42778515625,2.317125,-10.85301953125,-9.85092578125,-10.6842421875,-1.32242578125,16.49448046875,-7.5515390625,-12.44489453125,-4.6458828125,20.36694921875,-10.31846484375,-20.725109375,-6.43549609375,-5.374046875,2.5025859375,-9.5908828125,-11.2579609375,-15.79978515625,1.29995703125,-3.11634375,-12.3499375,-11.02096875,-11.06877734375,9.83456640625,-14.45816015625,-8.12765625,-7.31065625,0.0547656250000002
-1.5243203125,-3.00378515625,3.919125,-10.84601953125,-8.06792578125,-8.9972421875,-1.13542578125,17.57048046875,-7.1765390625,-10.11489453125,-3.1038828125,21.84894921875,-11.56046484375,-19.217109375,-4.51049609375,-4.248046875,4.5015859375,-8.6738828125,-9.8549609375,-14.55778515625,1.26695703125,-3.76934375,-11.6629375,-9.79296875,-8.43277734375,11.80956640625,-13.79816015625,-7.46865625,-6.61965625,0.309765625
2.6496796875,-0.18878515625,5.408125,-9.97701953125,-5.57892578125,-6.7972421875,-0.59742578125,18.50348046875,-5.8355390625,-6.80189453125,-1.1108828125,22.82094921875,-11.27346484375,-16.348109375,-1.76749609375,-2.789046875,5.6815859375,-6.6058828125,-6.9969609375,-12.40078515625,1.32295703125,-3.18934375,-9.9129375,-7.56296875,-4.78977734374999,14.12956640625,-12.37916015625,-5.76265625,-4.87365625,1.179765625
5.1196796875,1.58821484375,6.346125,-8.85601953125,-3.01192578125,-4.7152421875,0.17957421875,18.84048046875,-3.8665390625,-3.21789453125,0.913117187499999,23.20694921875,-9.50646484375,-12.616109375,1.34350390625,-1.358046875,5.5245859375,-3.8808828125,-3.1239609375,-9.66478515625,1.37795703125,-1.51034375,-7.3349375,-4.58996875,-0.729777343749996,16.45756640625,-10.27416015625,-3.40665625,-2.22165625,2.616765625
4.8056796875,1.34921484375,6.583125,-8.14501953125,-0.93092578125,-3.2092421875,1.04757421875,18.28648046875,-1.7125390625,-0.0468945312499995,2.6701171875,23.16594921875,-6.77246484375,-8.639109375,4.38750390625,-0.235046875000002,4.1215859375,-1.1368828125,1.1100390625,-6.75278515625,1.42095703125,0.89465625,-4.3359375,-1.25596875,3.12722265625001,18.63956640625,-7.61316015625,-0.874656249999999,0.98834375,4.485765625
1.9816796875,-0.84778515625,6.328125,-8.23801953125,0.38407421875,-2.4022421875,1.98957421875,16.95848046875,0.2684609375,2.27610546875,4.0521171875,22.97094921875,-3.84746484375,-4.984109375,7.04950390625,0.464953124999999,2.0775859375,1.0951171875,5.0420390625,-4.05778515625,1.48695703125,3.56565625,-1.3749375,2.01403125,6.28822265625,20.73356640625,-4.59216015625,1.41734375,4.28434375,6.576765625
-1.9053203125,-3.94678515625,6.016125,-9.09801953125,0.98207421875,-2.0992421875,3.16357421875,15.38948046875,1.8924609375,3.65210546875,5.1171171875,22.84194921875,-1.50746484375,-2.070109375,9.16450390625,0.792953124999999,0.172585937499999,2.5561171875,8.1750390625,-1.90278515625,1.58795703125,6.06765625,1.1550625,4.83803125,8.46022265625,22.90656640625,-1.51716015625,3.19234375,7.16734375,8.597765625
-5.0923203125,-6.55078515625,6.063125,-10.35101953125,1.11507421875,-1.9622421875,4.71357421875,14.19148046875,3.0954609375,4.24710546875,5.9901171875,22.82494921875,-0.29746484375,-0.132109375000001,10.71150390625,0.888953124999999,-1.0054140625,3.2661171875,10.2710390625,-0.486785156249999,1.67395703125,8.05665625,3.0000625,6.94703125,9.55722265625,25.26656640625,1.18783984375,4.30534375,9.20734375,10.196765625
-6.4183203125,-7.69878515625,6.624125,-11.50501953125,1.06007421875,-1.7132421875,6.59657421875,13.65848046875,3.8544609375,4.35210546875,6.7761171875,22.80994921875,-0.387464843750001,0.789890625,11.76950390625,0.905953124999998,-1.2844140625,3.4301171875,11.3720390625,0.166214843750002,1.66095703125,9.30365625,4.0690625,8.23503125,9.67922265625,27.75156640625,3.05783984375,4.71234375,10.14534375,11.041765625
-5.7523203125,-7.22778515625,7.536125,-12.13601953125,1.01307421875,-1.2672421875,8.63057421875,13.66748046875,4.1704609375,4.28710546875,7.5211171875,22.69694921875,-1.52246484375,0.885890625,12.49050390625,0.980953124999999,-0.888414062500001,3.3281171875,11.7490390625,0.247214843750001,1.51195703125,9.74665625,4.4530625,8.78403125,9.08122265625001,30.15256640625,3.78783984375,4.48434375,10.00534375,10.967765625
-3.8223203125,-5.64778515625,8.463125,-11.99801953125,1.07207421875,-0.6892421875,10.65557421875,13.83348046875,4.1184609375,4.34910546875,8.2461171875,22.54594921875,-3.07246484375,0.567890625,13.06850390625,1.246953125,-0.231414062500001,3.2361171875,11.8080390625,0.140214843750002,1.32195703125,9.54665625,4.4120625,8.85703125,8.14022265625,32.23656640625,3.43783984375,3.86334375,9.16234375,10.108765625
-1.7413203125,-3.79078515625,9.147125,-11.09301953125,1.25607421875,-0.0802421875000003,12.55457421875,13.71948046875,3.8544609375,4.74810546875,8.9971171875,22.57394921875,-4.22046484375,0.348890625,13.70350390625,1.801953125,0.308585937499998,3.3751171875,11.9600390625,0.294214843750002,1.30895703125,9.07565625,4.3180625,8.84203125,7.26022265625,33.86256640625,2.48783984375,3.26434375,8.24934375,8.887765625
-0.4823203125,-2.42478515625,9.545125,-9.68701953125,1.51407421875,0.5277578125,14.18557421875,12.99648046875,3.5574609375,5.56510546875,9.8261171875,22.97294921875,-4.26446484375,0.617890624999999,14.53450390625,2.650953125,0.525585937499999,3.8521171875,12.4680390625,1.02721484375,1.69695703125,8.78765625,4.5180625,9.11603125,6.74022265625,34.99856640625,1.62883984375,3.10934375,7.87334375,7.817765625
-0.4293203125,-1.90878515625,9.813125,-8.18601953125,1.77707421875,1.1747578125,15.43357421875,11.62648046875,3.3604609375,6.76810546875,10.7501171875,23.75994921875,-2.93146484375,1.447890625,15.56850390625,3.687953125,0.411585937499998,4.6151171875,13.3430390625,2.39921484375,2.56695703125,9.00365625,5.1640625,9.89603125,6.69622265625,35.69056640625,1.42283984375,3.58934375,8.29134375,7.249765625
-1.1883203125,-2.00978515625,10.193125,-6.92301953125,2.05507421875,1.9557578125,16.33957421875,9.97148046875,3.3264609375,8.29210546875,11.7381171875,24.76194921875,-0.524464843750001,2.580890625,16.69250390625,4.761953125,0.131585937499999,5.4781171875,14.3580390625,4.21321484375,3.80895703125,9.76565625,6.1570625,11.15703125,7.09922265625,36.01956640625,2.05183984375,4.50734375,9.28334375,7.241765625
-1.8193203125,-2.02478515625,10.924125,-5.99101953125,2.50507421875,3.0107578125,17.11057421875,8.65948046875,3.4664609375,10.08310546875,12.7641171875,25.73894921875,2.18353515625,3.607890625,17.75450390625,5.768953125,-0.00341406250000098,6.2051171875,15.1960390625,6.14221484375,5.21495703125,10.84165625,7.2260625,12.68203125,7.88422265625,36.09756640625,3.29883984375,5.36534375,10.28734375,7.625765625
-1.3963203125,-1.18878515625,12.154125,-5.25501953125,3.37107421875,4.4767578125,17.97057421875,8.27348046875,3.7524609375,12.06810546875,13.8371171875,26.52594921875,4.25853515625,4.190890625,18.65350390625,6.686953125,0.368585937499999,6.6311171875,15.6110390625,7.88121484375,6.60995703125,11.86565625,8.0970625,14.18003125,9.01422265625001,36.07056640625,4.73083984375,5.62034375,10.71434375,8.162765625
0.4976796875,0.90121484375,13.844125,-4.50201953125,4.78307421875,6.3667578125,19.04057421875,9.07948046875,4.1074609375,14.07510546875,14.9581171875,27.10394921875,4.97053515625,4.197890625,19.33050390625,7.539953125,1.4785859375,6.7301171875,15.5170390625,9.24621484375,7.91095703125,12.52365625,8.6100625,15.37803125,10.43922265625,36.09056640625,5.92183984375,4.98334375,10.23334375,8.672765625
3.5596796875,4.03721484375,15.709125,-3.63701953125,6.56107421875,8.4437578125,20.31957421875,10.91848046875,4.3794609375,15.79310546875,16.0271171875,27.55894921875,4.06653515625,3.686890625,19.68750390625,8.328953125,3.2485859375,6.6101171875,14.9670390625,10.18321484375,9.08195703125,12.68465625,8.7500625,16.06903125,11.99722265625,36.25356640625,6.60483984375,3.58334375,8.90934375,9.076765625
6.8686796875,7.42021484375,17.278125,-2.79501953125,8.19107421875,10.2397578125,21.65557421875,13.19948046875,4.3424609375,16.83010546875,16.8251171875,27.96094921875,1.86053515625,2.812890625,19.56850390625,8.980953125,5.2545859375,6.4511171875,14.0860390625,10.71421484375,10.05995703125,12.44765625,8.6100625,16.13503125,13.36322265625,36.54356640625,6.71983984375,1.92034375,7.14234375,9.381765625
9.2416796875,9.95321484375,18.079125,-2.30801953125,9.05007421875,11.2547578125,22.71957421875,15.01448046875,3.7574609375,16.85210546875,17.1061171875,28.25494921875,-0.88546484375,1.742890625,18.83150390625,9.359953125,6.9165859375,6.4181171875,13.0300390625,10.87821484375,10.72795703125,12.09365625,8.3320625,15.58603125,14.13422265625,36.81956640625,6.38983984375,0.619343750000001,5.47534375,9.638765625
9.7696796875,10.75221484375,17.857125,-2.47901953125,8.73907421875,11.2237578125,23.12557421875,15.47748046875,2.5124609375,15.78610546875,16.7301171875,28.29194921875,-3.25646484375,0.635890625,17.47750390625,9.347953125,7.7795859375,6.5921171875,11.9560390625,10.71321484375,10.97795703125,11.96265625,8.0580625,14.56403125,14.01122265625,36.86856640625,5.83883984375,0.115343750000001,4.35534375,9.890765625
8.3206796875,9.62921484375,16.683125,-3.32001953125,7.32607421875,10.2617578125,22.68457421875,14.18448046875,0.7704609375,13.93710546875,15.7431171875,27.96994921875,-4.51746484375,-0.338109375,15.71750390625,8.934953125,7.7145859375,6.9611171875,11.0160390625,10.28221484375,10.79095703125,12.30965625,7.9070625,13.30703125,12.97622265625,36.48656640625,5.28783984375,0.435343750000001,3.94734375,10.129765625
5.6516796875,7.18721484375,14.902125,-4.47001953125,5.34107421875,8.8217578125,21.53157421875,11.45148046875,-1.0045390625,11.92110546875,14.3611171875,27.34194921875,-4.32946484375,-0.989109375,13.91750390625,8.243953125,6.9095859375,7.4551171875,10.3320390625,9.69621484375,10.27995703125,13.18565625,7.9640625,12.07403125,11.33522265625,35.54056640625,4.85283984375,1.19634375,4.08234375,10.260765625
3.0106796875,4.43521484375,12.969125,-5.37201953125,3.52507421875,7.4897578125,19.97357421875,8.08348046875,-2.2075390625,10.40610546875,12.8751171875,26.57994921875,-2.81546484375,-1.152109375,12.45050390625,7.461953125,5.7095859375,8.0091171875,9.9710390625,9.09021484375,9.63595703125,14.39865625,8.2660625,11.06603125,9.58022265625,33.98356640625,4.49983984375,1.80434375,4.33634375,10.102765625
1.4916796875,2.24621484375,11.258125,-5.57501953125,2.49707421875,6.7217578125,18.28457421875,4.92848046875,-2.3575390625,9.80310546875,11.5351171875,25.85994921875,-0.45546484375,-0.763109375,11.53150390625,6.738953125,4.4235859375,8.5901171875,9.9090390625,8.57221484375,9.01195703125,15.57365625,8.7920625,10.36903125,8.15422265625001,31.84556640625,4.07683984375,1.76134375,4.21834375,9.456765625
1.5906796875,1.03421484375,9.969125,-4.91601953125,2.53107421875,6.6617578125,16.66757421875,2.57648046875,-1.2985390625,10.12110546875,10.4891171875,25.30694921875,2.09353515625,0.0998906249999996,11.15550390625,6.160953125,3.2525859375,9.1891171875,10.0460390625,8.19921484375,8.44595703125,16.31365625,9.4770625,9.96103125,7.28922265625,29.25956640625,3.44783984375,0.94834375,3.43434375,8.252765625
3.0896796875,0.72921484375,9.176125,-3.53201953125,3.52507421875,7.1747578125,15.32957421875,1.26748046875,0.7564609375,11.04210546875,9.8051171875,25.01494921875,4.24253515625,1.250890625,11.18550390625,5.784953125,2.3265859375,9.8051171875,10.2760390625,7.99421484375,7.87895703125,16.36965625,10.2490625,9.78803125,6.99522265625,26.50356640625,2.62683984375,-0.284656249999999,2.06934375,6.683765625
5.2116796875,0.90821484375,8.930125,-1.76701953125,5.13207421875,8.0277578125,14.43757421875,0.884480468749995,3.3314609375,12.13810546875,9.5491171875,25.06894921875,5.64953515625,2.482890625,11.48750390625,5.665953125,1.7595859375,10.4211171875,10.5540390625,7.96621484375,7.25195703125,15.73765625,11.0570625,9.84203125,7.16122265625,23.96556640625,1.80783984375,-1.28865625,0.55534375,5.179765625
6.9756796875,1.03121484375,9.288125,-0.03601953125,6.93207421875,9.0827578125,14.01657421875,1.01748046875,5.8624609375,13.07010546875,9.8191171875,25.53894921875,6.27553515625,3.642890625,12.02250390625,5.852953125,1.6125859375,10.9911171875,10.9180390625,8.10821484375,6.56795703125,14.61265625,11.8410625,10.17103125,7.65322265625,22.01256640625,1.23483984375,-1.49665625,-0.58865625,4.178765625
7.6776796875,0.76521484375,10.246125,1.35498046875,8.58907421875,10.3297578125,13.96657421875,1.17048046875,7.9034609375,13.70510546875,10.6801171875,26.46294921875,6.31553515625,4.671890625,12.80850390625,6.352953125,1.8365859375,11.4451171875,11.4340390625,8.41221484375,5.91695703125,13.26865625,12.4930625,10.80803125,8.37522265625001,20.83656640625,1.04883984375,-0.743656249999999,-1.03865625,3.884765625
7.2516796875,0.23421484375,11.662125,2.33398046875,9.96207421875,11.8057578125,14.17657421875,1.02048046875,9.2644609375,14.12410546875,12.0781171875,27.82894921875,6.08153515625,5.604890625,13.84050390625,7.122953125,2.2365859375,11.7151171875,12.1260390625,8.88821484375,5.43295703125,11.95165625,12.8740625,11.70303125,9.28322265625,20.39556640625,1.21483984375,0.662343750000001,-0.78565625,4.157765625
6.2836796875,-0.0277851562499998,13.260125,3.06398046875,11.13407421875,13.5077578125,14.55357421875,0.528480468749997,10.0314609375,14.52910546875,13.8161171875,29.51494921875,5.88553515625,6.526890625,15.04650390625,8.063953125,2.5545859375,11.7501171875,12.9440390625,9.56821484375,5.24295703125,10.83065625,12.8860625,12.71503125,10.37122265625,20.45556640625,1.59583984375,2.14034375,-0.0556562499999999,4.626765625
5.7066796875,0.59921484375,14.725125,3.79198046875,12.34607421875,15.3497578125,14.95957421875,-0.150519531250005,10.4534609375,15.10010546875,15.5931171875,31.21494921875,5.95353515625,7.490890625,16.28250390625,9.019953125,2.6035859375,11.5101171875,13.7560390625,10.46221484375,5.38795703125,9.96765625,12.5400625,13.65403125,11.63422265625,20.70056640625,2.06183984375,3.12734375,0.85334375,4.878765625
6.3866796875,2.44621484375,15.805125,4.68998046875,13.85607421875,17.1617578125,15.23457421875,-0.775519531250005,10.7604609375,15.89210546875,17.0801171875,32.46594921875,6.35453515625,8.438890625,17.35750390625,9.793953125,2.3735859375,10.9481171875,14.3760390625,11.48421484375,5.77295703125,9.32165625,11.9460625,14.33703125,13.03422265625,20.83456640625,2.55083984375,3.29434375,1.68834375,4.647765625
8.7626796875,5.34621484375,16.379125,5.78198046875,15.77207421875,18.7347578125,15.32557421875,-1.07251953125,11.0364609375,16.81110546875,17.9971171875,32.81994921875,6.97553515625,9.194890625,18.06750390625,10.202953125,2.0495859375,10.0241171875,14.6050390625,12.42521484375,6.17195703125,8.79165625,11.2610625,14.63803125,14.47722265625,20.64456640625,3.06583984375,2.61034375,2.28934375,3.904765625
12.5676796875,8.61021484375,16.484125,6.94298046875,17.93807421875,19.8947578125,15.33557421875,-0.830519531250005,11.2054609375,17.67110546875,18.2141171875,32.07294921875,7.58153515625,9.543890625,18.25950390625,10.145953125,1.8995859375,8.7671171875,14.3220390625,13.01821484375,6.33295703125,8.28565625,10.6180625,14.53303125,15.81522265625,20.01556640625,3.62983984375,1.29334375,2.58834375,2.852765625
16.7736796875,11.19121484375,16.280125,7.93598046875,19.93707421875,20.5797578125,15.38157421875,-0.0525195312500024,11.1034609375,18.27210546875,17.8161171875,30.41894921875,7.91453515625,9.358890625,17.91050390625,9.635953125,2.1325859375,7.3141171875,13.5520390625,13.05821484375,6.12295703125,7.77965625,10.0870625,14.10903125,16.86022265625,18.91956640625,4.23183984375,-0.31565625,2.59934375,1.830765625
19.9456796875,12.08621484375,15.964125,8.50298046875,21.21607421875,20.8307578125,15.46557421875,1.01748046875,10.5864609375,18.46310546875,17.0601171875,28.39694921875,7.78353515625,8.676890625,17.14350390625,8.788953125,2.7835859375,5.8821171875,12.4590390625,12.51021484375,5.59995703125,7.29765625,9.6510625,13.50703125,17.42422265625,17.38656640625,4.78083984375,-1.88965625,2.38634375,1.162765625
20.9486796875,10.86421484375,15.653125,8.48698046875,21.31107421875,20.7037578125,15.48357421875,2.05548046875,9.6134609375,18.18310546875,16.2311171875,26.64994921875,7.08753515625,7.666890625,16.16250390625,7.772953125,3.7345859375,4.6701171875,11.2600390625,11.52621484375,4.95695703125,6.85765625,9.2110625,12.82803125,17.37122265625,15.46056640625,5.09683984375,-3.20065625,2.03134375,1.023765625
19.5646796875,7.98321484375,15.335125,7.89698046875,20.05107421875,20.2127578125,15.29657421875,2.80948046875,8.2564609375,17.44410546875,15.4871171875,25.58094921875,5.81053515625,6.528890625,15.13850390625,6.746953125,4.8015859375,3.7411171875,10.1230390625,10.35621484375,4.37795703125,6.42965625,8.6360625,12.07803125,16.68622265625,13.15656640625,4.96283984375,-4.15265625,1.60734375,1.366765625
16.5866796875,4.62021484375,14.887125,6.86898046875,17.65107421875,19.3347578125,14.74057421875,3.10448046875,6.6524609375,16.27810546875,14.7991171875,25.09894921875,3.98453515625,5.394890625,14.11850390625,5.815953125,5.8205859375,2.9681171875,9.1020390625,9.21021484375,3.92895703125,5.93665625,7.8300625,11.19203125,15.52022265625,10.44656640625,4.23183984375,-4.74565625,1.17834375,1.966765625
13.3436796875,2.05221484375,14.123125,5.53298046875,14.60307421875,18.0297578125,13.63357421875,2.79048046875,4.9364609375,14.69810546875,13.9681171875,24.65894921875,1.68853515625,4.281890625,12.98850390625,5.011953125,6.6665859375,2.0911171875,8.1420390625,8.16421484375,3.53895703125,5.30765625,6.7930625,10.11903125,14.17322265625,7.31456640625,2.91983984375,-5.02765625,0.82534375,2.521765625
10.9426796875,0.97321484375,12.843125,3.92198046875,11.41207421875,16.2357578125,11.89857421875,1.77948046875,3.1924609375,12.71310546875,12.7181171875,23.61294921875,-0.944464843750001,3.125890625,11.53050390625,4.318953125,7.2385859375,0.8661171875,7.1400390625,7.17621484375,3.07095703125,4.52665625,5.6300625,8.88103125,12.99122265625,3.85756640625,1.24283984375,-5.04765625,0.65934375,2.775765625
9.6666796875,1.10921484375,10.895125,1.97898046875,8.36007421875,13.8797578125,9.65557421875,0.130480468749997,1.4584609375,10.38110546875,10.8201171875,21.63794921875,-3.70446484375,1.873890625,9.53850390625,3.714953125,7.4575859375,-0.7668828125,6.0270390625,6.16421484375,2.43795703125,3.66165625,4.5350625,7.59803125,12.22622265625,0.35656640625,-0.45316015625,-4.81965625,0.83134375,2.607765625
8.8376796875,1.36821484375,8.271125,-0.371019531250001,5.43007421875,10.9337578125,7.13157421875,-2.00051953125,-0.2675390625,7.82410546875,8.2281171875,18.94394921875,-6.30846484375,0.556890624999999,6.96050390625,3.178953125,7.3015859375,-2.6118828125,4.8270390625,5.08221484375,1.68295703125,2.85765625,3.7240625,6.45903125,11.93422265625,-2.78743359375,-1.81216015625,-4.32865625,1.48734375,2.058765625
7.2706796875,0.45521484375,5.148125,-3.10001953125,2.45307421875,7.4917578125,4.49757421875,-4.47851953125,-1.9855390625,5.18810546875,5.1281171875,16.11894921875,-8.45146484375,-0.697109375,3.95750390625,2.684953125,6.8095859375,-4.2938828125,3.6430390625,3.94421484375,0.97695703125,2.27865625,3.3570625,5.63203125,11.95622265625,-5.22943359375,-2.60916015625,-3.57665625,2.68534375,1.288765625
4.1246796875,-2.32878515625,1.844125,-5.97201953125,-0.65792578125,3.7837578125,1.86457421875,-7.18851953125001,-3.6295390625,2.60510546875,1.8921171875,13.77694921875,-9.88746484375,-1.712109375,0.85950390625,2.204953125,6.0565859375,-5.4408828125,2.5940390625,2.81921484375,0.53395703125,2.03265625,3.4620625,5.16903125,11.99222265625,-6.83543359375,-2.84016015625,-2.62665625,4.31634375,0.500765625
-0.4123203125,-6.59678515625,-1.262875,-8.50701953125,-3.72692578125,0.1647578125,-0.57742578125,-9.94451953125001,-5.0025390625,0.21910546875,-1.0328828125,12.24294921875,-10.49746484375,-2.321109375,-1.92249609375,1.756953125,5.1205859375,-5.8418828125,1.7550390625,1.84521484375,0.51195703125,2.12465625,3.9340625,4.98203125,11.73122265625,-7.70443359375,-2.69216015625,-1.62165625,6.09134375,-0.133234375
-5.0673203125,-11.01778515625,-3.785875,-10.12901953125,-6.30692578125,-2.9062421875,-2.50242578125,-12.45751953125,-5.8005390625,-1.75889453125,-3.1958828125,11.44794921875,-10.30746484375,-2.382109375,-3.97149609375,1.449953125,4.0915859375,-5.4908828125,1.1690390625,1.22521484375,0.95795703125,2.46365625,4.6040625,4.92603125,10.98122265625,-8.07243359375,-2.43216015625,-0.765656249999999,7.62034375,-0.507234375
-8.1133203125,-14.00578515625,-5.368875,-10.42101953125,-7.85192578125,-4.9252421875,-3.57542578125,-14.44251953125,-5.7415390625,-3.02889453125,-4.2128828125,11.04994921875,-9.46946484375,-1.797109375,-4.94249609375,1.449953125,3.1065859375,-4.5508828125,0.881039062499999,1.17721484375,1.79995703125,2.89265625,5.3280625,4.91703125,9.74722265625001,-8.18243359375,-2.26916015625,-0.29165625,8.53034375,-0.619234375
-8.2563203125,-14.51878515625,-5.768875,-9.33901953125,-7.97492578125,-5.4932421875,-3.58042578125,-15.72051953125,-4.7515390625,-3.27689453125,-3.8748828125,10.69494921875,-8.21646484375,-0.559109375,-4.66749609375,1.875953125,2.3745859375,-3.2848828125,0.9350390625,1.82321484375,2.85895703125,3.23065625,6.0180625,4.96703125,8.22122265625001,-8.22643359375,-2.29216015625,-0.409656249999999,8.55834375,-0.589234375
-5.2873203125,-12.53578515625,-4.984875,-7.25501953125,-6.66392578125,-4.5252421875,-2.48942578125,-16.22251953125,-3.0585390625,-2.33889453125,-2.2828828125,10.22694921875,-6.81646484375,1.182890625,-3.27349609375,2.682953125,2.1265859375,-2.0168828125,1.3220390625,3.08521484375,3.86395703125,3.32165625,6.6120625,5.12303125,6.68322265625001,-8.33043359375,-2.48916015625,-1.22965625,7.60634375,-0.646234375
-0.1943203125,-9.03578515625,-3.316875,-4.83901953125,-4.32092578125,-2.3552421875,-0.52342578125,-16.00951953125,-1.1505390625,-0.36689453125,0.1161171875,9.71394921875,-5.51746484375,3.106890625,-1.19549609375,3.620953125,2.4985859375,-1.0748828125,1.9390390625,4.65321484375,4.52595703125,3.10265625,7.0430625,5.37803125,5.38922265625001,-8.55043359375,-2.79116015625,-2.66765625,5.78134375,-1.028234375
5.2816796875,-5.50578515625,-1.281875,-2.82801953125,-1.61492578125,0.3737578125,1.80357421875,-15.30451953125,0.4154609375,2.14110546875,2.6611171875,9.29594921875,-4.50146484375,4.794890625,0.96450390625,4.301953125,3.3995859375,-0.7008828125,2.6110390625,6.08021484375,4.62695703125,2.64465625,7.2290625,5.64703125,4.47122265625001,-8.87443359375,-3.10616015625,-4.42265625,3.39234375,-1.857234375
9.4716796875,-3.18678515625,0.585125,-1.75401953125,0.80107421875,2.9547578125,3.81957421875,-14.41151953125,1.2444609375,4.50510546875,4.7181171875,9.04094921875,-3.87246484375,5.890890625,2.66250390625,4.382953125,4.4765859375,-0.9588828125,3.1490390625,6.95221484375,4.09895703125,2.13365625,7.1050625,5.79903125,3.91322265625,-9.26243359375,-3.34516015625,-6.04865625,0.88734375,-3.071234375
11.5536796875,-2.46978515625,1.932125,-1.71301953125,2.54807421875,4.8707578125,5.03257421875,-13.50651953125,1.2724609375,6.16710546875,5.9101171875,8.92594921875,-3.66546484375,6.241890625,3.61150390625,3.758953125,5.2465859375,-1.6758828125,3.4360390625,7.07221484375,3.04195703125,1.78265625,6.6570625,5.73103125,3.60322265625,-9.68243359375,-3.43316015625,-7.11365625,-1.25665625,-4.452234375
11.7886796875,-2.82978515625,2.704125,-2.33501953125,3.61107421875,5.9477578125,5.36557421875,-12.51251953125,0.7724609375,6.94710546875,6.2291171875,8.90494921875,-3.83846484375,5.975890625,3.86150390625,2.648953125,5.3415859375,-2.4748828125,3.4920390625,6.55121484375,1.66995703125,1.74565625,5.9760625,5.46103125,3.43422265625,-10.10843359375,-3.32016015625,-7.32765625,-2.64565625,-5.711234375
11.0716796875,-3.33478515625,3.103125,-3.00801953125,4.22007421875,6.3387578125,5.07057421875,-11.24451953125,0.1924609375,7.05610546875,5.9981171875,8.93094921875,-4.21946484375,5.437890625,3.72050390625,1.484953125,4.6965859375,-2.8968828125,3.4810390625,5.73821484375,0.24095703125,2.08765625,5.2680625,5.15103125,3.38022265625001,-10.45243359375,-2.99016015625,-6.61165625,-3.05165625,-6.581234375
10.2426796875,-3.30078515625,3.418125,-3.23001953125,4.60407421875,6.3567578125,4.48057421875,-9.65551953125,-0.0845390625000007,6.89110546875,5.6531171875,8.90594921875,-4.48946484375,5.010890625,3.55250390625,0.681953124999998,3.5295859375,-2.5978828125,3.6120390625,5.01721484375,-1.01404296875,2.77365625,4.7740625,5.03103125,3.47322265625001,-10.49843359375,-2.49016015625,-5.11665625,-2.47965625,-6.894234375
9.6696796875,-2.61178515625,3.822125,-2.86801953125,4.80207421875,6.2557578125,3.86157421875,-7.90851953125,0.0734609374999997,6.75310546875,5.4881171875,8.64894921875,-4.26846484375,4.884890625,3.55150390625,0.423953124999999,2.1645859375,-1.5278828125,3.9700390625,4.59721484375,-1.95904296875,3.65565625,4.6260625,5.22403125,3.70922265625001,-9.93043359375,-1.95816015625,-3.20965625,-1.19965625,-6.642234375
9.2866796875,-1.61478515625,4.259125,-2.17301953125,4.64807421875,6.1037578125,3.38357421875,-6.27551953125,0.4974609375,6.66410546875,5.4911171875,7.93094921875,-3.32546484375,4.936890625,3.62650390625,0.584953124999998,0.855585937499999,-0.00388281249999983,4.4020390625,4.41321484375,-2.57504296875,4.46665625,4.7250625,5.60803125,3.94122265625001,-8.47843359375,-1.61816015625,-1.43465625,0.28634375,-6.005234375
8.8296796875,-0.85678515625,4.473125,-1.60401953125,3.92307421875,5.8007578125,3.04957421875,-5.07451953125,0.8104609375,6.37510546875,5.3761171875,6.55294921875,-1.80046484375,4.787890625,3.46250390625,0.803953125,-0.2774140625,1.3841171875,4.5290390625,4.17521484375,-2.96604296875,4.84065625,4.7290625,5.81803125,3.84522265625001,-6.15243359375,-1.73116015625,-0.385656249999999,1.37334375,-5.332234375
8.0656796875,-0.86278515625,4.127125,-1.56501953125,2.52807421875,5.1897578125,2.63357421875,-4.63851953125,0.6124609375,5.51010546875,4.7601171875,4.41094921875,-0.25346484375,4.010890625,2.68750390625,0.640953124999999,-1.2224140625,1.9911171875,3.9080390625,3.51121484375,-3.33704296875,4.39665625,4.1850625,5.39303125,2.99022265625,-3.40343359375,-2.51816015625,-0.524656249999999,1.53734375,-5.051234375
6.9156796875,-1.97378515625,2.939125,-2.18601953125,0.55507421875,4.1427578125,1.80257421875,-5.20651953125,-0.3215390625,3.79810546875,3.3561171875,1.54694921875,0.54753515625,2.368890625,1.05450390625,-0.247046875000001,-2.0404140625,1.3801171875,2.2370390625,2.14021484375,-3.95004296875,2.87865625,2.7200625,3.97203125,1.01622265625,-1.07443359375,-4.10016015625,-2.01465625,0.50534375,-5.545234375
5.4736796875,-4.23478515625,0.798125,-3.26001953125,-1.75392578125,2.6157578125,0.38657421875,-6.73951953125,-1.9195390625,1.24810546875,1.1161171875,-1.82505078125,-0.00646484375000034,-0.0331093750000004,-1.43649609375,-1.959046875,-2.8564140625,-0.4868828125,-0.474960937500001,0.00621484375000136,-5.03004296875,0.28965625,0.2350625,1.45403125,-2.14077734375,-0.09943359375,-6.44916015625,-4.65265625,-1.67065625,-7.016234375
3.8976796875,-7.37578515625,-2.150875,-4.38101953125,-4.09592578125,0.6897578125,-1.49242578125,-8.89451953125,-3.8265390625,-1.80689453125,-1.7158828125,-5.36005078125,-2.02246484375,-2.737109375,-4.49549609375,-4.302046875,-3.8344140625,-3.2008828125,-3.8479609375,-2.65778515625,-6.63504296875,-3.04034375,-2.9999375,-1.89696875,-6.10577734375,-1.07143359375,-9.35716015625,-7.91565625,-4.61965625,-9.388234375
2.2886796875,-10.89178515625,-5.501875,-5.15301953125,-6.18792578125,-1.3982421875,-3.50242578125,-11.19951953125,-5.5675390625,-4.81289453125,-4.6478828125,-8.67505078125,-5.03046484375,-5.080109375,-7.59749609375,-6.844046875,-5.1254140625,-6.0478828125,-7.2049609375,-5.37278515625,-8.56304296875,-6.49434375,-6.3849375,-5.48296875,-10.11377734375,-3.91743359375,-12.41316015625,-11.09365625,-7.73665625,-12.289234375
0.7096796875,-14.15278515625,-8.708875,-5.34901953125,-7.80992578125,-3.3112421875,-5.25542578125,-13.23751953125,-6.7525390625,-7.19189453125,-7.1178828125,-11.44605078125,-8.19446484375,-6.445109375,-10.15549609375,-9.055046875,-6.7624140625,-8.2858828125,-9.7979609375,-7.55078515625,-10.38604296875,-9.33434375,-9.1719375,-8.54396875,-13.23877734375,-7.85443359375,-15.03816015625,-13.47565625,-10.31765625,-15.125234375
-0.7163203125,-16.57078515625,-11.301875,-4.95801953125,-8.84692578125,-4.7622421875,-6.40442578125,-14.72151953125,-7.2345390625,-8.54689453125,-8.7298828125,-13.48005078125,-10.69546484375,-6.519109375,-11.75149609375,-10.478046875,-8.5704140625,-9.4308828125,-11.0989609375,-8.70678515625,-11.62604296875,-10.95534375,-10.7489375,-10.44896875,-14.72477734375,-11.67343359375,-16.64216015625,-14.55065625,-11.76565625,-17.270234375
-1.8323203125,-17.85878515625,-13.070875,-4.18601953125,-9.32792578125,-5.6462421875,-6.76342578125,-15.54751953125,-7.1695390625,-8.82189453125,-9.4178828125,-14.74005078125,-12.06046484375,-5.426109375,-12.31349609375,-10.879046875,-10.1524140625,-9.4318828125,-11.0039609375,-8.64578515625,-11.97104296875,-11.10934375,-10.8639375,-10.95096875,-14.24477734375,-14.20543359375,-16.84616015625,-14.18665625,-11.81765625,-18.300234375
-2.6353203125,-18.23678515625,-14.105875,-3.42901953125,-9.45292578125,-6.0652421875,-6.44342578125,-15.85351953125,-6.9395390625,-8.34289453125,-9.4228828125,-15.31805078125,-12.30346484375,-3.679109375,-12.11849609375,-10.328046875,-11.0364140625,-8.6438828125,-9.8619609375,-7.53478515625,-11.40404296875,-10.01534375,-9.7109375,-10.26096875,-12.00377734375,-14.74243359375,-15.66816015625,-12.70165625,-10.66165625,-18.146234375
-3.3993203125,-18.33978515625,-14.684875,-3.17301953125,-9.52692578125,-6.2592421875,-5.83842578125,-15.98151953125,-6.9855390625,-7.69489453125,-9.1388828125,-15.34905078125,-11.81746484375,-1.975109375,-11.65349609375,-9.154046875,-10.9344140625,-7.6208828125,-8.3139609375,-5.80978515625,-10.19004296875,-8.27634375,-7.8329375,-8.92896875,-8.63577734375,-13.23243359375,-13.55016015625,-10.75665625,-8.85665625,-17.105234375
-4.5133203125,-18.81378515625,-15.099875,-3.78301953125,-9.83692578125,-6.4822421875,-5.38242578125,-16.26551953125,-7.5905390625,-7.44889453125,-8.9228828125,-14.91205078125,-11.11646484375,-0.920109375,-11.40149609375,-7.809046875,-9.9304140625,-6.8498828125,-7.0319609375,-3.98578515625,-8.73304296875,-6.61334375,-5.8969375,-7.58896875,-4.95777734375,-10.22243359375,-11.19016015625,-9.09265625,-7.06965625,-15.677234375
-6.1633203125,-19.86878515625,-15.491875,-5.31201953125,-10.49292578125,-6.8832421875,-5.31442578125,-16.82051953125,-8.7365390625,-7.89489453125,-8.9748828125,-14.00905078125,-10.56446484375,-0.809109375,-11.64249609375,-6.694046875,-8.4604140625,-6.5358828125,-6.4819609375,-2.47978515625,-7.40704296875,-5.56734375,-4.4539375,-6.71396875,-1.70077734375,-6.66343359375,-9.26316015625,-8.20265625,-5.75465625,-14.341234375
-8.1203203125,-21.12578515625,-15.772875,-7.45001953125,-11.35192578125,-7.4092421875,-5.66142578125,-17.53851953125,-10.1205390625,-8.92589453125,-9.2738828125,-12.65905078125,-10.23846484375,-1.544109375,-12.35749609375,-6.043046875,-7.0724140625,-6.5748828125,-6.7879609375,-1.52278515625,-6.43204296875,-5.29734375,-3.7789375,-6.47996875,0.692222656250003,-3.64643359375,-8.18116015625,-8.13165625,-4.98665625,-13.371234375
-9.7703203125,-21.84778515625,-15.681875,-9.64401953125,-12.06792578125,-7.8062421875,-6.35442578125,-18.20251953125,-11.3205390625,-10.12389453125,-9.6328828125,-10.99505078125,-9.98546484375,-2.717109375,-13.26749609375,-5.897046875,-6.1494140625,-6.6808828125,-7.7569609375,-1.16778515625,-5.85804296875,-5.60434375,-3.8529375,-6.78796875,2.11722265625,-2.11843359375,-8.00316015625,-8.50165625,-4.53165625,-12.789234375
-10.3563203125,-21.35978515625,-14.982875,-11.30501953125,-12.25992578125,-7.7642421875,-7.25442578125,-18.55251953125,-11.9945390625,-10.96989453125,-9.8148828125,-9.27105078125,-9.61146484375,-3.811109375,-13.98249609375,-6.126046875,-5.7844140625,-6.5938828125,-9.0119609375,-1.32678515625,-5.63504296875,-6.13434375,-4.4559375,-7.40296875,2.72222265625,-2.60643359375,-8.51816015625,-8.78465625,-4.07265625,-12.458234375
-9.3663203125,-19.43578515625,-13.646875,-11.99601953125,-11.69292578125,-7.0902421875,-8.12742578125,-18.30651953125,-12.0035390625,-11.06389453125,-9.6558828125,-7.76805078125,-9.04346484375,-4.405109375,-14.17449609375,-6.489046875,-5.8404140625,-6.2208828125,-10.1449609375,-1.79878515625,-5.68004296875,-6.60934375,-5.3059375,-8.09896875,2.76522265625,-5.03143359375,-9.38816015625,-8.61765625,-3.43865625,-12.217234375
-6.8783203125,-16.43678515625,-11.874875,-11.58501953125,-10.37792578125,-5.7922421875,-8.71042578125,-17.27051953125,-11.4055390625,-10.26989453125,-9.0978828125,-6.69905078125,-8.35946484375,-4.293109375,-13.65749609375,-6.712046875,-6.0994140625,-5.6358828125,-10.8249609375,-2.30478515625,-5.90204296875,-6.94734375,-6.1419375,-8.69696875,2.49422265625001,-8.71343359375,-10.27216015625,-7.97265625,-2.66665625,-11.960234375
-3.6483203125,-13.13278515625,-9.973875,-10.27901953125,-8.54692578125,-4.0482421875,-8.85742578125,-15.50451953125,-10.3605390625,-8.72989453125,-8.1528828125,-6.14605078125,-7.69346484375,-3.492109375,-12.39549609375,-6.558046875,-6.3764140625,-4.9768828125,-10.8429609375,-2.54178515625,-6.17504296875,-7.21234375,-6.7469375,-9.01696875,2.12822265625001,-12.62143359375,-10.86816015625,-7.08665625,-1.89965625,-11.640234375
-0.7723203125,-10.29678515625,-8.201875,-8.53101953125,-6.56692578125,-2.1392421875,-8.58542578125,-13.33451953125,-9.0325390625,-6.77389453125,-6.8838828125,-6.05705078125,-7.13046484375,-2.181109375,-10.49049609375,-5.890046875,-6.5584140625,-4.3388828125,-10.1189609375,-2.25978515625,-6.33104296875,-7.47934375,-6.9589375,-8.85796875,1.89222265625001,-15.75043359375,-10.94016015625,-6.23365625,-1.23265625,-11.221234375
0.9036796875,-8.30478515625,-6.705875,-6.83901953125,-4.81992578125,-0.3702421875,-7.98942578125,-11.18451953125,-7.5305390625,-4.77189453125,-5.4108828125,-6.26005078125,-6.66946484375,-0.611109375000001,-8.17649609375,-4.710046875,-6.5774140625,-3.7398828125,-8.7109609375,-1.34278515625,-6.19704296875,-7.70834375,-6.6759375,-8.04796875,2.03622265625,-17.45343359375,-10.35016015625,-5.52565625,-0.62765625,-10.645234375
1.1996796875,-7.00678515625,-5.521875,-5.56101953125,-3.60092578125,1.0217578125,-7.19642578125,-9.41151953125,-5.9305390625,-3.01189453125,-3.8988828125,-6.53005078125,-6.24446484375,0.963890624999999,-5.79649609375,-3.167046875,-6.3934140625,-3.1468828125,-6.8099609375,0.143214843750002,-5.66304296875,-7.73934375,-5.8909375,-6.54196875,2.77422265625,-17.56143359375,-9.11616015625,-4.87565625,0.0403437500000001,-9.858234375
0.5396796875,-5.93578515625,-4.616875,-4.84601953125,-3.03492578125,1.9367578125,-6.41242578125,-8.27051953125,-4.3435390625,-1.66289453125,-2.5128828125,-6.69405078125,-5.79146484375,2.319890625,-3.73149609375,-1.536046875,-5.9974140625,-2.5518828125,-4.7139609375,1.95821484375,-4.73204296875,-7.39534375,-4.7249375,-4.50296875,4.17822265625,-16.30043359375,-7.45016015625,-4.12865625,0.85534375,-8.851234375
-0.4903203125,-4.66478515625,-3.942875,-4.68901953125,-3.08392578125,2.3987578125,-5.91142578125,-7.90751953125,-2.9665390625,-0.81089453125,-1.3968828125,-6.71405078125,-5.30046484375,3.254890625,-2.32649609375,-0.145046875000002,-5.4444140625,-2.0308828125,-2.8019609375,3.74721484375,-3.55204296875,-6.63834375,-3.4299375,-2.30496875,6.09022265625001,-14.11343359375,-5.74316015625,-3.21265625,1.76934375,-7.705234375
-1.5823203125,-3.06378515625,-3.494875,-5.01701953125,-3.61092578125,2.4577578125,-5.89642578125,-8.28951953125,-2.0505390625,-0.48989453125,-0.6728828125,-6.70305078125,-4.84346484375,3.586890625,-1.81749609375,0.726953125,-4.8394140625,-1.7408828125,-1.4759609375,5.14321484375,-2.38904296875,-5.66734375,-2.3439375,-0.447968750000001,8.12322265625,-11.51643359375,-4.44616015625,-2.21765625,2.59934375,-6.574234375
-2.8893203125,-1.37278515625,-3.297875,-5.75001953125,-4.47192578125,2.1227578125,-6.38042578125,-9.19951953125,-1.8085390625,-0.69689453125,-0.4258828125,-6.87305078125,-4.57446484375,3.175890625,-2.25149609375,0.937953124999998,-4.2644140625,-1.8678828125,-1.0469609375,5.86521484375,-1.55704296875,-4.88334375,-1.7889375,0.60403125,9.78222265625001,-9.03243359375,-3.90416015625,-1.35965625,3.12034375,-5.644234375
-4.8723203125,-0.10678515625,-3.356875,-6.84401953125,-5.56492578125,1.3907578125,-7.23042578125,-10.35551953125,-2.3305390625,-1.37989453125,-0.6508828125,-7.46705078125,-4.69146484375,1.971890625,-3.45349609375,0.505953125,-3.6884140625,-2.5388828125,-1.6169609375,5.79321484375,-1.30104296875,-4.71334375,-1.9489375,0.609031249999999,10.63622265625,-7.15443359375,-4.19916015625,-0.894656249999999,3.17434375,-5.082234375
-7.8983203125,0.15621484375,-3.637875,-8.26201953125,-6.82892578125,0.2997578125,-8.27142578125,-11.54451953125,-3.5485390625,-2.42189453125,-1.2488828125,-8.67905078125,-5.36646484375,0.0708906249999997,-5.06749609375,-0.427046875000002,-2.9644140625,-3.7538828125,-3.0279609375,4.96821484375,-1.71004296875,-5.40634375,-2.8019375,-0.36396875,10.47222265625,-6.29343359375,-5.10716015625,-1.02665625,2.73234375,-4.994234375
-11.7953203125,-0.87778515625,-4.089875,-9.86601953125,-8.18492578125,-1.0332421875,-9.29442578125,-12.58151953125,-5.2365390625,-3.60689453125,-2.0758828125,-10.54905078125,-6.62546484375,-2.254109375,-6.69149609375,-1.645046875,-1.9434140625,-5.3298828125,-4.8899609375,3.57921484375,-2.66904296875,-6.88634375,-4.1169375,-1.96196875,9.35122265625001,-6.68243359375,-6.16116015625,-1.82865625,1.89934375,-5.391234375
-15.7003203125,-2.91878515625,-4.646875,-11.30801953125,-9.43992578125,-2.3812421875,-10.02542578125,-13.20851953125,-7.0115390625,-4.59389453125,-2.9828828125,-12.88405078125,-8.21846484375,-4.521109375,-7.97849609375,-2.879046875,-0.630414062500002,-6.8918828125,-6.6689609375,1.91921484375,-3.88004296875,-8.73634375,-5.4949375,-3.66796875,7.58322265625,-8.28543359375,-6.81316015625,-3.17965625,0.88634375,-6.159234375
-18.3703203125,-5.07078515625,-5.181875,-12.06601953125,-10.24492578125,-3.3912421875,-10.20042578125,-13.12651953125,-8.3695390625,-4.97489453125,-3.8078828125,-15.27905078125,-9.59146484375,-6.090109375,-8.68449609375,-3.833046875,0.7385859375,-7.9318828125,-7.8039609375,0.336214843750001,-4.93604296875,-10.32234375,-6.4599375,-4.95296875,5.59322265625001,-10.79343359375,-6.62116015625,-4.75565625,-0.0246562499999999,-7.063234375
-18.7963203125,-6.18678515625,-5.495875,-11.65101953125,-10.18492578125,-3.6752421875,-9.71042578125,-12.15951953125,-8.8155390625,-4.42589453125,-4.3658828125,-17.26505078125,-10.05346484375,-6.339109375,-8.68549609375,-4.249046875,1.7825859375,-7.9698828125,-7.8669609375,-0.86078515625,-5.47604296875,-11.02234375,-6.5999375,-5.44796875,3.75422265625,-13.71943359375,-5.41716015625,-6.08865625,-0.55765625,-7.820234375
-16.7293203125,-5.46078515625,-5.411875,-9.88701953125,-8.99092578125,-3.0142421875,-8.63942578125,-10.36251953125,-8.0495390625,-2.89989453125,-4.5278828125,-18.50205078125,-9.09146484375,-4.946109375,-8.01549609375,-4.010046875,2.1545859375,-6.7708828125,-6.7489609375,-1.50478515625,-5.34704296875,-10.47134375,-5.7449375,-5.08496875,2.26922265625,-16.57143359375,-3.39416015625,-6.73065625,-0.55365625,-8.238234375
-12.8493203125,-2.93878515625,-4.911875,-7.08301953125,-6.77192578125,-1.5542421875,-7.21242578125,-8.04151953125,-6.1525390625,-0.72289453125,-4.3098828125,-18.93305078125,-6.67146484375,-2.116109375,-6.89849609375,-3.198046875,1.7135859375,-4.5088828125,-4.7649609375,-1.62478515625,-4.70104296875,-8.72934375,-4.0779375,-4.13696875,1.16722265625,-18.99643359375,-1.05316015625,-6.44265625,-0.0716562499999999,-8.326234375
-8.5523203125,0.35821484375,-4.168875,-4.01301953125,-4.07592578125,0.1957578125,-5.76742578125,-5.73551953125,-3.6215390625,1.45910546875,-3.8768828125,-18.82905078125,-3.31146484375,1.436890625,-5.68949609375,-2.090046875,0.592585937499999,-1.7328828125,-2.5749609375,-1.42778515625,-3.93504296875,-6.27334375,-2.0769375,-3.08996875,0.412222656250005,-20.85143359375,0.97983984375,-5.31465625,0.59634375,-8.302234375
-5.3893203125,2.89921484375,-3.443875,-1.66501953125,-1.71592578125,1.5917578125,-4.72542578125,-4.13551953125,-1.2205390625,2.90710546875,-3.4488828125,-18.67305078125,0.12353515625,4.754890625,-4.73249609375,-1.054046875,-0.881414062500001,0.8451171875,-0.916960937500001,-1.19278515625,-3.50804296875,-3.82334375,-0.308937499999999,-2.40396875,0.0212226562500035,-22.15243359375,2.21083984375,-3.72365625,1.03634375,-8.454234375
-4.2803203125,3.54721484375,-2.928875,-0.80901953125,-0.40392578125,2.1687578125,-4.41842578125,-3.83751953125,0.3384609375,3.10210546875,-3.1728828125,-18.91905078125,2.77953515625,7.040890625,-4.21249609375,-0.400046875000001,-2.3444140625,2.6611171875,-0.2829609375,-1.13278515625,-3.72904296875,-2.08034375,0.807062500000001,-2.30196875,0.0952226562500051,-22.96543359375,2.48783984375,-2.14065625,0.91634375,-8.949234375
-4.9463203125,2.32921484375,-2.638875,-1.60301953125,-0.39392578125,1.8617578125,-4.85042578125,-5.00851953125,0.7184609375,2.01210546875,-3.0458828125,-19.71405078125,4.13753515625,7.980890625,-4.07849609375,-0.248046875000002,-3.5394140625,3.5211171875,-0.7029609375,-1.27078515625,-4.62804296875,-1.47234375,1.1470625,-2.67696875,0.774222656250004,-23.32143359375,2.07983984375,-0.893656249999999,0.19034375,-9.699234375
-6.0493203125,0.45221484375,-2.423875,-3.49101953125,-1.34192578125,1.0387578125,-5.64842578125,-7.26751953125,0.1104609375,0.15710546875,-2.9138828125,-20.80905078125,4.15153515625,7.829890625,-4.06049609375,-0.484046875000001,-4.3834140625,3.6401171875,-1.7299609375,-1.41378515625,-5.95404296875,-2.02034375,0.8950625,-3.15096875,2.12422265625001,-23.22843359375,1.56083984375,-0.0276562499999993,-0.84965625,-10.387234375
-6.0583203125,-0.50278515625,-2.078875,-5.48501953125,-2.47092578125,0.3237578125,-6.32142578125,-9.90251953125,-0.8935390625,-1.60289453125,-2.5478828125,-21.71905078125,3.17453515625,7.227890625,-3.79849609375,-0.835046875000002,-4.9354140625,3.4621171875,-2.6599609375,-1.23778515625,-7.29404296875,-3.37034375,0.416062500000001,-3.25796875,4.03022265625,-22.75843359375,1.54783984375,0.62134375,-1.72465625,-10.647234375
-4.2193203125,0.40121484375,-1.514875,-6.63701953125,-2.97192578125,0.2777578125,-6.54742578125,-12.21651953125,-1.6155390625,-2.43889453125,-1.7728828125,-22.02805078125,1.75453515625,6.839890625,-3.02449609375,-1.003046875,-5.3294140625,3.3871171875,-2.8819609375,-0.460785156249999,-8.25404296875,-4.98634375,0.0480625000000003,-2.67996875,6.16722265625,-22.11043359375,2.39483984375,1.22034375,-2.05765625,-10.286234375
-0.9293203125,2.96321484375,-0.837875,-6.42901953125,-2.38692578125,1.1167578125,-6.24042578125,-13.73351953125,-1.6285390625,-1.88989453125,-0.591882812500001,-21.62705078125,0.38253515625,7.020890625,-1.71949609375,-0.774046875000002,-5.6844140625,3.5541171875,-2.1749609375,0.988214843750001,-8.60704296875,-6.38234375,-0.058937499999999,-1.41896875,8.07222265625001,-21.57343359375,4.00883984375,1.76334375,-1.80465625,-9.404234375
2.6326796875,6.12121484375,-0.279875,-4.93601953125,-0.79892578125,2.6267578125,-5.48642578125,-14.28351953125,-0.9265390625,-0.00989453124999962,0.807117187499999,-20.74905078125,-0.67546484375,7.678890625,-0.12749609375,-0.0710468750000004,-6.0324140625,3.8041171875,-0.801960937500001,2.90021484375,-8.34504296875,-7.29734375,0.00406249999999986,0.192031249999999,9.30922265625,-21.41443359375,5.89483984375,2.06234375,-1.27065625,-8.349234375
5.2216796875,8.66221484375,-0.0168749999999998,-2.72601953125,1.26807421875,4.3367578125,-4.50442578125,-14.02751953125,0.1354609375,2.70110546875,2.1571171875,-19.81805078125,-1.45146484375,8.398890625,1.38150390625,1.037953125,-6.2954140625,3.8271171875,0.6700390625,4.85121484375,-7.63804296875,-7.74334375,0.0110624999999995,1.65603125,9.63022265625001,-21.75343359375,7.39083984375,1.87734375,-0.93465625,-7.551234375
6.1356796875,9.86621484375,-0.0498749999999999,-0.55901953125,3.13907421875,5.7857578125,-3.60442578125,-13.36951953125,1.0604609375,5.55610546875,3.2261171875,-19.21205078125,-2.21246484375,8.733890625,2.49550390625,2.359953125,-6.3304140625,3.3701171875,1.6690390625,6.35121484375,-6.76204296875,-7.93734375,-0.2389375,2.54003125,9.05022265625,-22.51243359375,7.97083984375,1.07534375,-1.20565625,-7.349234375
5.4636796875,9.76121484375,-0.212875,0.95698046875,4.29507421875,6.7147578125,-3.05242578125,-12.71351953125,1.4724609375,7.96910546875,3.8861171875,-19.04805078125,-3.29346484375,8.454890625,3.08650390625,3.621953125,-6.0244140625,2.3831171875,1.8820390625,7.02721484375,-6.01304296875,-8.16034375,-0.804937499999999,2.63903125,7.80122265625,-23.44943359375,7.46383984375,-0.276656249999999,-2.23465625,-7.866234375
3.8746796875,8.91321484375,-0.295875,1.56298046875,4.54307421875,7.1057578125,-2.94042578125,-12.24951953125,1.2454609375,9.62910546875,4.1041171875,-19.15505078125,-4.87446484375,7.625890625,3.20450390625,4.539953125,-5.3894140625,1.0161171875,1.3420390625,6.75621484375,-5.63204296875,-8.62234375,-1.5829375,2.01403125,6.21322265625,-24.25543359375,6.11583984375,-1.91065625,-3.84165625,-8.958234375
2.1236796875,7.96321484375,-0.147875,1.29398046875,3.98407421875,7.1317578125,-3.20142578125,-11.96251953125,0.4964609375,10.49710546875,3.9251171875,-19.22305078125,-6.81046484375,6.489890625,3.00750390625,4.891953125,-4.5724140625,-0.4798828125,0.3450390625,5.70221484375,-5.70804296875,-9.38634375,-2.3709375,0.939031249999999,4.58522265625,-24.64843359375,4.45983984375,-3.42365625,-5.57065625,-10.247234375
0.6786796875,7.30021484375,0.280125,0.314980468749999,2.88807421875,7.0427578125,-3.70642578125,-11.80051953125,-0.5245390625,10.68510546875,3.4671171875,-19.02705078125,-8.62246484375,5.306890625,2.67250390625,4.582953125,-3.7784140625,-1.8878828125,-0.716960937500001,4.25421484375,-6.13104296875,-10.37334375,-2.9629375,-0.214968750000001,3.11522265625,-24.46243359375,3.08983984375,-4.40765625,-6.84965625,-11.229234375
-0.2593203125,7.08021484375,0.931125,-1.15001953125,1.59007421875,7.0577578125,-4.26842578125,-11.76451953125,-1.5255390625,10.38410546875,2.8971171875,-18.55205078125,-9.68246484375,4.264890625,2.33050390625,3.694953125,-3.1494140625,-3.0888828125,-1.5119609375,2.88921484375,-6.62604296875,-11.42034375,-3.2299375,-1.10796875,1.88822265625,-23.69043359375,2.41883984375,-4.60365625,-7.22465625,-11.473234375
-0.5343203125,7.40321484375,1.656125,-2.78301953125,0.44707421875,7.2707578125,-4.61342578125,-11.86251953125,-2.2315390625,9.84510546875,2.3851171875,-17.94905078125,-9.50846484375,3.485890625,2.04850390625,2.488953125,-2.7024140625,-4.0528828125,-1.8659609375,2.02921484375,-6.89104296875,-12.35134375,-3.1569375,-1.53896875,0.900222656250005,-22.49643359375,2.55183984375,-4.01965625,-6.55465625,-10.803234375
0.00367968749999981,8.29821484375,2.250125,-4.17701953125,-0.22392578125,7.6247578125,-4.50942578125,-12.09751953125,-2.4605390625,9.33410546875,2.0651171875,-17.40605078125,-8.00346484375,3.058890625,1.85250390625,1.323953125,-2.3494140625,-4.7798828125,-1.7739609375,1.89721484375,-6.74304296875,-13.02834375,-2.8289375,-1.49996875,0.0992226562500029,-21.15843359375,3.29683984375,-2.95265625,-5.08165625,-9.378234375
1.2576796875,9.52521484375,2.518125,-4.96801953125,-0.23892578125,7.9487578125,-3.98242578125,-12.51151953125,-2.2065390625,9.04110546875,2.0071171875,-17.02005078125,-5.50646484375,3.020890625,1.75550390625,0.517953124999998,-1.9854140625,-5.2658828125,-1.3689609375,2.45821484375,-6.19604296875,-13.37734375,-2.3729375,-1.13696875,-0.584777343749995,-19.96743359375,4.28983984375,-1.86565625,-3.32665625,-7.610234375
2.7466796875,10.52721484375,2.364125,-4.97901953125,0.37407421875,8.0487578125,-3.32142578125,-13.16551953125,-1.6455390625,9.03110546875,2.2171171875,-16.71505078125,-2.64546484375,3.346890625,1.77850390625,0.240953124999999,-1.5694140625,-5.4898828125,-0.8349609375,3.46421484375,-5.44304296875,-13.37734375,-1.8999375,-0.66396875,-1.18077734374999,-19.10043359375,5.17883984375,-1.17865625,-1.85965625,-5.977234375
3.8266796875,10.73521484375,1.856125,-4.24301953125,1.42207421875,7.8277578125,-2.82342578125,-14.03751953125,-1.0215390625,9.29810546875,2.6651171875,-16.24605078125,-0.0434648437500005,3.981890625,1.98250390625,0.498953124999998,-1.1634140625,-5.3968828125,-0.291960937500001,4.61121484375,-4.73004296875,-12.99034375,-1.4279375,-0.229968750000001,-1.59777734374999,-18.54743359375,5.79283984375,-1.03265625,-1.03965625,-4.808234375
4.1046796875,9.98121484375,1.255125,-2.91901953125,2.70107421875,7.4027578125,-2.53642578125,-14.98051953125,-0.456539062500001,9.86410546875,3.3581171875,-15.31105078125,1.96053515625,4.925890625,2.50250390625,1.198953125,-0.897414062500001,-4.8778828125,0.3000390625,5.71021484375,-4.18804296875,-12.10034375,-0.843937499999999,0.193031249999999,-1.58477734374999,-18.11443359375,6.23183984375,-1.17865625,-0.84665625,-4.148234375
3.6976796875,8.66421484375,0.954125,-1.18901953125,4.14607421875,7.1377578125,-2.26542578125,-15.82651953125,0.1604609375,10.80110546875,4.3761171875,-13.73105078125,3.41453515625,6.277890625,3.54350390625,2.239953125,-0.8894140625,-3.7878828125,1.1530390625,6.77821484375,-3.72904296875,-10.54434375,0.0610625000000002,0.82503125,-0.801777343749995,-17.52243359375,6.80483984375,-1.09965625,-0.91765625,-3.779234375
3.2046796875,7.57821484375,1.324125,0.789980468749999,5.84807421875,7.4917578125,-1.74642578125,-16.46751953125,1.0914609375,12.15110546875,5.8221171875,-11.58505078125,4.63053515625,8.143890625,5.27550390625,3.559953125,-1.1704140625,-2.0398828125,2.5060390625,7.96221484375,-3.10604296875,-8.25734375,1.4610625,1.92603125,0.988222656250006,-16.56743359375,7.83583984375,-0.330656249999999,-0.77465625,-3.383234375
3.4476796875,7.55021484375,2.509125,2.89298046875,7.93407421875,8.7707578125,-0.79042578125,-16.81051953125,2.5544609375,13.82510546875,7.6931171875,-9.19705078125,5.91853515625,10.485890625,7.67150390625,5.135953125,-1.6264140625,0.2711171875,4.4200390625,9.38721484375,-2.08304296875,-5.43834375,3.3360625,3.58803125,3.70322265625001,-15.26143359375,9.43483984375,1.23134375,-0.11365625,-2.735234375
5.0346796875,9.03221484375,4.341125,4.98998046875,10.40307421875,10.9197578125,0.62157421875,-16.73351953125,4.5324609375,15.57510546875,9.8031171875,-6.99405078125,7.36653515625,13.038890625,10.42550390625,6.959953125,-1.9924140625,2.8191171875,6.6710390625,11.03021484375,-0.60004296875,-2.57234375,5.4160625,5.60203125,6.87022265625,-13.85143359375,11.39383984375,3.25034375,1.03734375,-1.804234375
7.9076796875,11.80521484375,6.428125,6.89398046875,13.04407421875,13.5467578125,2.28257421875,-16.15751953125,6.7404609375,17.09210546875,11.8611171875,-5.32705078125,8.80953515625,15.387890625,13.05350390625,9.000953125,-1.9044140625,5.1241171875,8.8400390625,12.71121484375,1.20995703125,-0.24734375,7.3010625,7.54803125,9.77922265625001,-12.68843359375,13.28983984375,5.17134375,2.38134375,-0.693234375
11.1946796875,15.01021484375,8.377125,8.36498046875,15.49707421875,16.1247578125,3.84157421875,-15.13051953125,8.7674609375,18.16610546875,13.6241171875,-4.32505078125,9.98053515625,17.155890625,15.11750390625,11.180953125,-1.0454140625,6.7581171875,10.5200390625,14.20021484375,3.11695703125,1.14365625,8.6550625,9.01903125,11.78822265625,-12.01143359375,14.72183984375,6.56934375,3.57934375,0.481765625
13.6106796875,17.58221484375,9.984125,9.20698046875,17.41907421875,18.2317578125,5.02757421875,-13.78051953125,10.2894609375,18.81810546875,15.0191171875,-3.81405078125,10.69953515625,18.170890625,16.42050390625,13.360953125,0.680585937499998,7.5321171875,11.4970390625,15.33221484375,4.91595703125,1.59365625,9.3630625,9.80403125,12.60022265625,-11.81343359375,15.49883984375,7.37034375,4.45934375,1.661765625
14.2186796875,18.83221484375,11.290125,9.40198046875,18.66007421875,19.7017578125,5.81857421875,-12.22851953125,11.2084609375,19.28710546875,16.1251171875,-3.38605078125,10.96953515625,18.497890625,17.04250390625,15.344953125,3.0435859375,7.5651171875,11.7960390625,16.04921484375,6.46895703125,1.44165625,9.5330625,9.93803125,12.34522265625,-11.86543359375,15.67583984375,7.82734375,5.06534375,2.806765625
12.9856796875,18.79521484375,12.486125,9.13798046875,19.34407421875,20.6467578125,6.35857421875,-10.62151953125,11.6244609375,19.86710546875,17.0791171875,-2.61905078125,10.92053515625,18.353890625,17.24050390625,16.907953125,5.5455859375,7.1881171875,11.5950390625,16.35821484375,7.69495703125,1.13665625,9.3750625,9.61203125,11.46522265625,-11.87643359375,15.44283984375,8.27234375,5.54034375,3.813765625
10.8126796875,18.15221484375,13.754125,8.73998046875,19.80207421875,21.3557578125,6.75457421875,-9.20451953125,11.7164609375,20.72010546875,17.9831171875,-1.32205078125,10.70553515625,17.975890625,17.29950390625,17.849953125,7.6285859375,6.7511171875,11.1150390625,16.29521484375,8.55695703125,0.97965625,9.0630625,9.06203125,10.48622265625,-11.63543359375,14.97983984375,8.86934375,5.95934375,4.513765625
9.0846796875,17.87521484375,15.131125,8.55298046875,20.41307421875,22.1127578125,7.05557421875,-8.23051953125,11.6454609375,21.80710546875,18.8451171875,0.360949218749999,10.43253515625,17.548890625,17.42050390625,18.097953125,8.9235859375,6.4821171875,10.5560390625,15.95321484375,9.07495703125,1.02565625,8.6940625,8.49503125,9.84022265625001,-11.04143359375,14.40483984375,9.54834375,6.26834375,4.769765625
8.9616796875,18.72921484375,16.461125,8.83198046875,21.39507421875,23.0287578125,7.39657421875,-7.74251953125,11.5594609375,22.95610546875,19.5791171875,2.06994921875,10.18553515625,17.200890625,17.69050390625,17.772953125,9.3985859375,6.4561171875,10.1050390625,15.52521484375,9.34795703125,1.18065625,8.3420625,8.09003125,9.78722265625001,-10.03543359375,13.82983984375,10.12334375,6.36234375,4.626765625
10.7266796875,20.79821484375,17.461125,9.60298046875,22.65907421875,23.9617578125,8.00057421875,-7.51551953125,11.6064609375,23.94410546875,20.0421171875,3.42294921875,10.05353515625,17.027890625,18.08850390625,17.148953125,9.3315859375,6.6591171875,9.9380390625,15.28221484375,9.53095703125,1.37265625,8.1370625,8.00303125,10.39322265625,-8.55243359375,13.41583984375,10.47734375,6.21234375,4.336765625
13.5656796875,23.31921484375,17.824125,10.57698046875,23.78207421875,24.5747578125,8.95957421875,-7.26651953125,11.8814609375,24.50710546875,20.0721171875,4.14494921875,10.11753515625,17.062890625,18.50150390625,16.492953125,9.1075859375,7.0351171875,10.1690390625,15.42521484375,9.74195703125,1.61565625,8.2320625,8.32903125,11.52422265625,-6.58143359375,13.33883984375,10.61734375,5.87934375,4.211765625
16.0126796875,25.03521484375,17.332125,11.23598046875,24.19207421875,24.4687578125,10.05657421875,-6.89851953125,12.3384609375,24.34610546875,19.5171171875,4.10794921875,10.36453515625,17.230890625,18.73550390625,15.901953125,8.9575859375,7.4861171875,10.7460390625,15.92421484375,9.95795703125,1.92565625,8.6770625,9.00703125,12.84322265625,-4.27243359375,13.65883984375,10.58234375,5.42234375,4.371765625
16.8156796875,24.92721484375,15.929125,11.12698046875,23.46007421875,23.3677578125,10.85157421875,-6.53551953125,12.7624609375,23.20910546875,18.2831171875,3.31594921875,10.63353515625,17.343890625,18.56750390625,15.255953125,8.8015859375,7.8501171875,11.4110390625,16.46521484375,9.98595703125,2.20365625,9.2970625,9.77203125,13.87622265625,-1.98943359375,14.23183984375,10.32134375,4.78534375,4.622765625
15.5786796875,22.79021484375,13.775125,10.14698046875,21.54907421875,21.2767578125,10.92557421875,-6.39951953125,12.8444609375,21.03910546875,16.4161171875,1.88694921875,10.67653515625,17.174890625,17.84650390625,14.331953125,8.2985859375,7.9411171875,11.7910390625,16.58421484375,9.58295703125,2.20765625,9.7190625,10.23103125,14.16522265625,-0.24143359375,14.73883984375,9.67134375,3.81934375,4.570765625
12.7846796875,19.24521484375,11.229125,8.62998046875,18.85007421875,18.5347578125,10.04157421875,-6.67451953125,12.3254609375,18.07510546875,14.1731171875,0.0189492187500004,10.29753515625,16.571890625,16.61850390625,12.984953125,7.0595859375,7.6231171875,11.5880390625,15.91421484375,8.63695703125,1.67065625,9.5330625,10.07303125,13.46322265625,0.46056640625,14.84683984375,8.44834375,2.41134375,3.906765625
9.4136796875,15.32521484375,8.749125,7.19398046875,16.00707421875,15.7107578125,8.22757421875,-7.38051953125,11.1314609375,14.86710546875,11.9891171875,-2.03805078125,9.48653515625,15.538890625,15.15950390625,11.306953125,4.8965859375,6.8861171875,10.7400390625,14.41721484375,7.29695703125,0.47165625,8.5030625,9.24503125,11.88522265625,-0.20943359375,14.38783984375,6.58334375,0.62534375,2.648765625
6.4966796875,11.98221484375,6.723125,6.45998046875,13.65907421875,13.3667578125,5.82757421875,-8.26651953125,9.4364609375,12.13810546875,10.3171171875,-4.00705078125,8.44553515625,14.235890625,13.88150390625,9.646953125,2.0125859375,5.8731171875,9.4560390625,12.46221484375,5.93995703125,-1.26134375,6.6970625,8.00303125,9.92322265625,-2.21643359375,13.44783984375,4.21734375,-1.25965625,1.154765625
4.7876796875,9.76121484375,5.333125,6.76898046875,12.20307421875,11.8267578125,3.42157421875,-8.87851953125,7.6014609375,10.53310546875,9.4341171875,-5.65605078125,7.46353515625,12.913890625,13.13750390625,8.490953125,-0.980414062500001,4.8391171875,8.1170390625,10.69821484375,5.01795703125,-3.17734375,4.4970625,6.80803125,8.29422265625,-5.08443359375,12.34083984375,1.73934375,-2.82865625,-0.0602343749999998
4.5176796875,8.68821484375,4.534125,8.01298046875,11.68507421875,11.0767578125,1.54757421875,-8.83951953125001,6.0234609375,10.32410546875,9.3191171875,-6.87005078125,6.75653515625,11.813890625,13.05950390625,8.232953125,-3.2614140625,4.0761171875,7.1240390625,9.77021484375,4.85895703125,-4.81634375,2.4930625,6.13903125,7.66522265625001,-7.98943359375,11.47983984375,-0.258656249999999,-3.68265625,-0.558234375
5.3116796875,8.35221484375,4.125125,9.66698046875,11.81507421875,10.8227578125,0.41957421875,-8.12351953125,4.9884609375,11.26710546875,9.6941171875,-7.68205078125,6.36053515625,11.091890625,13.49850390625,8.986953125,-4.1424140625,3.8301171875,6.7610390625,10.03121484375,5.53895703125,-5.75634375,1.2990625,6.31903125,8.37322265625,-10.05443359375,11.22983984375,-1.14365625,-3.58565625,-0.140234375
6.3546796875,8.14521484375,3.836125,11.02198046875,12.10307421875,10.6247578125,-0.11442578125,-7.05951953125,4.5814609375,12.69910546875,10.1521171875,-8.20605078125,6.15353515625,10.788890625,14.09750390625,10.539953125,-3.4174140625,4.2281171875,7.1100390625,11.41021484375,6.86395703125,-5.75934375,1.3250625,7.38903125,10.28322265625,-10.70343359375,11.77383984375,-0.498656249999999,-2.58565625,1.134765625
6.7376796875,7.49721484375,3.400125,11.49098046875,12.04507421875,10.0597578125,-0.40142578125,-6.12151953125001,4.6994609375,13.83810546875,10.3311171875,-8.55305078125,5.97153515625,10.838890625,14.44550390625,12.463953125,-1.4934140625,5.2461171875,8.0460390625,13.47021484375,8.44495703125,-4.85234375,2.6140625,9.09503125,12.84222265625,-9.90243359375,13.06483984375,1.62034375,-1.03465625,2.989765625
5.8186796875,6.02521484375,2.614125,10.82898046875,11.30907421875,8.8767578125,-0.82442578125,-5.72951953125,5.1324609375,14.08810546875,10.0491171875,-8.80105078125,5.73753515625,11.119890625,14.25850390625,14.295953125,0.797585937499999,6.7091171875,9.3040390625,15.62021484375,9.83995703125,-3.30434375,4.8270625,10.98903125,15.31522265625,-8.10243359375,14.85683984375,4.63034375,0.52634375,5.022765625
3.4916796875,3.65121484375,1.401125,9.21998046875,9.87607421875,7.1087578125,-1.70142578125,-6.13951953125,5.6774609375,13.25610546875,9.3551171875,-9.00505078125,5.51753515625,11.526890625,13.50150390625,15.686953125,2.5935859375,8.3701171875,10.6080390625,17.35121484375,10.71895703125,-1.48634375,7.4160625,12.61903125,17.09222265625,-5.95043359375,16.80483984375,7.64034375,1.61534375,6.831765625
0.3296796875,0.75421484375,-0.120875,7.22298046875,8.08907421875,5.0687578125,-3.12342578125,-7.31051953125001,6.2544609375,11.59110546875,8.4721171875,-9.18705078125,5.50053515625,12.037890625,12.40650390625,16.487953125,3.3895859375,10.0081171875,11.7840390625,18.41421484375,10.97795703125,0.31765625,9.8810625,13.71203125,17.92222265625,-3.94543359375,18.61083984375,9.87234375,2.05934375,8.150765625
-2.5203203125,-1.80378515625,-1.629875,5.60098046875,6.55407421875,3.2367578125,-4.81342578125,-8.79551953125,6.9544609375,9.68410546875,7.6881171875,-9.28505078125,5.90453515625,12.723890625,11.37550390625,16.768953125,3.1995859375,11.5171171875,12.8140390625,18.85121484375,10.76395703125,2.01965625,11.9750625,14.26403125,17.96922265625,-2.26943359375,20.13783984375,11.02434375,2.09334375,8.942765625
-3.8133203125,-2.97578515625,-2.668875,5.00998046875,5.88707421875,2.0777578125,-6.19442578125,-9.86851953125,7.9624609375,8.21510546875,7.2581171875,-9.15705078125,6.85953515625,13.704890625,10.83050390625,16.760953125,2.4425859375,12.9091171875,13.8050390625,18.90521484375,10.40295703125,3.69065625,13.7250625,14.49703125,17.64822265625,-0.86643359375,21.43583984375,11.37234375,2.23834375,9.383765625
-2.8813203125,-2.10578515625,-2.826875,5.67798046875,6.41807421875,1.8617578125,-6.71742578125,-9.90651953125,9.3784609375,7.66610546875,7.3391171875,-8.68505078125,8.32153515625,15.029890625,11.05250390625,16.740953125,1.6445859375,14.2261171875,14.8760390625,18.85421484375,10.23595703125,5.40565625,15.2850625,14.71703125,17.35922265625,0.33656640625,22.65583984375,11.52434375,2.98634375,9.732765625
-0.0563203125,0.63121484375,-1.956875,7.26898046875,7.98407421875,2.5287578125,-6.14942578125,-8.73551953125,11.0674609375,8.11410546875,7.9351171875,-7.91305078125,10.04853515625,16.573890625,12.05850390625,16.884953125,1.1185859375,15.4091171875,16.0250390625,18.86421484375,10.44995703125,7.06265625,16.7190625,15.11503125,17.25422265625,1.25256640625,23.88883984375,12.01234375,4.48034375,10.149765625
3.5086796875,4.29021484375,-0.309875,9.04198046875,9.97007421875,3.6757578125,-4.64342578125,-6.70451953125,12.6514609375,9.21110546875,8.8511171875,-7.10905078125,11.65553515625,18.020890625,13.55650390625,17.166953125,0.789585937499998,16.2401171875,17.0510390625,18.92021484375,10.95695703125,8.34265625,17.8720625,15.62803125,17.16722265625,1.61156640625,25.02683984375,12.97934375,6.37534375,10.576765625
6.4986796875,7.68221484375,1.547125,10.21398046875,11.59707421875,4.7317578125,-2.64842578125,-4.52651953125,13.6644609375,10.34510546875,9.7401171875,-6.71205078125,12.75053515625,18.987890625,15.04450390625,17.350953125,0.258585937499999,16.4161171875,17.6220390625,18.85421484375,11.41195703125,8.85665625,18.4380625,15.95503125,16.72422265625,1.11556640625,25.75183984375,14.15334375,7.98434375,10.753765625
8.1206796875,10.00221484375,3.005125,10.32698046875,12.31107421875,5.2497578125,-0.77842578125,-3.01951953125,13.7824609375,10.91310546875,10.2551171875,-7.15405078125,13.09053515625,19.224890625,16.02250390625,17.108953125,-0.930414062500001,15.7221171875,17.4570390625,18.44621484375,11.37595703125,8.39265625,18.1770625,15.73403125,15.55522265625,-0.35143359375,25.66383984375,15.06134375,8.61034375,10.368765625
8.4246796875,11.17421484375,3.706125,9.43398046875,12.03907421875,5.1147578125,0.37657421875,-2.79151953125,12.9854609375,10.59410546875,10.2101171875,-8.65105078125,12.69653515625,18.750890625,16.20150390625,16.203953125,-2.9774140625,14.1901171875,16.5010390625,17.55421484375,10.53395703125,7.10665625,17.1080625,14.76803125,13.48822265625,-2.56643359375,24.49783984375,15.30834375,7.88734375,9.232765625
8.1336796875,11.73821484375,3.655125,8.02098046875,11.13607421875,4.5227578125,0.52057421875,-3.93751953125,11.5644609375,9.47210546875,9.6331171875,-11.05105078125,11.85053515625,17.821890625,15.58450390625,14.632953125,-5.6724140625,12.1351171875,14.9560390625,16.20321484375,8.85195703125,5.50265625,15.5380625,13.14103125,10.61422265625,-4.97843359375,22.28783984375,14.75834375,5.93334375,7.388765625
8.0966796875,12.36921484375,3.127125,6.71298046875,10.10707421875,3.7907578125,-0.23542578125,-5.95751953125,9.9644609375,7.96910546875,8.6851171875,-13.85805078125,10.98753515625,16.778890625,14.41450390625,12.636953125,-8.4604140625,10.0221171875,13.1790390625,14.59021484375,6.60495703125,4.22965625,13.9210625,11.19203125,7.25922265625,-6.90543359375,19.40283984375,13.55234375,3.26434375,5.115765625
8.7236796875,13.35521484375,2.498125,5.91898046875,9.30807421875,3.1667578125,-1.53442578125,-8.02651953125,8.5764609375,6.60010546875,7.5811171875,-16.43405078125,10.51353515625,15.878890625,13.06350390625,10.601953125,-10.6814140625,8.2611171875,11.5360390625,13.00821484375,4.28595703125,3.79865625,12.6610625,9.38103125,3.88122265625,-7.85143359375,16.45383984375,12.02534375,0.55834375,2.845765625
9.8086796875,14.45421484375,2.099125,5.64598046875,8.83007421875,2.7747578125,-3.02342578125,-9.42951953125,7.5784609375,5.73710546875,6.5341171875,-18.25905078125,10.62853515625,15.230890625,11.92750390625,8.924953125,-11.8414140625,7.0391171875,10.2980390625,11.75321484375,2.44795703125,4.36465625,11.9650625,8.13303125,0.971222656250006,-7.77143359375,14.10083984375,10.59234375,-1.57565625,1.050765625
10.8246796875,15.21021484375,2.136125,5.58898046875,8.57407421875,2.6427578125,-4.42642578125,-9.83151953125001,6.9184609375,5.49010546875,5.7401171875,-19.10805078125,11.21253515625,14.818890625,11.32050390625,7.925953125,-11.7894140625,6.2721171875,9.5900390625,11.04121484375,1.51795703125,5.67265625,11.8120625,7.70403125,-1.06177734374999,-7.12443359375,12.84683984375,9.64634375,-2.74065625,0.117765625
11.3886796875,15.37221484375,2.641125,5.38198046875,8.38407421875,2.7347578125,-5.48642578125,-9.31151953125,6.3844609375,5.71910546875,5.3251171875,-19.10005078125,11.82853515625,14.540890625,11.35850390625,7.778953125,-10.7584140625,5.7031171875,9.3690390625,10.94321484375,1.65595703125,7.17665625,12.0000625,8.08603125,-2.02477734375,-6.62843359375,12.87683984375,9.46534375,-2.81165625,0.234765625
11.4706796875,15.02221484375,3.451125,4.81598046875,8.14607421875,2.9627578125,-6.01542578125,-8.28351953125,5.7214609375,6.11110546875,5.2931171875,-18.62605078125,11.88453515625,14.235890625,11.89450390625,8.446953125,-9.2654140625,5.0501171875,9.4440390625,11.35721484375,2.69895703125,8.29965625,12.2530625,9.01103125,-2.02077734374999,-6.88043359375,13.99483984375,10.11334375,-1.94465625,1.309765625
11.3216796875,14.38221484375,4.243125,3.90698046875,7.82107421875,3.1967578125,-6.02742578125,-7.34851953125,4.7494609375,6.29210546875,5.5071171875,-18.18505078125,10.91953515625,13.730890625,12.55350390625,9.655953125,-7.8944140625,4.1581171875,9.5370390625,12.03121484375,4.23395703125,8.68465625,12.3290625,10.05103125,-1.39777734375,-8.03543359375,15.69583984375,11.41034375,-0.53265625,2.980765625
11.3026796875,13.60821484375,4.646125,2.85498046875,7.46307421875,3.2867578125,-5.74042578125,-7.00851953125,3.4594609375,5.96510546875,5.7371171875,-18.16205078125,8.85853515625,12.914890625,12.88350390625,10.966953125,-7.0294140625,3.0531171875,9.3890390625,12.66821484375,5.75395703125,8.31665625,12.1010625,10.78003125,-0.557777343749995,-9.73343359375,17.34883984375,12.96734375,0.91734375,4.739765625
11.7596796875,12.77421484375,4.401125,1.95698046875,7.20707421875,3.1147578125,-5.37742578125,-7.35751953125,2.0594609375,5.05810546875,5.7491171875,-18.65405078125,6.13053515625,11.817890625,12.56250390625,11.938953125,-6.6904140625,1.9021171875,8.8590390625,13.05821484375,6.82395703125,7.47065625,11.5790625,10.93203125,0.227222656250003,-11.28943359375,18.42883984375,14.32334375,1.96134375,6.113765625
12.8336796875,11.93521484375,3.499125,1.46998046875,7.22107421875,2.6637578125,-5.02042578125,-8.02651953125,0.8974609375,3.77110546875,5.4241171875,-19.46005078125,3.54353515625,10.640890625,11.55450390625,12.312953125,-6.5664140625,0.9371171875,8.0070390625,13.17321484375,7.21795703125,6.54165625,10.9150625,10.49803125,0.895222656250006,-12.00643359375,18.70283984375,15.11334375,2.36534375,6.842765625
14.2696796875,11.12421484375,2.192125,1.48798046875,7.60807421875,2.0487578125,-4.65342578125,-8.47051953125,0.3194609375,2.48810546875,4.8121171875,-20.22405078125,1.96653515625,9.712890625,10.13150390625,12.112953125,-6.2534140625,0.3761171875,7.0910390625,13.15421484375,6.96495703125,5.87265625,10.3650625,9.73703125,1.51922265625,-11.43943359375,18.30483984375,15.22534375,2.17034375,6.955765625
15.4306796875,10.33421484375,0.859125,1.91898046875,8.33007421875,1.4567578125,-4.24242578125,-8.31151953125,0.5124609375,1.61110546875,4.0781171875,-20.63905078125,1.94753515625,9.369890625,8.72950390625,11.618953125,-5.5484140625,0.3681171875,6.4730390625,13.21321484375,6.30495703125,5.64365625,10.2230625,9.06403125,2.17022265625,-9.51143359375,17.67183984375,14.84634375,1.61734375,6.729765625
15.6646796875,9.57621484375,-0.212875,2.59998046875,9.21507421875,1.0237578125,-3.72242578125,-7.49951953125001,1.4454609375,1.38010546875,3.3781171875,-20.57105078125,3.48653515625,9.808890625,7.72150390625,11.219953125,-4.6174140625,0.9631171875,6.4490390625,13.48721484375,5.56995703125,5.83965625,10.7010625,8.84403125,2.82822265625001,-6.50643359375,17.34183984375,14.34034375,0.99434375,6.527765625
14.7646796875,8.97021484375,-0.964875,3.42198046875,10.05107421875,0.7497578125,-3.01042578125,-6.27451953125,2.8894609375,1.75510546875,2.7481171875,-20.09505078125,6.05753515625,10.990890625,7.23950390625,11.215953125,-3.9464140625,2.0831171875,7.0830390625,13.93021484375,5.03595703125,6.27165625,11.8230625,9.19703125,3.37022265625,-2.97543359375,17.68983984375,14.03734375,0.46034375,6.598765625
13.1286796875,8.71521484375,-1.551875,4.34098046875,10.68707421875,0.5087578125,-2.14042578125,-5.07051953125,4.4754609375,2.37810546875,2.0921171875,-19.45405078125,8.86553515625,12.628890625,7.13150390625,11.643953125,-4.0884140625,3.5081171875,8.1540390625,14.28521484375,4.80795703125,6.63865625,13.3810625,9.92203125,3.61722265625,0.39456640625,18.73683984375,14.01634375,-0.0396562499999999,6.928765625
11.4816796875,8.96021484375,-2.211875,5.30398046875,11.05107421875,0.1167578125,-1.35342578125,-4.36751953125,5.7864609375,2.68210546875,1.2411171875,-18.97605078125,11.17553515625,14.274890625,7.04050390625,12.239953125,-5.3624140625,4.9131171875,9.2240390625,14.17821484375,4.77095703125,6.62665625,14.9980625,10.57203125,3.39922265625,2.95256640625,20.10683984375,14.06534375,-0.73765625,7.234765625
10.3736796875,9.66721484375,-3.121875,6.20698046875,11.10207421875,-0.5902421875,-0.94942578125,-4.46251953125,6.4674609375,2.14710546875,0.0501171874999997,-18.94205078125,12.55653515625,15.465890625,6.55950390625,12.557953125,-7.6314140625,5.9541171875,9.8150390625,13.27921484375,4.63595703125,6.03365625,16.2630625,10.66603125,2.62222265625001,4.28056640625,21.18583984375,13.82034375,-1.87465625,7.111765625
9.7676796875,10.53721484375,-4.298875,6.90098046875,10.76207421875,-1.7062421875,-1.05542578125,-5.31551953125,6.3184609375,0.57210546875,-1.5208828125,-19.48305078125,12.97353515625,15.884890625,5.41650390625,12.190953125,-10.2924140625,6.3991171875,9.6040390625,11.47221484375,4.07795703125,4.85665625,16.8700625,9.91603125,1.33222265625,4.32756640625,21.40583984375,13.01634375,-3.50665625,6.263765625
8.9456796875,11.02921484375,-5.596875,7.20498046875,9.92107421875,-3.2152421875,-1.58342578125,-6.63951953125,5.3264609375,-1.81989453125,-3.3608828125,-20.58005078125,12.70453515625,15.441890625,3.58550390625,10.958953125,-12.5044140625,6.2081171875,8.5390390625,8.91721484375,2.89895703125,3.29365625,16.7200625,8.36503125,-0.266777343749997,3.41556640625,20.50583984375,11.66134375,-5.40065625,4.674765625
6.8916796875,10.53321484375,-6.804875,6.90998046875,8.50307421875,-5.0032421875,-2.40742578125,-8.12451953125001,3.6264609375,-4.51489453125,-5.2598828125,-22.14605078125,12.14053515625,14.256890625,1.27850390625,8.964953125,-13.5984140625,5.5201171875,6.8200390625,5.98721484375,1.12195703125,1.63565625,15.9000625,6.33603125,-1.88077734375,2.06556640625,18.63283984375,10.01334375,-7.12665625,2.619765625
3.0256796875,8.73721484375,-7.792875,5.85098046875,6.58207421875,-6.8962421875,-3.46742578125,-9.56351953125001,1.4614609375,-6.95089453125,-7.0018828125,-24.10305078125,11.59153515625,12.547890625,-1.17749609375,6.523953125,-13.4364140625,4.5521171875,4.7790390625,3.11321484375,-1.01804296875,0.11365625,14.6060625,4.24203125,-3.24477734374999,0.76456640625,16.23583984375,8.39134375,-8.27665625,0.514765625
-2.1643203125,5.97021484375,-8.560875,4.04498046875,4.45007421875,-8.7072421875,-4.72742578125,-10.81451953125,-0.842539062500001,-8.72789453125,-8.4428828125,-26.37705078125,11.20353515625,10.537890625,-3.46949609375,4.046953125,-12.4874140625,3.5201171875,2.7580390625,0.656214843750002,-3.16804296875,-1.17234375,13.0620625,2.39903125,-4.21177734375,-0.21243359375,13.85483984375,7.01634375,-8.65965625,-1.253234375
-7.1433203125,3.20821484375,-9.167875,1.76098046875,2.58407421875,-10.2272421875,-6.11042578125,-11.78251953125,-2.8915390625,-9.71689453125,-9.4978828125,-28.83605078125,10.99753515625,8.419890625,-5.34949609375,1.931953125,-11.5454140625,2.6001171875,1.0520390625,-1.16178515625,-4.95304296875,-2.21134375,11.5060625,0.975031249999999,-4.75877734375,-0.83943359375,11.94683984375,5.98134375,-8.33965625,-2.438234375
-10.1133203125,1.60521484375,-9.620875,-0.576019531250001,1.46607421875,-11.2502421875,-7.51442578125,-12.44751953125,-4.3195390625,-10.06789453125,-10.1138828125,-31.26305078125,10.94853515625,6.362890625,-6.64149609375,0.462953124999999,-11.2754140625,1.9421171875,-0.1169609375,-2.23978515625,-6.06604296875,-2.97334375,10.1930625,0.05003125,-4.92577734375,-1.24943359375,10.81083984375,5.32934375,-7.54765625,-2.932234375
-10.0663203125,1.83421484375,-9.873875,-2.59701953125,1.33107421875,-11.6862421875,-8.82142578125,-12.83451953125,-4.9165390625,-10.12389453125,-10.3018828125,-33.36805078125,10.98353515625,4.509890625,-7.27249609375,-0.244046875,-11.8974140625,1.6691171875,-0.637960937500001,-2.56978515625,-6.34004296875,-3.36234375,9.3510625,-0.323968750000001,-4.74577734375,-1.59243359375,10.57883984375,5.11234375,-6.53165625,-2.720234375
-7.4253203125,3.63421484375,-9.946875,-4.16701953125,1.99507421875,-11.6902421875,-9.82842578125,-12.88351953125,-4.7405390625,-10.28689453125,-10.2098828125,-34.85605078125,10.95753515625,2.958890625,-7.33149609375,-0.246046875000001,-13.1514140625,1.8341171875,-0.554960937500001,-2.21478515625,-5.79404296875,-3.27334375,9.0980625,-0.13196875,-4.21377734375,-1.89143359375,11.22083984375,5.37434375,-5.45765625,-1.844234375
-3.8793203125,5.87421484375,-9.994875,-5.39901953125,2.90507421875,-11.6612421875,-10.26742578125,-12.40551953125,-4.1095390625,-10.86289453125,-10.1178828125,-35.50805078125,10.66053515625,1.747890625,-7.05249609375,0.273953124999998,-14.5274140625,2.3721171875,-0.0709609375000007,-1.31778515625,-4.63004296875,-2.68834375,9.3820625,0.552031249999999,-3.31177734374999,-1.99643359375,12.56383984375,6.07734375,-4.39365625,-0.408234375
-1.5133203125,7.12921484375,-10.232875,-6.52101953125,3.42407421875,-12.0222421875,-9.95642578125,-11.24651953125,-3.4675390625,-11.94689453125,-10.3038828125,-35.25105078125,9.92653515625,0.869890625,-6.70649609375,1.074953125,-15.5844140625,3.0941171875,0.5360390625,-0.0967851562499984,-3.16404296875,-1.74634375,10.0050625,1.54503125,-2.07177734374999,-1.66843359375,14.30383984375,7.06234375,-3.37065625,1.377765625
-1.6743203125,6.50221484375,-10.757875,-7.65601953125,3.19107421875,-12.9192421875,-8.95542578125,-9.51251953125,-3.1515390625,-13.37189453125,-10.8508828125,-34.17605078125,8.77953515625,0.334890625,-6.43449609375,1.933953125,-16.1924140625,3.7601171875,1.0470390625,1.20021484375,-1.72204296875,-0.70434375,10.7280625,2.60503125,-0.630777343749996,-0.76343359375,16.04283984375,8.06234375,-2.45665625,3.163765625
-4.2123203125,4.20921484375,-11.411875,-8.66301953125,2.36507421875,-14.0382421875,-7.60142578125,-7.66951953125,-3.1845390625,-14.72589453125,-11.5108828125,-32.48905078125,7.52053515625,0.224890625,-6.13549609375,2.729953125,-16.5674140625,4.2161171875,1.4260390625,2.38621484375,-0.53304296875,0.18165625,11.3970625,3.51903125,0.787222656250005,0.63056640625,17.36583984375,8.77034375,-1.79565625,4.527765625
-7.5513203125,1.51921484375,-11.764875,-9.17801953125,1.59607421875,-14.6302421875,-6.48042578125,-6.50051953125,-3.2265390625,-15.46589453125,-11.7118828125,-30.45205078125,6.69353515625,0.712890625,-5.45649609375,3.481953125,-17.1224140625,4.5071171875,1.8660390625,3.40721484375,0.34795703125,0.78965625,12.0130625,4.19203125,1.95222265625,2.20256640625,17.95383984375,8.92734375,-1.56065625,5.129765625
-9.6063203125,0.0462148437500003,-11.255875,-8.83001953125,1.73707421875,-13.7652421875,-6.37942578125,-6.95851953125,-2.7385390625,-15.10189453125,-10.7238828125,-28.34205078125,6.91453515625,2.019890625,-3.90149609375,4.321953125,-18.2384140625,4.8711171875,2.7260390625,4.35121484375,1.04395703125,1.18765625,12.7310625,4.70003125,2.71722265625001,3.57256640625,17.67683984375,8.39734375,-1.85965625,4.863765625
-8.9193203125,0.86521484375,-9.441875,-7.47001953125,3.42007421875,-10.7432421875,-8.06742578125,-9.84351953125001,-1.2755390625,-13.40189453125,-7.9898828125,-26.39905078125,8.60453515625,4.294890625,-1.07549609375,5.392953125,-20.0914140625,5.6021171875,4.3460390625,5.36021484375,1.75995703125,1.56165625,13.7520625,5.22603125,3.06122265625001,4.47356640625,16.60883984375,7.21134375,-2.68165625,3.887765625
-5.3253203125,4.03821484375,-6.280875,-5.24901953125,6.72007421875,-5.5172421875,-11.80442578125,-15.29251953125,1.2464609375,-10.50889453125,-3.4698828125,-24.73905078125,11.74753515625,7.476890625,3.05850390625,6.743953125,-22.6034140625,6.8371171875,6.8200390625,6.52621484375,2.64895703125,2.06465625,15.1760625,5.92503125,3.07122265625,4.85956640625,14.97583984375,5.53434375,-3.90265625,2.488765625
0.1386796875,8.69321484375,-2.248875,-2.53001953125,11.06407421875,1.1217578125,-16.93942578125,-22.42351953125,4.4654609375,-6.92389453125,2.1961171875,-23.27805078125,15.79953515625,11.224890625,8.04050390625,8.295953125,-25.5074140625,8.4421171875,9.8770390625,7.82521484375,3.70795703125,2.70665625,16.9010625,6.79403125,2.90322265625,4.91356640625,13.06983984375,3.61134375,-5.34065625,0.926765625
0.1386796875,8.69321484375,-2.248875,-2.53001953125,11.06407421875,1.1217578125,-16.93942578125,-22.42351953125,4.4654609375,-6.92389453125,2.1961171875,-23.27805078125,15.79953515625,11.224890625,8.04050390625,8.295953125,-25.5074140625,8.4421171875,9.8770390625,7.82521484375,3.70795703125,2.70665625,16.9010625,6.79403125,2.90322265625,4.91356640625,13.06983984375,3.61134375,-5.34065625,0.926765625
