"Fp1","Fpz","Fp2","F7","F3","Fz","F4","F8","FC5","FC1","FC2","FC6","T7","C3","Cz","C4","T8","CP5","CP1","CP2","CP6","P7","P3","Pz","P4","P8","POz","O1","Oz","O2"
3.34963671875,-0.2432734375,-0.81971484375,-8.16296875,-3.86815625,7.10970703125,1.97402734375,9.56748046875,-1.829765625,-4.09996484375,-1.76325390625,2.706375,-1.0216875,-0.0552851562499999,2.6081796875,1.56989453125,-1.78730859375,0.60016796875,-1.58605078125,2.68178515625,0.6812421875,4.58055859375,-2.7763359375,-0.88360546875,-1.77344921875,-7.95652734375,-5.69137890625,-5.399359375,-0.4618984375,1.11922265625
-6.16736328125,-4.8192734375,-2.92671484375,-13.73796875,-4.30715625,1.84170703125,-5.31997265625,3.13448046875,-2.995765625,-4.77596484375,-4.72125390625,-1.599625,-4.6746875,-1.68828515625,1.0311796875,-1.31210546875,-2.79030859375,-2.72583203125,-2.49705078125,0.35378515625,-1.4177578125,-4.88944140625,-5.4723359375,-2.26360546875,-3.43644921875,-5.82152734375,-6.25637890625,-5.166359375,1.0171015625,2.15222265625
-10.78136328125,-7.4402734375,-3.26871484375,-15.41696875,-4.62715625,-1.23329296875,-9.52697265625,-1.49151953125,-3.852765625,-4.90696484375,-6.23925390625,-4.537625,-6.2856875,-2.72928515625,0.2191796875,-3.28910546875,-3.52630859375,-4.19683203125,-2.84905078125,-1.01621484375,-2.6227578125,-9.04344140625,-6.6743359375,-2.90460546875,-4.47144921875,-3.65352734375,-6.25637890625,-4.965359375,1.9371015625,2.36922265625
-10.19836328125,-7.5782734375,-2.17871484375,-13.17996875,-4.29715625,-1.75629296875,-10.35197265625,-3.92451953125,-4.067765625,-4.13596484375,-5.93225390625,-5.676625,-5.7506875,-2.86328515625,0.4251796875,-3.92710546875,-3.96030859375,-3.76183203125,-2.45205078125,-1.09921484375,-2.6167578125,-8.18744140625,-6.2413359375,-2.62160546875,-4.58844921875,-1.34252734375,-5.45537890625,-4.303359375,2.6531015625,2.14022265625
-5.70436328125,-5.3602734375,-0.53371484375,-8.40996875,-2.82415625,-0.0332929687500005,-8.41997265625,-4.21651953125,-3.329765625,-2.28296484375,-3.86325390625,-4.907625,-3.6596875,-1.93628515625,1.6631796875,-3.02110546875,-4.05030859375,-1.97183203125,-1.30705078125,0.15078515625,-1.3327578125,-4.38944140625,-4.5363359375,-1.48660546875,-3.70644921875,1.11747265625,-3.87837890625,-2.759359375,3.6311015625,2.06922265625
0.51363671875,-1.5902734375,0.84028515625,-3.15896875,-0.17215625,3.06870703125,-4.94397265625,-2.81351953125,-1.567765625,0.44503515625,-0.609253906249999,-2.546625,-1.0166875,-0.0942851562499998,3.6291796875,-0.775105468749999,-3.71930859375,0.31216796875,0.32594921875,2.39978515625,0.9322421875,-0.24944140625,-2.2883359375,0.15139453125,-2.08444921875,3.45647265625,-1.92337890625,-0.379359375,5.0601015625,2.54022265625
6.20663671875,2.5257265625,1.57828515625,0.83903125,3.08884375,6.41570703125,-1.27497265625,-0.45951953125,0.895234375,3.47003515625,2.90174609375,0.690375,1.2083125,2.19971484375,5.7701796875,2.17489453125,-2.90230859375,2.30616796875,1.99494921875,5.00778515625,3.5532421875,2.37755859375,-0.2993359375,1.77139453125,-0.27544921875,5.14547265625,-0.24437890625,2.245640625,6.6881015625,3.48222265625
9.69963671875,5.7857265625,1.83028515625,2.79503125,6.02284375,8.98370703125,1.49402734375,1.97748046875,3.396234375,6.06703515625,5.72874609375,3.878375,2.4663125,4.31571484375,7.4931796875,4.97789453125,-1.63330859375,3.57516796875,3.24394921875,7.26278515625,5.7912421875,3.03255859375,0.8516640625,2.88239453125,1.10855078125,5.66747265625,0.55362109375,4.268640625,7.9681015625,4.46522265625
10.19263671875,7.3587265625,1.94128515625,2.83003125,7.79284375,10.19770703125,2.80402734375,3.73748046875,5.203234375,7.68303515625,7.26174609375,6.201375,2.7453125,5.69471484375,8.4031796875,6.89289453125,-0.10330859375,4.08116796875,3.80394921875,8.64478515625,7.1042421875,2.42155859375,0.9856640625,3.20839453125,1.67255078125,4.88647265625,0.19362109375,4.991640625,8.3591015625,5.00522265625
7.78663671875,7.0047265625,2.05028515625,1.49803125,8.07184375,10.10270703125,2.74002734375,4.38848046875,5.884234375,8.16303515625,7.40674609375,7.225375,2.4053125,6.07271484375,8.4521796875,7.56089453125,1.34969140625,4.03216796875,3.69894921875,8.98578515625,7.3542421875,1.63155859375,0.3216640625,2.76639453125,1.40755078125,3.23147265625,-1.15737890625,4.175640625,7.6021015625,4.83622265625
3.34763671875,5.0927265625,1.92028515625,-0.67596875,7.20684375,9.28070703125,1.91502734375,3.90348046875,5.556234375,7.80503515625,6.55274609375,6.987375,1.9093125,5.59171484375,7.9351796875,7.09289453125,2.32469140625,3.68516796875,3.22594921875,8.45978515625,6.8072421875,1.37655859375,-0.6713359375,1.84039453125,0.65255078125,1.53847265625,-2.98937890625,2.138640625,5.8601015625,4.03022265625
-1.76436328125,2.4087265625,1.18028515625,-3.30696875,6.03384375,8.52770703125,1.13302734375,2.59348046875,4.799234375,7.20603515625,5.34874609375,5.893375,1.6113125,4.72671484375,7.3391796875,5.95789453125,2.51169140625,3.22316796875,2.80894921875,7.46078515625,5.9222421875,1.68255859375,-1.4833359375,0.858394531250001,-0.09144921875,0.59647265625,-4.65537890625,-0.345359375,3.6921015625,2.95322265625
-6.04036328125,-0.1512734375,-0.20871484375,-5.95496875,5.41484375,8.45970703125,0.97802734375,0.98748046875,4.269234375,6.95903515625,4.40674609375,4.496375,1.6603125,4.03371484375,7.1051796875,4.75289453125,1.84269140625,2.70516796875,2.80094921875,6.42078515625,5.0872421875,2.02655859375,-1.7783359375,0.22239453125,-0.43644921875,0.67447265625,-5.61637890625,-2.345359375,1.8521015625,2.08622265625
-8.18936328125,-1.8832734375,-1.67971484375,-7.94496875,5.73884375,9.24570703125,1.55602734375,-0.29051953125,4.244234375,7.33603515625,4.03474609375,3.296375,1.9933125,3.84771484375,7.4031796875,3.94089453125,0.57069140625,2.08316796875,3.29394921875,5.64678515625,4.4882421875,1.70755859375,-1.5173359375,0.14039453125,-0.28444921875,1.37047265625,-5.63337890625,-3.165359375,0.9481015625,1.76222265625
-7.47736328125,-2.4612734375,-2.26071484375,-8.48596875,6.72084375,10.57070703125,2.48402734375,-0.69651953125,4.456234375,8.14703515625,4.14274609375,2.609375,2.3723125,4.10371484375,8.0611796875,3.70489453125,-0.79630859375,1.25016796875,4.08294921875,5.25878515625,4.1722421875,0.23155859375,-0.9293359375,0.55939453125,0.17655078125,1.90547265625,-4.82537890625,-2.658359375,1.1481015625,1.97322265625
-3.95336328125,-1.9552734375,-1.19671484375,-7.07196875,7.62784375,11.80870703125,3.10302734375,0.00448046874999986,4.312234375,8.87303515625,4.35674609375,2.519375,2.5013125,4.42371484375,8.6791796875,3.93389453125,-1.71230859375,0.14816796875,4.78694921875,5.21478515625,4.1802421875,-2.43544140625,-0.3693359375,1.23839453125,0.64155078125,1.67947265625,-3.57637890625,-1.252359375,2.1111015625,2.36622265625
1.46663671875,-0.7282734375,1.45228515625,-3.88296875,7.75184375,12.30170703125,2.81102734375,1.56948046875,3.347234375,8.95303515625,4.24674609375,2.886375,2.1693125,4.36271484375,8.8501796875,4.33089453125,-1.88130859375,-1.15083203125,5.05894921875,5.37278515625,4.5812421875,-5.81544140625,-0.1393359375,1.86939453125,0.86955078125,0.65247265625,-2.36837890625,0.283640625,3.1761015625,2.43522265625
7.12663671875,0.7047265625,4.65928515625,0.13303125,6.77484375,11.62970703125,1.35202734375,3.32248046875,1.535234375,8.04703515625,3.53974609375,3.393375,1.3883125,3.64971484375,8.3381796875,4.52889453125,-1.45530859375,-2.45983203125,4.71194921875,5.50478515625,5.3482421875,-9.13444140625,-0.4013359375,2.15939453125,0.74555078125,-0.73652734375,-1.64237890625,1.172640625,3.6731015625,1.77822265625
11.05763671875,1.8317265625,6.86828515625,3.59003125,4.84984375,9.76870703125,-1.08197265625,4.39548046875,-0.695765625,6.16203515625,2.20074609375,3.645375,0.4103125,2.29471484375,7.1391796875,4.19289453125,-0.96930859375,-3.58083203125,3.72994921875,5.31178515625,6.1832421875,-11.67844140625,-1.1883359375,1.85339453125,0.21255078125,-1.99352734375,-1.73337890625,0.887640625,3.1721015625,0.25522265625
11.72163671875,2.3047265625,6.75328515625,5.22903125,2.48484375,7.08170703125,-3.95797265625,4.08448046875,-2.667765625,3.65603515625,0.434746093750001,3.297375,-0.3766875,0.56771484375,5.4691796875,3.11189453125,-1.03430859375,-4.38783203125,2.23594921875,4.49378515625,6.5092421875,-13.06144140625,-2.4283359375,0.79139453125,-0.79144921875,-2.95852734375,-2.79337890625,-0.686359375,1.6241015625,-1.95677734375
8.75763671875,2.0777265625,3.89828515625,4.43203125,0.34984375,4.20770703125,-6.60797265625,2.17148046875,-3.710765625,1.16203515625,-1.35925390625,2.206375,-0.6156875,-1.06728515625,3.7161796875,1.29889453125,-1.99830859375,-4.81883203125,0.47694921875,2.92378515625,5.6932421875,-13.21444140625,-3.9283359375,-0.97960546875,-2.30544921875,-3.85752734375,-4.70337890625,-3.187359375,-0.6158984375,-4.40877734375
3.22363671875,1.4137265625,-0.97971484375,1.45203125,-0.93115625,1.87370703125,-8.41997265625,-0.92151953125,-3.373765625,-0.59896484375,-2.70525390625,0.531375,-0.1626875,-2.08928515625,2.3341796875,-0.973105468749999,-3.82030859375,-4.81283203125,-1.19505078125,0.77878515625,3.4032421875,-12.19244140625,-5.3613359375,-3.14260546875,-4.25644921875,-5.05852734375,-7.03737890625,-5.862359375,-2.9098984375,-6.52277734375
-2.86836328125,0.6887265625,-6.32671484375,-2.71696875,-0.99315625,0.67870703125,-8.98197265625,-4.26451953125,-1.605765625,-1.09996484375,-3.22925390625,-1.305625,0.8493125,-2.10328515625,1.6831796875,-3.23710546875,-6.19630859375,-4.29883203125,-2.42005078125,-1.47521484375,-0.1317578125,-10.03744140625,-6.3313359375,-5.17960546875,-6.41044921875,-6.75952734375,-9.16737890625,-7.841359375,-4.5808984375,-7.79877734375
-7.44436328125,0.1527265625,-10.40171484375,-6.73396875,0.11084375,0.87270703125,-8.24197265625,-6.78251953125,1.165234375,-0.26296484375,-2.83925390625,-2.787625,2.0703125,-1.04428515625,1.8681796875,-5.00110546875,-8.73530859375,-3.26483203125,-2.95605078125,-3.26221484375,-4.1037578125,-6.81044140625,-6.5403359375,-6.57460546875,-8.39444921875,-8.77752734375,-10.47937890625,-8.476359375,-5.1588984375,-8.00277734375
-9.15136328125,-0.1572734375,-11.98771484375,-9.38896875,1.89984375,2.20770703125,-6.60397265625,-7.69651953125,4.077234375,1.44703515625,-1.81225390625,-3.540625,3.1033125,0.72171484375,2.6681796875,-5.94310546875,-11.03830859375,-1.85583203125,-2.79105078125,-4.15821484375,-7.3997578125,-2.79844140625,-5.9503359375,-7.02560546875,-9.80144921875,-10.53352734375,-10.60437890625,-7.589359375,-4.5408984375,-7.23077734375
-7.77736328125,-0.3172734375,-10.89271484375,-10.02596875,3.59284375,3.97070703125,-4.85897265625,-6.81151953125,6.075234375,3.16903515625,-0.732253906249999,-3.500625,3.6283125,2.46171484375,3.5981796875,-6.03810546875,-12.65430859375,-0.44483203125,-2.16705078125,-4.08521484375,-9.0187578125,1.29055859375,-4.8723359375,-6.58260546875,-10.33844921875,-11.23552734375,-9.56937890625,-5.542359375,-3.0048984375,-5.87677734375
-4.26736328125,-0.3842734375,-8.00871484375,-8.78896875,4.34684375,5.21470703125,-3.88497265625,-4.55851953125,6.293234375,3.97103515625,-0.279253906249999,-2.922625,3.4483125,3.31971484375,4.0791796875,-5.56410546875,-13.08030859375,0.42216796875,-1.51605078125,-3.35621484375,-8.4477578125,4.34155859375,-3.8723359375,-5.62060546875,-9.95844921875,-10.22552734375,-7.81337890625,-3.127359375,-1.1288984375,-4.51477734375
-0.36036328125,-0.3852734375,-4.85271484375,-6.57496875,3.58084375,5.12970703125,-4.25297265625,-1.81851953125,4.441234375,3.23903515625,-0.914253906249999,-2.214625,2.4733125,2.69471484375,3.6951796875,-4.94510546875,-11.87830859375,0.23916796875,-1.27705078125,-2.49521484375,-5.8207578125,5.21255859375,-3.5193359375,-4.65260546875,-8.88244921875,-7.35152734375,-6.00437890625,-1.294359375,0.4031015625,-3.71777734375
2.14763671875,-0.3842734375,-2.79171484375,-4.64396875,1.26384375,3.39870703125,-5.94597265625,0.38748046875,0.995234375,0.99103515625,-2.61525390625,-1.721625,0.7373125,0.56571484375,2.4061796875,-4.51010546875,-8.93430859375,-1.17383203125,-1.67105078125,-1.94921484375,-1.8737578125,3.33155859375,-4.0843359375,-4.05260546875,-7.50244921875,-3.20352734375,-4.72337890625,-0.736359375,1.0931015625,-3.81077734375
2.21263671875,-0.4982734375,-2.45071484375,-4.05296875,-1.98615625,0.38470703125,-8.37397265625,1.24248046875,-2.971765625,-2.08696484375,-4.83025390625,-1.592625,-1.5846875,-2.44228515625,0.6071796875,-4.36010546875,-4.74430859375,-3.51583203125,-2.58905078125,-1.88021484375,2.2572421875,-0.92244140625,-5.3863359375,-3.89060546875,-6.21644921875,0.92847265625,-4.19837890625,-1.568359375,0.8591015625,-4.68077734375
-0.07136328125,-0.8392734375,-3.63071484375,-5.23596875,-5.13015625,-2.97329296875,-10.66497265625,0.42148046875,-6.267765625,-4.92296484375,-6.74525390625,-1.805625,-4.2036875,-5.32428515625,-1.0548203125,-4.39110546875,-0.51630859375,-6.11683203125,-3.66005078125,-2.16021484375,5.3362421875,-6.32044140625,-6.8873359375,-3.95660546875,-5.31344921875,3.45647265625,-4.24737890625,-3.283359375,0.0641015625000001,-5.80877734375
-3.73136328125,-1.4672734375,-5.61171484375,-7.93496875,-7.13315625,-5.53129296875,-12.04597265625,-1.77151953125,-8.073765625,-6.51696484375,-7.67425390625,-2.239625,-6.7766875,-7.12628515625,-1.9758203125,-4.42110546875,2.18169140625,-8.21883203125,-4.45105078125,-2.51521484375,6.4252421875,-11.27544140625,-7.9593359375,-3.94860546875,-4.91144921875,3.16447265625,-4.45037890625,-5.060359375,-0.7058984375,-6.52977734375
-7.51836328125,-2.3632734375,-7.51371484375,-11.38996875,-7.35515625,-6.42929296875,-12.11497265625,-4.49251953125,-8.149765625,-6.31196484375,-7.33125390625,-2.707625,-8.9246875,-7.28528515625,-1.8278203125,-4.26310546875,2.21369140625,-9.23483203125,-4.63405078125,-2.66921484375,5.3022421875,-14.35944140625,-8.1303359375,-3.62560546875,-4.92244921875,-0.10552734375,-4.38637890625,-6.179359375,-0.9548984375,-6.36477734375
-10.37636328125,-3.3962734375,-8.55571484375,-14.62696875,-5.71515625,-5.42229296875,-10.87897265625,-6.64951953125,-6.717765625,-4.32696484375,-5.85925390625,-2.968625,-10.2546875,-5.74028515625,-0.6178203125,-3.74510546875,-0.35230859375,-8.87983203125,-4.04805078125,-2.39321484375,2.6582421875,-14.67644140625,-7.2173359375,-2.87760546875,-5.06844921875,-5.19252734375,-3.80037890625,-6.317359375,-0.4738984375,-5.23577734375
-11.61536328125,-4.2862734375,-8.26771484375,-16.76896875,-2.67915625,-2.93429296875,-8.64697265625,-7.31251953125,-4.233765625,-1.11296484375,-3.71225390625,-2.804625,-10.4626875,-2.88928515625,1.3471796875,-2.76410546875,-4.14930859375,-7.23283203125,-2.72905078125,-1.55021484375,-0.1657578125,-12.15344140625,-5.3633359375,-1.73660546875,-4.99244921875,-10.04952734375,-2.68137890625,-5.575359375,0.6381015625,-3.46377734375
-10.89736328125,-4.6452734375,-6.68371484375,-17.28596875,0.89284375,0.16670703125,-5.89597265625,-6.10151953125,-1.253765625,2.41703515625,-1.47425390625,-2.152625,-9.5156875,0.52671484375,3.5531796875,-1.37110546875,-7.30830859375,-4.75783203125,-0.92005078125,-0.16121484375,-1.8317578125,-7.68644140625,-3.0163359375,-0.36660546875,-4.44744921875,-12.71352734375,-1.26037890625,-4.317359375,2.1091015625,-1.57877734375
-8.26736328125,-4.1342734375,-4.34471484375,-16.09796875,4.02284375,2.91570703125,-3.17297265625,-3.32551953125,1.609234375,5.27203515625,0.328746093750001,-1.155625,-7.7726875,3.60071484375,5.4241796875,0.206894531250001,-8.58730859375,-2.20983203125,0.95994921875,1.56678515625,-1.6497578125,-2.97044140625,-0.8073359375,0.975394531250001,-3.42244921875,-12.20952734375,0.0956210937500002,-2.946359375,3.6551015625,-0.0627773437500002
-4.26236328125,-2.6802734375,-2.04571484375,-13.46396875,5.95584375,4.60870703125,-1.00197265625,0.21148046875,3.739234375,6.71303515625,1.40874609375,-0.0666250000000002,-5.8816875,5.50971484375,6.4981796875,1.67789453125,-7.97730859375,-0.37983203125,2.43094921875,3.29878515625,0.1982421875,0.13055859375,0.6596640625,2.03739453125,-2.12944921875,-8.88252734375,1.04262109375,-1.748359375,5.0681015625,0.84522265625
-0.00236328124999996,-0.6362734375,-0.47671484375,-9.83696875,6.42084375,5.03870703125,0.24602734375,3.61248046875,4.638234375,6.50703515625,1.79774609375,0.904375,-4.5056875,5.77271484375,6.5781796875,2.83189453125,-6.39130859375,0.20016796875,3.11494921875,4.70278515625,2.9152421875,0.37655859375,1.0326640625,2.67339453125,-0.87744921875,-4.06552734375,1.41662109375,-0.870359375,6.2201015625,1.16822265625
2.97963671875,1.2887265625,-0.0207148437499999,-5.84596875,5.67384375,4.52770703125,0.49102734375,6.23248046875,4.107234375,4.98903515625,1.79174609375,1.673375,-4.0456875,4.43871484375,5.7921796875,3.61789453125,-4.80930859375,-0.52583203125,2.87794921875,5.56278515625,5.5762421875,-2.26444140625,0.3396640625,2.87939453125,0.0655507812499998,0.58647265625,1.28862109375,-0.352359375,7.0251015625,1.08822265625
3.29963671875,2.3787265625,-0.75271484375,-2.37796875,4.35884375,3.73970703125,0.0190273437500001,7.78448046875,2.424234375,2.93603515625,1.81474609375,2.285375,-4.4896875,2.11271484375,4.5641796875,4.13089453125,-3.59930859375,-2.10183203125,1.91494921875,5.84978515625,7.5312421875,-6.56144140625,-1.0163359375,2.79039453125,0.57455078125,3.76647265625,0.92162109375,-0.136359375,7.4401015625,0.81922265625
0.52263671875,2.3467265625,-2.48871484375,-0.47596875,3.24784375,3.35770703125,-0.55897265625,8.29248046875,0.384234375,1.29403515625,2.28174609375,2.896375,-5.4536875,-0.21528515625,3.5071796875,4.56589453125,-2.44630859375,-3.72483203125,0.72494921875,5.73978515625,8.5832421875,-10.53844140625,-2.4203359375,2.62939453125,0.69855078125,4.91447265625,0.64762109375,-0.0633593750000001,7.5151015625,0.54122265625
-4.31436328125,1.5737265625,-4.78371484375,-0.88996875,2.95584375,3.82070703125,-0.48097265625,8.00948046875,-0.924765625,0.85403515625,3.46874609375,3.727375,-6.3776875,-1.53728515625,3.2201796875,5.12889453125,-0.81730859375,-4.58783203125,-0.0690507812500001,5.53578515625,8.9092421875,-12.40144140625,-3.3093359375,2.59839453125,0.62355078125,4.26647265625,0.70062109375,0.0556406250000001,7.3771015625,0.34922265625
-8.90536328125,0.9517265625,-6.93871484375,-3.50396875,3.71184375,5.20970703125,0.90102734375,7.35948046875,-0.610765625,1.94503515625,5.39674609375,4.970375,-6.7666875,-1.25128515625,4.0411796875,5.94489453125,1.43969140625,-4.25783203125,-5.07812499999094e-05,5.52178515625,8.8432421875,-11.41344140625,-3.4213359375,2.74839453125,0.55055078125,2.61947265625,1.05062109375,0.285640625,7.1331015625,0.22722265625
-10.68036328125,1.3897265625,-8.12771484375,-7.10796875,5.30584375,7.29770703125,3.79902734375,6.85648046875,1.533234375,4.31703515625,7.79074609375,6.648375,-6.3726875,0.58771484375,5.8971796875,6.98789453125,3.79769140625,-2.86183203125,1.03294921875,5.82878515625,8.6432421875,-8.17844140625,-2.8803359375,2.93839453125,0.58755078125,0.94747265625,1.39762109375,0.485640625,6.8121015625,0.0632226562499999
-8.11936328125,3.2877265625,-7.68371484375,-9.82696875,7.25084375,9.67570703125,7.79002734375,6.93548046875,4.850234375,7.27303515625,10.17474609375,8.540375,-5.2186875,3.34971484375,8.3581796875,8.09989453125,5.31169140625,-0.95383203125,2.76494921875,6.40178515625,8.3912421875,-4.15944140625,-2.0373359375,2.95039453125,0.72155078125,0.0414726562499999,1.36162109375,0.450640625,6.4261015625,-0.21877734375
-1.62836328125,6.2927265625,-5.39371484375,-10.02596875,9.02884375,11.89470703125,11.88802734375,7.78248046875,8.105234375,9.99303515625,12.06474609375,10.244375,-3.5096875,6.15871484375,10.8531796875,9.08289453125,5.27369140625,0.82016796875,4.74194921875,7.08278515625,8.0272421875,-0.78744140625,-1.2083359375,2.67439453125,0.88655078125,0.28547265625,0.76162109375,0.164640625,6.0871015625,-0.53277734375
6.55963671875,9.4557265625,-1.66971484375,-7.19696875,10.25484375,13.57870703125,14.91702734375,9.22848046875,10.035234375,11.82503515625,13.12574609375,11.334375,-1.5426875,8.24971484375,12.8741796875,9.76989453125,3.77569140625,2.01316796875,6.50594921875,7.69278515625,7.4652421875,1.20755859375,-0.5223359375,2.19439453125,1.02455078125,1.57147265625,-0.24037890625,-0.0753593750000001,6.0301015625,-0.61877734375
13.37763671875,11.6547265625,2.54728515625,-2.29296875,10.71484375,14.47470703125,15.98502734375,10.79948046875,9.898234375,12.45503515625,13.24574609375,11.556375,0.3073125,9.16971484375,14.0791796875,10.07189453125,1.72569140625,2.45316796875,7.69294921875,8.08478515625,6.7102421875,1.89355859375,0.0446640625000003,1.71239453125,1.11955078125,3.41047265625,-1.23837890625,0.175640625,6.4731015625,-0.19877734375
16.27863671875,12.0607265625,6.12928515625,2.70903125,10.37484375,14.48470703125,14.82102734375,11.91448046875,7.770234375,11.93203515625,12.54774609375,10.968375,1.6313125,8.82871484375,14.3301796875,10.00089453125,0.28269140625,2.18516796875,8.07394921875,8.16878515625,5.9402421875,1.81455859375,0.5466640625,1.40839453125,1.20155078125,5.22347265625,-1.80437890625,1.229640625,7.4591015625,0.84822265625
14.30563671875,10.4897265625,8.19828515625,5.78603125,9.42484375,13.70370703125,11.87402734375,12.15548046875,4.487234375,10.63203515625,11.38774609375,9.961375,2.1453125,7.47471484375,13.7191796875,9.71689453125,0.19269140625,1.41516796875,7.61194921875,7.97278515625,5.5422421875,1.61255859375,1.0146640625,1.37839453125,1.36955078125,6.72747265625,-1.67337890625,3.084640625,8.8181015625,2.40022265625
8.43963671875,7.4867265625,8.43928515625,5.82503125,8.26884375,12.46770703125,8.18002734375,11.47448046875,1.289234375,9.15203515625,10.28074609375,9.133375,1.9373125,5.61771484375,12.5801796875,9.51789453125,1.52569140625,0.51316796875,6.53094921875,7.68078515625,6.0362421875,1.86255859375,1.5096640625,1.66139453125,1.81055078125,8.14947265625,-0.80337890625,5.437640625,10.2711015625,4.14622265625
1.08063671875,4.1187265625,7.14328515625,3.03903125,7.41384375,11.29070703125,5.01902734375,10.19648046875,-0.655765625,8.12303515625,9.73174609375,9.019375,1.5623125,3.90071484375,11.4141796875,9.71989453125,3.89969140625,-0.0298320312499999,5.28594921875,7.58378515625,7.8542421875,3.04155859375,2.1686640625,2.28539453125,2.72455078125,10.06547265625,0.66062109375,7.843640625,11.5641015625,5.70122265625
-5.05536328125,1.5517265625,4.97328515625,-1.26996875,7.28784375,10.65970703125,3.43202734375,8.83048046875,-0.652765625,7.98603515625,10.00074609375,9.829375,1.7823125,2.89471484375,10.7081796875,10.47189453125,6.83869140625,0.21616796875,4.40694921875,7.93478515625,11.0002421875,5.38155859375,3.1336640625,3.25039453125,4.17055078125,12.88347265625,2.44262109375,9.862640625,12.5451015625,6.75222265625
-8.04736328125,0.6147265625,2.60128515625,-5.39096875,8.05984375,10.79670703125,3.81102734375,7.78848046875,1.311234375,8.81403515625,10.96974609375,11.325375,3.0503125,2.88171484375,10.7271796875,11.61689453125,9.86669140625,1.33616796875,4.26094921875,8.76278515625,14.7952421875,8.53555859375,4.3686640625,4.44539453125,5.91455078125,16.29747265625,4.18162109375,11.166640625,13.1591015625,7.16222265625
-7.40536328125,1.5097265625,0.43228515625,-7.94796875,9.54484375,11.54770703125,5.79102734375,7.21448046875,4.579234375,10.26503515625,12.16874609375,12.899375,5.0713125,3.71771484375,11.3871796875,12.68489453125,12.34069140625,2.87916796875,4.87294921875,9.78678515625,17.9342421875,11.37655859375,5.5366640625,5.59139453125,7.40155078125,19.11047265625,5.47962109375,11.584640625,13.3911015625,6.98022265625
-3.98336328125,3.7827265625,-1.42871484375,-8.40396875,11.24184375,12.49170703125,8.45902734375,6.98148046875,8.047234375,11.72903515625,12.99674609375,13.795375,6.8363125,4.89971484375,12.3001796875,13.07189453125,13.37969140625,3.99116796875,5.92794921875,10.51378515625,18.9452421875,12.32555859375,6.1056640625,6.31239453125,7.94855078125,19.68347265625,5.98862109375,11.129640625,13.2431015625,6.38622265625
0.68063671875,6.5717265625,-2.96071484375,-7.09696875,12.55184375,13.19570703125,10.77702734375,6.84148046875,10.594234375,12.64503515625,13.03274609375,13.431375,7.1813125,5.86171484375,13.0101796875,12.36289453125,12.18269140625,3.90516796875,6.97994921875,10.52378515625,16.9602421875,10.24555859375,5.6876640625,6.34339453125,7.12155078125,16.90447265625,5.58262109375,10.036640625,12.7781015625,5.63322265625
5.16463671875,9.0277265625,-3.95371484375,-4.83896875,13.10284375,13.45870703125,12.00502734375,6.61348046875,11.551234375,12.83403515625,12.29774609375,11.719375,5.5363125,6.32071484375,13.3001796875,10.64589453125,8.63169140625,2.48816796875,7.74694921875,9.79378515625,12.3752421875,5.38055859375,4.3736640625,5.76939453125,5.10155078125,11.13747265625,4.51362109375,8.730640625,12.1811015625,5.02222265625
8.64763671875,10.6447265625,-3.95771484375,-2.37696875,12.92884375,13.40570703125,11.98102734375,6.29348046875,10.980234375,12.59303515625,11.28374609375,9.206375,2.3433125,6.43971484375,13.3191796875,8.58289453125,3.65469140625,0.43516796875,8.26094921875,8.79078515625,6.9062421875,-0.46944140625,2.7856640625,5.05939453125,2.73655078125,4.38647265625,3.37562109375,7.650640625,11.7111015625,4.82622265625
10.89663671875,11.3107265625,-2.52471484375,-0.10096875,12.37984375,13.36270703125,11.10502734375,6.02848046875,9.559234375,12.45203515625,10.66774609375,6.867375,-1.1556875,6.63971484375,13.4341796875,7.09789453125,-1.07630859375,-1.11283203125,8.74494921875,8.21378515625,2.8512421875,-4.80444140625,1.7356640625,4.81339453125,1.16055078125,-0.62552734375,2.81562109375,6.993640625,11.5231015625,5.14922265625
11.99663671875,11.1617265625,0.40628515625,1.89803125,11.83084375,13.60170703125,10.01702734375,5.97948046875,8.170234375,12.77903515625,10.89574609375,5.630375,-3.5546875,7.24971484375,13.9091796875,6.87089453125,-3.98730859375,-1.24583203125,9.36594921875,8.54978515625,1.9362421875,-5.82244140625,1.7366640625,5.39439453125,1.18855078125,-1.93852734375,3.16462109375,6.572640625,11.5141015625,5.81422265625
12.15463671875,10.4637265625,4.28828515625,3.62903125,11.48484375,14.15170703125,9.16002734375,6.20448046875,7.489234375,13.57403515625,11.93274609375,5.899375,-3.8886875,8.29471484375,14.7221796875,7.97289453125,-4.38130859375,0.25616796875,10.10794921875,9.79178515625,4.4522421875,-3.36344140625,2.7446640625,6.73839453125,2.90555078125,0.64247265625,4.28862109375,5.946640625,11.3651015625,6.41722265625
11.67363671875,9.6127265625,8.08028515625,5.06103125,11.38384375,14.82070703125,8.58102734375,6.66148046875,7.778234375,14.57003515625,13.34474609375,7.392375,-1.9246875,9.58971484375,15.6331796875,9.88189453125,-2.62030859375,2.95016796875,10.87094921875,11.51178515625,9.2002421875,1.17955859375,4.3086640625,8.48339453125,5.69955078125,5.59647265625,5.75762109375,4.783640625,10.7881015625,6.57422265625
10.90863671875,9.1117265625,10.65728515625,6.12703125,11.52684375,15.41070703125,8.10102734375,7.27248046875,8.911234375,15.49203515625,14.60574609375,9.358375,1.8133125,10.95671484375,16.4131796875,11.82389453125,0.30369140625,6.09316796875,11.64894921875,13.17778515625,14.1762421875,5.76955859375,5.9486640625,10.25039453125,8.63655078125,10.59147265625,7.17962109375,3.179640625,9.8031015625,6.18922265625
10.14463671875,9.4247265625,11.26728515625,6.77703125,11.96484375,15.89970703125,7.67002734375,7.95348046875,10.506234375,16.24803515625,15.41274609375,11.039375,6.2153125,12.36571484375,17.0221796875,13.19389453125,3.34769140625,8.99116796875,12.58694921875,14.45578515625,17.5212421875,8.76655859375,7.4456640625,11.84839453125,10.90755078125,13.55847265625,8.43362109375,1.710640625,8.8121015625,5.53322265625
9.48063671875,10.7487265625,9.85028515625,7.05903125,12.79284375,16.44970703125,7.56202734375,8.60448046875,12.111234375,16.94503515625,15.82874609375,12.073375,9.9443125,13.88671484375,17.6211796875,13.83489453125,5.76369140625,11.17916796875,13.86994921875,15.32878515625,18.2692421875,9.52455859375,8.8546640625,13.29039453125,12.11155078125,13.43347265625,9.65262109375,1.141640625,8.4081015625,5.09322265625
8.87063671875,12.8817265625,7.10028515625,7.18403125,14.08084375,17.25170703125,8.24602734375,9.11548046875,13.390234375,17.77503515625,16.21874609375,12.612375,11.9313125,15.54971484375,18.4521796875,14.05289453125,7.16169140625,12.45616796875,15.55694921875,16.02778515625,16.6072421875,8.43255859375,10.3346640625,14.68339453125,12.31755078125,10.42047265625,11.04162109375,2.009640625,9.0391015625,5.28322265625
8.25663671875,15.2627265625,4.21128515625,7.47303125,15.78784375,18.35570703125,10.03702734375,9.42148046875,14.254234375,18.86203515625,17.00174609375,13.104375,11.7983125,17.22871484375,19.6571796875,14.38789453125,7.46669140625,12.87516796875,17.48194921875,16.84878515625,13.6632421875,6.54055859375,11.9576640625,16.09939453125,11.95855078125,5.83047265625,12.68762109375,4.289640625,10.7531015625,6.21322265625
7.70563671875,17.1867265625,2.35528515625,8.17103125,17.70084375,19.59870703125,12.76202734375,9.52048046875,14.864234375,20.14503515625,18.37974609375,13.904375,9.9283125,18.63671484375,21.1601796875,15.27789453125,6.84169140625,12.67416796875,19.29894921875,17.96478515625,10.9352421875,5.01855859375,13.6396640625,17.50039453125,11.61255078125,1.54647265625,14.47662109375,7.367640625,13.1521015625,7.64422265625
7.46063671875,18.1307265625,2.11328515625,9.24403125,19.48784375,20.65170703125,15.65202734375,9.43048046875,15.477234375,21.37503515625,20.18474609375,14.992375,7.1903125,19.43671484375,22.6571796875,16.80289453125,5.56969140625,12.18616796875,20.62394921875,19.30878515625,9.6212421875,4.68855859375,15.1986640625,18.74939453125,11.75455078125,-0.75552734375,16.15962109375,10.317640625,15.5741015625,9.13922265625
7.89863671875,18.0177265625,3.23628515625,10.38503125,20.81484375,21.15370703125,17.62102734375,9.15848046875,16.247234375,22.22203515625,21.94474609375,15.963375,4.5653125,19.43171484375,23.7441796875,18.63289453125,3.95169140625,11.75416796875,21.22094921875,20.59578515625,10.1252421875,5.81055859375,16.4836640625,19.67839453125,12.56355078125,-0.31452734375,17.49662109375,12.350640625,17.4021015625,10.29422265625
9.37463671875,17.2247265625,4.92128515625,11.24803125,21.46584375,20.89570703125,17.79702734375,8.72948046875,17.091234375,22.44103515625,23.10274609375,16.257375,2.8753125,18.70571484375,24.0991796875,20.18489453125,2.27569140625,11.69116796875,21.11494921875,21.44978515625,11.9812421875,8.14455859375,17.4726640625,20.18339453125,13.85455078125,2.44247265625,18.37362109375,13.173640625,18.3111015625,10.90922265625
11.96063671875,16.3187265625,6.39128515625,11.69003125,21.36284375,19.93570703125,16.01102734375,8.19948046875,17.718234375,21.97703515625,23.27174609375,15.472375,2.6273125,17.62871484375,23.6181796875,20.89289453125,0.82969140625,12.22416796875,20.56894921875,21.59178515625,14.1782421875,11.12555859375,18.2836640625,20.27639453125,15.19055078125,6.18947265625,18.82962109375,13.064640625,18.3581015625,11.02722265625
15.23563671875,15.7047265625,7.35128515625,11.83603125,20.54984375,18.57970703125,12.90202734375,7.62048046875,17.786234375,20.97503515625,22.39574609375,13.583375,3.8693125,16.67971484375,22.4651796875,20.45589453125,-0.0973085937499998,13.40716796875,19.94794921875,20.98278515625,15.6822421875,14.04355859375,19.0726640625,20.08939453125,16.10655078125,9.38847265625,19.01062109375,12.664640625,17.9111015625,10.87922265625
18.36063671875,15.4547265625,8.01628515625,11.97703125,19.18684375,17.22670703125,9.61302734375,6.98648046875,17.106234375,19.71003515625,20.78574609375,10.991375,6.1263125,16.21671484375,21.0121796875,18.99389453125,-0.27130859375,15.03116796875,19.55894921875,19.86678515625,15.8842421875,16.19555859375,19.9106640625,19.82839453125,16.35655078125,10.98847265625,19.09562109375,12.612640625,17.4591015625,10.77722265625
20.41763671875,15.3917265625,8.79028515625,12.43103125,17.56084375,16.22370703125,7.31702734375,6.27648046875,15.748234375,18.49503515625,19.02274609375,8.412375,8.5133125,16.30171484375,19.7161796875,17.03889453125,0.39469140625,16.64416796875,19.54194921875,18.69278515625,14.8092421875,17.04155859375,20.7106640625,19.70539453125,16.03455078125,10.80947265625,19.22362109375,13.211640625,17.3781015625,10.97422265625
20.81363671875,15.3047265625,9.86528515625,13.40803125,16.06484375,15.80170703125,6.81702734375,5.57248046875,14.044234375,17.59103515625,17.74974609375,6.642375,10.0533125,16.71771484375,18.9511796875,15.34589453125,1.73869140625,17.72516796875,19.86394921875,17.93578515625,13.0442421875,16.41855859375,21.2716640625,19.84639453125,15.51155078125,9.47347265625,19.44762109375,14.286640625,17.7611015625,11.53522265625
19.51563671875,15.1427265625,11.02628515625,14.94303125,15.12384375,16.04570703125,8.30402734375,5.12748046875,12.508234375,17.15803515625,17.43574609375,6.255375,10.0843125,17.15571484375,18.8911796875,14.61189453125,3.31369140625,17.96516796875,20.39094921875,17.90678515625,11.4672421875,14.70855859375,21.4356640625,20.25539453125,15.23955078125,7.97747265625,19.73662109375,15.333640625,18.4021015625,12.29922265625
17.09263671875,15.0777265625,11.79128515625,16.89903125,15.08484375,16.85470703125,11.27302734375,5.25348046875,11.696234375,17.24703515625,18.19074609375,7.364375,8.5623125,17.45271484375,19.4671796875,15.18489453125,4.54569140625,17.46916796875,20.97894921875,18.63278515625,10.8802421875,12.79055859375,21.2116640625,20.82439453125,15.51955078125,7.16247265625,20.02462109375,15.867640625,18.9481015625,12.96822265625
14.55663671875,15.4147265625,11.72828515625,19.04303125,16.10384375,17.92670703125,14.66802734375,6.09748046875,12.015234375,17.81503515625,19.70774609375,9.527375,6.1193125,17.68771484375,20.4061796875,16.89189453125,5.02469140625,16.72116796875,21.53694921875,19.82778515625,11.6552421875,11.68255859375,20.7656640625,21.36939453125,16.33255078125,7.31947265625,20.22562109375,15.690640625,19.0811015625,13.24522265625
12.97463671875,16.3427265625,10.70528515625,21.08603125,18.02984375,18.83870703125,17.27602734375,7.45648046875,13.533234375,18.71803515625,21.34274609375,11.871375,3.8293125,18.06971484375,21.3021796875,19.05689453125,4.69169140625,16.30516796875,21.98494921875,20.94878515625,13.5312421875,12.00555859375,20.2566640625,21.63539453125,17.29655078125,8.11047265625,20.19562109375,14.890640625,18.6021015625,12.93422265625
12.92763671875,17.6967265625,8.91228515625,22.64603125,20.36784375,19.20570703125,18.19302734375,8.78648046875,15.882234375,19.68903515625,22.31374609375,13.401375,2.7483125,18.70871484375,21.7151796875,20.71589453125,3.74269140625,16.54116796875,22.19794921875,21.34578515625,15.6712421875,13.60255859375,19.6636640625,21.32239453125,17.78455078125,8.82047265625,19.71362109375,13.681640625,17.4421015625,11.96522265625
14.13763671875,18.9067265625,6.73528515625,23.25503125,22.38284375,18.80770703125,17.11702734375,9.43348046875,18.322234375,20.36703515625,21.98174609375,13.406375,3.4273125,19.44771484375,21.2961796875,21.01189453125,2.39269140625,17.27316796875,21.98894921875,20.49178515625,17.0192421875,15.56855859375,18.7586640625,20.16939453125,17.20855078125,8.82147265625,18.54762109375,12.248640625,15.6591015625,10.40622265625
15.60063671875,19.2627265625,4.61428515625,22.57003125,23.34184375,17.66370703125,14.38402734375,8.98648046875,19.973234375,20.38703515625,20.13774609375,11.777375,5.6173125,19.87271484375,19.9211796875,19.57389453125,0.74869140625,17.94016796875,21.16394921875,18.22778515625,16.8122421875,16.70255859375,17.2506640625,18.08439453125,15.32255078125,7.94547265625,16.59762109375,10.721640625,13.4501015625,8.45322265625
16.19563671875,18.3047265625,2.95028515625,20.65503125,22.77184375,16.02570703125,10.80302734375,7.53548046875,20.117234375,19.50803515625,17.12174609375,9.062375,8.3713125,19.48771484375,17.7501796875,16.68089453125,-1.13030859375,17.87016796875,19.60294921875,14.85878515625,14.9242421875,16.13255859375,14.9886640625,15.22139453125,12.36455078125,6.54147265625,13.97362109375,9.183640625,11.0941015625,6.35522265625
15.33663671875,16.0597265625,1.99728515625,18.05003125,20.61384375,14.28270703125,7.35802734375,5.61548046875,18.448234375,17.68103515625,13.66774609375,6.168375,10.4883125,17.92471484375,15.1401796875,13.07089453125,-3.11630859375,16.61616796875,17.28994921875,11.00678515625,11.8322421875,13.80255859375,12.0586640625,11.92039453125,8.92555078125,5.16847265625,10.94562109375,7.658640625,8.8441015625,4.32122265625
13.21263671875,12.9607265625,1.74228515625,15.45803125,17.21084375,12.76170703125,4.81902734375,3.83148046875,15.185234375,15.05503515625,10.54274609375,3.872375,11.0863125,15.09171484375,12.4541796875,9.54489453125,-4.95630859375,14.15216796875,14.30194921875,7.30778515625,8.2582421875,10.50355859375,8.7216640625,8.55539453125,5.65555078125,4.21447265625,7.82162109375,6.117640625,6.8291015625,2.46522265625
10.50763671875,9.5867265625,1.84028515625,13.30603125,13.19184375,11.54270703125,3.46002734375,2.44648046875,11.002234375,11.93503515625,8.21674609375,2.468375,9.9653125,11.22771484375,9.9231796875,6.63489453125,-6.29330859375,10.84016796875,10.79194921875,4.17078515625,4.8262421875,7.39655859375,5.2546640625,5.40939453125,3.00555078125,3.73447265625,4.84862109375,4.528640625,5.0671015625,0.84522265625
7.86863671875,6.4527265625,1.68628515625,11.56703125,9.32784375,10.48370703125,3.08202734375,1.28848046875,6.816234375,8.74703515625,6.74774609375,1.766375,7.6063125,6.85771484375,7.6331796875,4.52489453125,-6.75630859375,7.22716796875,7.00794921875,1.73578515625,1.9432421875,5.33955859375,1.8366640625,2.64939453125,1.15755078125,3.53447265625,2.20062109375,2.921640625,3.5381015625,-0.48477734375
5.55463671875,3.9297265625,0.67928515625,9.95303125,6.35284375,9.43070703125,3.30602734375,0.0464804687499998,3.503234375,5.97903515625,5.91974609375,1.395375,4.8673125,2.68671484375,5.6391796875,3.17989453125,-6.13130859375,3.83316796875,3.31494921875,-0.01021484375,-0.1437578125,4.47955859375,-1.4393359375,0.36639453125,0.0685507812499999,3.32147265625,-0.00837890624999993,1.400640625,2.2571015625,-1.46977734375
3.47563671875,2.2177265625,-1.40071484375,8.24203125,4.77384375,8.39970703125,3.79402734375,-1.30851953125,1.639234375,4.06003515625,5.44874609375,1.117375,2.6103125,-0.58028515625,4.0501796875,2.49389453125,-4.52530859375,1.03816796875,0.16394921875,-1.11121484375,-1.2917578125,4.33255859375,-4.4663359375,-1.37560546875,-0.42944921875,2.77847265625,-1.69237890625,0.111640625,1.2961015625,-2.08377734375
1.50263671875,1.3027265625,-4.10871484375,6.42503125,4.66584375,7.52170703125,4.22402734375,-2.36551953125,1.322234375,3.18603515625,5.11474609375,0.914375,1.3903125,-2.46428515625,2.9871796875,2.32889453125,-2.39130859375,-0.97583203125,-2.02805078125,-1.62221484375,-1.5037578125,4.13055859375,-7.0903359375,-2.55060546875,-0.56344921875,1.65347265625,-2.79437890625,-0.808359375,0.7591015625,-2.33077734375
-0.27436328125,0.9527265625,-6.46371484375,4.59203125,5.56484375,6.84570703125,4.19302734375,-2.48851953125,2.127234375,3.17903515625,4.77174609375,0.848375,1.2653125,-2.90928515625,2.4671796875,2.46289453125,-0.36030859375,-2.25883203125,-3.06405078125,-1.66421484375,-0.9777578125,3.14955859375,-9.1763359375,-3.21360546875,-0.56044921875,-0.10852734375,-3.32437890625,-1.300359375,0.6991015625,-2.23277734375
-1.55036328125,0.8617265625,-7.50371484375,2.81803125,6.59284375,6.25370703125,3.35602734375,-1.24551953125,3.249234375,3.52203515625,4.33074609375,0.896375,1.7703125,-2.33328515625,2.3141796875,2.59089453125,1.03869140625,-3.07783203125,-3.07105078125,-1.45621484375,-0.0767578124999999,0.94555859375,-10.6993359375,-3.51960546875,-0.60344921875,-2.24952734375,-3.40337890625,-1.464359375,1.0121015625,-1.85577734375
-2.00436328125,0.8687265625,-6.91871484375,1.20703125,6.85784375,5.58870703125,1.75202734375,1.26848046875,3.814234375,3.61303515625,3.79574609375,0.932375,2.1553125,-1.42928515625,2.2331796875,2.43889453125,1.56069140625,-3.75583203125,-2.43805078125,-1.25321484375,0.7872421875,-2.37644140625,-11.7193359375,-3.66060546875,-0.79244921875,-4.27252734375,-3.24637890625,-1.576359375,1.3881015625,-1.35277734375
-1.51936328125,1.0657265625,-5.24371484375,0.0120312500000002,5.91384375,4.83770703125,-0.0289726562499999,4.37048046875,3.265234375,3.11103515625,3.31274609375,0.835375,1.8413125,-0.80328515625,2.0051796875,1.93689453125,1.25369140625,-4.40083203125,-1.58905078125,-1.20921484375,1.3052421875,-6.00144140625,-12.2373359375,-3.73460546875,-1.11144921875,-5.67752734375,-3.05537890625,-1.955359375,1.4241015625,-0.94777734375
-0.27236328125,1.6247265625,-3.43171484375,-0.40296875,3.98284375,4.16570703125,-1.09197265625,7.04048046875,1.602234375,2.12303515625,3.13774609375,0.617375,0.7923125,-0.68928515625,1.6231796875,1.29589453125,0.32369140625,-4.76283203125,-0.76205078125,-1.27221484375,1.3752421875,-8.60144140625,-12.1013359375,-3.66360546875,-1.43544921875,-6.18452734375,-2.89737890625,-2.742359375,0.8441015625,-0.82777734375
1.28663671875,2.5047265625,-2.15971484375,0.18803125,1.77384375,3.80570703125,-0.74397265625,8.36848046875,-0.655765625,1.11103515625,3.49974609375,0.447375,-0.4646875,-0.92128515625,1.2861796875,0.918894531250001,-1.00030859375,-4.38783203125,0.03694921875,-1.21521484375,1.1432421875,-8.98344140625,-11.0753359375,-3.23760546875,-1.56644921875,-5.79052734375,-2.67237890625,-3.735359375,-0.3138984375,-1.03477734375
2.58363671875,3.3337265625,-1.45571484375,1.66903125,0.0718437500000002,3.90770703125,1.11102734375,7.98148046875,-2.762765625,0.59503515625,4.44474609375,0.584375,-1.1976875,-1.12928515625,1.2311796875,1.17889453125,-2.50630859375,-2.97583203125,0.91194921875,-0.78321484375,0.9412421875,-6.80944140625,-9.0523359375,-2.27260546875,-1.31344921875,-4.66452734375,-2.20737890625,-4.456359375,-1.6938984375,-1.45777734375
3.11663671875,3.6327265625,-0.91271484375,3.62803125,-0.58915625,4.46470703125,3.93302734375,6.20548046875,-4.073765625,0.89203515625,5.78974609375,1.244375,-0.8956875,-0.99328515625,1.5651796875,2.20789453125,-3.97330859375,-0.64283203125,1.91494921875,0.13478515625,1.1272421875,-2.82544140625,-6.2203359375,-0.76460546875,-0.58544921875,-3.01752734375,-1.40337890625,-4.427359375,-2.8318984375,-1.93177734375
2.60863671875,3.1557265625,-0.21971484375,5.60203125,-0.05515625,5.30270703125,6.82402734375,3.86948046875,-4.250765625,1.99503515625,7.18374609375,2.430375,0.5203125,-0.38428515625,2.1741796875,3.78489453125,-5.19330859375,2.12316796875,2.97594921875,1.37978515625,1.8292421875,1.56255859375,-3.0713359375,1.03539453125,0.51755078125,-1.10852734375,-0.35037890625,-3.502359375,-3.4248984375,-2.37877734375
1.00863671875,2.0057265625,0.46728515625,7.26503125,1.46784375,6.11070703125,8.89402734375,1.84948046875,-3.307765625,3.57903515625,8.18874609375,3.799375,2.7663125,0.62171484375,2.7451796875,5.33989453125,-6.04230859375,4.72216796875,3.91994921875,2.50878515625,2.7202421875,5.09855859375,-0.2373359375,2.67139453125,1.64255078125,0.60947265625,0.67562109375,-2.021359375,-3.5278984375,-2.89777734375
-1.59736328125,0.4597265625,0.60628515625,8.39503125,3.48584375,6.50270703125,9.55902734375,0.63248046875,-1.563765625,5.10003515625,8.36274609375,4.675375,5.4043125,1.79471484375,2.8821796875,6.11489453125,-6.54830859375,6.72216796875,4.53294921875,2.91878515625,3.0172421875,7.32255859375,1.7366640625,3.62139453125,2.22855078125,1.43247265625,1.31062109375,-0.672359375,-3.5168984375,-3.71477734375
-4.94236328125,-1.2462734375,-0.33371484375,8.75103125,5.36284375,6.13370703125,8.70602734375,0.15048046875,0.471234375,5.98103515625,7.41774609375,4.329375,8.0033125,2.84271484375,2.3041796875,5.49489453125,-6.84830859375,7.96216796875,4.65894921875,2.12478515625,1.8692421875,8.60855859375,2.5686640625,3.52939453125,1.74755078125,0.65947265625,1.28962109375,-0.103359375,-3.8268984375,-5.00677734375
-8.36636328125,-2.9242734375,-2.44171484375,8.10403125,6.56184375,4.87470703125,6.71702734375,-0.0145195312500002,2.257234375,5.85903515625,5.43174609375,2.435375,10.1703125,3.51371484375,1.0401796875,3.39489453125,-7.04930859375,8.47616796875,4.27194921875,0.0717851562500003,-1.0297578125,9.59455859375,2.2886640625,2.40339453125,0.0305507812500001,-1.92252734375,0.62062109375,-0.535359375,-4.6268984375,-6.69977734375
-10.71236328125,-4.2942734375,-5.19271484375,6.47703125,6.83884375,2.94670703125,4.37702734375,-0.22051953125,3.377234375,4.74803515625,2.94874609375,-0.615625,11.5113125,3.65171484375,-0.544820312500001,0.445894531250001,-7.11430859375,8.30616796875,3.48494921875,-2.73021484375,-5.0697578125,10.47255859375,1.1396640625,0.65739453125,-2.53544921875,-5.72452734375,-0.40037890625,-1.662359375,-5.6798984375,-8.41277734375
-10.66036328125,-4.9452734375,-7.64771484375,4.32603125,6.25284375,0.89170703125,2.57302734375,-0.51551953125,3.598234375,2.99703515625,0.792746093750001,-3.831625,11.6523125,3.18671484375,-1.9318203125,-2.24310546875,-6.90830859375,7.40316796875,2.46094921875,-5.38821484375,-8.9217578125,10.69655859375,-0.5783359375,-1.08360546875,-5.13544921875,-9.52952734375,-1.35237890625,-2.891359375,-6.4938984375,-9.62577734375
-7.48136328125,-4.5422734375,-8.86971484375,2.41203125,5.02184375,-0.69429296875,1.85102734375,-0.70551953125,2.884234375,1.08703515625,-0.328253906249999,-6.132625,10.4163125,2.11771484375,-2.7288203125,-3.61210546875,-6.37230859375,5.69716796875,1.32294921875,-7.03521484375,-11.2087578125,9.38655859375,-2.6073359375,-2.27260546875,-6.88944921875,-12.04552734375,-1.88937890625,-3.699359375,-6.6218984375,-9.93477734375
-1.70836328125,-3.1102734375,-8.32971484375,1.41303125,3.36884375,-1.49329296875,2.07502734375,-0.62451953125,1.393234375,-0.58096484375,-0.189253906249999,-6.923625,8.0133125,0.52571484375,-2.8588203125,-3.16810546875,-5.63330859375,3.29016796875,0.12794921875,-7.19921484375,-11.1907578125,6.08355859375,-4.7143359375,-2.63760546875,-7.23444921875,-12.48052734375,-1.84737890625,-3.818359375,-5.8818984375,-9.21477734375
4.87163671875,-1.1182734375,-6.10171484375,1.56603125,1.45684375,-1.63229296875,2.52202734375,-0.32151953125,-0.547765625,-1.81196484375,0.866746093750001,-6.340625,5.0563125,-1.39928515625,-2.5358203125,-1.17310546875,-4.93430859375,0.54516796875,-1.08305078125,-5.96621484375,-9.0467578125,1.22855859375,-6.6523359375,-2.21760546875,-6.10344921875,-10.84352734375,-1.26037890625,-3.256359375,-4.4248984375,-7.65577734375
10.04963671875,0.7317265625,-2.82171484375,2.60103125,-0.58915625,-1.52929296875,2.42502734375,-0.0155195312500002,-2.524765625,-2.62396484375,2.13874609375,-5.029625,2.2743125,-3.38628515625,-2.1178203125,1.54489453125,-4.42530859375,-2.05283203125,-2.24605078125,-3.88921484375,-5.6907578125,-4.03444140625,-8.1923359375,-1.29460546875,-3.88944921875,-7.89752734375,-0.33937890625,-2.274359375,-2.6958984375,-5.71777734375
12.33463671875,1.8517265625,0.52928515625,3.93503125,-2.64115625,-1.59529296875,1.53602734375,0.0704804687499998,-4.183765625,-3.18996484375,2.91274609375,-3.699625,0.1553125,-5.17028515625,-1.9378203125,3.98589453125,-4.04730859375,-4.14483203125,-3.28605078125,-1.73621484375,-2.3137578125,-8.46944140625,-9.2273359375,-0.27960546875,-1.26944921875,-4.85352734375,0.55562109375,-1.378359375,-1.3248984375,-4.03477734375
11.61363671875,2.0077265625,2.96628515625,4.94803125,-4.55315625,-2.04729296875,0.23402734375,-0.16151953125,-5.364765625,-3.73996484375,2.74574609375,-2.767625,-1.2226875,-6.58228515625,-2.1918203125,5.37289453125,-3.61430859375,-5.65983203125,-4.15105078125,-0.21121484375,0.0662421874999999,-11.29644140625,-9.8323359375,0.41739453125,1.03155078125,-2.88652734375,1.01962109375,-1.210359375,-0.9308984375,-3.22277734375
8.87763671875,1.2867265625,3.85228515625,5.17503125,-6.18915625,-2.91929296875,-0.87897265625,-0.66751953125,-6.167765625,-4.45896484375,1.55974609375,-2.292625,-2.0856875,-7.58428515625,-2.9048203125,5.36789453125,-3.04430859375,-6.76383203125,-4.84005078125,0.26278515625,0.8842421875,-12.34244140625,-10.2243359375,0.52239453125,2.44455078125,-2.65252734375,0.75462109375,-2.300359375,-1.8658984375,-3.64977734375
5.31663671875,-0.1302734375,3.10928515625,4.38003125,-7.47615625,-4.12729296875,-1.46397265625,-1.29551953125,-6.880765625,-5.40896484375,-0.408253906249999,-2.143625,-2.7386875,-8.24528515625,-3.9588203125,4.07889453125,-2.50430859375,-7.69683203125,-5.39305078125,-0.36121484375,0.1092421875,-11.90044140625,-10.6203359375,-0.0346054687499996,2.69455078125,-4.05752734375,-0.29637890625,-4.783359375,-4.0628984375,-5.28677734375
1.54463671875,-2.1432734375,1.19828515625,2.59803125,-8.37315625,-5.46929296875,-1.60097265625,-1.84451953125,-7.791765625,-6.47496484375,-2.70925390625,-2.186625,-3.3776875,-8.66428515625,-5.1248203125,1.95389453125,-2.33330859375,-8.59083203125,-5.85305078125,-1.79121484375,-1.8337578125,-10.50244140625,-11.1113359375,-1.10460546875,1.85255078125,-6.39152734375,-1.91037890625,-8.243359375,-7.0268984375,-7.72477734375
-2.49036328125,-4.7162734375,-1.10971484375,0.15003125,-8.77315625,-6.57529296875,-1.57097265625,-2.10851953125,-8.951765625,-7.34496484375,-4.75325390625,-2.325625,-4.0166875,-8.86628515625,-6.0908203125,-0.357105468749999,-2.75730859375,-9.37883203125,-6.20205078125,-3.50421484375,-4.2287578125,-8.75544140625,-11.6103359375,-2.35160546875,0.32655078125,-8.70352734375,-3.63837890625,-11.785359375,-9.9898984375,-10.31477734375
-6.95936328125,-7.6822734375,-3.07271484375,-2.40696875,-8.44315625,-6.96029296875,-1.51197265625,-1.93751953125,-10.068765625,-7.58796484375,-5.90725390625,-2.435625,-4.5026875,-8.77328515625,-6.5148203125,-2.14710546875,-3.64030859375,-9.81583203125,-6.34205078125,-4.91121484375,-6.2607578125,-7.23644140625,-11.9173359375,-3.34460546875,-1.24744921875,-10.18852734375,-4.93637890625,-14.337359375,-12.1508984375,-12.36277734375
-11.49336328125,-10.5892734375,-4.27671484375,-4.43196875,-7.14715625,-6.21029296875,-1.24997265625,-1.28851953125,-10.644765625,-6.87396484375,-5.70925390625,-2.326625,-4.6066875,-8.29728515625,-6.1848203125,-2.85610546875,-4.47730859375,-9.63283203125,-6.17505078125,-5.58121484375,-7.2657578125,-6.40344140625,-11.8623359375,-3.71960546875,-2.23444921875,-10.43452734375,-5.37637890625,-15.100359375,-12.9528984375,-13.34777734375
-14.99136328125,-12.7452734375,-4.79971484375,-5.43496875,-4.93815625,-4.24729296875,-0.43197265625,-0.26551953125,-10.315765625,-5.26396484375,-4.14925390625,-1.837625,-4.1726875,-7.51328515625,-5.2108203125,-2.32510546875,-4.64030859375,-8.72783203125,-5.76005078125,-5.44321484375,-6.9827578125,-6.49144140625,-11.4433359375,-3.38560546875,-2.30344921875,-9.53952734375,-4.86137890625,-13.921359375,-12.2878984375,-13.10577734375
-16.11036328125,-13.5052734375,-5.14571484375,-5.30996875,-2.34015625,-1.52429296875,1.10102734375,0.85248046875,-9.132765625,-3.33296484375,-1.83425390625,-1.006625,-3.2476875,-6.72928515625,-4.1008203125,-0.940105468749999,-3.71530859375,-7.27483203125,-5.37605078125,-4.85521484375,-5.7117578125,-7.40944140625,-10.8553359375,-2.61260546875,-1.61644921875,-8.07052734375,-3.70237890625,-11.364359375,-10.5378984375,-11.88277734375
-14.12836328125,-12.6152734375,-5.95671484375,-4.41296875,-0.21415625,1.02670703125,3.02302734375,1.65248046875,-7.563765625,-1.96896484375,0.162746093750001,-0.132625,-2.0926875,-6.35628515625,-3.5828203125,0.480894531250001,-1.74330859375,-5.63383203125,-5.39005078125,-4.43721484375,-4.1937578125,-8.70744140625,-10.3723359375,-1.89760546875,-0.74944921875,-6.81652734375,-2.46837890625,-8.437359375,-8.3938984375,-10.21477734375
-9.56436328125,-10.3822734375,-7.63371484375,-3.38896875,0.64184375,2.34470703125,4.55802734375,1.71948046875,-6.211765625,-1.91296484375,0.756746093750001,0.343375,-1.0316875,-6.62228515625,-4.2128203125,1.05089453125,0.73669140625,-4.10683203125,-5.98705078125,-4.71521484375,-3.2547578125,-9.61644140625,-10.1153359375,-1.66860546875,-0.35744921875,-6.38652734375,-1.68037890625,-6.120359375,-6.5528984375,-8.68777734375
-4.05836328125,-7.5402734375,-10.04671484375,-2.77396875,-0.0861562499999997,1.78370703125,4.89702734375,0.79848046875,-5.459765625,-3.33196484375,-0.622253906249999,0.0643749999999998,-0.2156875,-7.35028515625,-6.0108203125,0.251894531250001,2.87169140625,-2.69683203125,-6.95505078125,-5.80521484375,-3.3747578125,-9.21544140625,-9.8883359375,-2.02160546875,-0.76844921875,-6.85952734375,-1.53937890625,-4.954359375,-5.4548984375,-7.71877734375
0.39363671875,-4.9272734375,-12.50871484375,-2.65596875,-2.06515625,-0.49929296875,3.71002734375,-1.08651953125,-5.279765625,-5.68896484375,-3.71125390625,-1.042625,0.5173125,-7.98528515625,-8.3688203125,-1.80710546875,3.84669140625,-1.07783203125,-7.71905078125,-7.31921484375,-4.4547578125,-6.73344140625,-9.2153359375,-2.66760546875,-1.79444921875,-7.73552734375,-1.84537890625,-4.887359375,-5.1708984375,-7.44377734375
2.36163671875,-3.1792734375,-14.04571484375,-2.64796875,-4.46515625,-3.58529296875,1.39902734375,-3.60751953125,-5.307765625,-8.00096484375,-7.49325390625,-2.707625,1.5483125,-7.88228515625,-10.3098203125,-4.43010546875,3.26669140625,1.16416796875,-7.64705078125,-8.58721484375,-5.9237578125,-1.96044140625,-7.6333359375,-3.13960546875,-2.86244921875,-8.24852734375,-2.17937890625,-5.429359375,-5.4808984375,-7.73877734375
1.53863671875,-2.5992734375,-13.85471484375,-2.19096875,-6.36115625,-6.23829296875,-1.05897265625,-6.17351953125,-5.107765625,-9.34896484375,-10.64625390625,-4.425625,3.1733125,-6.72828515625,-11.0028203125,-6.68010546875,1.31869140625,4.11116796875,-6.48105078125,-9.05221484375,-7.1187578125,4.38555859375,-5.0993359375,-3.13560546875,-3.40844921875,-7.87652734375,-2.22137890625,-6.015359375,-6.0648984375,-8.33677734375
-1.25936328125,-3.1612734375,-11.73271484375,-0.92196875,-7.14415625,-7.49129296875,-2.57797265625,-8.01951953125,-4.445765625,-9.35196484375,-12.15525390625,-5.664625,5.2913125,-4.82128515625,-10.2268203125,-7.83410546875,-1.38330859375,7.21516796875,-4.60005078125,-8.62321484375,-7.6877578125,10.58155859375,-2.2233359375,-2.78160546875,-3.27744921875,-6.72252734375,-2.02037890625,-6.334359375,-6.6778984375,-8.98677734375
-4.60636328125,-4.5982734375,-8.24171484375,1.12703125,-6.74815625,-7.04829296875,-2.47797265625,-8.42551953125,-3.430765625,-8.33396484375,-11.75925390625,-6.100625,7.3543125,-3.01428515625,-8.5158203125,-7.72310546875,-4.13530859375,9.39116796875,-2.92705078125,-7.76021484375,-7.7917578125,14.43355859375,-0.1113359375,-2.62460546875,-2.84744921875,-5.49952734375,-2.01037890625,-6.414359375,-7.2118984375,-9.53877734375
-7.24736328125,-6.5072734375,-4.51271484375,3.55003125,-5.57915625,-5.38529296875,-0.83297265625,-7.06251953125,-2.415765625,-7.09596484375,-10.01325390625,-5.736625,8.6773125,-2.29028515625,-6.8748203125,-6.76310546875,-6.34930859375,9.55316796875,-2.44905078125,-7.21521484375,-7.9427578125,14.32055859375,0.1866640625,-3.30360546875,-2.77944921875,-5.11152734375,-2.70337890625,-6.451359375,-7.6108984375,-9.91977734375
-8.75736328125,-8.4732734375,-1.80371484375,5.66803125,-4.24615625,-3.49729296875,1.55402734375,-4.27951953125,-1.724765625,-6.44196484375,-7.95225390625,-4.868625,8.8783125,-3.19828515625,-6.2288203125,-5.68310546875,-7.55030859375,7.29816796875,-3.64605078125,-7.58421484375,-8.6007578125,10.21855859375,-1.6943359375,-5.10360546875,-3.53844921875,-6.04952734375,-4.28637890625,-6.566359375,-7.7838984375,-10.04577734375
-9.61336328125,-10.1502734375,-1.03171484375,6.66203125,-3.28515625,-2.43229296875,3.54002734375,-1.09451953125,-1.431765625,-6.77296484375,-6.59125390625,-3.938625,8.1083125,-5.51228515625,-6.9488203125,-5.14310546875,-7.34330859375,3.25016796875,-6.16805078125,-8.94321484375,-9.7757578125,3.89955859375,-5.1433359375,-7.67360546875,-5.02744921875,-7.99752734375,-6.39937890625,-6.717359375,-7.6018984375,-9.79277734375
-10.58036328125,-11.2692734375,-2.48171484375,5.77303125,-3.02215625,-2.82129296875,4.18002734375,1.19748046875,-1.375765625,-7.97196484375,-6.50825390625,-3.366625,6.8893125,-8.35128515625,-8.7268203125,-5.45710546875,-5.58030859375,-1.22583203125,-9.00905078125,-10.80221484375,-10.9537578125,-1.96444140625,-8.8443359375,-10.14160546875,-6.59044921875,-9.94052734375,-8.27837890625,-6.772359375,-6.9938984375,-9.05477734375
-11.86736328125,-11.6172734375,-5.73071484375,2.65103125,-3.57115625,-4.66729296875,3.09702734375,1.59648046875,-1.413765625,-9.58196484375,-7.69125390625,-3.438625,5.7233125,-10.66728515625,-10.8188203125,-6.53510546875,-2.61130859375,-4.73283203125,-11.03405078125,-12.37521484375,-11.4117578125,-5.24144140625,-11.4403359375,-11.54060546875,-7.37644921875,-10.73752734375,-9.15737890625,-6.603359375,-6.0168984375,-7.83077734375
-12.73336328125,-11.0362734375,-9.75371484375,-2.29796875,-4.88315625,-7.44529296875,0.54902734375,-0.15151953125,-1.653765625,-11.10696484375,-9.62125390625,-4.228625,4.8343125,-11.77828515625,-12.4678203125,-8.00210546875,0.65969140625,-6.49483203125,-11.53105078125,-12.98921484375,-10.6927578125,-5.32644140625,-12.1873359375,-11.30060546875,-6.81944921875,-9.78052734375,-8.66237890625,-6.120359375,-4.8308984375,-6.23777734375
-11.90336328125,-9.5062734375,-13.18771484375,-7.80696875,-6.79315625,-10.40429296875,-2.73597265625,-3.40651953125,-2.458765625,-12.24396484375,-11.55625390625,-5.571625,4.1503125,-11.64228515625,-13.2538203125,-9.39610546875,3.10669140625,-6.59383203125,-10.51105078125,-12.39721484375,-8.9117578125,-3.11644140625,-11.2343359375,-9.52860546875,-4.94044921875,-7.31652734375,-6.97937890625,-5.264359375,-3.6138984375,-4.46677734375
-8.57136328125,-7.2932734375,-14.75671484375,-12.16696875,-9.08215625,-12.86929296875,-5.81997265625,-6.89451953125,-4.208765625,-12.97796484375,-12.85225390625,-7.106625,3.4263125,-10.81328515625,-13.2438203125,-10.36210546875,3.93869140625,-5.78583203125,-8.65905078125,-10.87821484375,-6.7037578125,-0.25244140625,-9.4723359375,-6.96760546875,-2.34044921875,-4.27252734375,-4.75337890625,-4.040359375,-2.4948984375,-2.72477734375
-3.28336328125,-5.0672734375,-13.78571484375,-14.05996875,-11.53515625,-14.47729296875,-7.83497265625,-9.27351953125,-7.047765625,-13.53696484375,-13.21725390625,-8.386625,2.3343125,-10.15928515625,-12.8978203125,-10.75910546875,3.08969140625,-5.12583203125,-7.03805078125,-9.10721484375,-4.8897578125,1.70455859375,-8.1083359375,-4.68960546875,0.06755078125,-1.73952734375,-2.82437890625,-2.612359375,-1.5778984375,-1.22177734375
1.93763671875,-3.7932734375,-10.58271484375,-13.32696875,-13.96115625,-15.25529296875,-8.23697265625,-9.76551953125,-10.767765625,-14.23596484375,-12.77325390625,-9.020625,0.5493125,-10.51128515625,-12.8178203125,-10.66210546875,1.18269140625,-5.57683203125,-6.68605078125,-7.86821484375,-4.0897578125,1.70855859375,-8.2043359375,-3.67360546875,1.43755078125,-0.45652734375,-1.93137890625,-1.350359375,-1.0028984375,-0.17977734375
4.42263671875,-4.3492734375,-6.42071484375,-11.08296875,-16.18215625,-15.51429296875,-6.95497265625,-8.46151953125,-14.844765625,-15.29596484375,-11.93425390625,-8.787625,-2.1286875,-12.33028515625,-13.4598203125,-10.28710546875,-0.88330859375,-7.68183203125,-8.21005078125,-7.72421484375,-4.4667578125,-0.64244140625,-10.2833359375,-4.45160546875,1.29655078125,-0.56452734375,-2.47937890625,-0.747359375,-0.9678984375,0.18522265625
2.21263671875,-7.0212734375,-3.00571484375,-9.05096875,-18.02415625,-15.60429296875,-4.38097265625,-6.13551953125,-18.561765625,-16.71496484375,-11.17625390625,-7.702625,-5.5706875,-15.48328515625,-14.9278203125,-9.89910546875,-2.39730859375,-11.31583203125,-11.54005078125,-8.79421484375,-5.7167578125,-5.02844140625,-14.1023359375,-6.93260546875,-0.30544921875,-1.67752734375,-4.40337890625,-1.164359375,-1.6228984375,-0.24977734375
-4.83036328125,-11.2142734375,-1.68171484375,-8.61496875,-19.32315625,-15.70229296875,-1.26197265625,-3.73151953125,-21.160765625,-18.24396484375,-10.84025390625,-6.041625,-9.1726875,-19.21728515625,-16.9178203125,-9.73510546875,-3.04130859375,-15.61183203125,-15.88705078125,-10.70421484375,-7.2307578125,-10.31944140625,-18.6553359375,-10.42660546875,-2.83344921875,-3.12752734375,-7.14837890625,-2.540359375,-2.8948984375,-1.38877734375
-14.76536328125,-15.6012734375,-2.81371484375,-10.18796875,-19.94115625,-15.77229296875,1.45602734375,-1.89651953125,-22.031765625,-19.46996484375,-11.02025390625,-4.279625,-11.9256875,-22.36828515625,-18.8298203125,-9.93610546875,-2.83130859375,-19.17283203125,-19.97805078125,-12.74021484375,-8.3487578125,-14.72044140625,-22.4813359375,-13.85460546875,-5.44544921875,-4.22352734375,-9.80037890625,-4.291359375,-4.3948984375,-2.84877734375
-24.27936328125,-18.6622734375,-5.66571484375,-13.16996875,-19.81915625,-15.67429296875,2.87402734375,-0.79951953125,-20.942765625,-19.99496484375,-11.57825390625,-2.962625,-12.7826875,-23.78528515625,-20.0078203125,-10.51210546875,-1.95230859375,-20.58683203125,-22.51105078125,-14.13321484375,-8.6047578125,-16.38744140625,-24.2083359375,-16.10560546875,-7.27344921875,-4.46652734375,-11.38537890625,-5.543359375,-5.5308984375,-4.05177734375
-30.00136328125,-19.3302734375,-8.78171484375,-16.33596875,-19.07415625,-15.30529296875,2.45402734375,-0.27151953125,-18.251765625,-19.64296484375,-12.27025390625,-2.495625,-11.1966875,-22.84228515625,-20.0318203125,-11.33710546875,-0.66830859375,-19.07483203125,-22.67105078125,-14.37821484375,-7.8957578125,-14.31744140625,-23.1163359375,-16.45260546875,-7.73044921875,-3.73352734375,-11.24837890625,-5.587359375,-5.7908984375,-4.47977734375
-29.83936328125,-17.4042734375,-10.64971484375,-18.37896875,-18.06815625,-14.71129296875,0.26202734375,-0.0655195312500002,-14.929765625,-18.61096484375,-12.91225390625,-2.967625,-7.5126875,-19.76628515625,-18.9318203125,-12.20610546875,0.72969140625,-14.92283203125,-20.48205078125,-13.44721484375,-6.4967578125,-8.97044140625,-19.4493359375,-14.84060546875,-6.72344921875,-2.32252734375,-9.35037890625,-4.268359375,-5.0138984375,-3.92877734375
-23.77136328125,-13.5872734375,-10.34171484375,-18.38596875,-17.32615625,-14.13929296875,-3.06797265625,-0.0825195312500002,-12.254765625,-17.42996484375,-13.48125390625,-4.103625,-2.9206875,-15.61028515625,-17.2138203125,-12.91710546875,1.98269140625,-9.41483203125,-16.80405078125,-11.79621484375,-4.9417578125,-2.16344140625,-14.3143359375,-11.91060546875,-4.69444921875,-0.82452734375,-6.30937890625,-2.060359375,-3.4708984375,-2.59777734375
-13.74936328125,-9.1452734375,-7.87871484375,-16.14696875,-17.30215625,-13.98029296875,-6.64497265625,-0.40651953125,-11.257765625,-16.74296484375,-14.11925390625,-5.408625,1.0323125,-11.83328515625,-15.6618203125,-13.37110546875,2.95069140625,-4.28983203125,-12.97505078125,-10.18721484375,-3.8347578125,3.76055859375,-9.2503359375,-8.75760546875,-2.49044921875,0.13147265625,-3.18137890625,0.183640625,-1.7568984375,-1.01377734375
-2.79436328125,-5.3932734375,-4.21571484375,-12.23496875,-18.13715625,-14.58729296875,-9.67697265625,-1.18051953125,-12.221765625,-17.00096484375,-15.03125390625,-6.445625,3.1283125,-9.71328515625,-15.0278203125,-13.65010546875,3.65369140625,-1.03883203125,-10.31405078125,-9.41321484375,-3.6817578125,6.94855859375,-5.6883359375,-6.53660546875,-1.11044921875,0.0914726562499999,-1.10337890625,1.589640625,-0.5908984375,0.15122265625
6.19163671875,-3.2402734375,-0.82471484375,-7.80096875,-19.56515625,-16.03629296875,-11.68297265625,-2.42151953125,-14.541765625,-18.25596484375,-16.32925390625,-7.050625,2.9643125,-9.86528515625,-15.7158203125,-13.98310546875,4.21669140625,-0.37583203125,-9.67305078125,-10.02721484375,-4.7647578125,6.68655859375,-4.4993359375,-6.09260546875,-1.38744921875,-1.08152734375,-0.93537890625,1.591640625,-0.5908984375,0.26922265625
11.27663671875,-2.9852734375,0.95528515625,-4.15896875,-20.99415625,-18.02129296875,-12.52297265625,-3.90051953125,-17.002765625,-20.10296484375,-17.89125390625,-7.347625,1.0433125,-12.03428515625,-17.5958203125,-14.59310546875,4.73069140625,-2.08783203125,-11.17405078125,-12.12421484375,-7.0197578125,3.46055859375,-5.7673359375,-7.67260546875,-3.64844921875,-3.12152734375,-2.95337890625,0.127640625,-2.0388984375,-1.00477734375
11.73863671875,-4.3652734375,0.54828515625,-2.32496875,-21.71315625,-19.94029296875,-12.32297265625,-5.16251953125,-18.288765625,-21.79496484375,-19.31225390625,-7.561625,-1.5146875,-15.19928515625,-19.9848203125,-15.48810546875,5.11469140625,-5.19883203125,-14.16405078125,-15.24021484375,-9.9787578125,-1.38144140625,-8.7903359375,-10.81160546875,-7.48544921875,-5.35552734375,-6.68437890625,-2.315359375,-4.6998984375,-3.52777734375
7.89363671875,-6.7692734375,-1.62771484375,-2.69196875,-21.17715625,-21.12729296875,-11.33997265625,-5.67751953125,-17.510765625,-22.51596484375,-20.01725390625,-7.788625,-3.4626875,-17.97728515625,-21.8778203125,-16.38210546875,5.06169140625,-8.35783203125,-17.43605078125,-18.46121484375,-12.8777578125,-6.08444140625,-12.3273359375,-14.47460546875,-11.80844921875,-6.92252734375,-11.02337890625,-4.905359375,-7.8398984375,-6.63877734375
0.86563671875,-9.4572734375,-4.43871484375,-4.92596875,-19.28315625,-21.09229296875,-9.81897265625,-5.07551953125,-14.591765625,-21.74396484375,-19.52925390625,-7.919625,-3.9306875,-19.18128515625,-22.3678203125,-16.83110546875,4.15369140625,-10.33783203125,-19.68605078125,-20.76921484375,-14.9587578125,-9.02044140625,-15.0723359375,-17.45860546875,-15.27744921875,-7.23552734375,-14.65537890625,-6.863359375,-10.5228984375,-9.40277734375
-7.57036328125,-11.7352734375,-6.65671484375,-8.08396875,-16.47415625,-19.69729296875,-7.94497265625,-3.36351953125,-10.364765625,-19.51996484375,-17.74425390625,-7.767625,-2.7586875,-18.33128515625,-21.0788203125,-16.51510546875,2.14169140625,-10.51883203125,-20.05405078125,-21.47721484375,-15.8287578125,-9.27244140625,-16.1973359375,-18.90260546875,-16.89444921875,-6.42952734375,-16.62337890625,-7.843359375,-12.0318984375,-11.02377734375
-15.21136328125,-13.0752734375,-7.48571484375,-10.90096875,-13.58515625,-17.21729296875,-5.91197265625,-0.99851953125,-6.299765625,-16.47296484375,-15.02525390625,-7.279625,-0.5416875,-15.85128515625,-18.3528203125,-15.44510546875,-0.71730859375,-9.12683203125,-18.46805078125,-20.50021484375,-15.5917578125,-7.04644140625,-15.6813359375,-18.60060546875,-16.41644921875,-5.36252734375,-16.69137890625,-8.041359375,-12.1628984375,-11.14877734375
-19.91136328125,-13.2092734375,-6.73971484375,-12.17696875,-11.48215625,-14.25229296875,-4.00097265625,1.27048046875,-3.900765625,-13.54296484375,-12.06525390625,-6.614625,1.6473125,-12.81028515625,-15.0688203125,-13.93110546875,-3.55630859375,-7.08883203125,-15.59805078125,-18.30221484375,-14.6447578125,-3.63644140625,-14.2213359375,-16.95560546875,-14.33444921875,-5.05252734375,-15.32137890625,-7.974359375,-11.2198984375,-9.94477734375
-20.26136328125,-12.1732734375,-4.70271484375,-11.19396875,-10.69515625,-11.49429296875,-2.56997265625,2.73548046875,-4.031765625,-11.55196484375,-9.59025390625,-6.056625,2.7103125,-10.38228515625,-12.2078203125,-12.37110546875,-5.23030859375,-5.56883203125,-12.48105078125,-15.57521484375,-13.3187578125,-0.83244140625,-12.7753359375,-14.65560546875,-11.48844921875,-5.90552734375,-13.30037890625,-8.101359375,-9.7698984375,-7.92477734375
-16.19436328125,-10.3132734375,-1.93371484375,-8.00696875,-11.20615625,-9.47729296875,-1.94397265625,3.03848046875,-6.529765625,-10.87096484375,-8.09425390625,-5.836625,1.9643125,-9.32328515625,-10.4378203125,-11.04210546875,-4.95630859375,-5.42283203125,-10.04805078125,-12.90221484375,-11.6877578125,-0.10544140625,-12.0493359375,-12.31260546875,-8.61544921875,-7.34852734375,-11.31637890625,-8.558359375,-8.3458984375,-5.68877734375
-9.17036328125,-8.2012734375,0.84428515625,-3.47696875,-12.46915625,-8.44229296875,-2.29197265625,2.26448046875,-10.304765625,-11.31396484375,-7.69925390625,-6.018625,-0.5996875,-9.74528515625,-9.9128203125,-10.03110546875,-2.81630859375,-6.85683203125,-8.80605078125,-10.59921484375,-9.7027578125,-1.97744140625,-12.2213359375,-10.27960546875,-6.11744921875,-8.17852734375,-9.71637890625,-9.135359375,-7.2488984375,-3.69477734375
-1.76436328125,-6.4832734375,2.82228515625,1.00903125,-13.66315625,-8.34329296875,-3.51897265625,0.81248046875,-13.859765625,-12.29696484375,-8.18425390625,-6.481625,-4.2936875,-11.22328515625,-10.3398203125,-9.30810546875,0.28469140625,-9.41183203125,-8.77905078125,-8.77121484375,-7.4717578125,-5.85744140625,-13.0083359375,-8.68660546875,-4.10844921875,-7.37652734375,-8.52237890625,-9.454359375,-6.5328984375,-2.15377734375
3.27063671875,-5.6852734375,3.28528515625,4.00403125,-14.08915625,-8.93429296875,-5.20197265625,-0.83251953125,-15.957765625,-13.15396484375,-9.13425390625,-6.996625,-7.9866875,-13.10628515625,-11.2158203125,-8.84610546875,3.15769140625,-12.22583203125,-9.66105078125,-7.47721484375,-5.3967578125,-10.32844140625,-13.9323359375,-7.57960546875,-2.62044921875,-4.78252734375,-7.61837890625,-9.223359375,-6.1078984375,-1.07577734375
4.10163671875,-6.0552734375,1.91628515625,4.44803125,-13.52015625,-9.88829296875,-6.70597265625,-2.30751953125,-16.095765625,-13.44596484375,-10.14725390625,-7.340625,-10.5576875,-14.82028515625,-12.0948203125,-8.68810546875,4.98169140625,-14.43883203125,-11.03905078125,-6.83121484375,-4.0157578125,-13.72344140625,-14.5833359375,-7.02060546875,-1.74044921875,-1.17952734375,-6.93837890625,-8.419359375,-5.8898984375,-0.38577734375
0.58663671875,-7.4892734375,-0.95971484375,2.00003125,-12.27315625,-10.91229296875,-7.46697265625,-3.43251953125,-14.593765625,-13.10296484375,-10.96025390625,-7.384625,-11.3876875,-16.02428515625,-12.7288203125,-8.89010546875,5.65169140625,-15.51983203125,-12.54205078125,-6.94921484375,-3.6637578125,-14.78244140625,-14.7493359375,-7.05560546875,-1.56444921875,2.22347265625,-6.50537890625,-7.292359375,-5.8528984375,-0.00477734375000016
-5.67336328125,-9.5162734375,-4.37771484375,-2.73896875,-10.94715625,-11.78129296875,-7.25497265625,-4.12551953125,-12.311765625,-12.31396484375,-11.43825390625,-7.075625,-10.6046875,-16.57928515625,-13.0368203125,-9.37510546875,5.72269140625,-15.40883203125,-13.84105078125,-7.76121484375,-4.1777578125,-13.17544140625,-14.3923359375,-7.58160546875,-2.01844921875,4.51747265625,-6.32337890625,-6.207359375,-5.9758984375,0.15622265625
-11.99636328125,-11.3652734375,-7.03071484375,-8.22796875,-10.02015625,-12.27929296875,-6.21097265625,-4.23851953125,-10.209765625,-11.31696484375,-11.48425390625,-6.384625,-8.9786875,-16.44828515625,-12.9848203125,-9.82810546875,6.02369140625,-14.43183203125,-14.61305078125,-8.86821484375,-4.8807578125,-9.68444140625,-13.5583359375,-8.25860546875,-2.72444921875,5.56047265625,-6.25237890625,-5.436359375,-6.1498984375,0.23922265625
-15.72636328125,-12.2002734375,-7.76271484375,-12.42196875,-9.62415625,-12.16929296875,-4.68597265625,-3.54051953125,-8.980765625,-10.24096484375,-10.98925390625,-5.296625,-7.5136875,-15.64728515625,-12.4948203125,-9.75810546875,7.13569140625,-13.08383203125,-14.55405078125,-9.59721484375,-4.9037578125,-5.86244140625,-12.2973359375,-8.56860546875,-3.08144921875,5.88847265625,-5.99937890625,-5.045359375,-6.1668984375,0.42522265625
-15.29936328125,-11.4992734375,-6.01871484375,-13.64496875,-9.58215625,-11.29529296875,-3.08697265625,-1.93951953125,-8.861765625,-9.11496484375,-9.88225390625,-3.875625,-6.9616875,-14.23728515625,-11.4768203125,-8.72110546875,8.96269140625,-11.75783203125,-13.46105078125,-9.26721484375,-3.7067578125,-3.22144140625,-10.6263359375,-8.02260546875,-2.54944921875,6.19647265625,-5.24437890625,-4.893359375,-5.7968984375,0.86322265625
-10.83536328125,-9.3902734375,-2.07871484375,-11.48696875,-9.60915625,-9.76629296875,-1.82697265625,0.21748046875,-9.611765625,-7.95896484375,-8.22925390625,-2.364625,-7.4616875,-12.34728515625,-9.9198203125,-6.58610546875,10.64669140625,-10.53883203125,-11.33505078125,-7.52621484375,-1.4887578125,-2.35244140625,-8.5073359375,-6.36860546875,-0.93844921875,6.75747265625,-3.78337890625,-4.673359375,-4.8898984375,1.62322265625
-4.02136328125,-6.6722734375,2.98928515625,-7.07196875,-9.49115625,-8.00829296875,-1.27897265625,2.08848046875,-10.628765625,-6.87396484375,-6.28325390625,-1.192625,-8.4786875,-10.15928515625,-7.9948203125,-3.69010546875,10.93369140625,-9.18683203125,-8.42305078125,-4.57421484375,0.7852421875,-2.60444140625,-5.8913359375,-3.72360546875,1.44455078125,7.21047265625,-1.63637890625,-3.999359375,-3.4428984375,2.69122265625
2.65963671875,-4.4532734375,7.67428515625,-2.44696875,-9.14615625,-6.58029296875,-1.65097265625,2.66048046875,-11.181765625,-6.03696484375,-4.46125390625,-0.856625,-9.0886875,-7.89928515625,-6.0728203125,-0.775105468749999,8.87669140625,-7.36783203125,-5.21005078125,-1.14421484375,1.8152421875,-2.63044140625,-2.8283359375,-0.57660546875,3.90255078125,6.82547265625,0.93262109375,-2.564359375,-1.6198984375,3.99122265625
6.99063671875,-3.5762734375,10.54928515625,0.54603125,-8.56715625,-5.90329296875,-2.87197265625,1.31648046875,-10.702765625,-5.61096484375,-3.21425390625,-1.674625,-8.5066875,-5.80628515625,-4.6368203125,1.27989453125,4.50769140625,-4.98583203125,-2.31105078125,1.75778515625,0.6692421875,-1.43044140625,0.4126640625,2.35239453125,5.64555078125,5.08847265625,3.46962109375,-0.338359375,0.2821015625,5.39422265625
7.89063671875,-4.1922734375,10.80028515625,1.14303125,-7.74815625,-6.09829296875,-4.62397265625,-1.74951953125,-9.009765625,-5.62996484375,-2.87725390625,-3.572625,-6.5316875,-4.07528515625,-4.0998203125,1.80889453125,-0.97830859375,-2.35683203125,-0.29205078125,3.24078515625,-2.6497578125,0.94055859375,3.3286640625,4.35439453125,6.12155078125,2.16047265625,5.46662109375,2.329640625,1.9111015625,6.72722265625
5.70263671875,-5.7372734375,8.48628515625,-0.21496875,-6.70015625,-7.02929296875,-6.54697265625,-5.55651953125,-6.404765625,-5.96396484375,-3.58225390625,-6.059625,-3.6856875,-2.82828515625,-4.6558203125,0.587894531250001,-5.75830859375,-0.10183203125,0.49894921875,2.82978515625,-7.1817578125,3.48255859375,5.3346640625,4.95539453125,5.19455078125,-1.10852734375,6.50262109375,4.774640625,2.9581015625,7.76522265625
1.77463671875,-7.3432734375,4.44228515625,-2.43596875,-5.55315625,-8.45329296875,-8.44897265625,-8.81151953125,-3.592765625,-6.42796484375,-5.27625390625,-8.471625,-0.9966875,-2.12528515625,-6.2418203125,-2.18510546875,-8.36930859375,1.14816796875,0.01694921875,0.56178515625,-11.5537578125,4.98655859375,5.9796640625,4.03939453125,3.08955078125,-3.63052734375,6.34262109375,6.232640625,3.2201015625,8.24422265625
-2.33536328125,-8.3742734375,-0.10971484375,-4.49096875,-4.60615625,-10.14229296875,-10.35797265625,-10.53251953125,-1.416765625,-6.91196484375,-7.76025390625,-10.304625,0.4733125,-1.98928515625,-8.5768203125,-6.03310546875,-8.49530859375,1.05516796875,-1.50505078125,-3.09121484375,-14.7027578125,4.76855859375,5.1556640625,1.83439453125,0.21955078125,-4.65652734375,4.97662109375,6.125640625,2.6231015625,7.90622265625
-5.54436328125,-8.7162734375,-3.98771484375,-5.81996875,-4.18515625,-11.89229296875,-12.35897265625,-10.45451953125,-0.482765625,-7.38996484375,-10.66325390625,-11.381625,0.1413125,-2.37028515625,-11.2078203125,-10.31210546875,-7.02430859375,-0.25483203125,-3.61605078125,-7.35721484375,-16.2717578125,2.96755859375,3.1756640625,-1.14160546875,-2.95244921875,-4.08152734375,2.64962109375,4.315640625,1.2191015625,6.60222265625
-7.46236328125,-8.6452734375,-6.36471484375,-6.29796875,-4.38315625,-13.42629296875,-14.33697265625,-9.01351953125,-0.867765625,-7.79296484375,-13.37025390625,-11.762625,-1.7566875,-3.06128515625,-13.5148203125,-14.22110546875,-5.34230859375,-2.19783203125,-5.70905078125,-11.28021484375,-16.5247578125,0.35555859375,0.7206640625,-4.15660546875,-5.94744921875,-2.40352734375,-0.14137890625,1.220640625,-0.8038984375,4.41122265625
-8.16636328125,-8.4632734375,-6.93071484375,-5.96096875,-4.89215625,-14.31629296875,-15.80597265625,-6.98451953125,-2.086765625,-7.88196484375,-15.07925390625,-11.547625,-4.2206875,-3.67428515625,-14.7828203125,-16.86610546875,-4.43130859375,-3.92183203125,-7.10205078125,-13.87321484375,-15.9747578125,-2.08444140625,-1.3383359375,-6.39260546875,-8.27844921875,-0.47852734375,-2.71537890625,-2.294359375,-3.1248984375,1.68722265625
-7.83436328125,-8.2092734375,-5.91671484375,-4.83096875,-5.10115625,-14.04629296875,-16.05397265625,-5.08151953125,-3.373765625,-7.29496484375,-15.04425390625,-10.784625,-5.9506875,-3.75528515625,-14.3988203125,-17.47110546875,-4.41330859375,-4.62783203125,-7.21305078125,-14.35321484375,-15.0507578125,-3.55644140625,-2.2003359375,-7.15660546875,-9.51044921875,0.79047265625,-4.39637890625,-5.242359375,-5.3308984375,-1.01077734375
-6.52336328125,-7.6472734375,-3.95871484375,-2.95996875,-4.41215625,-12.27929296875,-14.57197265625,-3.72751953125,-4.069765625,-5.74696484375,-12.94025390625,-9.529625,-5.9626875,-2.99228515625,-12.1198203125,-15.68410546875,-4.73630859375,-3.87283203125,-5.75105078125,-12.40321484375,-13.9847578125,-3.66444140625,-1.3933359375,-6.10160546875,-9.37944921875,0.76047265625,-4.72337890625,-6.860359375,-6.9848984375,-3.04377734375
-4.18236328125,-6.4962734375,-1.80371484375,-0.58496875,-2.58915625,-9.16429296875,-11.48597265625,-3.05751953125,-3.891765625,-3.26596484375,-9.10225390625,-7.956625,-4.0526875,-1.37928515625,-8.2468203125,-11.80210546875,-4.70930859375,-1.74083203125,-2.86305078125,-8.31821484375,-12.8467578125,-2.44244140625,1.0736640625,-3.35560546875,-7.86544921875,-0.65052734375,-3.58237890625,-6.797359375,-7.6888984375,-3.83777734375
-0.88536328125,-4.7092734375,0.0542851562500001,1.80203125,0.06184375,-5.41529296875,-7.64697265625,-2.97851953125,-2.963765625,-0.28596484375,-4.49125390625,-6.381625,-0.8726875,0.76971484375,-3.5968203125,-6.73910546875,-3.91330859375,1.19616796875,0.87494921875,-2.94021484375,-11.6117578125,-0.28244140625,4.7106640625,0.507394531250001,-5.18844921875,-2.82652734375,-1.20637890625,-5.111359375,-7.1838984375,-3.02877734375
2.90963671875,-2.6202734375,1.56428515625,3.57003125,2.76984375,-2.06529296875,-4.26497265625,-3.24751953125,-1.669765625,2.47103515625,-0.366253906249999,-5.163625,2.3893125,2.94971484375,0.7441796875,-1.74310546875,-2.31430859375,4.09416796875,4.61494921875,2.57978515625,-10.2057578125,2.20355859375,8.7126640625,4.63839453125,-1.75044921875,-4.63452734375,1.91262109375,-2.176359375,-5.4828984375,-0.62577734375
6.28963671875,-0.8242734375,2.98328515625,4.16303125,4.63684375,-0.0272929687500003,-2.34297265625,-3.57051953125,-0.426765625,4.29603515625,2.20574609375,-4.533625,4.5563125,4.69071484375,3.8121796875,2.04189453125,-0.20730859375,6.17116796875,7.51794921875,7.12478515625,-8.5347578125,4.41155859375,12.2006640625,8.15939453125,1.95755078125,-4.90352734375,5.15962109375,1.392640625,-2.9638984375,2.90322265625
8.19263671875,0.1397265625,4.51528515625,3.28103125,5.06884375,0.28870703125,-2.22497265625,-3.74551953125,0.504234375,4.82203515625,2.78174609375,-4.446625,4.9823125,5.74171484375,5.1031796875,3.98389453125,1.88669140625,7.02016796875,9.04694921875,9.93378515625,-6.5167578125,5.97555859375,14.4756640625,10.42039453125,5.44355078125,-2.97252734375,7.94362109375,4.815640625,-0.3078984375,6.72322265625
7.95463671875,0.0937265624999998,6.03028515625,0.98103125,4.06084375,-0.871292968750001,-3.49197265625,-3.75651953125,1.091234375,4.19303515625,1.68674609375,-4.571625,3.7953125,6.14371484375,4.7191796875,4.13389453125,3.37169140625,6.71616796875,9.12594921875,10.76478515625,-4.1607578125,6.86555859375,15.1776640625,11.14239453125,8.27355078125,0.96347265625,9.81362109375,7.296640625,1.7401015625,9.89022265625
5.76163671875,-0.7132734375,7.12228515625,-2.28296875,2.16784375,-2.73729296875,-5.21597265625,-3.73451953125,1.455234375,2.95003515625,-0.203253906249999,-4.458625,1.7363125,6.12071484375,3.2181796875,3.07889453125,3.83569140625,5.67516796875,8.06594921875,9.86478515625,-1.6377578125,7.26655859375,14.3236640625,10.41839453125,10.10755078125,5.89447265625,10.51962109375,8.251640625,2.6731015625,11.68622265625
2.68663671875,-1.7732734375,7.43028515625,-5.68796875,0.19884375,-4.37829296875,-6.41997265625,-3.78651953125,1.707234375,1.72203515625,-1.92225390625,-3.794625,-0.2726875,5.89671484375,1.2961796875,1.59089453125,3.29369140625,4.38016796875,6.34494921875,7.78378515625,0.6982421875,7.35555859375,12.2426640625,8.58339453125,10.73155078125,10.39247265625,10.02662109375,7.534640625,2.4121015625,11.85522265625
0.22863671875,-2.5522734375,6.90628515625,-8.20196875,-1.14015625,-5.10629296875,-6.50297265625,-3.83551953125,1.838234375,0.92703515625,-2.82125390625,-2.549625,-1.6026875,5.56571484375,-0.502820312500001,0.302894531250001,2.23369140625,3.14516796875,4.38294921875,5.16278515625,2.4402421875,7.12855859375,9.4456640625,6.06939453125,10.11555078125,13.20147265625,8.50762109375,5.524640625,1.2911015625,10.66122265625
-0.45636328125,-2.6532734375,5.80728515625,-8.88496875,-1.50815625,-4.73429296875,-5.41297265625,-3.60251953125,1.718234375,0.62003515625,-2.75125390625,-0.961625,-2.1746875,5.07771484375,-1.9068203125,-0.437105468749999,1.34369140625,2.02816796875,2.43594921875,2.58678515625,3.3122421875,6.35555859375,6.4856640625,3.30739453125,8.47455078125,13.71847265625,6.32262109375,2.969640625,-0.1588984375,8.72422265625
0.78363671875,-1.9212734375,4.49128515625,-7.28496875,-1.01715625,-3.56529296875,-3.54597265625,-2.80951953125,1.194234375,0.55603515625,-1.99025390625,0.586375,-2.3796875,4.33871484375,-2.8698203125,-0.568105468749999,1.10269140625,0.90716796875,0.63894921875,0.50678515625,3.3142421875,4.73855859375,3.8426640625,0.69239453125,6.25555078125,12.14447265625,3.94562109375,0.666640625,-1.4778984375,6.72222265625
2.94563671875,-0.5272734375,3.25528515625,-3.75996875,-0.15115625,-2.18529296875,-1.51097265625,-1.45551953125,0.240234375,0.40103515625,-1.01525390625,1.706375,-2.7066875,3.36971484375,-3.4178203125,-0.209105468749999,1.50569140625,-0.30883203125,-0.85905078125,-0.77121484375,2.7312421875,2.27255859375,1.9096640625,-1.38360546875,4.05955078125,9.30847265625,1.89362109375,-0.852359375,-2.4398984375,5.12522265625
4.42463671875,1.0537265625,2.34228515625,0.50003125,0.50984375,-1.18629296875,0.0800273437500001,0.0394804687499998,-0.917765625,-0.0189648437500001,-0.242253906249999,2.115375,-3.3166875,2.43171484375,-3.5188203125,0.460894531250001,2.11569140625,-1.44383203125,-1.76405078125,-1.06421484375,2.0162421875,-0.39344140625,1.0336640625,-2.50160546875,2.50855078125,6.31247265625,0.65962109375,-1.406359375,-3.0058984375,4.12022265625
4.04363671875,2.2407265625,2.02628515625,3.91603125,0.59684375,-0.94129296875,0.78802734375,1.01148046875,-1.810765625,-0.56196484375,0.154746093750001,1.724375,-3.8646875,1.99271484375,-3.0378203125,1.28989453125,2.38669140625,-1.99483203125,-1.66605078125,-0.30721484375,1.5992421875,-2.00344140625,1.5246640625,-2.25960546875,2.08455078125,4.15247265625,0.64662109375,-1.045359375,-3.1428984375,3.71922265625
1.88563671875,2.6577265625,2.60828515625,5.23803125,0.10584375,-1.44729296875,0.49002734375,0.95548046875,-1.963765625,-0.84896484375,0.248746093750001,0.665375,-3.7386875,2.49371484375,-1.8648203125,2.13789453125,2.00569140625,-1.39583203125,-0.25605078125,1.38278515625,1.6812421875,-1.31944140625,3.5196640625,-0.47060546875,2.95355078125,3.40247265625,2.04362109375,0.123640625,-2.7198984375,3.90722265625
-0.71836328125,2.3237265625,4.20428515625,4.12803125,-0.69215625,-2.34529296875,-0.57297265625,-0.15751953125,-1.234765625,-0.53296484375,0.226746093750001,-0.781625,-2.5476875,4.02571484375,-0.103820312500001,2.80589453125,1.03169140625,0.55016796875,2.36894921875,3.62578515625,2.1142421875,2.03755859375,6.7686640625,2.60239453125,4.84255078125,4.04347265625,4.68362109375,1.985640625,-1.5758984375,4.67022265625
-2.08636328125,1.5897265625,6.49328515625,1.23003125,-1.47415625,-3.11129296875,-1.94297265625,-1.91951953125,-0.00476562499999966,0.43903515625,0.218746093750001,-2.327625,-0.4806875,6.16171484375,1.8291796875,2.99989453125,-0.22130859375,3.38216796875,5.55894921875,5.77778515625,2.4402421875,7.14955859375,10.5286640625,6.16639453125,7.06255078125,5.50247265625,7.98262109375,4.355640625,0.3021015625,5.93222265625
-1.32336328125,0.8707265625,8.68928515625,-2.24896875,-2.03515625,-3.34929296875,-3.24097265625,-3.79051953125,0.982234375,1.75203515625,0.220746093750001,-3.789625,1.7353125,8.09271484375,3.3231796875,2.42789453125,-1.42130859375,6.10416796875,8.30294921875,7.11278515625,2.1372421875,12.14155859375,13.7236640625,9.12339453125,8.73455078125,6.89347265625,11.06962109375,6.894640625,2.6571015625,7.49022265625
1.12463671875,0.4047265625,9.85428515625,-5.08296875,-2.30815625,-2.97629296875,-4.33897265625,-5.39851953125,1.053234375,2.90103515625,0.134746093750001,-5.106625,3.2303125,9.02671484375,3.8521796875,0.968894531250001,-2.37830859375,7.66216796875,9.65094921875,7.10978515625,0.9192421875,15.07755859375,15.3516640625,10.51039453125,9.12755078125,7.38647265625,13.06962109375,9.123640625,4.9941015625,9.01522265625
3.86863671875,0.2517265625,9.32928515625,-6.39096875,-2.26615625,-2.16229296875,-5.25697265625,-6.60251953125,0.0532343750000004,3.48103515625,-0.118253906249999,-6.229625,3.4683125,8.59771484375,3.2581796875,-1.17910546875,-3.03630859375,7.46516796875,9.17194921875,5.71278515625,-1.0587578125,14.87355859375,14.9236640625,9.92039453125,7.96655078125,6.55047265625,13.43062109375,10.557640625,6.7441015625,10.13822265625
5.53563671875,0.4657265625,7.04028515625,-5.75396875,-1.81415625,-1.14629296875,-5.92097265625,-7.36751953125,-1.502765625,3.43403515625,-0.478253906249999,-7.010625,2.5113125,7.06571484375,1.8671796875,-3.49010546875,-3.36830859375,5.68016796875,7.18094921875,3.40778515625,-3.2297578125,11.74355859375,12.7226640625,7.70139453125,5.56955078125,4.56947265625,12.14562109375,10.903640625,7.5031015625,10.58822265625
5.55163671875,1.1857265625,3.53128515625,-3.24296875,-0.78515625,-0.11129296875,-6.09197265625,-7.64051953125,-2.660765625,3.08203515625,-0.757253906249999,-7.205625,0.9473125,5.19271484375,0.359179687499999,-5.29010546875,-3.31230859375,3.13616796875,4.61294921875,1.05978515625,-4.8527578125,7.01455859375,9.6946640625,4.80739453125,2.73455078125,2.21247265625,9.77462109375,10.198640625,7.1771015625,10.29422265625
4.23963671875,2.5027265625,-0.23871484375,0.57303125,0.89084375,0.79070703125,-5.58697265625,-7.37651953125,-2.549765625,2.90903515625,-0.784253906249999,-6.650625,-0.4466875,3.86071484375,-0.5628203125,-6.07110546875,-2.83330859375,0.91516796875,2.57794921875,-0.46721484375,-5.3707578125,2.50655859375,7.0316640625,2.36639453125,0.38955078125,0.48447265625,7.20262109375,8.762640625,5.9701015625,9.37322265625
2.35363671875,4.1857265625,-3.21371484375,4.70403125,2.96884375,1.34570703125,-4.57697265625,-6.66551953125,-0.869765625,3.22803515625,-0.611253906249999,-5.492625,-1.0816875,3.61171484375,-0.5518203125,-5.78610546875,-2.08330859375,-0.15983203125,1.82194921875,-0.72721484375,-4.7187578125,-0.23244140625,5.6476640625,1.17739453125,-0.84944921875,0.0864726562499998,5.23062109375,6.990640625,4.1961015625,8.00222265625
0.52563671875,5.5887265625,-4.56771484375,8.02203125,4.83284375,1.25270703125,-3.67197265625,-5.83751953125,1.909234375,3.95103515625,-0.564253906249999,-4.252625,-0.7776875,4.38871484375,0.1981796875,-4.91410546875,-1.52030859375,0.13416796875,2.40294921875,0.10278515625,-3.4027578125,-0.46244140625,5.8236640625,1.39939453125,-0.96044921875,1.00247265625,4.23862109375,5.187640625,2.1291015625,6.32022265625
-0.95836328125,5.9327265625,-3.97871484375,9.67803125,5.73584375,0.237707031249999,-3.64697265625,-5.39551953125,4.780234375,4.63903515625,-1.06425390625,-3.623625,0.2653125,5.61171484375,1.0921796875,-4.20210546875,-1.82430859375,1.42616796875,3.75294921875,1.34678515625,-2.2837578125,1.61055859375,7.1926640625,2.59639453125,-0.45444921875,2.51047265625,4.11562109375,3.571640625,-0.00889843749999986,4.45822265625
-2.04236328125,4.8167265625,-1.80271484375,9.43403125,5.21484375,-1.74129296875,-4.95197265625,-5.77551953125,6.713234375,4.79403515625,-2.30125390625,-4.088625,1.6403125,6.52371484375,1.5021796875,-4.24810546875,-3.52730859375,3.03516796875,5.05894921875,2.21778515625,-2.1517578125,5.07155859375,9.0146640625,4.03439453125,-0.04544921875,3.58647265625,4.42562109375,2.361640625,-1.9738984375,2.62622265625
-2.70036328125,2.5427265625,1.00428515625,7.68903125,3.38184375,-4.32929296875,-7.35897265625,-7.07251953125,7.135234375,4.16103515625,-4.04025390625,-5.613625,2.9023125,6.56871484375,1.1251796875,-5.17610546875,-6.55530859375,4.30616796875,5.67394921875,2.20678515625,-3.3227578125,8.68655859375,10.5336640625,5.03739453125,-0.25744921875,3.47047265625,4.67662109375,1.788640625,-3.4718984375,1.12922265625
-2.81436328125,-0.0162734375000002,3.32328515625,5.21503125,0.86984375,-6.81229296875,-10.00897265625,-8.94251953125,6.145234375,2.84303515625,-5.69425390625,-7.625625,3.6563125,5.61171484375,0.1161796875,-6.59210546875,-10.03030859375,4.82616796875,5.34994921875,1.29278515625,-5.4617578125,11.27855859375,11.2596640625,5.21839453125,-1.17944921875,2.07647265625,4.53462109375,2.005640625,-4.2398984375,0.26222265625
-2.16436328125,-1.9012734375,4.46928515625,2.79803125,-1.50815625,-8.41329296875,-11.83897265625,-10.76951953125,4.386234375,1.20803515625,-6.61725390625,-9.261625,3.6343125,3.92871484375,-1.0338203125,-7.79810546875,-12.59730859375,4.50516796875,4.25094921875,-0.0962148437499999,-7.7037578125,12.06255859375,11.1016640625,4.55639453125,-2.46744921875,0.05447265625,3.93262109375,2.985640625,-4.1628984375,0.17822265625
-0.49136328125,-2.4992734375,4.52428515625,1.02403125,-3.14615625,-8.68629296875,-12.13397265625,-12.00451953125,2.694234375,-0.32596484375,-6.44825390625,-9.774625,2.7733125,2.02771484375,-1.7958203125,-8.14610546875,-13.13830859375,3.55216796875,2.78294921875,-1.33421484375,-9.0597578125,10.86855859375,10.3266640625,3.32539453125,-3.57844921875,-1.58052734375,3.04662109375,4.506640625,-3.3488984375,0.80022265625
2.28163671875,-1.7282734375,4.08328515625,0.22003125,-3.89215625,-7.76929296875,-10.83397265625,-12.42251953125,1.690234375,-1.52196484375,-5.33325390625,-8.905625,1.2433125,0.38271484375,-1.9318203125,-7.38810546875,-11.42830859375,2.32016796875,1.34394921875,-1.95921484375,-8.9277578125,8.12455859375,9.3526640625,1.89039453125,-4.12444921875,-2.06752734375,2.13762109375,6.188640625,-2.1418984375,1.81122265625
5.75963671875,0.0437265624999998,3.62428515625,0.46003125,-4.02715625,-6.33229296875,-8.53097265625,-12.18051953125,1.504234375,-2.43296484375,-3.93625390625,-7.041625,-0.6146875,-0.79328515625,-1.6778203125,-5.85110546875,-8.27930859375,1.10816796875,0.11694921875,-1.94521484375,-7.4557578125,4.60255859375,8.4826640625,0.493394531250001,-4.12644921875,-1.37452734375,1.36762109375,7.562640625,-1.0368984375,2.74022265625
8.96963671875,2.1807265625,3.07228515625,1.55703125,-3.99915625,-5.24729296875,-6.16597265625,-11.62451953125,1.818234375,-3.31296484375,-3.14625390625,-5.032625,-2.4006875,-1.56428515625,-1.6148203125,-4.29810546875,-5.09430859375,0.0451679687500001,-0.96605078125,-1.70521484375,-5.4867578125,1.13055859375,7.7766640625,-0.82460546875,-3.97844921875,-0.20152734375,0.71862109375,8.191640625,-0.5188984375,3.14322265625
10.70663671875,4.0267265625,1.93528515625,3.10803125,-4.08115625,-5.13229296875,-4.59397265625,-10.99451953125,2.181234375,-4.35796484375,-3.60025390625,-3.751625,-3.7396875,-2.10228515625,-2.2808203125,-3.50110546875,-3.10230859375,-0.84883203125,-2.05405078125,-1.78621484375,-4.0977578125,-1.57744140625,7.1066640625,-2.11960546875,-4.14844921875,0.47447265625,0.0736210937499999,7.821640625,-0.8548984375,2.81722265625
10.15663671875,5.1007265625,-0.0957148437499999,4.65503125,-4.20415625,-6.03629296875,-4.20597265625,-10.22151953125,2.352234375,-5.49296484375,-5.30125390625,-3.626625,-4.3626875,-2.47528515625,-3.7798203125,-3.81110546875,-2.75630859375,-1.55183203125,-3.17405078125,-2.49521484375,-3.9987578125,-3.05944140625,6.3336640625,-3.37960546875,-4.84844921875,0.000472656249999925,-0.65037890625,6.471640625,-1.9798984375,1.90022265625
7.33363671875,5.1747265625,-2.62271484375,5.86703125,-4.12015625,-7.44729296875,-4.79797265625,-9.01051953125,2.384234375,-6.40296484375,-7.59125390625,-4.467625,-4.1926875,-2.60028515625,-5.6978203125,-4.99110546875,-3.59030859375,-2.01483203125,-4.17705078125,-3.71321484375,-5.1537578125,-3.28144140625,5.4046640625,-4.47460546875,-5.89944921875,-1.56152734375,-1.45337890625,4.394640625,-3.5508984375,0.77922265625
3.01163671875,4.2117265625,-4.53971484375,6.60903125,-3.72915625,-8.65729296875,-5.78497265625,-7.17151953125,2.429234375,-6.79296484375,-9.51925390625,-5.658625,-3.3966875,-2.37728515625,-7.3598203125,-6.41510546875,-4.59130859375,-2.22583203125,-4.85105078125,-5.01321484375,-6.8567578125,-2.70244140625,4.3456640625,-5.24660546875,-6.86544921875,-3.47352734375,-2.30137890625,1.954640625,-5.1298984375,-0.13677734375
-1.67036328125,2.3157265625,-4.58971484375,6.87703125,-3.26915625,-9.20829296875,-6.57497265625,-4.91151953125,2.497234375,-6.62296484375,-10.31425390625,-6.541625,-2.3216875,-1.83728515625,-8.2208203125,-7.42610546875,-4.81030859375,-2.24383203125,-5.06705078125,-5.93921484375,-8.1537578125,-2.05844140625,3.2206640625,-5.61660546875,-7.32444921875,-4.71952734375,-3.15937890625,-0.466359375,-6.3388984375,-0.61377734375
-5.58436328125,-0.1842734375,-2.15071484375,6.70903125,-3.17015625,-9.08629296875,-6.79697265625,-2.77151953125,2.447234375,-6.13996484375,-9.69025390625,-6.700625,-1.3016875,-1.14728515625,-8.1138203125,-7.61110546875,-3.84230859375,-2.10583203125,-4.82705078125,-6.22621484375,-8.3357578125,-1.90544140625,2.1426640625,-5.61760546875,-7.06844921875,-4.53952734375,-3.97637890625,-2.472359375,-6.9388984375,-0.63477734375
-7.85636328125,-2.6202734375,2.28428515625,6.18603125,-3.69415625,-8.53329296875,-6.26797265625,-1.22951953125,2.195234375,-5.65596484375,-7.84625390625,-5.978625,-0.4586875,-0.47328515625,-7.2168203125,-6.84010546875,-1.92530859375,-1.71383203125,-4.20105078125,-5.82821484375,-7.1607578125,-2.26344140625,1.3276640625,-5.31260546875,-6.12144921875,-2.74852734375,-4.61437890625,-3.667359375,-6.8218984375,-0.32777734375
-8.07736328125,-4.1052734375,7.28828515625,5.48403125,-4.63415625,-7.71629296875,-4.88497265625,-0.32351953125,1.928234375,-5.27296484375,-5.25025390625,-4.346625,0.3513125,0.18871484375,-5.8248203125,-5.14610546875,0.30769140625,-0.82683203125,-3.23405078125,-4.80321484375,-4.7837578125,-2.65044140625,1.0926640625,-4.69360546875,-4.61044921875,0.27747265625,-4.83737890625,-3.736359375,-5.9998984375,0.16522265625
-6.42536328125,-3.9052734375,11.24828515625,4.93903125,-5.32015625,-6.59629296875,-2.64297265625,0.34448046875,2.083234375,-4.77496484375,-2.39825390625,-1.826625,1.3823125,1.03171484375,-4.1498203125,-2.62210546875,2.19369140625,0.77216796875,-1.92205078125,-3.22721484375,-1.5767578125,-2.50444140625,1.7286640625,-3.67660546875,-2.66044921875,3.81347265625,-4.39737890625,-2.592359375,-4.6008984375,0.77822265625
-3.52336328125,-1.8632734375,13.19328515625,5.01203125,-4.98215625,-5.06829296875,0.21802734375,1.23648046875,3.061234375,-3.80296484375,0.290746093750001,1.407375,2.7353125,2.25971484375,-2.3108203125,0.536894531250001,3.32569140625,3.01916796875,-0.31905078125,-1.23621484375,1.9632421875,-1.65844140625,3.2686640625,-2.24060546875,-0.42344921875,6.95847265625,-3.21337890625,-0.493359375,-2.8868984375,1.50222265625
-0.10336328125,1.4497265625,13.15428515625,6.11303125,-3.28215625,-3.22029296875,3.17402734375,2.44648046875,4.877234375,-2.21496484375,2.43174609375,4.882375,4.1833125,3.82871484375,-0.5168203125,3.89789453125,3.66069140625,5.44216796875,1.32494921875,0.84878515625,5.1862421875,-0.50444140625,5.3436640625,-0.60660546875,1.80455078125,8.75147265625,-1.53037890625,1.968640625,-1.2588984375,2.27822265625
3.24363671875,4.9257265625,11.90328515625,8.28703125,-0.63715625,-1.45329296875,5.55302734375,3.57448046875,7.020234375,-0.33296484375,3.62274609375,7.824375,5.2343125,5.33571484375,0.8051796875,6.75989453125,3.47769140625,7.30416796875,2.54994921875,2.48978515625,7.3622421875,0.31255859375,7.2646640625,0.723394531250001,3.54155078125,8.39647265625,0.0916210937499997,4.038640625,-0.1958984375,2.89622265625
6.05163671875,7.3827265625,10.31128515625,11.02203125,1.93684375,-0.35229296875,6.80602734375,3.99548046875,8.683234375,1.13103515625,3.52974609375,9.440375,5.4453125,6.18371484375,1.0971796875,8.35489453125,3.17369140625,7.99516796875,2.87694921875,3.11578515625,7.9182421875,0.43955859375,8.3596640625,1.17639453125,4.28155078125,5.66147265625,1.00962109375,5.107640625,-0.0938984374999998,3.02022265625
7.83663671875,8.0457265625,8.82928515625,13.37403125,3.38184375,-0.38229296875,6.74302734375,3.34748046875,9.209234375,1.46603515625,2.07274609375,9.308375,4.7203125,5.93671484375,-0.0218203125,8.19689453125,3.01169140625,7.39316796875,2.07894921875,2.40578515625,6.7352421875,0.12855859375,8.3196640625,0.42439453125,3.74255078125,1.18447265625,0.82262109375,4.987640625,-1.0738984375,2.36822265625
8.06763671875,6.8047265625,7.37828515625,14.39703125,3.17384375,-1.58829296875,5.61902734375,1.86548046875,8.425234375,0.38303515625,-0.434253906249999,7.600375,3.3783125,4.58571484375,-2.4758203125,6.32389453125,2.98969140625,5.91416796875,0.33994921875,0.46778515625,4.2662421875,0.0345585937499999,7.3306640625,-1.40660546875,2.03055078125,-3.65252734375,-0.43037890625,3.995640625,-2.8878984375,0.89922265625
6.37863671875,4.1437265625,5.64828515625,13.57003125,1.53384375,-3.50329296875,4.02602734375,0.30548046875,6.673234375,-1.81896484375,-3.33925390625,4.996375,1.9173125,2.55171484375,-5.6848203125,3.27989453125,2.93969140625,4.22516796875,-1.82905078125,-2.21521484375,1.3922421875,0.69255859375,5.9216640625,-3.78660546875,-0.38544921875,-7.24252734375,-2.30537890625,2.747640625,-5.0218984375,-1.12477734375
2.86863671875,0.8637265625,3.52228515625,10.99803125,-0.79715625,-5.36829296875,2.62502734375,-0.51551953125,4.564234375,-4.39796484375,-5.88025390625,2.368375,0.6953125,0.45971484375,-8.7798203125,-0.104105468749999,2.79469140625,2.86716796875,-3.82505078125,-4.98221484375,-0.9057578125,2.09655859375,4.6576640625,-6.01660546875,-2.83244921875,-8.35452734375,-4.17037890625,1.816640625,-6.9168984375,-3.22277734375
-1.68936328125,-2.2012734375,1.31628515625,7.34603125,-2.98715625,-6.51829296875,1.85002734375,-0.25051953125,2.681234375,-6.50996484375,-7.45625390625,0.437375,-0.2286875,-1.14428515625,-10.9368203125,-3.00910546875,2.76269140625,2.03416796875,-5.18405078125,-7.23121484375,-1.8967578125,3.70555859375,3.8956640625,-7.51060546875,-4.65144921875,-6.54352734375,-5.46137890625,1.449640625,-8.1858984375,-4.86577734375
-5.95236328125,-4.3892734375,-0.31771484375,3.59803125,-4.50715625,-6.70629296875,1.71202734375,0.76348046875,1.362234375,-7.58696484375,-7.84025390625,-0.459625,-1.0496875,-2.01228515625,-11.7068203125,-4.90210546875,3.21669140625,1.57216796875,-5.73105078125,-8.60821484375,-1.3657578125,4.74655859375,3.6746640625,-8.00060546875,-5.43744921875,-2.31752734375,-5.88037890625,1.508640625,-8.7118984375,-5.67377734375
-8.53036328125,-5.3802734375,-0.79971484375,0.69103125,-5.31315625,-6.20129296875,1.80902734375,1.69148046875,0.591234375,-7.58596484375,-7.27925390625,-0.454625,-2.0306875,-2.27828515625,-11.2058203125,-5.70410546875,4.34169140625,1.09816796875,-5.63505078125,-9.12521484375,0.2672421875,4.54255859375,3.7276640625,-7.64460546875,-5.23144921875,2.93947265625,-5.49937890625,1.611640625,-8.6408984375,-5.56277734375
-8.71236328125,-5.3092734375,-0.0517148437499999,-0.86796875,-5.75515625,-5.63729296875,1.51802734375,1.66048046875,0.0502343750000003,-6.99896484375,-6.41025390625,-0.0536250000000003,-3.3296875,-2.38328515625,-10.0618203125,-5.79710546875,5.83769140625,0.16516796875,-5.34005078125,-9.14521484375,2.0792421875,2.69655859375,3.6016640625,-6.95260546875,-4.55444921875,7.35147265625,-4.72337890625,1.369640625,-8.2748984375,-4.78277734375
-6.93936328125,-4.7072734375,1.34228515625,-1.20296875,-6.28215625,-5.68629296875,0.32402734375,0.21648046875,-0.695765625,-6.56396484375,-5.94525390625,0.139375,-4.8816875,-2.83928515625,-9.0978203125,-5.78510546875,6.98069140625,-1.52483203125,-5.35705078125,-9.17721484375,3.0502421875,-0.78244140625,2.8756640625,-6.55160546875,-4.15244921875,9.25547265625,-4.09237890625,0.578640625,-7.9348984375,-3.79577734375
-4.56636328125,-4.1902734375,2.44028515625,-0.87996875,-7.12115625,-6.68229296875,-1.79897265625,-2.39351953125,-1.900765625,-6.82496484375,-6.27325390625,-0.216625,-6.3816875,-3.91728515625,-8.8838203125,-6.10810546875,7.09169140625,-3.91583203125,-5.98305078125,-9.54521484375,2.5972421875,-5.35244140625,1.4236640625,-6.84360546875,-4.55944921875,7.98447265625,-4.00337890625,-0.711359375,-7.8378984375,-3.05577734375
-3.02536328125,-4.0642734375,2.53228515625,-0.44996875,-8.13015625,-8.37629296875,-4.21197265625,-5.26151953125,-3.453765625,-7.80896484375,-7.20125390625,-0.973625,-7.3826875,-5.44428515625,-9.4218203125,-6.74310546875,6.07369140625,-6.48883203125,-7.10005078125,-10.14721484375,0.9452421875,-9.90644140625,-0.4093359375,-7.76260546875,-5.72544921875,4.26847265625,-4.49537890625,-2.234359375,-8.0408984375,-2.80777734375
-2.94736328125,-4.1332734375,1.58928515625,-0.0809687499999998,-8.89715625,-10.01129296875,-5.83597265625,-7.18851953125,-4.919765625,-9.00796484375,-8.04025390625,-1.577625,-7.4946875,-6.84028515625,-10.1628203125,-7.21710546875,4.54469140625,-8.40683203125,-8.20405078125,-10.48821484375,-0.9777578125,-12.99044140625,-1.8963359375,-8.79460546875,-7.01444921875,-0.11752734375,-5.24737890625,-3.616359375,-8.4408984375,-3.01377734375
-3.86336328125,-3.8652734375,0.25328515625,0.40603125,-9.00515625,-10.72629296875,-5.75497265625,-7.27251953125,-5.797765625,-9.67496484375,-8.00825390625,-1.457625,-6.6106875,-7.41128515625,-10.3408203125,-6.94110546875,3.39469140625,-8.86683203125,-8.66505078125,-9.99621484375,-2.1127578125,-13.36944140625,-2.2653359375,-9.26460546875,-7.59144921875,-3.32652734375,-5.79137890625,-4.489359375,-8.8378984375,-3.42377734375
-4.59136328125,-2.7942734375,-0.60371484375,1.18203125,-8.27915625,-10.04029296875,-3.80397265625,-5.37851953125,-5.800765625,-9.24696484375,-6.69625390625,-0.440625,-5.0246875,-6.72028515625,-9.4248203125,-5.65610546875,3.12469140625,-7.52583203125,-8.07905078125,-8.42121484375,-1.9347578125,-10.71244140625,-1.1453359375,-8.72560546875,-6.95744921875,-4.43352734375,-5.78837890625,-4.618359375,-9.0238984375,-3.74777734375
-4.04036328125,-0.8772734375,-0.41371484375,2.10603125,-6.90615625,-8.10329296875,-0.71797265625,-2.22051953125,-4.982765625,-7.64496484375,-4.31125390625,1.085375,-3.3456875,-4.84628515625,-7.3968203125,-3.66210546875,3.49669140625,-4.73083203125,-6.48805078125,-6.04121484375,-0.7487578125,-5.98144140625,1.1846640625,-7.21160546875,-5.24944921875,-3.80752734375,-5.21637890625,-4.021359375,-8.8948984375,-3.83677734375
-1.94836328125,1.4037265625,0.84128515625,2.75203125,-5.37215625,-5.57229296875,2.26402734375,0.99648046875,-3.682765625,-5.31996484375,-1.55925390625,2.388375,-2.2116875,-2.36328515625,-4.7468203125,-1.68310546875,3.81369140625,-1.41483203125,-4.37105078125,-3.54921484375,0.5952421875,-1.14944140625,3.8946640625,-5.19760546875,-3.12044921875,-2.65452734375,-4.34837890625,-3.006359375,-8.4938984375,-3.74877734375
0.87863671875,3.2717265625,2.74128515625,2.74103125,-4.24015625,-3.22529296875,4.07902734375,3.17448046875,-2.353765625,-3.00196484375,0.752746093750001,2.831375,-1.9556875,-0.0662851562499998,-2.1708203125,-0.441105468749999,3.56869140625,1.33016796875,-2.38205078125,-1.67721484375,1.3412421875,1.71055859375,6.0356640625,-3.31760546875,-1.28644921875,-2.10052734375,-3.53837890625,-2.054359375,-7.9758984375,-3.66777734375
3.02263671875,4.0997265625,4.76728515625,2.10403125,-3.88115625,-1.57829296875,4.36102734375,3.85248046875,-1.382765625,-1.32596484375,2.15774609375,2.276375,-2.4436875,1.41171484375,-0.206820312500001,-0.225105468749999,2.91769140625,2.73916796875,-1.02805078125,-0.80321484375,1.3472421875,1.48055859375,6.9996640625,-2.00360546875,-0.09144921875,-2.43852734375,-2.98837890625,-1.597359375,-7.5038984375,-3.73477734375
3.35763671875,3.8157265625,6.55028515625,1.38003125,-4.31215625,-0.67129296875,3.55602734375,3.39448046875,-0.972765625,-0.54596484375,2.71774609375,1.160375,-3.2006875,1.84571484375,0.9831796875,-0.739105468749999,2.58269140625,2.66716796875,-0.46305078125,-0.79221484375,1.1532421875,-1.45844140625,6.7516640625,-1.29860546875,0.62855078125,-3.03052734375,-2.65137890625,-1.804359375,-7.1628984375,-3.94677734375
1.77663671875,2.9517265625,7.91428515625,1.32203125,-5.21015625,-0.15229296875,2.60002734375,2.70648046875,-1.109765625,-0.48996484375,2.87874609375,0.228375,-3.7416875,1.44371484375,1.5781796875,-1.31810546875,3.33969140625,1.53316796875,-0.49905078125,-1.13721484375,1.5482421875,-5.54444140625,5.7306640625,-0.93760546875,1.31955078125,-2.88452734375,-2.32437890625,-2.519359375,-6.9578984375,-4.19477734375
-0.77536328125,2.2557265625,8.74028515625,2.32603125,-6.03415625,0.40670703125,2.36602734375,2.60748046875,-1.552765625,-0.71796484375,3.13974609375,0.0803749999999999,-3.8316875,0.67871484375,1.8921796875,-1.34710546875,5.55269140625,0.0481679687500001,-0.76805078125,-1.27721484375,2.9682421875,-8.93944140625,4.5466640625,-0.57760546875,2.30455078125,-1.49352734375,-1.82537890625,-3.394359375,-6.8728984375,-4.39777734375
-2.91936328125,2.1317265625,8.83628515625,3.94303125,-6.18515625,1.13370703125,3.22002734375,3.22348046875,-1.850765625,-0.74996484375,3.76874609375,0.821375,-3.5186875,0.0697148437500001,2.1731796875,-0.587105468749999,9.07269140625,-1.08483203125,-0.90005078125,-0.89321484375,5.1112421875,-10.43044140625,3.6906640625,-0.0206054687499996,3.48155078125,0.64747265625,-1.13137890625,-4.125359375,-6.9588984375,-4.62177734375
-3.58436328125,2.3437265625,7.92728515625,4.88203125,-5.17215625,1.71970703125,4.91502734375,3.85348046875,-1.443765625,-0.24496484375,4.71674609375,2.022375,-2.9636875,0.00371484375000031,2.5071796875,0.738894531250001,13.45769140625,-1.37883203125,-0.65505078125,-0.0122148437499998,7.0222421875,-9.82244140625,3.3846640625,0.70639453125,4.33855078125,2.18447265625,-0.40137890625,-4.656359375,-7.3588984375,-5.08677734375
-2.40836328125,2.2517265625,5.77328515625,3.68703125,-2.78515625,1.64970703125,6.88302734375,3.46448046875,0.109234375,0.90503515625,5.74174609375,3.021375,-2.2826875,0.63671484375,2.8381796875,2.14989453125,18.24869140625,-0.66583203125,0.02594921875,1.09078515625,7.6282421875,-7.72144140625,3.5856640625,1.41839453125,4.25455078125,1.66747265625,0.12062109375,-5.185359375,-8.2508984375,-6.05577734375
0.32063671875,1.3827265625,2.40128515625,-0.27196875,0.80684375,0.63770703125,8.64902734375,1.46948046875,2.866234375,2.58403515625,6.61574609375,3.367375,-1.5256875,1.87271484375,3.0771796875,3.25289453125,23.12869140625,0.89816796875,1.03594921875,2.12878515625,6.4332421875,-4.96544140625,4.0986640625,1.94139453125,2.95055078125,-1.50552734375,0.28062109375,-5.946359375,-9.7008984375,-7.63877734375
3.92863671875,-0.1502734375,-1.74471484375,-6.19596875,5.08084375,-1.08529296875,10.09902734375,-1.76551953125,6.387234375,4.53703515625,7.29274609375,3.130375,-0.7486875,3.42971484375,3.2031796875,4.00389453125,27.95469140625,2.91016796875,2.19794921875,3.00078515625,3.9182421875,-2.13744140625,4.7096640625,2.26739453125,0.76155078125,-6.57852734375,0.14562109375,-6.953359375,-11.5328984375,-9.65377734375
3.92863671875,-0.1502734375,-1.74471484375,-6.19596875,5.08084375,-1.08529296875,10.09902734375,-1.76551953125,6.387234375,4.53703515625,7.29274609375,3.130375,-0.7486875,3.42971484375,3.2031796875,4.00389453125,27.95469140625,2.91016796875,2.19794921875,3.00078515625,3.9182421875,-2.13744140625,4.7096640625,2.26739453125,0.76155078125,-6.57852734375,0.14562109375,-6.953359375,-11.5328984375,-9.65377734375
