"Fp1","Fpz","Fp2","F7","F3","Fz","F4","F8","FC5","FC1","FC2","FC6","T7","C3","Cz","C4","T8","CP5","CP1","CP2","CP6","P7","P3","Pz","P4","P8","POz","O1","Oz","O2"
-10.8455859375,-12.06751171875,-11.07412109375,-11.981390625,-15.5708671875,-17.34091796875,-8.77157421875,-1.62226953125,-16.73620703125,-13.25347265625,-12.77367578125,1.464359375,-10.2612890625,-5.6325703125,-10.18087890625,-4.8886640625,4.83482421875,-1.462125,-5.2879296875,-5.30592578125,13.43217578125,-2.41721875,2.95333984375,5.0223828125,17.2573203125,17.9585078125,9.358796875,7.83596875,9.443015625,18.618390625
-6.2505859375,-9.55051171875,-10.04312109375,-9.079390625,-11.0008671875,-11.53291796875,-4.70557421875,-0.729269531249999,-13.53620703125,-7.42547265625,-8.92667578125,0.814359375,-9.7792890625,-1.6615703125,-2.92887890625,-4.1626640625,3.66582421875,-0.314125,-2.0699296875,-3.70892578125,11.66717578125,-1.36121875,3.12333984375,5.3403828125,15.2113203125,14.9165078125,6.989796875,5.20396875,7.012015625,15.362390625
-1.9245859375,-6.91151171875,-8.30112109375,-6.407390625,-7.0068671875,-6.50391796875,-1.05457421875,0.18473046875,-10.65220703125,-2.42947265625,-5.23467578125,1.150359375,-9.4852890625,1.4244296875,3.33112109375,-2.9146640625,3.05582421875,0.289875,0.4100703125,-2.33692578125,10.37417578125,-0.65421875,2.52533984375,5.2463828125,12.7983203125,12.8375078125,4.178796875,2.35796875,4.321015625,12.211390625
1.8024140625,-4.12151171875,-5.77112109375,-4.044390625,-3.6888671875,-2.49491796875,1.96242578125,0.94873046875,-8.10420703125,1.54452734375,-1.80467578125,2.449359375,-9.0772890625,3.5484296875,8.15012109375,-1.2316640625,2.92882421875,0.266875,1.8610703125,-1.44492578125,9.47717578125,-0.44621875,0.91933984375,4.4133828125,9.8843203125,11.6825078125,0.661796875,-0.90303125,1.207015625,9.150390625
4.6234140625,-1.21551171875,-2.60612109375,-1.998390625,-0.9988671875,0.45508203125,4.24942578125,1.39873046875,-5.83720703125,4.51052734375,1.28532421875,4.375359375,-8.1432890625,4.8714296875,11.24112109375,0.5563359375,3.02882421875,-0.339125,2.0940703125,-1.33492578125,8.68717578125,-0.85421875,-1.77366015625,2.4983828125,6.3703203125,11.0005078125,-3.777203125,-4.78303125,-2.436984375,6.099390625
6.4084140625,1.67848828125,0.86587890625,-0.198390625,1.2081328125,2.52808203125,5.92242578125,1.52673046875,-3.78920703125,6.65452734375,4.01832421875,6.469359375,-6.4322890625,5.6864296875,12.58312109375,1.9963359375,3.07182421875,-1.391125,1.0910703125,-2.24792578125,7.62817578125,-1.89621875,-5.41766015625,-0.6846171875,2.2273203125,10.1135078125,-9.164203125,-9.35103125,-6.543984375,2.956390625
7.2654140625,4.33448828125,4.21687890625,1.461609375,3.0951328125,4.04108203125,7.27142578125,1.50973046875,-1.94820703125,8.24952734375,6.41232421875,8.321359375,-4.0752890625,6.2864296875,12.45812109375,2.6963359375,2.85882421875,-2.683125,-0.9359296875,-4.22692578125,6.00417578125,-3.43021875,-9.61166015625,-5.0056171875,-2.4316796875,8.4195078125,-15.203203125,-14.39303125,-10.796984375,-0.308609375
7.4524140625,6.45748828125,6.99387890625,3.024609375,4.7651328125,5.30108203125,8.60842578125,1.60173046875,-0.381207031250001,9.53852734375,8.46232421875,9.661359375,-1.6292890625,6.8684296875,11.37512109375,2.4913359375,2.28082421875,-3.972125,-3.5029296875,-7.01692578125,3.72017578125,-5.14221875,-13.70466015625,-9.9326171875,-7.2746796875,5.6425078125,-21.246203125,-19.34103125,-14.649984375,-3.572609375
7.2244140625,7.74548828125,8.75687890625,4.387609375,6.2011328125,6.44808203125,10.07142578125,1.94973046875,0.775792968749999,10.63452734375,10.08532421875,10.372359375,0.1287109375,7.4884296875,9.93012109375,1.5373359375,1.29982421875,-5.016125,-5.9119296875,-10.06592578125,0.94617578125,-6.60421875,-16.89766015625,-14.5876171875,-11.7306796875,1.9725078125,-26.381203125,-23.36103125,-17.451984375,-6.511609375
6.7014140625,7.96848828125,9.11187890625,5.283609375,7.2641328125,7.38708203125,11.54242578125,2.46673046875,1.37279296875,11.48452734375,11.13432421875,10.461359375,0.5887109375,8.1024296875,8.65612109375,0.2973359375,-0.03517578125,-5.616125,-7.3819296875,-12.60192578125,-1.87282421875,-7.40921875,-18.40666015625,-17.9216171875,-15.0406796875,-1.9704921875,-29.617203125,-25.55703125,-18.612984375,-8.624609375
5.8714140625,7.06648828125,7.81287890625,5.393609375,7.7401328125,7.84108203125,12.71442578125,2.86073046875,1.32279296875,11.93052734375,11.47132421875,10.056359375,-0.3482890625,8.6474296875,7.92312109375,-0.5656640625,-1.50117578125,-5.645125,-7.2329296875,-13.79492578125,-4.06682421875,-7.31121875,-17.63266015625,-18.9506171875,-16.3806796875,-5.2804921875,-30.093203125,-25.21703125,-17.733984375,-9.306609375
4.7004140625,5.21548828125,4.93187890625,4.532609375,7.4301328125,7.52808203125,13.26742578125,2.80773046875,0.654792968749999,11.83552734375,11.06532421875,9.404359375,-2.1952890625,9.1324296875,7.89512109375,-0.3886640625,-2.64917578125,-5.033125,-5.0659296875,-12.96592578125,-4.84282421875,-6.28721875,-14.30466015625,-16.9936171875,-15.0356796875,-6.9764921875,-27.277203125,-21.99503125,-14.660984375,-7.979609375
3.2494140625,2.84348828125,1.02887890625,2.799609375,6.2371328125,6.35108203125,13.01742578125,2.15673046875,-0.49220703125,11.18052734375,10.04332421875,8.827359375,-4.1552890625,9.6464296875,8.51612109375,1.2613359375,-2.90617578125,-3.773125,-0.9169296875,-9.80892578125,-3.49582421875,-4.48221875,-8.56666015625,-11.8846171875,-10.6206796875,-6.2604921875,-21.124203125,-16.01203125,-9.498984375,-4.274609375
1.6994140625,0.53248828125,-2.85212109375,0.575609375,4.2201328125,4.44708203125,11.95542578125,1.01273046875,-1.93520703125,10.05252734375,8.63732421875,8.602359375,-5.5532890625,10.2594296875,9.51412109375,4.3793359375,-1.84117578125,-1.946125,4.6710703125,-4.57292578125,0.30217578125,-2.08121875,-1.01966015625,-4.1146171875,-3.2856796875,-2.7864921875,-12.193203125,-7.87603125,-2.632984375,1.757390625
0.2534140625,-1.18551171875,-5.48512109375,-1.646390625,1.5871328125,2.08708203125,10.19842578125,-0.347269531249999,-3.53620703125,8.55052734375,7.06432421875,8.798359375,-6.1592890625,10.8744296875,10.41812109375,8.4313359375,0.51482421875,0.214875,10.6600703125,1.87807421875,6.24417578125,0.74078125,7.29533984375,5.1533828125,6.1493203125,3.1415078125,-1.673203125,1.35896875,5.216015625,9.496390625
-1.0085859375,-2.07951171875,-6.04012109375,-3.501390625,-1.3858671875,-0.49091796875,7.88942578125,-1.65326953125,-5.25620703125,6.66952734375,5.40632421875,9.179359375,-6.2222890625,11.1464296875,10.62212109375,12.4393359375,3.54682421875,2.280875,15.7190703125,8.21207421875,13.34217578125,3.76978125,15.02733984375,14.2503828125,16.2523203125,10.5645078125,8.763796875,10.32696875,12.999015625,17.782390625
-2.2075859375,-2.37051171875,-4.59612109375,-4.894390625,-4.4388671875,-3.16991796875,5.15742578125,-2.77526953125,-7.13820703125,4.29852734375,3.57932421875,9.260359375,-6.2342890625,10.5684296875,9.55612109375,15.2773359375,6.24782421875,3.689875,18.5710703125,12.98007421875,20.16317578125,6.65778125,20.79433984375,21.3923828125,25.2933203125,18.1135078125,17.322796875,17.61696875,19.507015625,25.193390625
-3.6015859375,-2.64851171875,-2.22012109375,-5.971390625,-7.3658671875,-5.90591796875,2.17342578125,-3.73926953125,-9.20920703125,1.34452734375,1.43932421875,8.543359375,-6.6152890625,8.7204296875,6.93112109375,16.0803359375,7.66782421875,3.928875,18.4350703125,15.08907421875,25.29417578125,8.92778125,23.58033984375,25.2043828125,31.7533203125,24.4255078125,22.587796875,22.14196875,23.711015625,30.477390625
-5.3875859375,-3.54351171875,-0.46312109375,-6.933390625,-9.9588671875,-8.59591796875,-0.76057421875,-4.63326953125,-11.37220703125,-2.07047265625,-1.04867578125,6.804359375,-7.4922890625,5.5534296875,2.95312109375,14.6013359375,7.36482421875,2.772875,15.3400703125,14.19407421875,27.80817578125,10.13578125,23.07633984375,25.1703828125,34.8103203125,28.5335078125,23.954796875,23.46696875,25.097015625,32.944390625
-7.5025859375,-5.35151171875,-0.56312109375,-7.838390625,-11.9518671875,-10.97291796875,-3.20157421875,-5.50126953125,-13.35920703125,-5.51047265625,-3.68767578125,4.274359375,-8.6762890625,1.5284296875,-1.62387890625,11.3183359375,5.58382421875,0.445875,10.1740703125,10.84407421875,27.52717578125,10.08878125,19.81533984375,21.7973828125,34.5693203125,30.0645078125,21.786796875,21.90796875,23.825015625,32.621390625
-9.5445859375,-7.80951171875,-2.80012109375,-8.516390625,-13.0358671875,-12.61891796875,-4.70557421875,-6.27826953125,-14.77920703125,-8.29347265625,-6.08767578125,1.572359375,-9.8062890625,-2.4885703125,-5.68387890625,7.2313359375,3.09182421875,-2.400125,4.4020703125,6.28007421875,24.99917578125,8.97278125,14.98833984375,16.4103828125,31.9213203125,29.2115078125,17.220796875,18.35896875,20.618015625,30.123390625
-10.8955859375,-10.15251171875,-6.32712109375,-8.641390625,-12.9518671875,-13.11791796875,-5.04357421875,-6.79426953125,-15.24720703125,-9.72547265625,-7.81867578125,-0.569640625,-10.5362890625,-5.5045703125,-8.11887890625,3.4513359375,0.80382421875,-4.903125,-0.4239296875,1.96307421875,21.22817578125,7.28978125,10.04333984375,10.6643828125,28.1363203125,26.5635078125,11.720796875,13.92796875,16.460015625,26.359390625
-10.9785859375,-11.42851171875,-9.56412109375,-7.912390625,-11.6118671875,-12.27391796875,-4.34857421875,-6.87126953125,-14.52920703125,-9.38247265625,-8.61967578125,-1.650640625,-10.6602890625,-6.7475703125,-8.23287890625,0.7803359375,-0.60217578125,-6.304125,-3.1749296875,-0.967925781250001,17.29217578125,5.61478125,6.19933984375,5.9763828125,24.3513203125,22.8935078125,6.574796875,9.56096875,12.245015625,22.201390625
-9.5285859375,-10.92551171875,-10.94112109375,-6.223390625,-9.1798671875,-10.23591796875,-3.09257421875,-6.42426953125,-12.64320703125,-7.29547265625,-8.50567578125,-1.620640625,-10.1282890625,-5.9335703125,-6.01287890625,-0.5556640625,-0.89617578125,-6.221125,-3.4839296875,-2.10592578125,13.97717578125,4.31078125,4.07333984375,3.0793828125,21.1843203125,18.9575078125,2.501796875,5.79596875,8.498015625,18.249390625
-6.7435859375,-8.52351171875,-9.65512109375,-3.743390625,-6.0648671875,-7.44491796875,-1.86557421875,-5.54326953125,-9.88020703125,-3.95147265625,-7.73667578125,-0.881640624999999,-8.9912890625,-3.3515703125,-2.14887890625,-0.9116640625,-0.31117578125,-4.779125,-1.8049296875,-1.85392578125,11.55817578125,3.35278125,3.52933984375,1.8603828125,18.6033203125,15.3325078125,-0.504203125,2.67996875,5.266015625,14.727390625
-3.2355859375,-4.77951171875,-6.06712109375,-0.866390625,-2.8028671875,-4.42591796875,-1.05957421875,-4.46526953125,-6.72820703125,-0.11747265625,-6.65467578125,-0.0576406249999994,-7.3322890625,0.2504296875,2.22812109375,-0.9866640625,0.62382421875,-2.535125,0.7970703125,-1.17292578125,9.79217578125,2.36378125,3.81133984375,1.5303828125,16.0773203125,12.3175078125,-3.024203125,-0.11803125,2.206015625,11.525390625
0.1994140625,-0.710511718749999,-1.52012109375,1.919609375,0.1151328125,-1.57591796875,-0.63157421875,-3.48626953125,-3.72820703125,3.42752734375,-5.49167578125,0.337359375,-5.2452890625,3.9214296875,5.98512109375,-1.4496640625,1.31782421875,-0.259125,3.0480703125,-1.09692578125,8.12417578125,0.84478125,3.88333984375,1.0443828125,12.9393203125,9.9055078125,-5.847203125,-3.09103125,-1.165984375,8.350390625
2.8634140625,2.62748828125,2.31387890625,4.156609375,2.3921328125,0.93708203125,-0.10957421875,-2.83026953125,-1.33720703125,6.12352734375,-4.26967578125,0.156359375,-2.8862890625,6.7884296875,8.38212109375,-2.6106640625,1.34382421875,1.307875,3.8860703125,-2.27792578125,5.99717578125,-1.54221875,2.83333984375,-0.4516171875,8.7523203125,7.8415078125,-9.559203125,-6.64503125,-5.190984375,4.904390625
4.3584140625,4.54348828125,4.20087890625,5.518609375,3.9471328125,3.12008203125,1.11942578125,-2.54026953125,0.162792968749999,7.73252734375,-2.86167578125,-0.345640625,-0.5812890625,8.2554296875,9.24612109375,-4.3026640625,0.55682421875,1.635875,2.7500703125,-4.76092578125,3.12917578125,-4.78521875,0.17833984375,-3.3196171875,3.5193203125,5.7385078125,-14.291203125,-10.91903125,-9.881984375,1.045390625
4.6644140625,4.92048828125,3.86587890625,5.866609375,4.8511328125,5.03608203125,3.40442578125,-2.46026953125,0.673792968749999,8.30152734375,-1.16567578125,-0.709640625,1.1727109375,8.0834296875,8.86012109375,-6.0156640625,-0.91617578125,0.490875,-0.3379296875,-8.07192578125,-0.382824218750001,-8.51121875,-4.03266015625,-7.3996171875,-2.3376796875,3.2405078125,-19.692203125,-15.71703125,-14.882984375,-3.129609375
4.0954140625,4.17148828125,2.05687890625,5.282609375,5.2431328125,6.68008203125,6.56942578125,-2.31026953125,0.275792968749999,8.04952734375,0.73632421875,-0.537640625,1.8717109375,6.3914296875,7.71312109375,-7.1706640625,-2.77417578125,-2.019125,-4.8439296875,-11.49092578125,-4.10782421875,-12.13121875,-9.27366015625,-12.1366171875,-8.1276796875,0.200507812500001,-25.059203125,-20.53203125,-19.552984375,-7.251609375
3.1664140625,3.00048828125,0.15587890625,4.063609375,5.2881328125,7.95308203125,9.95142578125,-1.84126953125,-0.786207031250001,7.26152734375,2.54532421875,0.302359375,1.2667109375,3.6334296875,6.26112109375,-7.3696640625,-4.65617578125,-5.425125,-9.8899296875,-14.34492578125,-7.44982421875,-15.03621875,-14.68066015625,-16.7666171875,-13.0776796875,-3.1784921875,-29.521203125,-24.61803125,-23.090984375,-10.721609375
2.4114140625,2.07648828125,-0.49512109375,2.651609375,5.1541328125,8.71108203125,12.67342578125,-0.987269531249999,-2.14220703125,6.23052734375,3.86032421875,1.633359375,-0.4932890625,0.5384296875,4.82512109375,-6.5176640625,-6.23317578125,-8.960125,-14.4449296875,-16.18992578125,-9.81682421875,-16.76221875,-19.24066015625,-20.4776171875,-16.4646796875,-6.3444921875,-32.213203125,-27.10903125,-24.687984375,-12.819609375
2.1614140625,1.73148828125,0.70987890625,1.477609375,4.9581328125,8.84408203125,13.98242578125,0.0417304687500004,-3.39220703125,5.23352734375,4.34732421875,3.039359375,-2.9432890625,-2.0295703125,3.57712109375,-4.8096640625,-7.27717578125,-11.731125,-17.5439296875,-16.85192578125,-10.77082421875,-17.07521875,-21.98666015625,-22.5466171875,-17.7336796875,-8.5584921875,-32.456203125,-27.21003125,-23.723984375,-12.904609375
2.3864140625,1.80848828125,3.25987890625,0.766609375,4.7051328125,8.31508203125,13.48842578125,0.789730468750001,-4.24220703125,4.48052734375,3.85632421875,4.009359375,-5.5322890625,-3.3215703125,2.56812109375,-2.6446640625,-7.70317578125,-12.996125,-18.5119296875,-16.38892578125,-10.14782421875,-15.99721875,-22.21066015625,-22.4706171875,-16.6146796875,-9.1934921875,-29.929203125,-24.44303125,-19.978984375,-10.649609375
2.6714140625,1.74548828125,5.68887890625,0.422609375,4.2661328125,7.13308203125,11.25142578125,0.70273046875,-4.62320703125,4.04152734375,2.45332421875,4.094359375,-7.8332890625,-2.9555703125,1.76012109375,-0.5086640625,-7.57517578125,-12.389125,-17.1329296875,-15.01592578125,-8.09882421875,-13.77421875,-19.64366015625,-20.0826171875,-13.2266796875,-7.9974921875,-24.794203125,-18.86703125,-13.789984375,-6.213609375
2.4124140625,0.890488281250001,6.26787890625,0.0826093749999997,3.4361328125,5.35708203125,7.75942578125,-0.594269531249999,-4.70120703125,3.82952734375,0.40032421875,3.094359375,-9.6292890625,-1.0535703125,1.09112109375,1.1763359375,-7.08517578125,-10.021125,-13.6879296875,-12.99892578125,-5.05182421875,-10.81121875,-14.54166015625,-15.6036171875,-8.0746796875,-5.1854921875,-17.704203125,-11.15803125,-6.045984375,-0.251609374999999
1.1444140625,-1.10451171875,3.89987890625,-0.644390625,2.0731328125,3.14808203125,3.81542578125,-3.04326953125,-4.76820703125,3.65252734375,-1.87167578125,1.170359375,-10.8632890625,1.8204296875,0.57412109375,2.1953359375,-6.47917578125,-6.392125,-8.8429296875,-10.55692578125,-1.55182421875,-7.54221875,-7.66066015625,-9.6026171875,-1.9276796875,-1.3114921875,-9.669203125,-2.48903125,2.009015625,6.265390625
-1.1595859375,-4.01551171875,-1.23512109375,-1.906390625,0.2171328125,0.82608203125,0.34842578125,-6.07926953125,-5.06920703125,3.33952734375,-3.81467578125,-1.168640625,-11.5132890625,4.8874296875,0.36312109375,2.6433359375,-5.96517578125,-2.200125,-3.4339296875,-7.80092578125,1.92817578125,-4.29521875,-0.0896601562499999,-2.8726171875,4.4103203125,2.9965078125,-1.815203125,5.79096875,9.116015625,12.337390625
-4.0235859375,-7.06251171875,-7.64012109375,-3.497390625,-1.8598671875,-1.18691796875,-1.86957421875,-8.86526953125,-5.67320703125,2.83352734375,-4.89467578125,-3.268640625,-11.4852890625,7.4194296875,0.70212109375,2.8773359375,-5.63117578125,1.858875,1.7330703125,-4.76192578125,5.11817578125,-1.21321875,6.99233984375,3.7143828125,10.2933203125,7.2565078125,4.856796875,12.51896875,14.321015625,17.191390625
-6.6625859375,-9.22351171875,-13.10612109375,-4.962390625,-3.7498671875,-2.52791796875,-2.50257421875,-10.69526953125,-6.44620703125,2.18852734375,-4.79067578125,-4.615640625,-10.6302890625,8.9444296875,1.76212109375,3.3303359375,-5.44417578125,5.212875,5.9990703125,-1.51392578125,7.93617578125,1.67878125,12.56533984375,9.3333828125,15.3263203125,11.1715078125,9.648796875,16.97396875,17.164015625,20.415390625
-8.3195859375,-9.70951171875,-15.68212109375,-5.832390625,-5.0678671875,-3.05091796875,-1.79857421875,-11.31926953125,-7.13220703125,1.49552734375,-3.56667578125,-5.053640625,-8.9052890625,9.3254296875,3.44012109375,4.2623359375,-5.33217578125,7.468875,8.8810703125,1.70307421875,10.34917578125,4.32278125,15.94533984375,13.3033828125,19.3033203125,14.5125078125,12.203796875,18.95896875,17.664015625,21.916390625
-8.5785859375,-8.36051171875,-14.55012109375,-5.843390625,-5.6128671875,-2.87391796875,-0.46957421875,-10.96326953125,-7.48320703125,0.81252734375,-1.69967578125,-4.784640625,-6.5632890625,8.7274296875,5.29312109375,5.5923359375,-5.25817578125,8.423875,10.0860703125,4.45107421875,12.23617578125,6.49878125,16.89433984375,15.1773828125,22.0983203125,16.9795078125,12.484796875,18.70796875,16.188015625,21.805390625
-7.5175859375,-5.73051171875,-10.37512109375,-5.035390625,-5.4298671875,-2.30291796875,0.64942578125,-10.09726953125,-7.37020703125,0.14352734375,0.08432421875,-4.181640625,-4.1822890625,7.5244296875,6.67012109375,6.9253359375,-5.23217578125,8.097875,9.5490703125,6.22407421875,13.36617578125,7.85778125,15.63533984375,14.8483828125,23.6093203125,18.2155078125,10.724796875,16.72996875,13.283015625,20.294390625
-5.6705859375,-2.84151171875,-4.96612109375,-3.717390625,-4.7868671875,-1.69291796875,0.99642578125,-9.11326953125,-6.85720703125,-0.53947265625,1.09932421875,-3.543640625,-2.4452890625,6.1534296875,6.98212109375,7.7513359375,-5.24117578125,6.742875,7.4660703125,6.64707421875,13.49717578125,8.09678125,12.79733984375,12.6073828125,23.7913203125,17.9725078125,7.403796875,13.63096875,9.561015625,17.658390625
-3.8155859375,-0.735511718749999,-0.45612109375,-2.326390625,-4.0878671875,-1.33391796875,0.48742578125,-8.16226953125,-6.19620703125,-1.27547265625,0.94332421875,-2.971640625,-1.8072890625,4.9494296875,5.93012109375,7.6673359375,-5.21117578125,4.780875,4.2780703125,5.62207421875,12.53117578125,7.14778125,9.22833984375,9.0833828125,22.7053203125,16.2965078125,3.185796875,9.98096875,5.591015625,14.230390625
-2.6855859375,-0.0735117187499994,1.57287890625,-1.273390625,-3.7578671875,-1.41791796875,-0.56557421875,-7.21826953125,-5.75520703125,-2.13547265625,-0.42967578125,-2.432640625,-2.2832890625,4.0034296875,3.58712109375,6.5013359375,-5.04217578125,2.654875,0.5610703125,3.32807421875,10.58217578125,5.23878125,5.72533984375,5.0503828125,20.5223203125,13.5705078125,-1.207203125,6.20996875,1.804015625,10.368390625
-2.7115859375,-0.93951171875,0.62987890625,-0.812390625,-4.1028671875,-2.05991796875,-1.74657421875,-6.26826953125,-5.87620703125,-3.21347265625,-2.76167578125,-1.910640625,-3.4722890625,3.1624296875,0.36512109375,4.3223359375,-4.69217578125,0.681875,-3.1179296875,0.132074218749999,7.95117578125,2.79878125,2.79833984375,1.1933828125,17.4803203125,10.3975078125,-5.147203125,2.59496875,-1.581984375,6.412390625
-3.8495859375,-2.87151171875,-2.61112109375,-0.981390625,-5.1508671875,-3.28091796875,-2.79557421875,-5.42126953125,-6.70720703125,-4.55147265625,-5.58667578125,-1.504640625,-4.7762890625,2.1724296875,-3.07387890625,1.4093359375,-4.22217578125,-1.014125,-6.3009296875,-3.48592578125,5.05117578125,0.27478125,0.58233984375,-2.0316171875,13.8673203125,7.4145078125,-8.222203125,-0.68703125,-4.518984375,2.672390625
-5.5855859375,-5.04951171875,-6.64512109375,-1.603390625,-6.5618671875,-4.92991796875,-3.68457421875,-4.85226953125,-8.07020703125,-6.01247265625,-8.32067578125,-1.392640625,-5.6602890625,0.9204296875,-5.93787890625,-1.8026640625,-3.77017578125,-2.454125,-8.6769296875,-6.99692578125,2.30617578125,-2.02921875,-1.08866015625,-4.4326171875,10.0083203125,5.1275078125,-10.281203125,-3.48703125,-7.030984375,-0.571609375
-7.1395859375,-6.58051171875,-9.73512109375,-2.368390625,-7.7168671875,-6.62591796875,-4.50357421875,-4.66326953125,-9.48620703125,-7.22047265625,-10.35967578125,-1.718640625,-5.8592890625,-0.4215703125,-7.48987890625,-4.8016640625,-3.48417578125,-3.703125,-10.1029296875,-9.90992578125,0.0481757812500003,-3.99821875,-2.52966015625,-6.0576171875,6.2393203125,3.8025078125,-11.436203125,-5.69003125,-9.127984375,-3.109609375
-7.8035859375,-6.80951171875,-10.58312109375,-2.946390625,-7.9628671875,-7.81391796875,-5.26757421875,-4.80526953125,-10.35520703125,-7.66547265625,-11.21367578125,-2.479640625,-5.4502890625,-1.4395703125,-7.28487890625,-7.1036640625,-3.46617578125,-4.788125,-10.6129296875,-11.89892578125,-1.56782421875,-5.62921875,-4.04866015625,-7.1336171875,2.8473203125,3.4115078125,-11.993203125,-7.27003125,-10.807984375,-4.879609375
-7.2285859375,-5.56451171875,-8.82212109375,-3.099390625,-6.9018671875,-7.96191796875,-5.79757421875,-5.12426953125,-10.21220703125,-6.90947265625,-10.64167578125,-3.486640625,-4.7862890625,-1.6815703125,-5.35687890625,-8.3816640625,-3.74217578125,-5.652125,-10.4069296875,-12.91292578125,-2.60182421875,-6.89821875,-5.82666015625,-7.9786171875,0.0143203125000007,3.6415078125,-12.327203125,-8.32303125,-12.097984375,-6.014609375
-5.5205859375,-3.22651171875,-5.10212109375,-2.739390625,-4.5558671875,-6.76891796875,-5.75057421875,-5.46126953125,-8.91320703125,-4.81447265625,-8.71067578125,-4.405640625,-4.3082890625,-0.8975703125,-2.25587890625,-8.5516640625,-4.26917578125,-6.180125,-9.8019296875,-13.19292578125,-3.27182421875,-7.69321875,-7.83966015625,-8.8716171875,-2.2096796875,3.9735078125,-12.705203125,-9.00803125,-13.055984375,-6.774609375
-3.1105859375,-0.560511718749999,-0.72812109375,-1.901390625,-1.3378671875,-4.27191796875,-4.78957421875,-5.70826953125,-6.67420703125,-1.63347265625,-5.75467578125,-4.872640625,-4.3112890625,0.8394296875,1.12312109375,-7.7996640625,-4.96217578125,-6.260125,-9.1339296875,-13.16692578125,-3.84582421875,-7.84821875,-9.83666015625,-9.9276171875,-3.8966796875,3.8465078125,-13.148203125,-9.41703125,-13.726984375,-7.412609375
-0.5275859375,1.62748828125,2.98187890625,-0.693390625,2.1391328125,-0.82591796875,-2.78557421875,-5.80026953125,-3.95620703125,2.06652734375,-2.27167578125,-4.638640625,-4.7432890625,3.1794296875,3.85612109375,-6.5146640625,-5.72517578125,-5.837125,-8.6289296875,-13.26692578125,-4.50882421875,-7.23521875,-11.38266015625,-11.0366171875,-5.1756796875,2.8645078125,-13.403203125,-9.48003125,-14.068984375,-8.029609375
1.7854140625,2.83648828125,5.23187890625,0.753609375,5.3121328125,3.00508203125,0.07042578125,-5.68126953125,-1.28320703125,5.61252734375,1.21032421875,-3.682640625,-5.1682890625,5.6864296875,5.34612109375,-5.1256640625,-6.48217578125,-4.916125,-8.2849296875,-13.70992578125,-5.28182421875,-5.80221875,-11.93366015625,-11.8636171875,-6.1226796875,0.993507812500001,-13.037203125,-8.96003125,-13.920984375,-8.530609375
3.5324140625,3.04548828125,5.94287890625,2.297609375,7.8181328125,6.57508203125,3.31342578125,-5.29926953125,0.914792968749999,8.46252734375,4.25032421875,-2.222640625,-4.9642890625,8.0314296875,5.56912109375,-3.9036640625,-7.18617578125,-3.530125,-7.8069296875,-14.34092578125,-5.98982421875,-3.57321875,-10.97666015625,-11.9316171875,-6.6476796875,-1.3704921875,-11.603203125,-7.57203125,-13.049984375,-8.675609375
4.5594140625,2.67448828125,5.59087890625,3.762609375,9.5161328125,9.31908203125,6.39042578125,-4.61226953125,2.38079296875,10.36852734375,6.59632421875,-0.573640624999999,-3.6842890625,10.1034296875,5.09712109375,-2.7916640625,-7.79117578125,-1.705125,-6.6839296875,-14.60392578125,-6.28482421875,-0.65721875,-8.19066015625,-10.7576171875,-6.4376796875,-3.4944921875,-8.813203125,-5.14703125,-11.242984375,-8.193609375
4.8614140625,2.35148828125,4.88387890625,4.938609375,10.4331328125,10.91308203125,8.89642578125,-3.58426953125,3.05579296875,11.40352734375,8.27532421875,1.065359375,-1.3732890625,11.9944296875,4.86612109375,-1.3726640625,-8.19117578125,0.542875,-4.3719296875,-13.69292578125,-5.70782421875,2.71078125,-3.58466015625,-8.0036171875,-5.0206796875,-4.5434921875,-4.648203125,-1.75503125,-8.426984375,-6.883609375
4.6144140625,2.64548828125,4.46087890625,5.650609375,10.7281328125,11.38808203125,10.74842578125,-2.17926953125,3.06679296875,11.89152734375,9.60432421875,2.767359375,1.4107109375,13.8864296875,5.78712109375,0.9873359375,-8.17517578125,3.166875,-0.5559296875,-10.87092578125,-3.80982421875,6.13378125,2.42633984375,-3.6196171875,-1.9536796875,-3.8734921875,0.630796875,2.27396875,-4.737984375,-4.676609375
4.1824140625,3.83948828125,4.71187890625,5.854609375,10.6661328125,11.11508203125,12.17942578125,-0.39826953125,2.69379296875,12.23752734375,11.07632421875,4.821359375,3.8517109375,15.9094296875,8.34212109375,4.8343359375,-7.46917578125,6.028875,4.6450703125,-5.82392578125,-0.320824218749999,9.08178125,9.07533984375,2.0733828125,2.9183203125,-1.2674921875,6.526796875,6.41296875,-0.537984375,-1.669609375
4.0024140625,5.81948828125,5.68687890625,5.680609375,10.5411328125,10.63108203125,13.53142578125,1.64073046875,2.27479296875,12.72552734375,13.08732421875,7.476359375,5.2417109375,18.0004296875,12.33912109375,10.2583359375,-5.90717578125,8.853875,10.6060703125,1.07507421875,4.65517578125,11.01978125,15.37933984375,8.3693828125,9.2433203125,2.9405078125,12.375796875,10.04696875,3.626015625,1.840390625
4.3674140625,8.12048828125,7.09287890625,5.357609375,10.5231328125,10.34908203125,14.95442578125,3.62373046875,2.07379296875,13.35952734375,15.63432421875,10.631359375,5.2397109375,19.8524296875,16.91512109375,16.6663359375,-3.62917578125,11.242875,16.3100703125,8.74507421875,10.53517578125,11.58978125,20.36033984375,14.2793828125,16.1353203125,7.9285078125,17.424796875,12.58396875,7.117015625,5.354390625
5.2394140625,10.09048828125,8.41087890625,5.078609375,10.5551328125,10.32908203125,16.23942578125,5.08373046875,2.16579296875,13.83852734375,18.18132421875,13.726359375,3.9837109375,20.9864296875,20.80812109375,22.8483359375,-1.12117578125,12.774875,20.6260703125,15.66807421875,16.34117578125,10.76578125,23.28233984375,18.7613828125,22.3763203125,12.6355078125,20.964796875,13.60096875,9.373015625,8.253390625
6.2364140625,11.12848828125,9.10487890625,4.902609375,10.3681328125,10.23308203125,16.88042578125,5.57273046875,2.41279296875,13.69552734375,19.82832421875,15.922359375,2.0327109375,20.9464296875,22.80412109375,27.3543359375,0.95382421875,13.155875,22.6460703125,20.35307421875,20.97517578125,8.87678125,23.83833984375,21.0283828125,26.8073203125,16.1145078125,22.515796875,12.98996875,10.078015625,9.996390625
6.8014140625,10.88048828125,8.82787890625,4.743609375,9.6361328125,9.52908203125,16.34042578125,4.86873046875,2.53079296875,12.52952734375,19.69532421875,16.471359375,0.1307109375,19.5004296875,22.13412109375,29.0093359375,2.02282421875,12.316875,21.9480703125,21.79507421875,23.55317578125,6.46578125,22.19733984375,20.7793828125,28.6913203125,17.8175078125,21.983796875,11.02396875,9.286015625,10.321390625
6.4464140625,9.31048828125,7.50387890625,4.432609375,8.1341328125,7.79308203125,14.31642578125,3.08173046875,2.20679296875,10.19452734375,17.31632421875,15.035359375,-1.1432890625,16.7524296875,18.71212109375,27.3143359375,1.80482421875,10.412875,18.6980703125,19.76407421875,23.65917578125,4.06578125,18.88733984375,18.2573828125,27.8883203125,17.6735078125,19.682796875,8.25496875,7.382015625,9.327390625
4.9704140625,6.66648828125,5.28987890625,3.805609375,5.8461328125,4.95108203125,10.89842578125,0.595730468750001,1.21379296875,6.86952734375,12.86632421875,11.820359375,-1.6492890625,13.1154296875,13.13712109375,22.6013359375,0.35482421875,7.753875,13.5680703125,14.84207421875,21.42817578125,2.02378125,14.58133984375,14.1213828125,24.8223203125,15.9885078125,16.214796875,5.28396875,4.910015625,7.398390625
2.5634140625,3.40248828125,2.50687890625,2.802609375,3.0041328125,1.33908203125,6.57142578125,-2.06226953125,-0.488207031250001,3.01652734375,7.14532421875,7.507359375,-1.7182890625,9.1834296875,6.53012109375,15.9153359375,-1.98617578125,4.724875,7.5510703125,8.23807421875,17.47017578125,0.46078125,9.90733984375,9.2323828125,20.2943203125,13.2905078125,12.270796875,2.53496875,2.368015625,5.018390625
-0.2275859375,0.100488281250001,-0.38612109375,1.536609375,0.0561328125,-2.39891796875,2.08142578125,-4.37526953125,-2.70620703125,-0.73047265625,1.33432421875,3.039359375,-1.9232890625,5.5804296875,0.25312109375,8.7033359375,-4.69317578125,1.721875,1.7330703125,1.44307421875,12.68117578125,-0.65821875,5.34033984375,4.4353828125,15.2473203125,10.1895078125,8.447796875,0.17596875,0.0680156250000001,2.594390625
-2.6785859375,-2.64151171875,-2.85112109375,0.292609375,-2.4508671875,-5.52491796875,-1.79857421875,-5.93126953125,-5.04420703125,-3.73947265625,-3.39667578125,-0.664640625,-2.7442890625,2.8064296875,-4.45687890625,2.3873359375,-7.17417578125,-0.904125,-2.9439296875,-4.19192578125,7.99117578125,-1.43621875,1.19833984375,0.3723828125,10.5463203125,7.2595078125,5.143796875,-1.81903125,-1.882984375,0.371390625
-4.1555859375,-4.35851171875,-4.40612109375,-0.581390625,-4.0708671875,-7.47691796875,-4.52457421875,-6.51626953125,-7.01820703125,-5.58747265625,-6.30267578125,-3.008640625,-4.3042890625,1.1354296875,-6.85587890625,-2.0406640625,-8.91217578125,-2.914125,-5.8859296875,-7.81992578125,4.11717578125,-1.98821875,-2.29666015625,-2.6156171875,6.7963203125,4.9435078125,2.546796875,-3.51903125,-3.509984375,-1.555609375
-4.3705859375,-4.86551171875,-4.79212109375,-0.835390625,-4.6478671875,-8.08491796875,-5.95457421875,-6.18526953125,-8.23620703125,-6.23047265625,-7.30667578125,-3.903640625,-6.2812890625,0.5614296875,-6.93187890625,-4.2636640625,-9.58717578125,-4.218125,-6.9849296875,-9.29492578125,1.39617578125,-2.41921875,-4.96566015625,-4.5126171875,4.2473203125,3.4705078125,0.670796875,-4.92103125,-4.860984375,-3.166609375
-3.4955859375,-4.32351171875,-4.08812109375,-0.478390625,-4.3838671875,-7.64891796875,-6.36057421875,-5.27626953125,-8.55620703125,-6.01547265625,-6.95867578125,-3.750640625,-8.0512890625,0.8184296875,-5.38787890625,-4.6746640625,-9.17117578125,-4.886125,-6.6339296875,-9.13492578125,-0.26282421875,-2.81321875,-6.67266015625,-5.5806171875,2.7673203125,2.8045078125,-0.608203125,-5.92103125,-5.954984375,-4.461609375
-2.0805859375,-3.18551171875,-2.67512109375,0.190609375,-3.7378671875,-6.77391796875,-6.24357421875,-4.31426953125,-8.13920703125,-5.51747265625,-6.11667578125,-3.214640625,-8.9992890625,1.4764296875,-3.36387890625,-4.1796640625,-7.96817578125,-5.117125,-5.5829296875,-8.31192578125,-1.30182421875,-3.21921875,-7.40866015625,-6.2876171875,1.8853203125,2.6065078125,-1.547203125,-6.41203125,-6.814984375,-5.491609375
-0.8145859375,-2.02651171875,-1.10412109375,0.703609375,-3.1808671875,-6.05791796875,-6.05757421875,-3.79826953125,-7.34820703125,-5.24847265625,-5.52267578125,-2.888640625,-8.8332890625,2.0794296875,-1.98487890625,-3.8366640625,-6.55017578125,-5.182125,-4.6969296875,-7.90692578125,-2.34682421875,-3.65521875,-7.37266015625,-7.1946171875,0.9293203125,2.3065078125,-2.493203125,-6.40503125,-7.537984375,-6.403609375
-0.2475859375,-1.34351171875,0.0878789062499998,0.641609375,-2.9528671875,-5.80891796875,-5.97557421875,-3.97526953125,-6.56220703125,-5.41547265625,-5.48767578125,-3.029640625,-7.7162890625,2.3184296875,-1.92387890625,-4.4556640625,-5.57117578125,-5.337125,-4.6599296875,-8.74892578125,-3.94682421875,-4.11021875,-6.95566015625,-8.7866171875,-0.726679687500001,1.3195078125,-3.768203125,-6.06303125,-8.286984375,-7.417609375
-0.6055859375,-1.37051171875,0.55487890625,-0.157390625,-2.9698671875,-5.94891796875,-5.84457421875,-4.72126953125,-5.99320703125,-5.84647265625,-5.82967578125,-3.483640625,-6.1192890625,2.1394296875,-3.17887890625,-6.2836640625,-5.48717578125,-5.731125,-5.7579296875,-11.12092578125,-6.32282421875,-4.53221875,-6.60566015625,-11.2716171875,-3.3936796875,-0.638492187499999,-5.495203125,-5.63103125,-9.188984375,-8.693609375
-1.7565859375,-2.00151171875,0.26787890625,-1.529390625,-2.9548671875,-6.14691796875,-5.34857421875,-5.59826953125,-5.65120703125,-6.14447265625,-6.07667578125,-3.847640625,-4.5472890625,1.7334296875,-5.17387890625,-8.9386640625,-6.36717578125,-6.368125,-7.8149296875,-14.67492578125,-9.25982421875,-4.83021875,-6.64766015625,-14.4516171875,-6.9076796875,-3.3284921875,-7.493203125,-5.31003125,-10.202984375,-10.196609375
-3.3155859375,-2.87251171875,-0.46812109375,-3.080390625,-2.6778671875,-6.06691796875,-4.29457421875,-6.08526953125,-5.44120703125,-5.95647265625,-5.80267578125,-3.749640625,-3.3312890625,1.3874296875,-7.10587890625,-11.6306640625,-7.88617578125,-7.135125,-10.3019296875,-18.59292578125,-12.20682421875,-4.88821875,-7.16566015625,-17.7616171875,-10.6746796875,-6.0504921875,-9.333203125,-5.15303125,-11.069984375,-11.651609375
-4.8235859375,-3.56051171875,-1.15712109375,-4.376390625,-2.1368671875,-5.59291796875,-2.82157421875,-5.87226953125,-5.31320703125,-5.20547265625,-4.91167578125,-3.094640625,-2.6002890625,1.3004296875,-8.35187890625,-13.5236640625,-9.51917578125,-7.872125,-12.5479296875,-21.90292578125,-14.53282421875,-4.59221875,-7.97966015625,-20.4586171875,-13.9026796875,-7.9514921875,-10.499203125,-5.04003125,-11.391984375,-12.634609375
-5.9035859375,-3.81651171875,-1.38412109375,-5.114390625,-1.5388671875,-4.90691796875,-1.41357421875,-5.05726953125,-5.31020703125,-4.14147265625,-3.70867578125,-2.138640625,-2.3572890625,1.4904296875,-8.70587890625,-14.0756640625,-10.81117578125,-8.416125,-13.9509296875,-23.81292578125,-15.78482421875,-3.86721875,-8.70166015625,-21.8576171875,-15.8826796875,-8.4344921875,-10.568203125,-4.69403125,-10.794984375,-12.735609375
-6.3745859375,-3.68051171875,-1.06712109375,-5.195390625,-1.1398671875,-4.39091796875,-0.69757421875,-4.12926953125,-5.51320703125,-3.20047265625,-2.74967578125,-1.370640625,-2.5702890625,1.8294296875,-8.35787890625,-13.1916640625,-11.60017578125,-8.597125,-14.1159296875,-23.90092578125,-15.83382421875,-2.72221875,-8.84966015625,-21.5166171875,-16.1996796875,-7.4234921875,-9.331203125,-3.77503125,-9.090984375,-11.732609375
-6.3075859375,-3.44451171875,-0.55612109375,-4.725390625,-1.1118671875,-4.42891796875,-1.13957421875,-3.74326953125,-5.94120703125,-2.78247265625,-2.56167578125,-1.276640625,-3.2152890625,2.1614296875,-7.69087890625,-11.1686640625,-12.07117578125,-8.240125,-12.9209296875,-22.15792578125,-14.85582421875,-1.26621875,-7.99266015625,-19.3266171875,-14.8016796875,-5.3574921875,-6.827203125,-2.01603125,-6.367984375,-9.683609375
-6.0045859375,-3.48351171875,-0.48412109375,-3.981390625,-1.4908671875,-5.22491796875,-2.80157421875,-4.40926953125,-6.51920703125,-3.06847265625,-3.38467578125,-2.103640625,-4.2882890625,2.3954296875,-7.04587890625,-8.5106640625,-12.61617578125,-7.220125,-10.5209296875,-18.90392578125,-13.19482421875,0.30678125,-5.91466015625,-15.5206171875,-11.9506796875,-2.9204921875,-3.313203125,0.64296875,-2.963984375,-6.905609375
-5.8595859375,-4.04851171875,-1.41212109375,-3.350390625,-2.2028671875,-6.71891796875,-5.27957421875,-6.23426953125,-7.13120703125,-3.96447265625,-5.04267578125,-3.720640625,-5.7872890625,2.5384296875,-6.55787890625,-5.7086640625,-13.53917578125,-5.553125,-7.3039296875,-14.65692578125,-11.18082421875,1.76578125,-2.72266015625,-10.6036171875,-8.0806796875,-0.682492187499999,0.794796875,3.98396875,0.652015625,-3.856609375
-6.1485859375,-5.12051171875,-3.46112109375,-3.213390625,-3.1118671875,-8.60191796875,-7.83057421875,-8.83026953125,-7.70520703125,-5.15547265625,-6.97067578125,-5.643640625,-7.6702890625,2.6704296875,-6.13087890625,-3.0876640625,-14.80017578125,-3.461125,-3.7999296875,-9.99792578125,-9.01082421875,2.89578125,1.14833984375,-5.2606171875,-3.6516796875,1.1545078125,5.003796875,7.55196875,4.017015625,-0.971609375
-6.8525859375,-6.39551171875,-6.15312109375,-3.780390625,-4.0528671875,-10.40191796875,-9.64857421875,-11.43026953125,-8.23420703125,-6.23147265625,-8.41767578125,-7.223640625,-9.7662890625,2.8894296875,-5.52287890625,-0.7556640625,-15.95417578125,-1.340125,-0.5409296875,-5.46892578125,-6.72482421875,3.52678125,5.06633984375,-0.2296171875,0.9453203125,2.7425078125,8.814796875,10.78696875,6.773015625,1.455390625
-7.6645859375,-7.39151171875,-8.58212109375,-4.962390625,-4.8758671875,-11.64691796875,-10.18357421875,-13.19226953125,-8.75420703125,-6.84547265625,-8.74267578125,-7.904640625,-11.7012890625,3.2724296875,-4.50887890625,1.3343359375,-16.34817578125,0.381875,2.0660703125,-1.51292578125,-4.29082421875,3.57478125,8.38433984375,3.8323828125,5.3863203125,4.3765078125,11.794796875,13.17396875,8.684015625,3.299390625
-8.1985859375,-7.64051171875,-9.81712109375,-6.376390625,-5.4958671875,-12.04991796875,-9.35657421875,-13.55926953125,-9.28020703125,-6.85947265625,-7.69867578125,-7.449640625,-12.9512890625,3.8224296875,-3.03887890625,3.2673359375,-15.48717578125,1.413875,3.7900703125,1.55207421875,-1.74582421875,3.07178125,10.60733984375,6.4763828125,9.3683203125,6.2345078125,13.631796875,14.37896875,9.627015625,4.552390625
-8.2245859375,-6.89251171875,-9.31212109375,-7.505390625,-5.9118671875,-11.63691796875,-7.57557421875,-12.47926953125,-9.77020703125,-6.40947265625,-5.57967578125,-6.024640625,-13.0542890625,4.4364296875,-1.32987890625,5.0573359375,-13.31617578125,1.701875,4.5490703125,3.53407421875,0.71617578125,2.18778125,11.47133984375,7.5303828125,12.5513203125,8.2175078125,14.163796875,14.31096875,9.577015625,5.240390625
-7.7685859375,-5.25351171875,-7.14312109375,-7.916390625,-6.1798671875,-10.71291796875,-5.53457421875,-10.37826953125,-10.12220703125,-5.84947265625,-3.11967578125,-4.118640625,-11.8952890625,4.8954296875,0.15812109375,6.5883359375,-10.28117578125,1.408875,4.3340703125,4.36207421875,2.74317578125,1.19178125,10.93433984375,7.0903828125,14.5743203125,9.9655078125,13.375796875,13.11296875,8.613015625,5.354390625
-7.0285859375,-3.21051171875,-4.01012109375,-7.437390625,-6.3568671875,-9.70391796875,-3.93257421875,-7.95226953125,-10.22620703125,-5.61447265625,-1.22467578125,-2.354640625,-9.8082890625,4.8934296875,0.86512109375,7.6103359375,-7.14817578125,0.784875,3.1470703125,4.05407421875,3.92917578125,0.32678125,9.12833984375,5.4343828125,15.1293203125,11.0065078125,11.374796875,11.07896875,6.917015625,4.836390625
-6.2355859375,-1.50351171875,-1.03112109375,-6.238390625,-6.4808671875,-9.01591796875,-3.24957421875,-5.92326953125,-10.04320703125,-6.07047265625,-0.65367578125,-1.283640625,-7.4232890625,4.1104296875,0.32912109375,7.7983359375,-4.71117578125,0.00787499999999985,0.9920703125,2.70207421875,3.95417578125,-0.32021875,6.28933984375,2.9043828125,14.0803203125,10.9695078125,8.370796875,8.52996875,4.719015625,3.602390625
-5.5865859375,-0.87051171875,0.62487890625,-4.768390625,-6.6088671875,-8.96091796875,-3.69757421875,-4.86526953125,-9.67620703125,-7.41747265625,-1.79867578125,-1.257640625,-5.3582890625,2.3244296875,-1.64487890625,6.8403359375,-3.54017578125,-0.902125,-2.0819296875,0.44807421875,2.68717578125,-0.87721875,2.70633984375,-0.1966171875,11.5253203125,9.7215078125,4.643796875,5.70996875,2.215015625,1.608390625
-5.2385859375,-1.73451171875,0.17587890625,-3.579390625,-6.8418671875,-9.71091796875,-5.25557421875,-5.08126953125,-9.34820703125,-9.63547265625,-4.58367578125,-2.371640625,-3.9962890625,-0.4605703125,-4.89587890625,4.5643359375,-3.82717578125,-2.040125,-5.9059296875,-2.49692578125,0.236175781250001,-1.59321875,-1.30866015625,-3.6336171875,7.8013203125,7.4125078125,0.525796875,2.74396875,-0.481984375,-1.085609375
-5.2775859375,-3.97451171875,-2.39212109375,-3.068390625,-7.2838671875,-11.21891796875,-7.70457421875,-6.50726953125,-9.26720703125,-12.43147265625,-8.48267578125,-4.446640625,-3.4242890625,-3.9225703125,-8.88887890625,1.0913359375,-5.33317578125,-3.475125,-10.1139296875,-5.80892578125,-3.04782421875,-2.63921875,-5.38366015625,-7.1976171875,3.4233203125,4.4215078125,-3.616203125,-0.28003125,-3.315984375,-4.245609375
-5.6475859375,-6.89151171875,-6.21812109375,-3.259390625,-7.9078671875,-13.14991796875,-10.60657421875,-8.67826953125,-9.46020703125,-15.23147265625,-12.61867578125,-7.036640625,-3.5062890625,-7.4275703125,-12.79787890625,-3.0726640625,-7.44017578125,-5.091125,-14.1329296875,-9.02392578125,-6.60982421875,-3.92721875,-9.05666015625,-10.6346171875,-0.9976796875,1.2595078125,-7.390203125,-3.20203125,-6.195984375,-7.450609375
-6.1145859375,-9.43551171875,-9.83512109375,-3.765390625,-8.4608671875,-14.92391796875,-13.32057421875,-10.85326953125,-9.70720703125,-17.27747265625,-15.99467578125,-9.520640625,-3.9592890625,-10.1675703125,-15.69587890625,-7.0976640625,-9.35517578125,-6.550125,-17.2829296875,-11.62592578125,-9.81482421875,-5.09621875,-11.81366015625,-13.6266171875,-4.8796796875,-1.5704921875,-10.446203125,-5.75603125,-8.936984375,-10.192609375
-6.3095859375,-10.62251171875,-11.77012109375,-3.983390625,-8.5228671875,-15.89891796875,-15.15357421875,-12.28826953125,-9.63520703125,-17.86647265625,-17.79967578125,-11.294640625,-4.4392890625,-11.4325703125,-16.84187890625,-10.0996640625,-10.43017578125,-7.427125,-18.9999296875,-13.23892578125,-12.14582421875,-5.68821875,-13.24366015625,-15.8806171875,-7.8326796875,-3.7404921875,-12.581203125,-7.65603125,-11.286984375,-12.077609375
-5.8725859375,-9.96151171875,-11.19512109375,-3.428390625,-7.7368671875,-15.61091796875,-15.60157421875,-12.53826953125,-8.93020703125,-16.65547265625,-17.68567578125,-11.994640625,-4.6032890625,-10.8945703125,-15.97587890625,-11.4986640625,-10.43717578125,-7.433125,-19.0589296875,-13.82092578125,-13.39582421875,-5.42521875,-13.21866015625,-17.2606171875,-9.8016796875,-5.2044921875,-13.824203125,-8.73203125,-13.015984375,-13.000609375
-4.6315859375,-7.67551171875,-8.29512109375,-1.999390625,-6.0378671875,-13.95191796875,-14.54657421875,-11.62626953125,-7.52920703125,-13.85647265625,-15.87767578125,-11.631640625,-4.1712890625,-8.7655703125,-13.43987890625,-11.2776640625,-9.62817578125,-6.585125,-17.6819296875,-13.69792578125,-13.73082421875,-4.40221875,-11.97466015625,-17.8616171875,-11.0716796875,-6.1854921875,-14.412203125,-9.00403125,-13.986984375,-13.180609375
-2.7265859375,-4.57551171875,-4.15512109375,-0.0583906250000004,-3.7468671875,-11.23391796875,-12.28757421875,-10.00326953125,-5.67820703125,-10.21547265625,-13.04867578125,-10.557640625,-3.0092890625,-5.7285703125,-10.06387890625,-9.9776640625,-8.55117578125,-5.213125,-15.4639296875,-13.39192578125,-13.58582421875,-3.06221875,-10.01366015625,-17.9526171875,-12.0956796875,-7.0204921875,-14.635203125,-8.66103125,-14.175984375,-13.008609375
-0.6155859375,-1.69551171875,-0.25012109375,1.735609375,-1.4608671875,-8.09191796875,-9.40657421875,-8.32326953125,-3.83920703125,-6.74947265625,-10.04267578125,-9.289640625,-1.2452890625,-2.6955703125,-6.84487890625,-8.4386640625,-7.73617578125,-3.822125,-13.1569296875,-13.34392578125,-13.44482421875,-1.97021875,-7.89766015625,-17.8336171875,-13.2396796875,-7.9864921875,-14.673203125,-7.96503125,-13.656984375,-12.836609375
1.0914140625,0.12648828125,2.19287890625,2.719609375,0.1971328125,-5.24991796875,-6.54157421875,-7.13526953125,-2.50520703125,-4.35847265625,-7.55967578125,-8.260640625,0.6547109375,-0.4965703125,-4.58187890625,-7.4196640625,-7.46017578125,-2.881125,-11.3819296875,-13.70092578125,-13.64082421875,-1.50521875,-6.05066015625,-17.6686171875,-14.5916796875,-9.1714921875,-14.500203125,-7.15603125,-12.568984375,-12.813609375
1.9144140625,0.55248828125,2.68087890625,2.527609375,0.8381328125,-3.25391796875,-4.17257421875,-6.62926953125,-2.00520703125,-3.50347265625,-5.96267578125,-7.621640625,2.0007109375,0.3894296875,-3.61687890625,-7.2796640625,-7.67417578125,-2.641125,-10.4089296875,-14.26092578125,-14.23182421875,-1.65921875,-4.64066015625,-17.3936171875,-15.9196796875,-10.4694921875,-13.911203125,-6.37603125,-11.075984375,-12.855609375
1.7484140625,-0.17251171875,1.61187890625,1.252609375,0.4781328125,-2.29691796875,-2.49357421875,-6.58526953125,-2.37420703125,-4.05147265625,-5.21567578125,-7.193640625,2.2187109375,-0.0265703124999996,-3.75487890625,-7.8496640625,-8.08717578125,-3.034125,-10.0649296875,-14.56592578125,-14.97482421875,-2.05321875,-3.56366015625,-16.7246171875,-16.7626796875,-11.6274921875,-12.615203125,-5.63503125,-9.315984375,-12.702609375
0.9174140625,-1.35251171875,0.0348789062499999,-0.586390625,-0.4838671875,-2.21191796875,-1.41457421875,-6.54726953125,-3.33020703125,-5.38447265625,-4.98367578125,-6.609640625,1.2317109375,-1.2635703125,-4.38287890625,-8.5146640625,-8.33917578125,-3.690125,-9.8159296875,-14.07292578125,-15.40782421875,-2.15721875,-2.51166015625,-15.2706171875,-16.5986796875,-12.3494921875,-10.363203125,-4.82203125,-7.363984375,-12.038609375
-0.0155859375,-2.14151171875,-0.87712109375,-2.259390625,-1.4598671875,-2.59591796875,-0.67157421875,-6.10026953125,-4.38320703125,-6.67047265625,-4.80567578125,-5.550640625,-0.4192890625,-2.5515703125,-4.73187890625,-8.4936640625,-8.15617578125,-4.088125,-9.0119296875,-12.33492578125,-15.00582421875,-1.59121875,-1.12266015625,-12.7246171875,-15.0266796875,-12.4124921875,-7.068203125,-3.78103125,-5.232984375,-10.616609375
-0.5335859375,-1.90251171875,-0.38012109375,-3.124390625,-1.9418671875,-2.99591796875,0.0224257812499999,-5.08426953125,-5.02720703125,-7.20147265625,-4.28167578125,-3.911640625,-1.8472890625,-3.1425703125,-4.18887890625,-7.1646640625,-7.43217578125,-3.800125,-7.1949296875,-9.16192578125,-13.38882421875,-0.34421875,0.82833984375,-9.0476171875,-11.9196796875,-11.7584921875,-2.900203125,-2.41903125,-2.929984375,-8.376609375
-0.3795859375,-0.464511718749999,1.54487890625,-2.865390625,-1.6988671875,-3.06391796875,0.86442578125,-3.62726953125,-4.94020703125,-6.64947265625,-3.20967578125,-1.818640625,-2.3202890625,-2.6285703125,-2.55287890625,-4.3246640625,-6.22617578125,-2.699125,-4.3529296875,-4.73792578125,-10.50582421875,1.20278125,3.27433984375,-4.5856171875,-7.5156796875,-10.5074921875,1.689796875,-0.79903125,-0.530984375,-5.516609375
0.3894140625,1.81048828125,4.25587890625,-1.587390625,-0.8128671875,-2.66791796875,1.90642578125,-2.03226953125,-4.10020703125,-5.15247265625,-1.64467578125,0.470359375,-1.6842890625,-1.1295703125,-0.13487890625,-0.2846640625,-4.71117578125,-1.046125,-0.9989296875,0.35107421875,-6.70782421875,2.44778125,5.82433984375,-0.0466171874999999,-2.4196796875,-8.9054921875,6.027796875,0.81796875,1.743015625,-2.495609375
1.4734140625,4.19348828125,6.78387890625,0.245609375,0.3901328125,-1.90391796875,3.05942578125,-0.597269531249999,-2.77420703125,-3.22947265625,0.13632421875,2.684359375,-0.4442890625,0.7374296875,2.35012109375,4.2343359375,-3.11717578125,0.612875,1.9920703125,5.21107421875,-2.66782421875,2.82278125,7.87833984375,3.6703828125,2.5013203125,-7.2344921875,9.360796875,2.02396875,3.524015625,0.0703906249999999
2.4574140625,5.90148828125,8.24487890625,2.001609375,1.4651328125,-1.03791796875,4.14142578125,0.493730468750001,-1.40020703125,-1.56047265625,1.74132421875,4.593359375,0.5127109375,2.1274296875,4.05812109375,8.3463359375,-1.68417578125,1.672875,3.7170703125,8.87207421875,0.83317578125,1.99978125,8.84833984375,5.7533828125,6.3163203125,-5.7514921875,11.051796875,2.38596875,4.378015625,1.573390625
2.9694140625,6.40748828125,8.16987890625,3.116609375,1.9671328125,-0.38891796875,4.94942578125,1.17773046875,-0.430207031250001,-0.74747265625,2.80032421875,6.014359375,0.4077109375,2.3274296875,4.36012109375,11.2733359375,-0.62917578125,1.735875,3.6090703125,10.56807421875,3.15217578125,0.00878124999999996,8.38633984375,5.7483828125,8.2733203125,-4.6534921875,10.772796875,1.60896875,3.963015625,1.619390625
2.8234140625,5.62748828125,6.65087890625,3.279609375,1.5761328125,-0.22091796875,5.33742578125,1.43673046875,-0.17520703125,-1.13447265625,3.09432421875,6.804359375,-0.9912890625,1.0684296875,3.07812109375,12.5453359375,-0.10717578125,0.778875,1.6610703125,9.97107421875,3.95517578125,-2.74021875,6.51533984375,3.7173828125,8.0243203125,-4.0694921875,8.602796875,-0.32703125,2.199015625,0.172390625
2.0914140625,3.91948828125,4.28387890625,2.511609375,0.2001328125,-0.66391796875,5.25042578125,1.24073046875,-0.71820703125,-2.72347265625,2.59832421875,6.865359375,-3.2142890625,-1.3775703125,0.53612109375,12.0803359375,-0.17417578125,-0.846125,-1.5769296875,7.28607421875,3.27317578125,-5.55021875,3.62133984375,0.2103828125,5.7383203125,-4.0664921875,5.019796875,-3.11303125,-0.641984374999999,-2.422609375
1.0524140625,1.91548828125,1.94087890625,1.102609375,-1.9628671875,-1.67591796875,4.68842578125,0.55073046875,-1.91020703125,-5.20947265625,1.44732421875,6.162359375,-5.3072890625,-4.3185703125,-2.59787890625,10.1343359375,-0.76217578125,-2.571125,-5.2069296875,3.18307421875,1.45317578125,-7.62221875,0.31033984375,-3.9266171875,2.0473203125,-4.6524921875,0.766796875,-6.18403125,-3.982984375,-5.552609375
0.0614140625000001,0.252488281250001,0.43587890625,-0.522390625,-4.4528671875,-3.07891796875,3.66342578125,-0.62926953125,-3.44120703125,-8.08447265625,-0.16067578125,4.740359375,-6.3462890625,-6.9375703125,-5.57587890625,7.1873359375,-1.67917578125,-3.855125,-8.3009296875,-1.42092578125,-0.97282421875,-8.32521875,-2.78166015625,-7.8356171875,-2.1436796875,-5.7374921875,-3.342203125,-8.90003125,-7.108984375,-8.523609375
-0.6065859375,-0.669511718749999,0.20587890625,-1.954390625,-6.6678671875,-4.64191796875,2.15742578125,-2.19226953125,-4.95720703125,-10.78647265625,-2.06467578125,2.722359375,-5.9062890625,-8.5975703125,-7.82587890625,3.7863359375,-2.64517578125,-4.379125,-10.2129296875,-5.63392578125,-3.44082421875,-7.43821875,-5.17066015625,-10.8776171875,-5.9436796875,-7.1094921875,-6.624203125,-10.75403125,-9.392984375,-10.762609375
-0.8415859375,-0.823511718749999,1.12087890625,-2.896390625,-8.0538671875,-6.15991796875,0.14542578125,-3.92926953125,-6.15820703125,-12.84747265625,-4.17467578125,0.301359375000001,-4.2142890625,-9.0475703125,-9.09187890625,0.4093359375,-3.38317578125,-4.133125,-10.7749296875,-8.83592578125,-5.51582421875,-5.25721875,-6.62966015625,-12.7656171875,-8.7426796875,-8.4474921875,-8.674203125,-11.51903125,-10.478984375,-11.936609375
-0.6985859375,-0.51851171875,2.53387890625,-3.209390625,-8.3108671875,-7.47091796875,-2.34457421875,-5.57426953125,-6.86420703125,-13.99547265625,-6.43867578125,-2.290640625,-1.9292890625,-8.4615703125,-9.45087890625,-2.6336640625,-3.71417578125,-3.372125,-10.3279296875,-10.80092578125,-6.99282421875,-2.53021875,-7.21366015625,-13.5646171875,-10.3746796875,-9.4274921875,-9.448203125,-11.30303125,-10.367984375,-12.012609375
-0.3505859375,-0.21651171875,3.54987890625,-2.911390625,-7.4968671875,-8.43291796875,-5.16257421875,-6.87826953125,-7.03920703125,-14.19647265625,-8.74867578125,-4.800640625,0.2467109375,-7.3335703125,-9.20487890625,-5.2266640625,-3.63917578125,-2.503125,-9.5589296875,-11.68192578125,-7.92982421875,-0.21821875,-7.22966015625,-13.6036171875,-11.1106796875,-9.8724921875,-9.250203125,-10.48403125,-9.385984375,-11.238609375
-0.0195859375,-0.303511718749999,3.43287890625,-2.165390625,-6.0028671875,-8.90591796875,-7.98057421875,-7.68426953125,-6.78120703125,-13.62947265625,-10.86067578125,-6.962640625,1.8777109375,-6.2695703125,-8.72187890625,-7.3816640625,-3.33017578125,-1.935125,-9.2149296875,-11.86692578125,-8.57682421875,0.83878125,-7.13266015625,-13.3406171875,-11.4806796875,-9.8414921875,-8.623203125,-9.58403125,-8.049984375,-10.069609375
0.0974140625000002,-0.895511718749999,1.94587890625,-1.226390625,-4.3908671875,-8.77191796875,-10.30157421875,-7.94426953125,-6.27020703125,-12.60047265625,-12.36867578125,-8.503640625,2.8817109375,-5.7595703125,-8.27887890625,-9.1326640625,-3.03117578125,-1.946125,-9.7999296875,-11.78092578125,-9.23782421875,0.23778125,-7.37466015625,-13.2136171875,-11.9996796875,-9.6044921875,-8.155203125,-9.09403125,-6.878984375,-9.027609375
-0.0815859374999999,-1.79651171875,-0.51912109375,-0.366390625,-3.1518671875,-7.95591796875,-11.54957421875,-7.71526953125,-5.68520703125,-11.40147265625,-12.79067578125,-9.168640625,3.4277109375,-5.9905703125,-7.95987890625,-10.4256640625,-2.90317578125,-2.586125,-11.3729296875,-11.71492578125,-10.10082421875,-1.84121875,-8.22966015625,-13.4956171875,-12.9226796875,-9.5014921875,-8.253203125,-9.29703125,-6.211984375,-8.512609375
-0.4555859375,-2.59651171875,-3.08612109375,0.214609375,-2.4968671875,-6.43991796875,-11.26857421875,-7.14426953125,-5.11320703125,-10.19147265625,-11.74167578125,-8.794640625,3.7397109375,-6.7735703125,-7.65087890625,-11.0926640625,-2.93017578125,-3.649125,-13.5339296875,-11.74992578125,-11.14782421875,-4.74721875,-9.66766015625,-14.1946171875,-14.1406796875,-9.7574921875,-8.969203125,-10.15203125,-6.095984375,-8.623609375
-0.7555859375,-2.88451171875,-4.77512109375,0.454609375,-2.2578671875,-4.29191796875,-9.33057421875,-6.46726953125,-4.50420703125,-8.93747265625,-9.13567578125,-7.421640625,3.9337109375,-7.6155703125,-7.12487890625,-10.9386640625,-2.95117578125,-4.727125,-15.5849296875,-11.78592578125,-12.17182421875,-7.64321875,-11.33166015625,-15.0386171875,-15.2556796875,-10.3554921875,-9.956203125,-11.27703125,-6.265984375,-9.100609375
-0.6725859375,-2.45651171875,-4.95812109375,0.447609375,-1.9668671875,-1.70491796875,-6.04057421875,-5.97626953125,-3.70020703125,-7.46947265625,-5.29667578125,-5.350640625,3.9917109375,-7.9035703125,-6.15987890625,-9.8686640625,-2.81317578125,-5.321125,-16.7729296875,-11.62292578125,-12.87982421875,-9.80721875,-12.61766015625,-15.5476171875,-15.7706796875,-11.0404921875,-10.589203125,-12.06403125,-6.244984375,-9.409609375
-0.0265859374999999,-1.41551171875,-3.66212109375,0.413609375,-1.1198671875,0.99608203125,-2.08857421875,-5.93926953125,-2.53120703125,-5.60347265625,-0.90567578125,-3.098640625,3.8247109375,-7.1275703125,-4.64987890625,-7.9836640625,-2.50017578125,-4.989125,-16.5179296875,-11.04792578125,-13.01582421875,-10.79521875,-12.84566015625,-15.1866171875,-15.2936796875,-11.4464921875,-10.204203125,-11.89303125,-5.528984375,-8.978609375
1.1334140625,-0.106511718749999,-1.52212109375,0.618609375,0.5361328125,3.41608203125,1.65742578125,-6.47926953125,-0.92820703125,-3.28247265625,3.20232421875,-1.236640625,3.3727109375,-5.0785703125,-2.66487890625,-5.5646640625,-2.15517578125,-3.494125,-14.5689296875,-9.90092578125,-12.43682421875,-10.47121875,-11.47266015625,-13.5616171875,-13.6656796875,-11.2724921875,-8.376203125,-10.37903125,-3.795984375,-7.448609375
2.5904140625,1.07748828125,0.60487890625,1.281609375,2.8491328125,5.19708203125,4.42042578125,-7.48526953125,1.01779296875,-0.65547265625,6.30532421875,-0.186640625,2.6907109375,-1.9335703125,-0.45487890625,-2.9796640625,-1.98117578125,-0.921125,-11.0669296875,-8.13392578125,-11.14182421875,-8.95021875,-8.31166015625,-10.5976171875,-10.9956796875,-10.3854921875,-5.132203125,-7.55703125,-1.076984375,-4.861609375
4.1244140625,1.88948828125,2.12687890625,2.479609375,5.3471328125,6.12308203125,5.75542578125,-8.61726953125,3.06579296875,1.94852734375,8.00832421875,-0.0436406249999992,1.9957109375,1.7904296875,1.60212109375,-0.5496640625,-2.07217578125,2.319875,-6.5199296875,-5.83792578125,-9.25182421875,-6.51921875,-3.67366015625,-6.6156171875,-7.6086796875,-8.8394921875,-0.971203125,-3.89903125,2.226015625,-1.661609375
5.6364140625,2.30948828125,2.95887890625,4.094609375,7.4951328125,6.20508203125,5.69542578125,-9.39026953125,4.92079296875,4.14952734375,8.34132421875,-0.541640624999999,1.6527109375,5.4224296875,3.12412109375,1.5343359375,-2.31217578125,5.621875,-1.6579296875,-3.22892578125,-6.96982421875,-3.55821875,1.67333984375,-2.2376171875,-3.9436796875,-6.8064921875,3.303796875,-0.16103125,5.488015625,1.488390625
7.1244140625,2.47348828125,3.38887890625,5.829609375,8.9171328125,5.68108203125,4.70242578125,-9.34926953125,6.32379296875,5.66252734375,7.69432421875,-1.178640625,2.0517109375,8.3604296875,3.85912109375,3.2333359375,-2.39717578125,8.392875,2.7680703125,-0.57592578125,-4.50482421875,-0.48421875,6.73133984375,1.8333828125,-0.422679687500001,-4.5024921875,6.897796875,2.89896875,8.112015625,3.980390625
8.5184140625,2.53248828125,3.72087890625,7.270609375,9.4671328125,4.90808203125,3.45642578125,-8.26826953125,7.09479296875,6.36052734375,6.62732421875,-1.473640625,3.3807109375,10.2244296875,3.77012109375,4.5983359375,-2.00817578125,10.234875,6.1720703125,1.88707421875,-2.03682421875,2.27978125,10.60033984375,5.0513828125,2.6533203125,-2.1474921875,9.294796875,4.79096875,9.737015625,5.497390625
9.5294140625,2.52548828125,3.99387890625,7.979609375,9.1341328125,4.16208203125,2.54642578125,-6.30226953125,7.11479296875,6.22152734375,5.62732421875,-1.182640625,5.4137109375,10.8644296875,3.02212109375,5.6933359375,-1.01817578125,11.005875,8.2220703125,3.99607421875,0.28017578125,4.30178125,12.73133984375,7.1383828125,5.1183203125,0.0485078125000005,10.368796875,5.42596875,10.305015625,6.074390625
9.6854140625,2.36948828125,3.93987890625,7.615609375,7.9361328125,3.50008203125,2.24642578125,-3.95426953125,6.31279296875,5.26152734375,4.93332421875,-0.371640625,7.4827109375,10.2864296875,1.89012109375,6.5343359375,0.39482421875,10.759875,8.8400703125,5.66107421875,2.28517578125,5.19678125,13.02733984375,8.0693828125,6.9093203125,1.8745078125,10.317796875,5.06396875,9.977015625,5.982390625
8.5824140625,1.92648828125,3.19587890625,6.085609375,5.9171328125,2.78608203125,2.46042578125,-1.85626953125,4.70179296875,3.53452734375,4.52932421875,0.698359375000001,8.7297109375,8.5954296875,0.66112109375,7.0903359375,1.81982421875,9.671875,8.1770703125,6.84207421875,3.81317578125,4.75178125,11.78033984375,7.9823828125,8.0113203125,3.1475078125,9.490796875,4.13796875,9.028015625,5.539390625
6.2104140625,1.11248828125,1.58987890625,3.629609375,3.2341328125,1.87108203125,2.83442578125,-0.49026953125,2.43679296875,1.19452734375,4.26032421875,1.730359375,8.5137109375,5.9924296875,-0.43487890625,7.3093359375,2.81982421875,7.965875,6.5590703125,7.50807421875,4.72617578125,3.09878125,9.49433984375,7.0783828125,8.4183203125,3.7545078125,8.227796875,3.05596875,7.736015625,4.961390625
3.0664140625,-0.0195117187499996,-0.66512109375,0.780609375,0.2211328125,0.71908203125,2.94042578125,-0.0312695312499995,-0.16220703125,-1.47147265625,3.95832421875,2.473359375,6.7537109375,2.7814296875,-1.28787890625,7.1143359375,3.12082421875,5.879875,4.3850703125,7.58807421875,4.93017578125,0.74078125,6.68633984375,5.5383828125,8.1153203125,3.6865078125,6.746796875,2.03496875,6.316015625,4.294390625
-0.0265859374999999,-1.26151171875,-2.99612109375,-1.832390625,-2.6598671875,-0.57091796875,2.44742578125,-0.332269531249999,-2.66320703125,-4.11047265625,3.49632421875,2.726359375,4.0127109375,-0.6555703125,-1.92687890625,6.4033359375,2.71982421875,3.636875,1.9930703125,6.95107421875,4.37517578125,-1.64221875,3.72033984375,3.4703828125,7.0593203125,3.0195078125,5.093796875,1.02396875,4.861015625,3.445390625
-2.2795859375,-2.29851171875,-4.67612109375,-3.698390625,-4.9688671875,-1.82491796875,1.25942578125,-1.01826953125,-4.61920703125,-6.40047265625,2.81532421875,2.335359375,1.2777109375,-3.9265703125,-2.48587890625,5.0823359375,1.87082421875,1.433875,-0.4269296875,5.46307421875,3.08217578125,-3.53921875,0.75333984375,0.905382812500001,5.2143203125,1.8725078125,3.156796875,-0.23803125,3.329015625,2.262390625
-3.2125859375,-2.81051171875,-5.12212109375,-4.549390625,-6.4008671875,-2.81891796875,-0.40457421875,-1.59426953125,-5.68020703125,-8.09147265625,1.95032421875,1.266359375,-0.4392890625,-6.6815703125,-3.09687890625,3.1793359375,0.97882421875,-0.548125,-2.8049296875,3.11807421875,1.19017578125,-4.84021875,-2.20366015625,-2.1306171875,2.6133203125,0.374507812500001,0.769796875,-2.04603125,1.597015625,0.638390625000001
-2.7595859375,-2.59051171875,-4.10912109375,-4.351390625,-6.8268671875,-3.30391796875,-2.02857421875,-1.60326953125,-5.68320703125,-8.99747265625,1.05632421875,-0.299640624999999,-0.5102890625,-8.6475703125,-3.77587890625,0.9403359375,0.44582421875,-2.133125,-5.0789296875,0.157074218749999,-1.00682421875,-5.79721875,-5.15566015625,-5.5196171875,-0.5616796875,-1.3294921875,-2.150203125,-4.51903125,-0.424984375,-1.406609375
-1.2245859375,-1.63651171875,-1.86512109375,-3.245390625,-6.2798671875,-3.08091796875,-2.98257421875,-0.818269531249999,-4.72520703125,-8.99247265625,0.37732421875,-1.957640625,1.0567109375,-9.6585703125,-4.38687890625,-1.1896640625,0.50182421875,-3.167125,-7.0829296875,-2.93292578125,-3.12082421875,-6.74421875,-7.99466015625,-8.9856171875,-3.9766796875,-3.0804921875,-5.467203125,-7.46203125,-2.695984375,-3.707609375
0.8204140625,-0.187511718749999,0.97487890625,-1.509390625,-4.9408671875,-2.11591796875,-2.80957421875,0.61873046875,-3.16020703125,-8.06847265625,0.14032421875,-3.230640625,3.6337109375,-9.6945703125,-4.72787890625,-2.7446640625,1.08682421875,-3.563125,-8.5509296875,-5.58392578125,-4.80982421875,-7.81421875,-10.45666015625,-12.1296171875,-7.2236796875,-4.7364921875,-8.795203125,-10.39803125,-5.016984375,-6.005609375
2.6764140625,1.31948828125,3.51687890625,0.459609375,-3.1448671875,-0.61991796875,-1.47357421875,2.22673046875,-1.51120703125,-6.42347265625,0.43632421875,-3.814640625,6.2257109375,-8.8985703125,-4.66587890625,-3.4826640625,1.85182421875,-3.352125,-9.2289296875,-7.39092578125,-5.92982421875,-8.83721875,-12.19366015625,-14.5426171875,-9.9646796875,-6.2104921875,-11.592203125,-12.74703125,-7.091984375,-8.050609375
3.7084140625,2.37048828125,4.86887890625,2.193609375,-1.3248671875,0.97608203125,0.58742578125,3.39973046875,-0.277207031250001,-4.46047265625,1.15632421875,-3.741640625,7.8897109375,-7.5495703125,-4.23687890625,-3.5166640625,2.30782421875,-2.675125,-9.0089296875,-8.29492578125,-6.58382421875,-9.44721875,-12.89266015625,-15.9376171875,-12.0356796875,-7.4744921875,-13.330203125,-14.02303125,-8.627984375,-9.670609375
3.5454140625,2.56748828125,4.46987890625,3.255609375,0.1251328125,2.15908203125,2.63942578125,3.68773046875,0.26879296875,-2.66647265625,2.03132421875,-3.337640625,8.1007109375,-5.9635703125,-3.63287890625,-3.2536640625,2.05982421875,-1.709125,-8.0079296875,-8.57392578125,-7.03382421875,-9.29321875,-12.38166015625,-16.1986171875,-13.4386796875,-8.5114921875,-13.674203125,-13.97003125,-9.394984375,-10.757609375
2.2074140625,1.80648828125,2.35787890625,3.373609375,0.9831328125,2.53508203125,3.97642578125,2.99773046875,0.18579296875,-1.40547265625,2.75232421875,-3.017640625,6.9527109375,-4.3855703125,-3.10187890625,-3.1686640625,1.02682421875,-0.587125,-6.5179296875,-8.67192578125,-7.53182421875,-8.22521875,-10.68466015625,-15.3716171875,-14.2526796875,-9.2654921875,-12.573203125,-12.58403125,-9.265984375,-11.228609375
0.0854140625000002,0.353488281250001,-0.77212109375,2.534609375,1.2501328125,1.99908203125,4.18442578125,1.60273046875,-0.203207031250001,-0.76547265625,3.06632421875,-3.066640625,5.0827109375,-2.9315703125,-2.84387890625,-3.5776640625,-0.50717578125,0.630875,-4.8869296875,-8.95792578125,-8.19182421875,-6.36521875,-8.03366015625,-13.6146171875,-14.5496796875,-9.6394921875,-10.274203125,-10.06903125,-8.235984375,-11.024609375
-2.1985859375,-1.24351171875,-3.77512109375,0.996609374999999,1.0811328125,0.77408203125,3.25742578125,-0.00726953124999952,-0.504207031250001,-0.56747265625,2.83332421875,-3.564640625,3.3897109375,-1.6105703125,-2.94687890625,-4.5296640625,-2.03617578125,1.926875,-3.3799296875,-9.54392578125,-8.96382421875,-4.05121875,-4.83366015625,-11.1576171875,-14.3616796875,-9.5474921875,-7.222203125,-6.77303125,-6.432984375,-10.152609375
-4.0015859375,-2.38751171875,-5.49912109375,-0.777390625,0.6851328125,-0.69491796875,1.53242578125,-1.35026953125,-0.459207031250001,-0.50847265625,2.03532421875,-4.421640625,2.6407109375,-0.3845703125,-3.36987890625,-5.8186640625,-3.08517578125,3.279875,-2.0899296875,-10.22992578125,-9.69282421875,-1.67521875,-1.57166015625,-8.2636171875,-13.6986796875,-8.9634921875,-3.904203125,-3.09203125,-4.088984375,-8.717609375
-4.8695859375,-2.68751171875,-5.28112109375,-2.266390625,0.2371328125,-1.94991796875,-0.45757421875,-2.11626953125,-0.055207031250001,-0.33247265625,0.77232421875,-5.465640625,3.1767109375,0.7884296875,-3.94987890625,-7.0696640625,-3.40217578125,4.656875,-0.9319296875,-10.57392578125,-10.17082421875,0.46678125,1.33233984375,-5.1746171875,-12.5556796875,-7.9174921875,-0.670203125,0.62796875,-1.460984375,-6.886609375
-4.6755859375,-2.12551171875,-3.27112109375,-3.055390625,-0.1528671875,-2.68291796875,-2.16257421875,-2.22426953125,0.523792968749999,0.0795273437500001,-0.73267578125,-6.486640625,4.8427109375,1.9324296875,-4.42787890625,-7.8296640625,-3.00417578125,6.023875,0.2970703125,-10.05292578125,-10.16582421875,2.23878125,3.65233984375,-2.0686171875,-10.8986796875,-6.4524921875,2.353796875,4.14296875,1.247015625,-4.801609375
-3.6175859375,-1.02951171875,-0.37912109375,-2.966390625,-0.4318671875,-2.80391796875,-3.15657421875,-1.77026953125,1.03579296875,0.71152734375,-2.16467578125,-7.244640625,7.1377109375,3.0464296875,-4.52287890625,-7.6836640625,-2.09717578125,7.349875,1.7960703125,-8.26892578125,-9.45282421875,3.61878125,5.39933984375,0.9553828125,-8.6746796875,-4.6104921875,5.215796875,7.29596875,3.900015625,-2.549609375
-2.0935859375,0.10548828125,2.15987890625,-2.119390625,-0.5788671875,-2.40191796875,-3.21857421875,-0.944269531249999,1.32379296875,1.47452734375,-3.19067578125,-7.486640625,9.4377109375,4.0904296875,-4.03687890625,-6.3756640625,-0.95417578125,8.570875,3.6410703125,-5.12892578125,-7.88682421875,4.59878125,6.75533984375,3.8313828125,-5.8666796875,-2.4744921875,7.979796875,9.95196875,6.393015625,-0.194609374999999
-0.5245859375,0.858488281250001,3.36887890625,-0.881390625,-0.5828671875,-1.66591796875,-2.34557421875,0.0547304687500005,1.37979296875,2.24552734375,-3.55367578125,-6.991640625,11.1627109375,4.9734296875,-2.94287890625,-3.9086640625,0.19482421875,9.563875,5.7040703125,-0.93892578125,-5.49782421875,5.11078125,7.91533984375,6.4663828125,-2.5856796875,-0.225492187499999,10.567796875,11.93896875,8.575015625,2.124390625
0.7644140625,1.05948828125,2.93787890625,0.258609375,-0.4538671875,-0.78791796875,-0.70857421875,1.08373046875,1.30679296875,2.89552734375,-3.13667578125,-5.642640625,11.8677109375,5.5794296875,-1.40787890625,-0.5596640625,1.24382421875,10.168875,7.6750703125,3.66907421875,-2.51482421875,5.01778125,8.95033984375,8.7033828125,0.8943203125,1.8755078125,12.725796875,13.05796875,10.249015625,4.170390625
1.5884140625,0.84748828125,1.31087890625,0.878609375,-0.2288671875,0.12208203125,1.42942578125,2.08773046875,1.23679296875,3.31352734375,-1.97667578125,-3.485640625,11.3137109375,5.8084296875,0.28812109375,3.2023359375,2.25182421875,10.268875,9.1740703125,7.94207421875,0.707175781250001,4.20878125,9.78033984375,10.3683828125,4.1953203125,3.6015078125,14.128796875,13.16896875,11.260015625,5.668390625
1.9064140625,0.591488281250001,-0.54112109375,0.778609374999999,0.0421328125000002,1.05008203125,3.78242578125,3.08773046875,1.25479296875,3.44552734375,-0.22367578125,-0.746640625,9.5457109375,5.6514296875,1.86512109375,6.8623359375,3.40082421875,9.874875,9.9250703125,11.26807421875,3.79817578125,2.73678125,10.24333984375,11.3773828125,6.9633203125,4.8665078125,14.576796875,12.30096875,11.603015625,6.449390625
1.8234140625,0.73148828125,-1.52412109375,0.0626093749999996,0.3241328125,2.04008203125,6.09342578125,4.12173046875,1.38079296875,3.34452734375,1.90132421875,2.214359375,6.9317109375,5.2164296875,3.16012109375,9.9983359375,4.87882421875,9.156875,9.8880703125,13.36407421875,6.45517578125,0.92878125,10.24133984375,11.8323828125,8.9733203125,5.7425078125,14.144796875,10.71796875,11.467015625,6.546390625
1.5844140625,1.57448828125,-0.86612109375,-0.924390625,0.6201328125,3.12008203125,8.12842578125,5.19373046875,1.59379296875,3.17452734375,4.13632421875,4.970359375,4.1037109375,4.6944296875,4.15212109375,12.3463359375,6.72182421875,8.379875,9.2800703125,14.31707421875,8.45717578125,-0.66321875,9.80733984375,12.0013828125,10.1523203125,6.3425078125,13.168796875,8.86596875,11.150015625,6.176390625
1.4944140625,3.13048828125,1.53687890625,-1.772390625,0.9371328125,4.26308203125,9.64342578125,6.25673046875,1.87479296875,3.14652734375,6.19132421875,7.097359375,1.7697109375,4.2554296875,4.92112109375,13.7753359375,8.72782421875,7.769875,8.4610703125,14.46607421875,9.64317578125,-1.46621875,9.08433984375,12.1873828125,10.5093203125,6.6895078125,12.059796875,7.21896875,10.896015625,5.597390625
1.7664140625,5.04848828125,5.00987890625,-2.225390625,1.2521328125,5.35908203125,10.37642578125,7.20473046875,2.19279296875,3.39152734375,7.75832421875,8.223359375,0.4807109375,3.9284296875,5.53612109375,14.2173359375,10.48882421875,7.390875,7.7390703125,14.18907421875,9.90117578125,-1.15621875,8.19633984375,12.5493828125,10.0713203125,6.6585078125,11.074796875,6.07196875,10.740015625,4.955390625
2.3754140625,6.72448828125,8.32887890625,-2.296390625,1.4921328125,6.21508203125,10.10742578125,7.88373046875,2.48979296875,3.86852734375,8.53532421875,8.093359375,0.4197109375,3.5684296875,5.95712109375,13.6223359375,11.53882421875,7.106875,7.1970703125,13.70907421875,9.18317578125,0.15478125,7.14933984375,12.9813828125,8.8523203125,6.0465078125,10.164796875,5.39496875,10.473015625,4.202390625
3.0424140625,7.54948828125,10.21787890625,-2.215390625,1.5641328125,6.60108203125,8.77242578125,8.10773046875,2.66179296875,4.36052734375,8.30432421875,6.660359375,1.3397109375,2.9394296875,6.02112109375,11.9803359375,11.56682421875,6.658875,6.6450703125,13.02007421875,7.54917578125,1.92478125,5.80933984375,13.1233828125,6.8783203125,4.7155078125,9.007796875,4.82396875,9.733015625,3.146390625
3.3754140625,7.18948828125,9.89787890625,-2.250390625,1.3981328125,6.36408203125,6.55642578125,7.73773046875,2.60279296875,4.58952734375,7.02832421875,4.173359375,2.6827109375,1.8794296875,5.52412109375,9.4053359375,10.57282421875,5.801875,5.7440703125,11.97107421875,5.20017578125,3.38478125,3.98933984375,12.5163828125,4.2313203125,2.6835078125,7.195796875,3.80796875,8.186015625,1.580390625
3.0954140625,5.75348828125,7.40887890625,-2.527390625,1.0091328125,5.54608203125,3.90842578125,6.77173046875,2.28379296875,4.37552734375,4.94132421875,1.194359375,3.8557109375,0.4274296875,4.37112109375,6.1973359375,8.90382421875,4.447875,4.2280703125,10.43107421875,2.46317578125,3.88178125,1.57333984375,10.8093828125,1.0823203125,0.144507812500001,4.464796875,1.85196875,5.697015625,-0.600609374999999
2.2284140625,3.75748828125,3.59187890625,-2.934390625,0.5381328125,4.43208203125,1.44842578125,5.39973046875,1.81979296875,3.75752734375,2.54232421875,-1.530640625,4.4857109375,-1.1555703125,2.68312109375,2.8343359375,7.11882421875,2.724875,2.0870703125,8.42607421875,-0.27582421875,3.16578125,-1.39566015625,7.9303828125,-2.3126796875,-2.6004921875,0.852796875,-1.23003125,2.429015625,-3.327609375
1.1534140625,1.90648828125,-0.23312109375,-3.163390625,0.2501328125,3.47108203125,-0.20657421875,3.96773046875,1.46679296875,2.99652734375,0.45732421875,-3.315640625,4.5297109375,-2.4995703125,0.79912109375,-0.1466640625,5.76382421875,0.924875,-0.4079296875,6.15007421875,-2.67082421875,1.48978125,-4.70366015625,4.1313828125,-5.6576796875,-5.2314921875,-3.294203125,-5.18603125,-1.183984375,-6.369609375
0.4584140625,0.80248828125,-2.77412109375,-2.860390625,0.4401328125,3.09708203125,-0.64857421875,2.87673046875,1.51579296875,2.45552734375,-0.79667578125,-3.802640625,4.2177109375,-3.2965703125,-0.84587890625,-2.3166640625,5.14482421875,-0.622125,-2.8179296875,3.87107421875,-4.50882421875,-0.56321875,-8.00866015625,-0.0986171874999995,-8.6776796875,-7.4854921875,-7.445203125,-9.36203125,-4.570984375,-9.385609375
0.6544140625,0.71148828125,-3.25312109375,-1.820390625,1.2771328125,3.52808203125,0.15042578125,2.41473046875,2.13879296875,2.40352734375,-1.02167578125,-3.113640625,3.8797109375,-3.4315703125,-1.88887890625,-3.5086640625,5.22982421875,-1.690125,-4.7189296875,1.79907421875,-5.76382421875,-2.38421875,-10.90066015625,-4.1776171875,-11.1836796875,-9.2224921875,-11.049203125,-12.91203125,-7.204984375,-12.025609375
1.8794140625,1.48348828125,-1.70112109375,-0.147390625,2.6651328125,4.63608203125,1.81142578125,2.63273046875,3.27279296875,2.85452734375,-0.42067578125,-1.785640625,3.7627109375,-3.0105703125,-2.18287890625,-3.8596640625,5.69082421875,-2.227125,-5.8399296875,0.0290742187499995,-6.58382421875,-3.60121875,-12.96366015625,-7.5656171875,-13.0796796875,-10.4564921875,-13.675203125,-15.08403125,-8.767984375,-14.011609375
3.7904140625,2.64148828125,1.08387890625,1.739609375,4.2421328125,5.96608203125,3.70442578125,3.29373046875,4.62979296875,3.53952734375,0.52232421875,-0.533640624999999,3.9177109375,-2.2895703125,-1.84887890625,-3.7106640625,6.05882421875,-2.316125,-6.1129296875,-1.43692578125,-7.21982421875,-4.14421875,-13.84366015625,-9.8526171875,-14.3256796875,-11.3294921875,-15.060203125,-15.43803125,-9.201984375,-15.193609375
5.6814140625,3.59048828125,3.90687890625,3.253609375,5.5061328125,6.92808203125,5.21442578125,3.96773046875,5.83079296875,4.02352734375,1.27232421875,0.060359375,4.1917109375,-1.5575703125,-1.23787890625,-3.4266640625,5.91582421875,-2.075125,-5.6489296875,-2.59492578125,-7.89482421875,-4.11321875,-13.31566015625,-10.8126171875,-14.8706796875,-12.0174921875,-15.098203125,-13.93503125,-8.637984375,-15.531609375
6.7894140625,3.84848828125,5.68087890625,3.872609375,6.0101328125,7.07408203125,5.98442578125,4.22873046875,6.55579296875,3.90652734375,1.47532421875,-0.220640625,4.3137109375,-1.0495703125,-0.80887890625,-3.2136640625,5.07282421875,-1.567125,-4.6679296875,-3.37292578125,-8.67882421875,-3.57721875,-11.33866015625,-10.4096171875,-14.6206796875,-12.6044921875,-13.781203125,-10.85703125,-7.242984375,-15.040609375
6.6084140625,3.21648828125,5.84787890625,3.365609375,5.5321328125,6.28708203125,6.00342578125,3.84973046875,6.65479296875,2.99952734375,1.06432421875,-1.176640625,4.0367109375,-0.8945703125,-0.97287890625,-3.0406640625,3.66882421875,-0.772125,-3.4099296875,-3.62192578125,-9.41582421875,-2.45721875,-8.07866015625,-8.7726171875,-13.4456796875,-12.9994921875,-11.161203125,-6.64603125,-5.110984375,-13.721609375
5.0884140625,1.80348828125,4.51587890625,1.891609375,4.1431328125,4.79308203125,5.50442578125,2.91773046875,6.14579296875,1.39552734375,0.24432421875,-2.321640625,3.2507109375,-1.1065703125,-1.92887890625,-2.6926640625,2.15482421875,0.364875,-2.0629296875,-3.17392578125,-9.76582421875,-0.59921875,-3.88666015625,-6.1286171875,-11.2386796875,-12.9374921875,-7.366203125,-1.76603125,-2.262984375,-11.564609375
2.6204140625,-0.0535117187499994,2.27987890625,-0.077390625,2.1561328125,3.00108203125,4.74842578125,1.77773046875,5.14379296875,-0.57647265625,-0.65267578125,-3.135640625,2.0547109375,-1.6085703125,-3.58587890625,-1.9496640625,1.11482421875,1.838875,-0.7409296875,-1.94292578125,-9.35482421875,2.02078125,0.73633984375,-2.7676171875,-8.0066796875,-12.1114921875,-2.677203125,3.32896875,1.222015625,-8.632609375
-0.1545859375,-1.95851171875,-0.13712109375,-1.977390625,-0.0268671875000002,1.28208203125,3.83142578125,0.85173046875,3.77579296875,-2.50847265625,-1.33767578125,-3.315640625,0.7367109375,-2.2925703125,-5.61387890625,-0.7776640625,1.00282421875,3.509875,0.4900703125,-0.0209257812500006,-7.97482421875,5.10778125,5.17933984375,0.9503828125,-3.9666796875,-10.3464921875,2.379796875,8.13396875,5.046015625,-5.183609375
-2.6175859375,-3.59751171875,-2.19712109375,-3.417390625,-2.0698671875,-0.17791796875,2.64342578125,0.41673046875,2.12079296875,-4.08847265625,-1.69467578125,-2.891640625,-0.3352890625,-3.0835703125,-7.59187890625,0.5943359375,1.93682421875,5.089875,1.5630703125,2.30107421875,-5.72282421875,8.04278125,8.79033984375,4.5703828125,0.4153203125,-7.7174921875,7.042796875,12.05996875,8.648015625,-1.698609375
-4.3765859375,-4.80651171875,-3.66812109375,-4.324390625,-3.7998671875,-1.41691796875,1.00342578125,0.48473046875,0.226792968749999,-5.21747265625,-1.79967578125,-2.151640625,-0.8852890625,-3.9795703125,-9.15887890625,1.7753359375,3.66782421875,6.234875,2.3860703125,4.60807421875,-2.98282421875,10.11478125,11.00033984375,7.5803828125,4.5223203125,-4.5254921875,10.484796875,14.52596875,11.355015625,1.253390625
-5.3575859375,-5.56651171875,-4.57512109375,-4.919390625,-5.2308671875,-2.60691796875,-1.14857421875,0.846730468750001,-1.85520703125,-6.03047265625,-1.84567578125,-1.457640625,-0.8802890625,-5.0455703125,-10.11487890625,2.4133359375,5.70082421875,6.665875,2.8470703125,6.52107421875,-0.27582421875,10.84678125,11.47833984375,9.5363828125,7.7683203125,-1.1764921875,12.093796875,15.15496875,12.647015625,3.243390625
-5.7565859375,-5.96451171875,-5.08612109375,-5.545390625,-6.5198671875,-3.91291796875,-3.66257421875,1.22073046875,-4.02720703125,-6.80947265625,-2.03067578125,-1.081640625,-0.5662890625,-6.3835703125,-10.44987890625,2.3613359375,7.49182421875,6.265875,2.8380703125,7.81907421875,1.94317578125,10.21778125,10.24233984375,10.1983828125,9.7893203125,1.9435078125,11.700796875,13.94896875,12.368015625,4.146390625
-5.9065859375,-6.12251171875,-5.39512109375,-6.448390625,-7.8648671875,-5.36691796875,-6.23257421875,1.41673046875,-6.12620703125,-7.82447265625,-2.47867578125,-1.135640625,-0.3132890625,-8.0635703125,-10.31387890625,1.7053359375,8.64082421875,5.117875,2.2930703125,8.47107421875,3.42017578125,8.63878125,7.66533984375,9.6163828125,10.5053203125,4.5235078125,9.642796875,11.32996875,10.784015625,4.145390625
-6.1085859375,-6.11751171875,-5.62312109375,-7.621390625,-9.3398671875,-6.82491796875,-8.52457421875,1.42473046875,-7.90820703125,-9.17447265625,-3.19567578125,-1.570640625,-0.3492890625,-10.0355703125,-9.92387890625,0.6943359375,9.03182421875,3.485875,1.2190703125,8.58907421875,4.15017578125,6.71978125,4.37033984375,8.1193828125,10.0803203125,6.3475078125,6.641796875,8.00896875,8.464015625,3.599390625
-6.4805859375,-5.93651171875,-5.75912109375,-8.776390625,-10.7668671875,-8.00591796875,-10.26457421875,1.40873046875,-9.06620703125,-10.69047265625,-4.05367578125,-2.204640625,-0.5772890625,-12.0755703125,-9.46287890625,-0.3706640625,8.87382421875,1.748875,-0.2639296875,8.34807421875,4.31217578125,4.98378125,1.05833984375,6.2133828125,8.7973203125,7.2945078125,3.553796875,4.74696875,6.069015625,2.875390625
-6.8845859375,-5.47551171875,-5.66112109375,-9.459390625,-11.7058671875,-8.56391796875,-11.23857421875,1.64273046875,-9.29920703125,-11.94047265625,-4.79267578125,-2.740640625,-0.6182890625,-13.8135703125,-8.97787890625,-1.2166640625,8.61082421875,0.292875,-1.9069296875,7.93107421875,4.16017578125,3.67178125,-1.68766015625,4.4213828125,6.9523203125,7.3255078125,1.095796875,2.11696875,4.135015625,2.213390625
-6.9395859375,-4.58651171875,-5.08512109375,-9.233390625,-11.5938671875,-8.15291796875,-11.24457421875,2.41373046875,-8.40320703125,-12.33047265625,-5.04967578125,-2.800640625,-0.0402890625000003,-14.8275703125,-8.32787890625,-1.6396640625,8.73482421875,-0.602125,-3.3439296875,7.51707421875,3.91017578125,2.73078125,-3.53166015625,3.1393828125,4.7893203125,6.4815078125,-0.355203125,0.37296875,2.929015625,1.678390625
-6.1195859375,-3.10051171875,-3.70612109375,-7.827390625,-9.9368671875,-6.46291796875,-10.03857421875,3.93573046875,-6.32920703125,-11.26247265625,-4.38967578125,-2.001640625,1.3907109375,-14.7465703125,-7.15387890625,-1.4776640625,9.58682421875,-0.812125,-4.1419296875,7.32607421875,3.70317578125,1.96278125,-4.39866015625,2.5923828125,2.5243203125,4.9135078125,-0.791203125,-0.53603125,2.439015625,1.200390625
-3.9415859375,-0.847511718749999,-1.20012109375,-5.203390625,-6.4758671875,-3.27291796875,-7.34657421875,6.28473046875,-3.17820703125,-8.28947265625,-2.36667578125,-0.0576406249999994,3.5647109375,-13.3205703125,-4.93787890625,-0.5706640625,11.25582421875,-0.358125,-3.8789296875,7.65107421875,3.64117578125,1.21878125,-4.38266015625,2.8643828125,0.370320312500001,2.8945078125,-0.464203125,-0.85003125,2.463015625,0.658390625000001
-0.1765859375,2.26548828125,2.58087890625,-1.546390625,-1.2948671875,1.47608203125,-2.99457421875,9.36873046875,0.82579296875,-3.26747265625,1.33132421875,3.090359375,6.0447109375,-10.4735703125,-1.18587890625,1.2183359375,13.57282421875,0.644875,-2.2759296875,8.80307421875,3.80917578125,0.49178125,-3.64666015625,3.9353828125,-1.4616796875,0.768507812500001,0.266796875,-0.86803125,2.720015625,-0.0546093750000001
4.9534140625,6.13748828125,7.40087890625,2.766609375,5.1231328125,7.55608203125,2.85742578125,12.92473046875,5.34879296875,3.51752734375,6.66332421875,7.160359375,8.2127109375,-6.3685703125,4.26912109375,3.8903359375,16.16182421875,2.004875,0.6580703125,10.92507421875,4.22917578125,-0.14221875,-2.38866015625,5.6633828125,-2.8596796875,-1.1894921875,1.032796875,-0.88603125,2.928015625,-1.004609375
10.7204140625,10.37448828125,12.54887890625,7.205609375,11.9391328125,14.35108203125,9.52042578125,16.53073046875,9.94479296875,11.29452734375,13.02832421875,11.504359375,9.5277109375,-1.4635703125,10.97112109375,7.1463359375,18.48882421875,3.457875,4.5180703125,13.76407421875,4.75817578125,-0.64121875,-0.87266015625,7.7113828125,-3.9126796875,-2.9094921875,1.483796875,-1.17103125,2.819015625,-2.233609375
16.0394140625,14.32648828125,17.01087890625,11.156609375,18.1051328125,20.86108203125,15.80342578125,19.66173046875,14.08279296875,18.88852734375,19.25332421875,15.232359375,9.7857109375,3.5084296875,17.77612109375,10.3143359375,19.96082421875,4.709875,8.5250703125,16.59507421875,5.04217578125,-1.03221875,0.55333984375,9.5293828125,-4.9426796875,-4.5624921875,1.302796875,-1.93903125,2.164015625,-3.782609375
19.8054140625,17.25748828125,19.84687890625,14.045609375,22.6121328125,25.90208203125,20.34042578125,21.80573046875,17.24379296875,24.96852734375,23.88232421875,17.474359375,9.2447109375,7.6714296875,23.12012109375,12.4853359375,20.07682421875,5.511875,11.7250703125,18.38407421875,4.61117578125,-1.32821875,1.52433984375,10.4683828125,-6.3846796875,-6.4374921875,0.264796875,-3.29803125,0.827015625,-5.674609375
21.2874140625,18.59648828125,20.57187890625,15.489609375,24.7601328125,28.47708203125,22.10042578125,22.60173046875,19.04479296875,28.41152734375,25.67932421875,17.674359375,8.4777109375,10.2524296875,25.53712109375,12.8213359375,18.62482421875,5.756875,13.3150703125,18.19907421875,3.11117578125,-1.43721875,1.79433984375,10.0263828125,-8.5626796875,-8.7274921875,-1.653203125,-5.16103125,-1.144984375,-7.868609375
20.3704140625,18.11748828125,19.30387890625,15.391609375,24.3581328125,28.12808203125,20.79142578125,21.94673046875,19.35779296875,28.64352734375,24.12232421875,15.774359375,8.0407109375,10.8324296875,24.22812109375,10.9203359375,15.80182421875,5.534875,12.9800703125,15.64207421875,0.53217578125,-1.15321875,1.39233984375,8.1163828125,-11.4596796875,-11.3424921875,-4.179203125,-7.18203125,-3.449984375,-10.183609375
17.5414140625,15.98148828125,16.61487890625,13.938609375,21.7621328125,25.09008203125,16.95842578125,19.99673046875,18.34379296875,25.81952734375,19.62832421875,12.214359375,8.1427109375,9.5064296875,19.43212109375,7.0433359375,12.18182421875,5.106875,11.0610703125,11.12407421875,-2.70282421875,-0.25221875,0.67733984375,5.2143828125,-14.6186796875,-13.8614921875,-6.724203125,-8.77703125,-5.552984375,-12.273609375
13.6514140625,12.65448828125,13.17987890625,11.508609375,17.7361328125,20.17508203125,11.73642578125,17.09673046875,16.40879296875,20.77552734375,13.40232421875,7.760359375,8.5577109375,6.8754296875,12.40012109375,2.0813359375,8.51982421875,4.806875,8.4630703125,5.79307421875,-5.84382421875,1.36378125,0.25433984375,2.2733828125,-17.2446796875,-15.6784921875,-8.520203125,-9.26803125,-6.831984375,-13.679609375
9.5804140625,8.75948828125,9.49887890625,8.549609375,13.1871328125,14.47208203125,6.39142578125,13.67273046875,14.06979296875,14.76952734375,6.98532421875,3.239359375,8.8197109375,3.8454296875,4.97612109375,-2.7546640625,5.48582421875,4.899875,6.2840703125,1.14807421875,-8.08682421875,3.56978125,0.74233984375,0.3903828125,-18.4906796875,-16.2594921875,-8.867203125,-8.13803125,-6.801984375,-13.978609375
5.9954140625,4.93148828125,5.85187890625,5.483609375,8.9051328125,9.03208203125,1.91142578125,10.16173046875,11.81179296875,9.10152734375,1.72232421875,-0.674640624999999,8.5347109375,1.3154296875,-1.06187890625,-6.3516640625,3.46782421875,5.458875,5.3660703125,-1.51192578125,-8.83882421875,6.02878125,2.50633984375,0.3923828125,-17.7666796875,-15.3644921875,-7.385203125,-5.26003125,-5.295984375,-12.939609375
3.2584140625,1.70448828125,2.44887890625,2.679609375,5.4121328125,4.62408203125,-1.21657421875,6.96373046875,9.97279296875,4.76252734375,-1.62467578125,-3.586640625,7.5997109375,-0.1185703125,-4.59887890625,-8.0496640625,2.53282421875,6.341875,5.9800703125,-1.52992578125,-7.88282421875,8.30778125,5.48733984375,2.5303828125,-14.9386796875,-13.1144921875,-4.129203125,-0.96503125,-2.480984375,-10.576609375
1.4674140625,-0.577511718749999,-0.42812109375,0.428609375,2.9111328125,1.61108203125,-2.99857421875,4.41273046875,8.68979296875,2.19152734375,-2.99867578125,-5.369640625,6.2187109375,-0.3345703125,-5.46687890625,-7.7646640625,2.50482421875,7.273875,7.8020703125,0.94407421875,-5.37682421875,10.04378125,9.22933984375,6.4273828125,-10.3216796875,-9.8814921875,0.490796875,4.08196875,1.256015625,-7.102609375
0.5064140625,-1.83251171875,-2.46312109375,-1.104390625,1.2821328125,-0.0669179687499999,-3.79557421875,2.74573046875,7.88479296875,1.20852734375,-2.92067578125,-6.095640625,4.7327109375,0.3034296875,-4.35787890625,-5.9146640625,3.10182421875,7.969875,10.1210703125,5.08907421875,-1.76182421875,11.04778125,13.03233984375,11.2373828125,-4.5506796875,-6.1234921875,5.870796875,9.12096875,5.464015625,-2.836609375
0.0764140625,-2.26851171875,-3.49512109375,-1.955390625,0.1091328125,-0.82991796875,-4.15157421875,2.05673046875,7.29079296875,1.10652734375,-2.22367578125,-5.957640625,3.3867109375,1.0704296875,-2.46787890625,-3.2246640625,4.02982421875,8.204875,12.1290703125,9.71907421875,2.35517578125,11.29178125,16.13633984375,15.9113828125,1.5733203125,-2.2544921875,11.338796875,13.50496875,9.709015625,1.833390625
-0.2575859375,-2.32451171875,-3.68412109375,-2.392390625,-1.2078671875,-1.32591796875,-4.62257421875,2.26873046875,6.53579296875,0.90052734375,-1.75667578125,-5.218640625,2.1617109375,1.1204296875,-1.03487890625,-0.5156640625,5.04782421875,7.827875,13.1530703125,13.64307421875,6.30917578125,10.82578125,17.86133984375,19.4573828125,7.2133203125,1.3915078125,16.194796875,16.79596875,13.569015625,6.446390625
-0.9395859375,-2.51751171875,-3.48212109375,-2.806390625,-3.2018671875,-2.21391796875,-5.62057421875,3.12973046875,5.30179296875,-0.31347265625,-2.12967578125,-4.179640625,0.7987109375,-0.2255703125,-0.93987890625,1.4873359375,5.98782421875,6.759875,12.7790703125,15.97007421875,9.50017578125,9.72578125,17.73533984375,21.1693828125,11.5963203125,4.5525078125,19.744796875,18.76296875,16.630015625,10.473390625
-2.2305859375,-3.24151171875,-3.42312109375,-3.535390625,-6.0678671875,-3.91591796875,-7.28657421875,4.27173046875,3.47279296875,-3.00647265625,-3.56267578125,-3.143640625,-0.9672890625,-3.2235703125,-2.48487890625,2.2813359375,6.76982421875,5.000875,10.9170703125,16.28707421875,11.50417578125,8.11678125,15.59133984375,20.7643828125,14.1163203125,7.0215078125,21.409796875,19.34296875,18.514015625,13.399390625
-4.0745859375,-4.62051171875,-3.88612109375,-4.700390625,-9.5318671875,-6.42691796875,-9.45757421875,5.28773046875,1.19879296875,-7.01947265625,-5.87167578125,-2.382640625,-3.1262890625,-7.5995703125,-5.37687890625,1.6493359375,7.37882421875,2.657875,7.7980703125,14.67707421875,12.13817578125,6.19378125,11.62433984375,18.4173828125,14.4303203125,8.6305078125,20.875796875,18.58196875,18.940015625,14.830390625
-6.1195859375,-6.46151171875,-4.95712109375,-6.173390625,-12.9798671875,-9.30391796875,-11.74457421875,5.83573046875,-1.18520703125,-11.61347265625,-8.58267578125,-2.092640625,-5.2402890625,-12.6435703125,-8.89887890625,-0.3506640625,7.81682421875,-0.0571250000000003,3.9100703125,11.59707421875,11.45217578125,4.17878125,6.36033984375,14.6473828125,12.5153203125,9.2465078125,18.213796875,16.57996875,17.778015625,14.588390625
-7.8815859375,-8.31851171875,-6.41512109375,-7.648390625,-15.7208671875,-11.84991796875,-13.68457421875,5.73173046875,-3.28920703125,-15.73947265625,-11.10567578125,-2.343640625,-6.5972890625,-17.4285703125,-12.17187890625,-3.4166640625,8.03982421875,-2.862125,-0.1329296875,7.69207421875,9.64317578125,2.23178125,0.52033984375,10.1183828125,8.6783203125,8.7725078125,13.863796875,13.45896875,15.073015625,12.730390625
-8.9045859375,-9.60751171875,-7.76512109375,-8.725390625,-17.2298671875,-13.35591796875,-14.88357421875,5.03973046875,-4.75020703125,-18.36747265625,-12.88667578125,-3.033640625,-6.5892890625,-21.0735703125,-14.40287890625,-7.0466640625,7.96882421875,-5.451125,-3.7299296875,3.62207421875,6.99017578125,0.42678125,-5.14566015625,5.4353828125,3.4903203125,7.1595078125,8.489796875,9.36696875,11.045015625,9.517390625
-8.8525859375,-9.76751171875,-8.34012109375,-8.971390625,-17.2198671875,-13.27391796875,-15.08657421875,4.11373046875,-5.23420703125,-18.77647265625,-13.47767578125,-3.861640625,-5.0832890625,-22.9515703125,-15.07087890625,-10.6046640625,7.54382421875,-7.541125,-6.4249296875,-0.0399257812500005,3.81017578125,-1.19421875,-10.04566015625,1.0043828125,-2.3436796875,4.4365078125,2.775796875,4.51696875,6.065015625,5.334390625
-7.5635859375,-8.45151171875,-7.52612109375,-8.024390625,-15.6048671875,-11.32591796875,-14.18857421875,3.50373046875,-4.44220703125,-16.72747265625,-12.60467578125,-4.409640625,-2.5142890625,-22.8285703125,-14.03887890625,-13.4666640625,6.79782421875,-8.936125,-8.0169296875,-2.90892578125,0.42117578125,-2.58021875,-13.89266015625,-3.0066171875,-8.1656796875,0.732507812500002,-2.778203125,-0.80803125,0.584015625,0.598390625
-5.1405859375,-5.69951171875,-5.10412109375,-5.753390625,-12.4798671875,-7.59691796875,-12.24057421875,3.73173046875,-2.21020703125,-12.54147265625,-10.26067578125,-4.335640625,0.3517109375,-20.9305703125,-11.58487890625,-15.2136640625,5.83282421875,-9.609125,-8.6159296875,-4.85792578125,-2.93482421875,-3.71021875,-16.77266015625,-6.6256171875,-13.5486796875,-3.7364921875,-7.944203125,-6.29003125,-4.970984375,-4.344609375
-2.0295859375,-2.02451171875,-1.51712109375,-2.419390625,-8.1708671875,-2.60591796875,-9.47157421875,5.01973046875,1.32679296875,-7.05847265625,-6.78967578125,-3.577640625,2.8077109375,-17.8915703125,-8.33987890625,-15.7976640625,4.72982421875,-9.749125,-8.6239296875,-6.05192578125,-6.15682421875,-4.65721875,-19.04766015625,-9.9576171875,-18.3536796875,-8.6914921875,-12.715203125,-11.60503125,-10.261984375,-9.251609375
1.0514140625,1.71648828125,2.20187890625,1.326609375,-3.2878671875,2.75908203125,-6.30257421875,7.14773046875,5.65879296875,-1.43047265625,-2.86967578125,-2.440640625,4.4897109375,-14.5505703125,-5.11487890625,-15.5416640625,3.46682421875,-9.702125,-8.5559296875,-6.86692578125,-9.27882421875,-5.56821875,-21.10666015625,-13.0326171875,-22.6276796875,-13.8014921875,-17.100203125,-16.40003125,-15.014984375,-13.902609375
3.3724140625,4.62148828125,4.88687890625,4.652609375,1.3531328125,7.46808203125,-3.28657421875,9.50373046875,10.00679296875,3.22552734375,0.66232421875,-1.463640625,5.4237109375,-11.6655703125,-2.64987890625,-14.9496640625,1.92982421875,-9.783125,-8.7779296875,-7.69392578125,-12.34282421875,-6.52521875,-23.04866015625,-15.6706171875,-26.3846796875,-18.6764921875,-20.896203125,-20.23003125,-18.914984375,-17.969609375
4.5014140625,6.10648828125,5.82887890625,6.873609375,4.9721328125,10.67508203125,-0.96857421875,11.32573046875,13.58879296875,6.17852734375,3.08532421875,-1.129640625,5.8847109375,-9.6375703125,-1.37387890625,-14.4326640625,0.0478242187499998,-10.067125,-9.2749296875,-8.69492578125,-15.24082421875,-7.40221875,-24.51466015625,-17.4346171875,-29.4056796875,-22.8614921875,-23.573203125,-22.53303125,-21.531984375,-20.948609375
4.4814140625,6.11848828125,5.10387890625,7.706609375,7.1071328125,11.98808203125,0.29642578125,12.01773046875,15.88379296875,7.30952734375,4.06032421875,-1.579640625,6.1747109375,-8.4045703125,-1.25987890625,-14.0886640625,-2.06817578125,-10.292125,-9.5869296875,-9.64392578125,-17.60382421875,-7.83521875,-24.76566015625,-17.7096171875,-31.1986796875,-25.8494921875,-24.352203125,-22.73303125,-22.360984375,-22.246609375
3.7674140625,5.09948828125,3.46887890625,7.332609375,7.7611328125,11.57608203125,0.48342578125,11.41173046875,16.77879296875,7.08852734375,3.75932421875,-2.505640625,6.4377109375,-7.5255703125,-1.84187890625,-13.6526640625,-4.06317578125,-9.950125,-8.9579296875,-9.93792578125,-18.83282421875,-7.34521875,-22.99866015625,-15.8986171875,-31.1306796875,-27.1194921875,-22.477203125,-20.43203125,-20.987984375,-21.386609375
2.9674140625,3.75048828125,1.91587890625,6.262609375,7.3291328125,10.05608203125,-0.09057421875,9.85973046875,16.53979296875,6.33852734375,2.79432421875,-3.267640625,6.5897109375,-6.4085703125,-2.40287890625,-12.6126640625,-5.39717578125,-8.523125,-6.6409296875,-8.79592578125,-18.26282421875,-5.56421875,-18.70066015625,-11.6286171875,-28.6526796875,-26.2174921875,-17.520203125,-15.58503125,-17.267984375,-18.188609375
2.5704140625,2.73248828125,1.21687890625,5.099609375,6.3861328125,8.22908203125,-0.90757421875,8.08173046875,15.66379296875,5.87452734375,1.97832421875,-3.181640625,6.4087109375,-4.5715703125,-2.24387890625,-10.4346640625,-5.49217578125,-5.725125,-2.2149296875,-5.55192578125,-15.38282421875,-2.41421875,-11.89466015625,-4.8976171875,-23.4926796875,-22.8594921875,-9.580203125,-8.56003125,-11.411984375,-12.825609375
2.7884140625,2.45248828125,1.67087890625,4.318609375,5.4511328125,6.75408203125,-1.47657421875,6.85573046875,14.68679296875,6.19152734375,1.98432421875,-1.828640625,5.7487109375,-1.8295703125,-0.94087890625,-6.7976640625,-3.92517578125,-1.641125,4.1950703125,0.0470742187499995,-10.04682421875,1.85378125,-3.16966015625,3.8823828125,-15.7666796875,-17.0614921875,0.690796875,-0.0560312500000002,-3.959984375,-5.760609375
3.5104140625,2.95248828125,3.04487890625,4.107609375,4.8281328125,5.92708203125,-1.56457421875,6.68873046875,14.00179296875,7.29752734375,3.06932421875,0.736359375,4.7347109375,1.6214296875,1.49912109375,-1.7886640625,-0.63817578125,3.272875,11.8910703125,7.65507421875,-2.61482421875,6.75478125,6.44933984375,13.9123828125,-6.0366796875,-9.2664921875,12.195796875,9.02996875,4.308015625,2.343390625
4.3514140625,3.91748828125,4.65787890625,4.316609375,4.5301328125,5.62908203125,-1.28557421875,7.62673046875,13.72179296875,8.75252734375,4.97132421875,3.955359375,3.7777109375,5.2354296875,4.63712109375,4.0303359375,3.92282421875,8.290875,19.7540703125,16.32107421875,6.02817578125,11.71278125,15.73633984375,24.0833828125,4.7133203125,-0.405492187499998,23.592796875,17.73996875,12.478015625,10.676390625
4.7594140625,4.79648828125,5.59287890625,4.515609375,4.3131328125,5.44408203125,-1.00757421875,9.24673046875,13.64579296875,9.87152734375,7.05332421875,6.964359375,3.3747109375,8.2454296875,7.75112109375,9.7303359375,8.84682421875,12.574875,26.5290703125,24.69707421875,14.63017578125,16.13578125,23.50533984375,33.1313828125,15.1903203125,8.2515078125,33.517796875,25.16596875,19.632015625,18.354390625
4.2044140625,5.01248828125,5.04987890625,4.186609375,3.8031328125,4.88508203125,-1.10757421875,10.84173046875,13.35779296875,10.02152734375,8.59932421875,8.929359375,3.7747109375,9.8794296875,10.08012109375,14.2923359375,13.03382421875,15.362875,31.1430703125,31.42107421875,21.87617578125,19.43578125,28.83533984375,39.8843828125,24.0623203125,15.4395078125,40.841796875,30.57496875,25.012015625,24.543390625
2.3994140625,4.20248828125,2.71187890625,2.963609375,2.6821328125,3.61908203125,-1.74357421875,11.71773046875,12.43279296875,8.87252734375,9.12932421875,9.376359375,4.7637109375,9.6084296875,11.07112109375,16.9473359375,15.57782421875,16.147875,32.9650703125,35.52307421875,26.76717578125,21.06978125,31.25833984375,43.5533828125,30.2863203125,20.3225078125,44.893796875,33.54896875,28.195015625,28.645390625
-0.5335859375,2.37448828125,-1.04212109375,0.845609375,0.8541328125,1.62908203125,-2.78157421875,11.47373046875,10.66179296875,6.52052734375,8.55232421875,8.348359375,5.7417109375,7.3404296875,10.52612109375,17.4053359375,16.08382421875,14.829875,31.9460703125,36.68207421875,28.88717578125,20.69178125,30.85833984375,43.9433828125,33.3703203125,22.7395078125,45.607796875,34.10496875,29.192015625,30.470390625
-4.0535859375,-0.0825117187499993,-5.22212109375,-1.745390625,-1.4778671875,-0.78791796875,-3.91557421875,10.12273046875,8.19179296875,3.41352734375,7.09432421875,6.300359375,6.0887109375,3.4874296875,8.61112109375,15.8753359375,14.74482421875,11.778875,28.5920703125,35.23407421875,28.44717578125,18.35678125,28.24433984375,41.4843828125,33.4393203125,23.1355078125,43.506796875,32.69496875,28.401015625,30.274390625
-7.3725859375,-2.53651171875,-8.57912109375,-4.096390625,-3.8618671875,-3.17091796875,-4.89057421875,7.99873046875,5.51179296875,0.15052734375,5.09432421875,3.841359375,5.5707109375,-1.1485703125,5.75212109375,12.8893359375,12.18582421875,7.749875,23.7880703125,31.94107421875,26.10117578125,14.64578125,24.35433984375,37.0543828125,31.0973203125,22.2485078125,39.514796875,30.05496875,26.429015625,28.655390625
-9.7295859375,-4.36051171875,-10.11512109375,-5.470390625,-5.7448671875,-5.09791796875,-5.65957421875,5.55073046875,3.29079296875,-2.72947265625,2.81532421875,1.475359375,4.4967109375,-5.6355703125,2.49212109375,9.0583359375,9.19382421875,3.653875,18.5060703125,27.66607421875,22.65717578125,10.53778125,20.11633984375,31.6583828125,27.1763203125,20.7455078125,34.650796875,26.92496875,23.857015625,26.327390625
-10.6585859375,-5.18151171875,-9.53312109375,-5.397390625,-6.6698671875,-6.31691796875,-6.38357421875,3.18073046875,2.14079296875,-4.86947265625,0.40232421875,-0.511640624999999,3.5337109375,-9.2145703125,-0.64487890625,4.9113359375,6.47282421875,0.242875,13.5200703125,23.09907421875,18.80917578125,7.01478125,16.10233984375,26.1113828125,22.4783203125,18.9855078125,29.681796875,23.75396875,21.036015625,23.867390625
-10.1115859375,-4.99051171875,-7.35812109375,-3.843390625,-6.4178671875,-6.73491796875,-7.27257421875,1.19873046875,2.39479296875,-6.07947265625,-2.01467578125,-2.011640625,3.2907109375,-11.5275703125,-3.22987890625,0.8613359375,4.50182421875,-2.152125,9.2170703125,18.65007421875,15.00317578125,4.59678125,12.31333984375,20.8353828125,17.5883203125,16.9765078125,24.892796875,20.51496875,17.982015625,21.499390625
-8.3785859375,-4.06051171875,-4.61712109375,-1.203390625,-5.0438671875,-6.32991796875,-8.35857421875,-0.135269531249999,3.98879296875,-6.26547265625,-4.16467578125,-2.981640625,3.9517109375,-12.6595703125,-4.93587890625,-2.7516640625,3.48882421875,-3.709125,5.5940703125,14.49707421875,11.41117578125,3.08978125,8.25433984375,15.8343828125,12.7743203125,14.4955078125,20.054796875,16.75096875,14.417015625,19.023390625
-5.9005859375,-2.72551171875,-2.26712109375,1.878609375,-2.7908671875,-5.07091796875,-9.35757421875,-0.578269531249999,6.51079296875,-5.37947265625,-5.60167578125,-3.362640625,5.1627109375,-12.9975703125,-5.53587890625,-5.6256640625,3.37682421875,-4.958125,2.4120703125,10.71307421875,8.00417578125,1.71578125,3.25333984375,10.8423828125,7.9883203125,11.2845078125,14.621796875,11.82896875,9.923015625,15.923390625
-3.0785859375,-1.19851171875,-0.73212109375,4.760609375,-0.00386718750000004,-2.92991796875,-9.74457421875,0.0427304687500005,9.36679296875,-3.44447265625,-5.83967578125,-3.098640625,6.2147109375,-12.9865703125,-4.93187890625,-7.5536640625,3.88382421875,-6.486125,-0.5929296875,7.34907421875,4.63517578125,-0.43621875,-3.10366015625,5.5343828125,2.9663203125,7.2035078125,8.075796875,5.32496875,4.188015625,11.632390625
-0.1975859375,0.470488281250001,0.17587890625,7.008609375,2.9331328125,0.02708203125,-9.01557421875,1.72373046875,11.98979296875,-0.63947265625,-4.60567578125,-2.204640625,6.4207109375,-12.9095703125,-3.23487890625,-8.5146640625,4.55582421875,-8.632125,-3.5309296875,4.42907421875,1.12017578125,-3.88921875,-10.65666015625,-0.2716171875,-2.6016796875,2.2905078125,0.254796875,-2.65803125,-2.782984375,5.845390625
2.5464140625,2.28848828125,0.97587890625,8.491609375,5.6621328125,3.54708203125,-6.96557421875,4.18273046875,14.01479296875,2.65052734375,-2.04267578125,-0.818640625,5.4897109375,-12.7785703125,-0.81787890625,-8.7256640625,4.87882421875,-11.302125,-6.2899296875,1.91507421875,-2.68182421875,-8.43321875,-18.59766015625,-6.4716171875,-8.8486796875,-3.2494921875,-8.443203125,-11.37303125,-10.512984375,-1.238609375
4.9704140625,4.19948828125,2.12187890625,9.338609375,7.9431328125,7.16508203125,-3.80957421875,6.86973046875,15.36579296875,5.89752734375,1.27432421875,0.814359375,3.7327109375,-12.3615703125,1.73112109375,-8.5486640625,4.45682421875,-13.967125,-8.5489296875,-0.283925781250001,-6.75582421875,-13.12221875,-25.65066015625,-12.6016171875,-15.5246796875,-9.0524921875,-17.036203125,-19.54303125,-18.053984375,-8.824609375
6.8554140625,6.02248828125,3.73387890625,9.775609375,9.7191328125,10.29408203125,-0.0975742187499997,9.11573046875,16.22879296875,8.59352734375,4.52532421875,2.416359375,1.9377109375,-11.3045703125,3.78312109375,-8.3136640625,3.19382421875,-15.849125,-9.8559296875,-2.20292578125,-10.83382421875,-16.62621875,-30.44666015625,-17.8766171875,-21.9046796875,-14.5934921875,-24.140203125,-25.68703125,-24.147984375,-15.650609375
7.9344140625,7.49048828125,5.54587890625,9.945609375,11.0771328125,12.39308203125,3.48242578125,10.34873046875,16.90179296875,10.41352734375,6.93432421875,3.727359375,0.9657109375,-9.3355703125,4.88212109375,-8.1566640625,1.36582421875,-16.218125,-9.7579296875,-3.69892578125,-14.38582421875,-17.76321875,-31.93166015625,-21.3566171875,-26.9086796875,-19.2194921875,-28.314203125,-28.53903125,-27.560984375,-20.319609375
7.9644140625,8.32748828125,7.02687890625,9.813609375,12.1141328125,13.12108203125,6.31142578125,10.27773046875,17.60579296875,11.28652734375,8.01032421875,4.546359375,1.2767109375,-6.4365703125,4.90612109375,-7.9806640625,-0.49317578125,-14.691125,-7.9599296875,-4.42492578125,-16.75782421875,-15.97721875,-29.69966015625,-22.2336171875,-29.4306796875,-22.2594921875,-28.514203125,-27.43203125,-27.496984375,-21.763609375
6.8774140625,8.35048828125,7.61887890625,9.246609375,12.8251328125,12.45208203125,7.96342578125,8.98173046875,18.36479296875,11.36452734375,7.68832421875,4.764359375,2.7077109375,-2.9035703125,4.11012109375,-7.5526640625,-1.83317578125,-11.376125,-4.4589296875,-3.95292578125,-17.40282421875,-11.54921875,-24.09866015625,-20.1196171875,-28.7506796875,-23.1864921875,-24.476203125,-22.50403125,-23.884984375,-19.635609375
4.9364140625,7.55248828125,6.99687890625,8.202609375,13.0941328125,10.71508203125,8.23042578125,6.90773046875,19.02279296875,10.93252734375,6.31032421875,4.389359375,4.6637109375,0.7284296875,3.03812109375,-6.6436640625,-2.35017578125,-6.810125,0.4230703125,-1.98092578125,-16.08582421875,-5.44721875,-16.08866015625,-15.1966171875,-24.8286796875,-21.7784921875,-16.844203125,-14.63303125,-17.413984375,-14.437609375
2.7764140625,6.13248828125,5.24287890625,6.869609375,12.7751328125,8.54408203125,7.08242578125,4.76173046875,19.37679296875,10.30752734375,4.47532421875,3.556359375,6.5287109375,3.8674296875,2.32912109375,-5.1466640625,-2.09617578125,-1.723125,6.1500703125,1.50807421875,-12.95782421875,1.09578125,-6.90766015625,-8.1486171875,-18.3266796875,-18.1814921875,-6.955203125,-5.11503125,-9.248984375,-7.306609375
1.2114140625,4.44548828125,2.83387890625,5.636609375,11.7681328125,6.70608203125,4.62642578125,3.29573046875,19.30679296875,9.75552734375,2.81532421875,2.478359375,8.0007109375,6.0604296875,2.50012109375,-3.1146640625,-1.40817578125,3.233875,12.1710703125,6.23207421875,-8.46582421875,7.06078125,2.32433984375,0.1053828125,-10.3286796875,-12.8434921875,3.655796875,4.78496875,-0.590984375,0.455390625
0.8784140625,2.84848828125,0.39187890625,4.890609375,10.0761328125,5.80308203125,1.07642578125,3.02273046875,18.82379296875,9.42652734375,1.76032421875,1.365359375,9.1257109375,7.1314296875,3.77212109375,-0.6966640625,-0.68417578125,7.688875,18.0980703125,11.75207421875,-3.14882421875,11.95678125,10.92033984375,8.7623828125,-1.8706796875,-6.3354921875,13.816796875,14.22296875,7.730015625,7.873390625
1.9034140625,1.53348828125,-1.66712109375,4.784609375,7.8191328125,5.99208203125,-3.26057421875,3.98173046875,18.03679296875,9.32752734375,1.39832421875,0.340359375,10.1087109375,7.2264296875,6.01312109375,1.9353359375,-0.17417578125,11.605875,23.8000703125,17.66507421875,2.56017578125,15.85878125,18.74833984375,17.3713828125,6.4353203125,0.838507812500001,23.085796875,22.95996875,15.448015625,14.587390625
3.7984140625,0.446488281250001,-3.34812109375,5.121609375,5.2241328125,6.88408203125,-8.00857421875,5.69873046875,17.08479296875,9.34652734375,1.46932421875,-0.602640624999999,11.0907109375,6.7714296875,8.79312109375,4.6463359375,0.11482421875,15.212875,29.3570703125,23.71507421875,8.40317578125,19.23078125,26.14633984375,25.8723828125,14.5093203125,8.3135078125,31.748796875,31.27996875,22.788015625,20.820390625
3.7984140625,0.446488281250001,-3.34812109375,5.121609375,5.2241328125,6.88408203125,-8.00857421875,5.69873046875,17.08479296875,9.34652734375,1.46932421875,-0.602640624999999,11.0907109375,6.7714296875,8.79312109375,4.6463359375,0.11482421875,15.212875,29.3570703125,23.71507421875,8.40317578125,19.23078125,26.14633984375,25.8723828125,14.5093203125,8.3135078125,31.748796875,31.27996875,22.788015625,20.820390625
