"Fp1","Fpz","Fp2","F7","F3","Fz","F4","F8","FC5","FC1","FC2","FC6","T7","C3","Cz","C4","T8","CP5","CP1","CP2","CP6","P7","P3","Pz","P4","P8","POz","O1","Oz","O2"
-21.0792109375,-6.70674609375,-51.0711484375,-10.59538671875,-24.31416015625,-15.260640625,-16.43775390625,-8.547015625,-11.3483125,-16.55455859375,-15.95635546875,-9.1181484375,-22.2583203125,-11.46512109375,-20.9647734375,-16.0558671875,-6.219359375,-8.8951171875,-15.18262890625,-14.21866015625,-11.77323046875,-22.1628359375,-14.319109375,-14.09934375,-12.61569921875,-6.60142578125,-14.616734375,-18.3961953125,-11.99628515625,-15.903640625
-20.8052109375,-10.97374609375,-59.3451484375,-13.09438671875,-27.96916015625,-18.603640625,-15.35675390625,-8.025015625,-14.5713125,-20.40955859375,-19.54135546875,-11.7971484375,-17.6493203125,-18.32012109375,-23.6937734375,-16.6758671875,-10.559359375,-20.8101171875,-19.92062890625,-17.35266015625,-12.96623046875,-24.8618359375,-19.411109375,-18.36434375,-14.82969921875,-8.92142578125,-13.456734375,-23.2901953125,-15.89928515625,-18.603640625
-21.4492109375,-14.25374609375,-64.8961484375,-14.84738671875,-29.42716015625,-20.879640625,-15.55775390625,-8.427015625,-17.0243125,-22.98855859375,-22.11435546875,-13.1911484375,-13.9853203125,-22.72312109375,-25.6257734375,-17.3078671875,-13.384359375,-27.1251171875,-22.87962890625,-19.31866015625,-13.83723046875,-26.0488359375,-22.226109375,-20.66834375,-16.21869921875,-11.22942578125,-12.717734375,-25.6421953125,-18.15628515625,-20.362640625
-22.8422109375,-16.23974609375,-67.7931484375,-15.51238671875,-28.48916015625,-21.815640625,-16.42075390625,-9.532015625,-18.5343125,-23.98555859375,-23.31935546875,-13.3011484375,-10.9563203125,-24.38412109375,-26.4237734375,-17.7218671875,-14.490359375,-27.8331171875,-23.75862890625,-19.89766015625,-14.27223046875,-25.3328359375,-22.529109375,-20.69334375,-16.58569921875,-13.31742578125,-12.080734375,-25.1131953125,-18.40128515625,-20.980640625
-24.7172109375,-16.87974609375,-69.0021484375,-14.93538671875,-25.62216015625,-21.357640625,-16.82775390625,-10.833015625,-19.0343125,-23.36755859375,-22.97435546875,-12.4691484375,-8.0943203125,-23.56412109375,-25.8927734375,-17.5868671875,-14.059359375,-24.5511171875,-22.68962890625,-19.14766015625,-14.20023046875,-22.7568359375,-20.723109375,-18.66434375,-15.90869921875,-14.91042578125,-11.065734375,-22.1161953125,-16.72228515625,-20.490640625
-26.9882109375,-16.45374609375,-69.8351484375,-13.27238671875,-21.81916015625,-19.722640625,-15.87675390625,-11.877015625,-18.5713125,-21.42355859375,-21.18635546875,-11.1361484375,-5.2183203125,-20.91012109375,-24.1307734375,-16.6538671875,-12.558359375,-19.5891171875,-20.18462890625,-17.38566015625,-13.62823046875,-18.9138359375,-17.672109375,-15.29534375,-14.36269921875,-15.81742578125,-9.388734375,-17.6711953125,-13.69128515625,-19.157640625
-29.6652109375,-15.51374609375,-71.2471484375,-10.98138671875,-18.30716015625,-17.404640625,-13.43275390625,-12.439015625,-17.3443125,-18.77755859375,-18.43335546875,-9.6561484375,-2.6283203125,-17.33412109375,-21.6147734375,-14.9258671875,-10.604359375,-15.0201171875,-17.04462890625,-15.13466015625,-12.67223046875,-14.8628359375,-14.446109375,-11.61634375,-12.32569921875,-16.07142578125,-7.170734375,-13.1401953125,-10.26728515625,-17.439640625
-32.5702109375,-14.66474609375,-73.3531484375,-8.66738671875,-16.14216015625,-15.073640625,-10.21175390625,-12.490015625,-15.6803125,-16.23455859375,-15.47935546875,-8.2431484375,-0.9253203125,-13.86512109375,-19.0957734375,-12.7038671875,-8.803359375,-12.0831171875,-14.16462890625,-12.99766015625,-11.55523046875,-11.7798359375,-12.000109375,-8.67634375,-10.30269921875,-15.93342578125,-4.899734375,-9.8771953125,-7.53728515625,-15.883640625
-35.2022109375,-14.29374609375,-75.4321484375,-6.86338671875,-15.78616015625,-13.341640625,-7.41075390625,-12.070015625,-13.9503125,-14.48455859375,-13.10035546875,-7.0201484375,-0.6333203125,-11.34912109375,-17.3067734375,-10.4788671875,-7.589359375,-10.9961171875,-12.24062890625,-11.46166015625,-10.54623046875,-10.4738359375,-10.858109375,-7.18834375,-8.76969921875,-15.74642578125,-3.189734375,-8.8241953125,-6.34128515625,-14.946640625
-36.9352109375,-14.43174609375,-76.4501484375,-5.88838671875,-16.90516015625,-12.513640625,-6.07875390625,-11.227015625,-12.4743125,-13.79355859375,-11.76535546875,-6.1031484375,-1.8923203125,-10.12412109375,-16.6387734375,-8.7308671875,-7.122359375,-11.1511171875,-11.51862890625,-10.73566015625,-9.87123046875,-11.0218359375,-10.946109375,-7.27534375,-8.01269921875,-15.74342578125,-2.486734375,-10.1611953125,-6.93928515625,-14.819640625
-37.3912109375,-14.86574609375,-75.8291484375,-5.81938671875,-18.56216015625,-12.516640625,-6.57175390625,-10.071015625,-11.4993125,-13.94455859375,-11.50235546875,-5.6571484375,-4.3853203125,-9.95012109375,-17.0057734375,-7.7638671875,-7.294359375,-11.6161171875,-11.77362890625,-10.74666015625,-9.65723046875,-12.7858359375,-11.725109375,-8.50234375,-8.08469921875,-15.92542578125,-2.862734375,-13.2201953125,-8.92028515625,-15.371640625
-36.7512109375,-15.43374609375,-73.9791484375,-6.54238671875,-19.79216015625,-13.074640625,-8.45575390625,-8.881015625,-11.2533125,-14.50555859375,-12.02535546875,-5.8821484375,-7.4243203125,-10.34012109375,-18.0077734375,-7.6788671875,-7.837359375,-11.7251171875,-12.56562890625,-11.29066015625,-9.93023046875,-14.8328359375,-12.575109375,-10.18034375,-8.86369921875,-16.10042578125,-4.023734375,-16.7451953125,-11.43428515625,-16.248640625
-35.7472109375,-16.24174609375,-72.2051484375,-7.83338671875,-20.19916015625,-13.975640625,-10.89875390625,-8.139015625,-11.9333125,-15.22255859375,-12.99735546875,-6.9391484375,-10.1363203125,-11.04112109375,-19.2457734375,-8.4238671875,-8.439359375,-11.4561171875,-13.56562890625,-12.20166015625,-10.62323046875,-16.4658359375,-13.171109375,-11.74734375,-10.15269921875,-16.01642578125,-5.531734375,-19.4311953125,-13.61828515625,-17.078640625
-35.2922109375,-17.59674609375,-71.9491484375,-9.42838671875,-20.13216015625,-15.190640625,-13.21375390625,-8.359015625,-13.5823125,-16.17155859375,-14.21535546875,-8.7921484375,-11.7303203125,-12.21512109375,-20.5347734375,-9.8408671875,-8.840359375,-11.3511171875,-14.71562890625,-13.41466015625,-11.55523046875,-17.4938359375,-13.611109375,-12.97834375,-11.71769921875,-15.53742578125,-7.049734375,-20.4651953125,-14.97328515625,-17.662640625
-35.9032109375,-19.66374609375,-73.8391484375,-11.02938671875,-20.29616015625,-16.739640625,-15.10275390625,-9.747015625,-15.9333125,-17.54255859375,-15.59435546875,-11.0861484375,-11.8393203125,-14.13112109375,-21.8557734375,-11.6518671875,-8.886359375,-12.0231171875,-16.09062890625,-14.86266015625,-12.42123046875,-18.0978359375,-14.200109375,-13.92834375,-13.26969921875,-14.73442578125,-8.405734375,-19.8101953125,-15.49428515625,-18.021640625
-37.3582109375,-22.13974609375,-77.1531484375,-12.29438671875,-21.11216015625,-18.454640625,-16.53975390625,-11.941015625,-18.4073125,-19.27355859375,-17.02235546875,-13.1641484375,-10.7423203125,-16.66912109375,-23.1517734375,-13.4408671875,-8.580359375,-13.6051171875,-17.63562890625,-16.35766015625,-12.83823046875,-18.4978359375,-15.105109375,-14.70634375,-14.47069921875,-13.86642578125,-9.490734375,-18.1041953125,-15.51328515625,-18.311640625
-38.8752109375,-24.25074609375,-80.1341484375,-12.89038671875,-22.34916015625,-19.895640625,-17.53675390625,-14.110015625,-20.3103125,-20.88655859375,-18.24635546875,-14.3061484375,-9.2413203125,-19.11112109375,-24.1717734375,-14.7178671875,-8.072359375,-15.5651171875,-19.01262890625,-17.54566015625,-12.50323046875,-18.7578359375,-16.159109375,-15.29034375,-15.00569921875,-13.24842578125,-10.146734375,-16.2541953125,-15.41328515625,-18.661640625
-39.6352109375,-25.11274609375,-80.9531484375,-12.62938671875,-23.26616015625,-20.523640625,-18.03175390625,-15.376015625,-21.1333125,-21.68055859375,-18.90535546875,-14.0401484375,-8.1833203125,-20.44412109375,-24.5327734375,-15.0828671875,-7.586359375,-17.0011171875,-19.70462890625,-18.02766015625,-11.36623046875,-18.8148359375,-16.932109375,-15.50534375,-14.71369921875,-13.07442578125,-10.194734375,-14.9731953125,-15.40728515625,-19.061640625
-39.2132109375,-24.21774609375,-78.6921484375,-11.58638671875,-23.10716015625,-19.983640625,-17.89275390625,-15.218015625,-20.7193125,-21.12855859375,-18.69535546875,-12.3691484375,-7.9843203125,-19.93912109375,-23.9267734375,-14.3888671875,-7.310359375,-17.1771171875,-19.30062890625,-17.54766015625,-9.70123046875,-18.6398359375,-17.015109375,-15.16234375,-13.68469921875,-13.30442578125,-9.527734375,-14.4911953125,-15.47428515625,-19.356640625
-37.6402109375,-21.68174609375,-73.7261484375,-10.07238671875,-21.56316015625,-18.318640625,-16.99375390625,-13.612015625,-19.2463125,-19.18555859375,-17.55335546875,-9.7711484375,-8.4873203125,-17.60612109375,-22.3267734375,-12.8138671875,-7.304359375,-15.8891171875,-17.75862890625,-16.15866015625,-8.00923046875,-18.3208359375,-16.281109375,-14.24034375,-12.25069921875,-13.66042578125,-8.190734375,-14.5691953125,-15.45428515625,-19.347640625
-35.2632109375,-18.18774609375,-67.4361484375,-8.46238671875,-18.96016015625,-15.974640625,-15.33275390625,-10.912015625,-17.1213125,-16.33155859375,-15.72535546875,-7.0141484375,-9.2193203125,-14.22812109375,-20.0537734375,-10.7998671875,-7.466359375,-13.5251171875,-15.47962890625,-14.23666015625,-6.79823046875,-18.0038359375,-14.957109375,-12.97434375,-10.86369921875,-13.73442578125,-6.392734375,-14.7631953125,-15.19328515625,-18.925640625
-32.6262109375,-14.70174609375,-61.5741484375,-7.01338671875,-16.11116015625,-13.628640625,-13.15175390625,-7.675015625,-14.8783125,-13.37455859375,-13.68635546875,-4.8751484375,-9.7453203125,-11.01512109375,-17.6867734375,-8.8838671875,-7.566359375,-10.8561171875,-13.15662890625,-12.35566015625,-6.36823046875,-17.7918359375,-13.511109375,-11.79834375,-9.93069921875,-13.15042578125,-4.490734375,-14.7481953125,-14.65428515625,-18.141640625
-30.3922109375,-12.17274609375,-57.6671484375,-5.79338671875,-13.94516015625,-11.931640625,-10.91175390625,-4.510015625,-13.0613125,-11.12755859375,-11.96035546875,-3.8771484375,-9.8643203125,-9.08312109375,-15.8487734375,-7.5088671875,-7.327359375,-8.7341171875,-11.50462890625,-11.06966015625,-6.70823046875,-17.6638359375,-12.427109375,-11.16134375,-9.68469921875,-11.71142578125,-2.894734375,-14.5011953125,-13.93328515625,-17.158640625
-29.2002109375,-11.29074609375,-56.6251484375,-4.72438671875,-13.10316015625,-11.278640625,-9.10975390625,-1.942015625,-12.0693125,-10.11255859375,-10.93935546875,-4.1331484375,-9.5673203125,-9.00912109375,-14.9777734375,-6.8858671875,-6.556359375,-7.8231171875,-10.99662890625,-10.71766015625,-7.53723046875,-17.5008359375,-12.021109375,-11.33134375,-10.14069921875,-9.48442578125,-1.917734375,-14.2661953125,-13.20128515625,-16.155640625
-29.4722109375,-12.33274609375,-58.5911484375,-3.70538671875,-13.70116015625,-11.693640625,-8.07775390625,-0.324015624999999,-12.0093125,-10.40655859375,-10.76935546875,-5.3391484375,-8.8883203125,-10.63712109375,-15.1717734375,-6.9558671875,-5.246359375,-8.4131171875,-11.70862890625,-11.30566015625,-8.44223046875,-17.1678359375,-12.350109375,-12.27734375,-11.11169921875,-6.82342578125,-1.651734375,-14.3451953125,-12.61928515625,-15.250640625
-31.2822109375,-15.09974609375,-62.9751484375,-2.74938671875,-15.34616015625,-12.864640625,-7.91175390625,0.158984375000001,-12.6813125,-11.66955859375,-11.32235546875,-6.9181484375,-7.8483203125,-13.20012109375,-16.1747734375,-7.4418671875,-3.585359375,-10.3371171875,-13.32362890625,-12.52466015625,-9.02223046875,-16.6128359375,-13.244109375,-13.69634375,-12.26369921875,-4.31142578125,-1.985734375,-14.8761953125,-12.28528515625,-14.504640625
-34.3142109375,-18.93174609375,-68.6061484375,-2.04338671875,-17.33216015625,-14.274640625,-8.50875390625,-0.498015624999999,-13.7113125,-13.30255859375,-12.26335546875,-8.2361484375,-6.5323203125,-15.67412109375,-17.4947734375,-7.9658671875,-1.886359375,-12.9931171875,-15.26162890625,-13.86566015625,-8.99723046875,-15.8978359375,-14.390109375,-15.14134375,-13.20969921875,-2.57842578125,-2.700734375,-15.7281953125,-12.20228515625,-13.946640625
-37.8912109375,-22.83074609375,-73.9361484375,-1.85038671875,-18.90016015625,-15.375640625,-9.60475390625,-2.035015625,-14.7363125,-14.65455859375,-13.17035546875,-8.8081484375,-5.2073203125,-17.17712109375,-18.5617734375,-8.1708671875,-0.464359375,-15.4851171875,-16.86862890625,-14.81166015625,-8.26423046875,-15.1378359375,-15.436109375,-16.17834375,-13.61669921875,-2.03242578125,-3.526734375,-16.5401953125,-12.26628515625,-13.556640625
-41.1042109375,-25.68774609375,-77.3201484375,-2.29138671875,-19.46416015625,-15.716640625,-10.81775390625,-3.844015625,-15.4933125,-15.18355859375,-13.65035546875,-8.3981484375,-4.2793203125,-17.23212109375,-18.8927734375,-7.8018671875,0.494640625000001,-16.9001171875,-17.59962890625,-14.99266015625,-6.90423046875,-14.3918359375,-16.047109375,-16.49634375,-13.29269921875,-2.62642578125,-4.136734375,-16.8761953125,-12.26928515625,-13.219640625
-43.0602109375,-26.57574609375,-77.4541484375,-3.16138671875,-18.74316015625,-15.035640625,-11.72375390625,-5.075015625,-15.7603125,-14.58055859375,-13.41335546875,-7.0001484375,-4.0463203125,-15.82912109375,-18.1957734375,-6.7488671875,1.006640625,-16.5921171875,-17.13562890625,-14.25366015625,-5.13323046875,-13.5768359375,-15.930109375,-15.94234375,-12.20469921875,-3.81642578125,-4.166734375,-16.3901953125,-11.93528515625,-12.709640625
-43.1452109375,-25.05074609375,-73.8811484375,-3.92838671875,-16.80816015625,-13.303640625,-11.95375390625,-4.964015625,-15.3013125,-12.82955859375,-12.32135546875,-4.7751484375,-4.4233203125,-13.32512109375,-16.4247734375,-5.0388671875,1.281640625,-14.4031171875,-15.44562890625,-12.64766015625,-3.23623046875,-12.4828359375,-14.868109375,-14.51034375,-10.46369921875,-4.78342578125,-3.318734375,-14.9611953125,-11.02528515625,-11.770640625
-41.1322109375,-21.31374609375,-67.2581484375,-3.93438671875,-14.03016015625,-10.742640625,-11.27175390625,-3.188015625,-13.9653125,-10.21655859375,-10.44235546875,-2.0181484375,-4.9033203125,-10.26812109375,-13.8087734375,-2.8318671875,1.605640625,-10.7571171875,-12.79762890625,-10.40066015625,-1.51423046875,-10.9228359375,-12.820109375,-12.35834375,-8.30469921875,-4.81942578125,-1.498734375,-12.7501953125,-9.47128515625,-10.281640625
-37.1152109375,-16.13174609375,-59.1071484375,-2.69838671875,-10.95216015625,-7.788640625,-9.61675390625,-0.00601562499999986,-11.8213125,-7.24055859375,-8.06635546875,0.8418515625,-4.7863203125,-7.22212109375,-10.8047734375,-0.397867187499999,2.167640625,-6.5431171875,-9.70562890625,-7.87466015625,-0.218230468749999,-8.8988359375,-10.014109375,-9.80234375,-6.06169921875,-3.67942578125,1.105265625,-10.1831953125,-7.46028515625,-8.388640625
-31.4362109375,-10.51174609375,-51.1181484375,-0.16838671875,-8.09316015625,-4.940640625,-7.14875390625,3.880984375,-9.1523125,-4.43055859375,-5.62635546875,3.3058515625,-3.5683203125,-4.57212109375,-7.9437734375,1.9261328125,2.961640625,-2.7421171875,-6.74762890625,-5.46866015625,0.522769531250001,-6.6398359375,-6.898109375,-7.24934375,-4.06669921875,-1.69142578125,4.064265625,-7.8241953125,-5.37128515625,-6.487640625
-24.7192109375,-5.33974609375,-44.4931484375,3.23261328125,-5.79616015625,-2.585640625,-4.25075390625,7.660984375,-6.2923125,-2.16455859375,-3.54235546875,4.9528515625,-1.2153203125,-2.44912109375,-5.6447734375,3.8291328125,3.823640625,0.0288828125000009,-4.34962890625,-3.48466015625,0.78976953125,-4.4788359375,-3.966109375,-5.07034375,-2.52869921875,0.416574218749998,6.834265625,-6.1751953125,-3.59928515625,-5.048640625
-17.9392109375,-1.19474609375,-39.7621484375,6.77061328125,-4.22016015625,-0.913640624999998,-1.43275390625,10.716984375,-3.5343125,-0.624558593750002,-2.10635546875,5.5648515625,1.8056796875,-0.84212109375,-4.1047734375,5.0971328125,4.538640625,1.6908828125,-2.69762890625,-2.07366015625,0.85076953125,-2.6898359375,-1.617109375,-3.51334375,-1.47269921875,1.84357421875,8.916265625,-5.5301953125,-2.38528515625,-4.404640625
-12.3192109375,1.60625390625,-37.0301484375,9.65461328125,-3.44016015625,0.0253593750000043,0.82824609375,12.736984375,-1.2063125,0.120441406249999,-1.46635546875,5.1548515625,4.7546796875,0.17987890625,-3.3417734375,5.6311328125,4.921640625,2.4758828125,-1.81562890625,-1.28266015625,1.01976953125,-1.4238359375,-0.130109375000002,-2.70034375,-0.802699218750002,2.04257421875,9.991265625,-5.9151953125,-1.75928515625,-4.627640625
-8.9712109375,2.91625390625,-36.2581484375,11.26961328125,-3.49116015625,0.231359375000004,2.22424609375,13.634984375,0.2566875,0.0334414062499988,-1.63335546875,3.9458515625,6.9206796875,0.401878906249999,-3.2827734375,5.4561328125,4.858640625,2.6098828125,-1.67562890625,-1.11466015625,1.46976953125,-0.728835937500001,0.331890625,-2.64934375,-0.402699218750001,0.914574218749999,9.980265625,-7.1231953125,-1.59528515625,-5.539640625
-8.4582109375,2.77325390625,-37.2291484375,11.32561328125,-4.28316015625,-0.243640624999998,2.66624609375,13.431984375,0.4416875,-0.83755859375,-2.45735546875,2.3488515625,7.8576796875,-0.34612109375,-3.7947734375,4.7421328125,4.327640625,2.2018828125,-2.20062890625,-1.51266015625,2.13476953125,-0.555835937500003,-0.225109375000001,-3.25334375,-0.187699218750002,-1.14542578125,9.022265625,-8.7631953125,-1.71028515625,-6.811640625
-10.5242109375,1.47925390625,-39.3491484375,9.92361328125,-5.51716015625,-1.226640625,2.26624609375,12.258984375,-0.757312499999999,-2.26355859375,-3.61335546875,0.898851562500001,7.4866796875,-1.90912109375,-4.6557734375,3.8001328125,3.432640625,1.3498828125,-3.19662890625,-2.30866015625,2.75776953125,-0.757835937500001,-1.556109375,-4.26634375,-0.102699218750001,-3.39242578125,7.431265625,-10.3111953125,-1.91528515625,-8.065640625
-14.1732109375,-0.401746093749999,-41.6521484375,7.51161328125,-6.74216015625,-2.399640625,1.28924609375,10.438984375,-2.9763125,-3.83055859375,-4.67935546875,0.0758515625000005,6.0666796875,-3.74312109375,-5.5637734375,2.9981328125,2.397640625,0.2188828125,-4.34162890625,-3.22366015625,3.05076953125,-1.1258359375,-3.219109375,-5.35134375,-0.10069921875,-4.99542578125,5.644265625,-11.2371953125,-2.03728515625,-8.943640625
-18.0702109375,-2.19774609375,-43.1791484375,4.69761328125,-7.53816015625,-3.393640625,0.0882460937499996,8.463984375,-5.5053125,-5.07755859375,-5.27435546875,0.058851562500001,4.0566796875,-5.14212109375,-6.2007734375,2.6321328125,1.511640625,-0.988117187499999,-5.26862890625,-3.94566015625,2.86676953125,-1.4808359375,-4.727109375,-6.20334375,-0.143699218750001,-5.32842578125,4.150265625,-11.1921953125,-1.93928515625,-9.165640625
-21.0432109375,-3.37674609375,-43.4781484375,2.01661328125,-7.70516015625,-3.939640625,-0.99275390625,6.799984375,-7.6603125,-5.70155859375,-5.18835546875,0.644851562500001,1.9456796875,-5.61712109375,-6.3537734375,2.8311328125,1.041640625,-2.1071171875,-5.70662890625,-4.23566015625,2.30076953125,-1.7658359375,-5.731109375,-6.65234375,-0.193699218750002,-4.17942578125,3.339265625,-10.1701953125,-1.55628515625,-8.591640625
-22.4362109375,-3.72374609375,-42.7871484375,-0.201386718749999,-7.35016015625,-3.983640625,-1.71075390625,5.698984375,-9.1233125,-5.69955859375,-4.44635546875,1.4188515625,0.1166796875,-5.16812109375,-6.0037734375,3.5471328125,1.157640625,-3.0711171875,-5.60162890625,-4.01466015625,1.66076953125,-2.0568359375,-6.136109375,-6.71734375,-0.213699218750001,-1.81442578125,3.347265625,-8.5471953125,-0.949285156250001,-7.301640625
-22.2022109375,-3.39474609375,-41.7901484375,-1.77438671875,-6.85216015625,-3.711640625,-1.95775390625,5.164984375,-10.0243125,-5.36355859375,-3.31235546875,2.0578515625,-1.1973203125,-4.27012109375,-5.3567734375,4.5901328125,1.892640625,-3.9071171875,-5.16062890625,-3.41166015625,1.29476953125,-2.4938359375,-6.136109375,-6.59734375,-0.201699218750001,1.10957421875,3.993265625,-6.9301953125,-0.327285156250001,-5.631640625
-20.8022109375,-2.81874609375,-41.2051484375,-2.57438671875,-6.70916015625,-3.462640625,-1.76175390625,5.088984375,-10.7233125,-5.14255859375,-2.22435546875,2.5098515625,-1.9213203125,-3.61912109375,-4.7847734375,5.6891328125,3.115640625,-4.6821171875,-4.78462890625,-2.74166015625,1.38176953125,-3.1948359375,-6.108109375,-6.59034375,-0.226699218750001,3.75257421875,4.869265625,-5.9131953125,0.0227148437499984,-4.078640625
-19.0082109375,-2.49174609375,-41.4801484375,-2.53738671875,-7.28116015625,-3.547640625,-1.27775390625,5.356984375,-11.4663125,-5.39455859375,-1.62435546875,2.9658515625,-2.1383203125,-3.74212109375,-4.6617734375,6.5831328125,4.527640625,-5.3881171875,-4.86462890625,-2.36666015625,1.83576953125,-4.1468359375,-6.402109375,-6.95234375,-0.403699218750001,5.36557421875,5.534265625,-5.8401953125,-0.110285156250001,-3.102640625
-17.6142109375,-2.72274609375,-42.6471484375,-1.77138671875,-8.55716015625,-4.062640625,-0.74575390625,5.883984375,-12.1773125,-6.17755859375,-1.75035546875,3.6518515625,-2.0653203125,-4.71212109375,-5.1627734375,7.1191328125,5.718640625,-5.8511171875,-5.54662890625,-2.50466015625,2.38476953125,-5.1308359375,-7.106109375,-7.74334375,-0.802699218750002,5.52957421875,5.693265625,-6.6711953125,-0.711285156250002,-2.912640625
-17.1242109375,-3.46774609375,-44.2811484375,-0.612386718750001,-10.08916015625,-4.806640625,-0.40275390625,6.616984375,-12.5273125,-7.18655859375,-2.52735546875,4.5978515625,-1.9743203125,-6.09712109375,-6.1597734375,7.2951328125,6.309640625,-5.7811171875,-6.62562890625,-3.11766015625,2.74776953125,-5.7298359375,-7.959109375,-8.74834375,-1.37069921875,4.27657421875,5.317265625,-8.0111953125,-1.50228515625,-3.397640625
-17.5582109375,-4.38974609375,-45.6451484375,0.483613281249999,-11.18016015625,-5.399640625,-0.391753906249999,7.515984375,-12.2093125,-7.92055859375,-3.64435546875,5.5238515625,-2.0943203125,-7.20212109375,-7.2947734375,7.2031328125,6.111640625,-4.9861171875,-7.64362890625,-3.94766015625,2.77476953125,-5.5008359375,-8.499109375,-9.56634375,-1.94469921875,2.05057421875,4.635265625,-9.2631953125,-2.06228515625,-4.230640625
-18.5712109375,-5.13474609375,-46.0701484375,1.13461328125,-11.25016015625,-5.531640625,-0.74575390625,8.485984375,-11.1843125,-8.00255859375,-4.76535546875,5.9088515625,-2.5243203125,-7.48312109375,-8.2067734375,6.9001328125,5.208640625,-3.5991171875,-8.16362890625,-4.69566015625,2.47276953125,-4.2528359375,-8.361109375,-9.82634375,-2.35669921875,-0.448425781250002,3.979265625,-9.8441953125,-2.04628515625,-5.047640625
-19.7702109375,-5.65574609375,-45.4391484375,1.17761328125,-10.21416015625,-5.193640625,-1.42475390625,9.288984375,-9.7493125,-7.45755859375,-5.70935546875,5.2498515625,-3.1833203125,-6.91612109375,-8.7607734375,6.3491328125,3.935640625,-2.1491171875,-8.04562890625,-5.19066015625,1.93876953125,-2.2458359375,-7.527109375,-9.40634375,-2.53969921875,-2.48342578125,3.564265625,-9.3951953125,-1.35628515625,-5.592640625
-20.9472109375,-6.28574609375,-44.4101484375,0.679613281249999,-8.63216015625,-4.719640625,-2.32475390625,9.569984375,-8.4283125,-6.77455859375,-6.52435546875,3.3638515625,-3.8213203125,-6.10612109375,-9.1217734375,5.4521328125,2.764640625,-1.3861171875,-7.56662890625,-5.47566015625,1.26876953125,-0.170835937500001,-6.388109375,-8.52634375,-2.58169921875,-3.49242578125,3.353265625,-7.9241953125,-0.201285156250002,-5.759640625
-21.9922109375,-7.45874609375,-44.1061484375,-0.13038671875,-7.47916015625,-4.599640625,-3.26475390625,9.059984375,-7.7533125,-6.64255859375,-7.38435546875,0.5668515625,-4.0963203125,-5.97412109375,-9.6217734375,4.1581328125,2.143640625,-1.9521171875,-7.27262890625,-5.74966015625,0.493769531250001,1.1541640625,-5.541109375,-7.65734375,-2.67269921875,-3.24242578125,3.128265625,-5.8201953125,1.01671484375,-5.549640625
-22.6512109375,-9.23774609375,-45.3721484375,-0.94638671875,-7.58216015625,-5.149640625,-4.01275390625,7.791984375,-8.0263125,-7.48555859375,-8.39835546875,-2.3741484375,-3.7283203125,-7.14112109375,-10.4797734375,2.5691328125,2.301640625,-4.0091171875,-7.62062890625,-6.19266015625,-0.37723046875,1.2261640625,-5.435109375,-7.25134375,-2.97269921875,-1.88342578125,2.685265625,-3.6821953125,1.91071484375,-5.023640625
-22.4102109375,-11.03474609375,-48.0441484375,-1.46438671875,-9.06916015625,-6.256640625,-4.36175390625,6.181984375,-9.1523125,-9.12355859375,-9.43735546875,-4.5061484375,-2.6703203125,-9.41112109375,-11.5757734375,0.974132812500001,3.114640625,-7.0111171875,-8.63562890625,-6.78166015625,-1.26123046875,0.167164062499999,-6.066109375,-7.45234375,-3.46069921875,0.113574218749999,2.006265625,-2.0181953125,2.31371484375,-4.282640625
-20.7042109375,-11.83974609375,-50.8381484375,-1.46938671875,-11.23816015625,-7.402640625,-4.21175390625,4.887984375,-10.6643125,-10.82755859375,-10.14935546875,-5.0851484375,-1.1873203125,-11.80212109375,-12.4747734375,-0.238867187499999,4.120640625,-9.8181171875,-9.84662890625,-7.27466015625,-1.94123046875,-1.3068359375,-6.956109375,-8.00834375,-3.91169921875,2.09457421875,1.285265625,-1.0071953125,2.32871484375,-3.501640625
-17.3482109375,-10.87574609375,-52.0541484375,-0.96638671875,-12.96516015625,-7.986640625,-3.60075390625,4.530984375,-11.9743125,-11.75955859375,-10.18335546875,-3.9361484375,0.2086796875,-13.15312109375,-12.6927734375,-0.760867187499999,4.732640625,-11.1831171875,-10.58862890625,-7.38166015625,-2.14323046875,-2.2718359375,-7.466109375,-8.44334375,-4.03069921875,3.39957421875,0.802265625,-0.4981953125,2.19771484375,-2.960640625
-12.8982109375,-8.22774609375,-50.6881484375,-0.24838671875,-13.35716015625,-7.695640625,-2.71975390625,5.366984375,-12.6803125,-11.46655859375,-9.43635546875,-1.5741484375,0.9516796875,-12.82912109375,-12.0277734375,-0.540867187499998,4.575640625,-10.3621171875,-10.42662890625,-6.99066015625,-1.70223046875,-2.0998359375,-7.208109375,-8.39034375,-3.65069921875,3.53757421875,0.731265625,-0.219195312500002,2.08071484375,-2.986640625
-8.6412109375,-4.96574609375,-47.1591484375,0.19761328125,-12.20516015625,-6.695640625,-1.90575390625,7.054984375,-12.7263125,-10.10555859375,-8.14935546875,1.0278515625,0.6796796875,-11.03112109375,-10.7057734375,0.174132812500002,3.708640625,-7.5201171875,-9.39362890625,-6.26466015625,-0.690230468749998,-0.780835937500001,-6.271109375,-7.80534375,-2.85069921875,2.34557421875,0.980265625,-0.0201953125000003,1.92271484375,-3.818640625
-6.0922109375,-2.61474609375,-43.1131484375,-0.0113867187499999,-10.02116015625,-5.512640625,-1.53875390625,8.743984375,-12.3163125,-8.29855859375,-6.79435546875,2.9248515625,-0.536320312500001,-8.59012109375,-9.2637734375,0.954132812500001,2.577640625,-3.6911171875,-7.94762890625,-5.55266015625,0.56276953125,1.1061640625,-5.151109375,-6.97534375,-1.93069921875,0.120574218749999,1.188265625,0.0338046874999982,1.50471484375,-5.431640625
-6.2342109375,-2.33274609375,-40.4201484375,-0.826386718749999,-7.71516015625,-4.747640625,-1.83975390625,9.510984375,-11.6843125,-6.80155859375,-5.86435546875,3.6318515625,-2.1613203125,-6.50812109375,-8.2847734375,1.3731328125,1.690640625,-0.368117187499999,-6.72462890625,-5.21966015625,1.58276953125,2.7031640625,-4.483109375,-6.34234375,-1.28569921875,-2.38542578125,0.911265625,-0.286195312499999,0.612714843749998,-7.474640625
-8.9822109375,-4.29374609375,-40.0621484375,-1.70638671875,-6.12816015625,-4.767640625,-2.69575390625,8.903984375,-10.9283125,-6.14655859375,-5.65535546875,3.2558515625,-3.4213203125,-5.51112109375,-8.1067734375,1.1871328125,1.300640625,1.1408828125,-6.23962890625,-5.45966015625,1.94876953125,3.3011640625,-4.706109375,-6.24334375,-1.23369921875,-4.16242578125,-0.0847343750000009,-1.2011953125,-0.772285156250001,-9.349640625
-13.2352109375,-7.61874609375,-41.6761484375,-1.93838671875,-5.63516015625,-5.512640625,-3.66675390625,7.208984375,-9.9953125,-6.41155859375,-6.12035546875,2.3158515625,-3.7003203125,-5.75012109375,-8.6527734375,0.4361328125,1.357640625,0.342882812500001,-6.63662890625,-6.17266015625,1.52676953125,2.6881640625,-5.818109375,-6.69934375,-1.83569921875,-4.35342578125,-1.629734375,-2.7301953125,-2.37328515625,-10.424640625
-17.4732109375,-10.87274609375,-43.9791484375,-1.12238671875,-6.03316015625,-6.525640625,-4.20875390625,5.236984375,-8.8323125,-7.21155859375,-6.88335546875,1.3768515625,-2.8613203125,-6.75912109375,-9.4697734375,-0.597867187499999,1.708640625,-2.1591171875,-7.61362890625,-6.97166015625,0.57176953125,1.2351640625,-7.346109375,-7.38034375,-2.83669921875,-2.70242578125,-3.209734375,-4.5821953125,-3.69028515625,-10.290640625
-20.5072109375,-12.81174609375,-45.7301484375,0.51161328125,-6.79916015625,-7.239640625,-3.98675390625,3.794984375,-7.5593125,-7.97655859375,-7.47835546875,0.7278515625,-1.2953203125,-7.78712109375,-10.0197734375,-1.5808671875,2.277640625,-5.0261171875,-8.63062890625,-7.40166015625,-0.40523046875,-0.318835937500001,-8.624109375,-7.81634375,-3.80669921875,0.211574218749998,-4.238734375,-6.2361953125,-4.24228515625,-8.951640625
-21.9752109375,-13.00474609375,-46.5001484375,2.21461328125,-7.57016015625,-7.382640625,-3.11475390625,3.188984375,-6.5303125,-8.39655859375,-7.69435546875,0.267851562500001,0.3426796875,-8.36612109375,-10.0687734375,-2.3768671875,3.039640625,-7.0081171875,-9.30362890625,-7.27366015625,-0.98223046875,-1.3118359375,-9.226109375,-7.77234375,-4.43269921875,3.14557421875,-4.390734375,-7.2081953125,-3.85828515625,-6.874640625
-22.3902109375,-11.96074609375,-46.7761484375,3.14061328125,-8.44816015625,-7.215640625,-2.17975390625,3.042984375,-6.2353125,-8.68155859375,-7.76435546875,-0.3231484375,1.4896796875,-8.70312109375,-9.8917734375,-3.1538671875,3.854640625,-7.6941171875,-9.69262890625,-6.84566015625,-1.10323046875,-1.5528359375,-9.256109375,-7.46334375,-4.73969921875,4.73257421875,-3.786734375,-7.3241953125,-2.81528515625,-4.826640625
-22.7342109375,-10.75974609375,-47.4121484375,2.76261328125,-9.85316015625,-7.374640625,-1.96275390625,2.583984375,-7.0923125,-9.39355859375,-8.18035546875,-1.2831484375,1.8386796875,-9.48512109375,-10.0807734375,-4.2268671875,4.405640625,-7.5991171875,-10.21362890625,-6.68566015625,-1.09023046875,-1.4028359375,-9.239109375,-7.43134375,-5.03369921875,4.14057421875,-2.918734375,-6.7971953125,-1.70328515625,-3.518640625
-23.8012109375,-10.38174609375,-48.9041484375,1.11661328125,-12.02516015625,-8.381640625,-2.93875390625,1.230984375,-9.2303125,-10.92955859375,-9.28735546875,-2.5601484375,1.2356796875,-11.22212109375,-11.0707734375,-5.7538671875,4.343640625,-7.6071171875,-11.25062890625,-7.27066015625,-1.37223046875,-1.4858359375,-9.698109375,-8.15034375,-5.62169921875,1.53457421875,-2.338734375,-6.0351953125,-1.06128515625,-3.242640625
-25.6312109375,-11.12774609375,-50.9411484375,-1.18938671875,-14.62516015625,-10.196640625,-4.88175390625,-0.868015625,-12.3353125,-13.08155859375,-10.94735546875,-3.8411484375,-0.440320312500001,-13.65912109375,-12.7427734375,-7.5358671875,3.514640625,-8.2391171875,-12.76762890625,-8.62866015625,-2.17623046875,-2.2288359375,-10.743109375,-9.66234375,-6.52869921875,-1.93542578125,-2.300734375,-5.3251953125,-1.04028515625,-3.699640625
-27.3952109375,-12.41974609375,-52.4931484375,-3.17338671875,-16.78016015625,-12.145640625,-6.90175390625,-2.788015625,-15.6523125,-15.02855859375,-12.52735546875,-4.7051484375,-3.1633203125,-15.79712109375,-14.3997734375,-9.0388671875,2.111640625,-9.2981171875,-14.22562890625,-10.24766015625,-3.35323046875,-3.5348359375,-11.951109375,-11.48534375,-7.41669921875,-4.64142578125,-2.610734375,-4.6061953125,-1.29328515625,-4.155640625
-27.8372109375,-13.09874609375,-52.3401484375,-3.87138671875,-17.52916015625,-13.244640625,-7.92475390625,-3.329015625,-18.1733125,-15.75655859375,-13.18435546875,-4.7641484375,-6.4973203125,-16.46912109375,-15.1087734375,-9.6178671875,0.640640625,-10.0611171875,-14.83362890625,-11.28666015625,-4.41123046875,-4.7918359375,-12.583109375,-12.82334375,-7.72569921875,-5.25742578125,-2.774734375,-3.5131953125,-1.16928515625,-3.833640625
-26.0082109375,-12.06874609375,-49.7231484375,-2.76138671875,-16.31316015625,-12.703640625,-7.23975390625,-1.730015625,-18.9553125,-14.58355859375,-12.27135546875,-3.7361484375,-9.5263203125,-15.02612109375,-14.1767734375,-8.7738671875,-0.282359375,-9.7961171875,-13.95262890625,-10.95866015625,-4.71423046875,-5.2128359375,-11.964109375,-12.91734375,-6.92869921875,-3.38742578125,-2.298734375,-1.6381953125,-0.0782851562500024,-2.311640625
-21.8322109375,-8.92274609375,-44.7631484375,-0.0073867187500003,-13.23516015625,-10.304640625,-4.77875390625,1.883984375,-17.4723125,-11.48355859375,-9.65235546875,-1.5361484375,-11.1643203125,-11.68112109375,-11.4837734375,-6.3708671875,-0.183359375,-8.2381171875,-11.43062890625,-8.90166015625,-3.79323046875,-4.2968359375,-9.838109375,-11.38534375,-4.79169921875,0.320574218749998,-0.946734375,1.1188046875,2.17071484375,0.267359374999998
-16.1852109375,-4.19774609375,-38.4491484375,3.65161328125,-8.99416015625,-6.514640625,-1.06975390625,6.522984375,-13.8453125,-7.10155859375,-5.78635546875,1.6148515625,-10.6953203125,-7.37812109375,-7.5417734375,-2.7548671875,1.065640625,-5.7611171875,-7.70662890625,-5.37666015625,-1.61323046875,-2.1248359375,-6.520109375,-8.39434375,-1.52369921875,4.60857421875,1.145265625,4.3468046875,5.21771484375,3.262359375
-10.4872109375,0.89725390625,-32.2321484375,7.25361328125,-4.61216015625,-2.280640625,3.00624609375,10.746984375,-8.8773125,-2.48955859375,-1.56635546875,5.1568515625,-8.1523203125,-3.33512109375,-3.2867734375,1.2821328125,3.194640625,-3.1551171875,-3.65162890625,-1.19166015625,1.32776953125,0.683164062499998,-2.769109375,-4.59234375,2.25130078125,8.25457421875,3.509265625,7.1898046875,8.27071484375,5.811359375
-6.0722109375,5.07825390625,-27.4401484375,9.99561328125,-1.07716015625,1.358359375,6.54424609375,13.244984375,-3.8433125,1.28244140625,2.03664453125,8.3088515625,-4.2773203125,-0.517121093749999,0.292226562500002,4.7431328125,5.649640625,-1.1851171875,-0.206628906249998,2.61433984375,4.17376953125,3.3191640625,0.543890625,-0.862343750000001,5.71630078125,10.55557421875,5.506265625,8.7028046875,10.44071484375,7.198359375
-3.6902109375,7.53925390625,-24.8171484375,11.46261328125,0.966839843749998,3.682359375,8.93524609375,13.368984375,-0.0413125000000001,3.50944140625,4.31964453125,10.3398515625,-0.116320312500001,0.70887890625,2.5222265625,6.8061328125,7.822640625,-0.2161171875,1.97837109375,5.17033984375,6.10176953125,5.2051640625,2.796890625,2.01665625,8.17230078125,11.42057421875,6.615265625,8.3298046875,11.15471484375,7.169359375
-3.3762109375,8.17025390625,-24.3691484375,11.67061328125,1.40883984375,4.536359375,10.06324609375,11.355984375,1.7086875,4.09044140625,5.07964453125,10.8708515625,3.4576796875,0.62887890625,3.2532265625,7.1771328125,9.264640625,-0.0881171875,2.77237109375,6.09933984375,6.70576953125,6.2281640625,3.829890625,3.63165625,9.31030078125,11.17457421875,6.703265625,6.2528046875,10.42871484375,6.048359375
-4.6792109375,7.43125390625,-25.5581484375,10.97161328125,0.696839843749999,4.331359375,10.23424609375,8.140984375,1.3976875,3.53044140625,4.63664453125,10.0318515625,6.0206796875,-0.0381210937500001,2.8512265625,6.2281328125,9.807640625,-0.2681171875,2.56637109375,5.63633984375,6.19576953125,6.6901640625,3.945890625,4.05165625,9.32430078125,10.28357421875,6.087265625,3.3838046875,8.88571484375,4.598359375
-6.9672109375,6.02725390625,-27.6561484375,9.88361328125,-0.351160156250003,3.811359375,9.93624609375,4.889984375,-0.216312499999999,2.70644140625,3.67964453125,8.4228515625,7.5616796875,-0.48012109375,2.0012265625,4.8341328125,9.559640625,-0.1241171875,2.08237109375,4.49433984375,5.26776953125,7.0631640625,3.725890625,3.74865625,8.79030078125,9.15457421875,5.334265625,0.977804687500001,7.45071484375,3.662359375
-9.6032109375,4.59625390625,-30.0261484375,8.91861328125,-0.890160156250001,3.704359375,9.59124609375,2.552984375,-1.9803125,2.47444140625,2.96264453125,6.8498515625,8.2596796875,-0.126121093749999,1.4052265625,3.9561328125,8.840640625,0.7898828125,2.03937109375,3.53333984375,4.72376953125,7.7241640625,3.728890625,3.35465625,8.36930078125,8.05357421875,4.939265625,0.00680468750000074,6.90171484375,3.752359375
-12.0002109375,3.53925390625,-32.2261484375,8.45461328125,-0.428160156250001,4.410359375,9.45124609375,1.607984375,-2.8473125,3.28444140625,2.99864453125,5.9878515625,8.2736796875,1.15087890625,1.5042265625,4.2011328125,8.069640625,2.5258828125,2.83237109375,3.36733984375,5.05376953125,8.8071640625,4.250890625,3.36865625,8.48630078125,7.10457421875,5.097265625,0.667804687499999,7.48971484375,4.800359375
-13.6842109375,2.99625390625,-33.9601484375,8.64361328125,0.968839843749997,5.852359375,9.56824609375,1.990984375,-2.2993125,5.00844140625,3.86664453125,6.0938515625,7.7106796875,3.04187890625,2.3372265625,5.5681328125,7.601640625,4.7068828125,4.38337109375,4.13033984375,6.21676953125,10.1911640625,5.237890625,3.95865625,9.15730078125,6.36357421875,5.671265625,2.3558046875,8.88471484375,6.248359375
-14.4032109375,2.95425390625,-34.9411484375,9.37761328125,2.78483984375,7.594359375,9.83224609375,3.195984375,-0.5423125,7.05844140625,5.25864453125,6.9478515625,6.6886796875,5.00187890625,3.5962265625,7.5191328125,7.571640625,6.7068828125,6.22337109375,5.50233984375,7.73276953125,11.6131640625,6.389890625,4.95265625,10.06930078125,5.90957421875,6.323265625,4.0918046875,10.42471484375,7.402359375
-14.1382109375,3.35725390625,-34.8301484375,10.34461328125,4.38083984375,9.104359375,10.06424609375,4.520984375,1.6226875,8.73144140625,6.68564453125,8.0398515625,5.3846796875,6.53787890625,4.8412265625,9.3071328125,7.821640625,7.9448828125,7.77137109375,6.95733984375,8.98276953125,12.7991640625,7.368890625,5.99765625,10.81930078125,5.86657421875,6.729265625,5.0898046875,11.50171484375,7.814359375
-13.0622109375,4.14525390625,-33.3731484375,11.18361328125,5.30583984375,10.018359375,10.16224609375,5.382984375,3.2306875,9.54544140625,7.71264453125,8.8638515625,4.0256796875,7.38887890625,5.7162265625,10.3311328125,7.999640625,8.0988828125,8.60237109375,8.04233984375,9.51176953125,13.5741640625,7.943890625,6.75165625,11.15130078125,6.33257421875,6.762265625,5.0978046875,11.83071484375,7.472359375
-11.5342109375,5.17625390625,-30.6861484375,11.64961328125,5.42783984375,10.232359375,10.15724609375,5.501984375,3.6986875,9.39444140625,8.12064453125,9.1298515625,2.8696796875,7.52787890625,6.0712265625,10.3491328125,7.763640625,7.1458828125,8.59237109375,8.53533984375,9.18976953125,13.8881640625,8.043890625,7.02965625,11.04630078125,7.25357421875,6.547265625,4.3768046875,11.49271484375,6.722359375
-10.1192109375,6.14825390625,-27.4251484375,11.69061328125,4.89583984375,9.865359375,10.15724609375,4.877984375,3.1836875,8.51244140625,7.94564453125,8.7968515625,2.1986796875,7.08987890625,5.9602265625,9.4771328125,7.001640625,5.3328828125,7.92137109375,8.47733984375,8.21176953125,13.7981640625,7.728890625,6.85065625,10.67630078125,8.38657421875,6.348265625,3.4518046875,10.82471484375,6.032359375
-9.4572109375,6.67325390625,-24.5671484375,11.41161328125,4.05083984375,9.165359375,10.28224609375,3.703984375,2.4786875,7.34644140625,7.43164453125,7.9918515625,2.2206796875,6.32687890625,5.5732265625,8.0581328125,5.914640625,3.1698828125,6.97237109375,8.08333984375,6.96476953125,13.4381640625,7.162890625,6.40765625,10.26630078125,9.37357421875,6.389265625,2.8318046875,10.21171484375,5.738359375
-9.9302109375,6.46925390625,-22.9021484375,10.98161328125,3.30283984375,8.414359375,10.65124609375,2.289984375,2.4756875,6.39044140625,6.90964453125,6.9098515625,2.9246796875,5.56687890625,5.1512265625,6.4901328125,4.914640625,1.3418828125,6.16237109375,7.60433984375,5.83676953125,12.9691640625,6.540890625,5.94565625,9.95630078125,9.87957421875,6.726265625,2.7738046875,9.89571484375,5.875359375
-11.3902109375,5.54525390625,-22.6281484375,10.51061328125,2.97283984375,7.845359375,11.35124609375,0.999984375,3.5286875,6.01844140625,6.65264453125,5.7548515625,4.0286796875,5.10287890625,4.8972265625,5.1111328125,4.372640625,0.4368828125,5.75737109375,7.21233984375,5.06176953125,12.5161640625,5.996890625,5.61765625,9.73430078125,9.70457421875,7.227265625,3.1708046875,9.83871484375,6.157359375
-13.2192109375,4.21325390625,-23.3631484375,9.97661328125,3.17883984375,7.575359375,12.32724609375,0.132984375000001,5.2136875,6.35244140625,6.79764453125,4.7478515625,5.1116796875,5.06287890625,4.9192265625,4.1681328125,4.390640625,0.6238828125,5.78537109375,6.96833984375,4.68676953125,12.1121640625,5.548890625,5.42465625,9.50130078125,8.88557421875,7.636265625,3.6338046875,9.75871484375,6.136359375
-14.6472109375,2.97225390625,-24.4481484375,9.26861328125,3.84983984375,7.604359375,13.30924609375,-0.167015624999999,6.6686875,7.25744140625,7.33264453125,4.1418515625,5.8426796875,5.36787890625,5.2342265625,3.8241328125,4.763640625,1.5448828125,6.09737109375,6.88033984375,4.63076953125,11.7331640625,5.150890625,5.28165625,9.19530078125,7.72957421875,7.699265625,3.7448046875,9.32671484375,5.480359375
-15.0612109375,2.33925390625,-25.2151484375,8.39561328125,4.83383984375,7.881359375,13.91224609375,0.145984375000001,7.2166875,8.44144140625,8.13664453125,4.1918515625,6.1396796875,5.83987890625,5.8012265625,4.1601328125,5.144640625,2.5608828125,6.51937109375,6.97533984375,4.78876953125,11.3681640625,4.792890625,5.15765625,8.88530078125,6.73657421875,7.339265625,3.3418046875,8.41071484375,4.198359375
-14.1282109375,2.70025390625,-25.0641484375,7.69761328125,5.98483984375,8.360359375,13.87324609375,1.131984375,6.7846875,9.60944140625,9.03264453125,5.0668515625,6.1986796875,6.33787890625,6.5612265625,5.1471328125,5.310640625,3.1758828125,6.98537109375,7.31633984375,5.08476953125,11.0711640625,4.591890625,5.15665625,8.74830078125,6.35757421875,6.777265625,2.6248046875,7.21571484375,2.667359375
-11.8532109375,4.17225390625,-23.5091484375,7.80561328125,7.15683984375,9.019359375,13.20224609375,2.846984375,5.8736875,10.55644140625,9.84564453125,6.7388515625,6.3946796875,6.82887890625,7.4432265625,6.6341328125,5.326640625,3.3178828125,7.55537109375,7.96833984375,5.51076953125,10.9371640625,4.756890625,5.47665625,8.96030078125,6.69357421875,6.451265625,1.9908046875,6.19071484375,1.446359375
-8.5992109375,6.49725390625,-20.3401484375,9.25361328125,8.14983984375,9.795359375,12.14824609375,5.160984375,5.1366875,11.17144140625,10.44464453125,8.9288515625,7.1066796875,7.32287890625,8.3292265625,8.3701328125,5.486640625,3.2918828125,8.31137109375,8.91033984375,6.09376953125,11.0071640625,5.445890625,6.25165625,9.56530078125,7.36157421875,6.739265625,1.7288046875,5.75871484375,0.966359375
-5.0092109375,9.06225390625,-15.8521484375,12.00861328125,8.70583984375,10.520359375,11.02924609375,7.616984375,4.8846875,11.37544140625,10.73664453125,11.1388515625,8.5306796875,7.75187890625,9.0242265625,10.0321328125,6.075640625,3.4518828125,9.20237109375,9.95933984375,6.82176953125,11.1811640625,6.585890625,7.39365625,10.39230078125,7.68557421875,7.681265625,1.7978046875,6.02071484375,1.289359375
-1.8142109375,11.08525390625,-10.9271484375,15.28561328125,8.62283984375,10.929359375,10.06624609375,9.533984375,4.8756875,11.08944140625,10.63764453125,12.7948515625,10.5386796875,7.94787890625,9.2752265625,11.2731328125,7.121640625,3.8998828125,9.98237109375,10.77933984375,7.56276953125,11.2181640625,7.809890625,8.56065625,11.08430078125,7.13457421875,8.927265625,1.8528046875,6.66771484375,2.063359375
0.3517890625,11.93825390625,-6.80514843749999,17.85661328125,7.91283984375,10.771359375,9.28824609375,10.296984375,4.5526875,10.29344140625,10.08164453125,13.4268515625,12.6546796875,7.74987890625,8.8922265625,11.7981328125,8.353640625,4.4478828125,10.32637109375,11.00733984375,8.09276953125,10.8511640625,8.615890625,9.32565625,11.26430078125,5.70257421875,9.945265625,1.5268046875,7.17471484375,2.736359375
1.1077890625,11.43325390625,-4.56414843749999,18.69561328125,6.86983984375,9.981359375,8.58024609375,9.672984375,3.5486875,9.11544140625,9.09864453125,12.8528515625,14.1946796875,7.16587890625,7.8952265625,11.4911328125,9.396640625,4.8458828125,10.03337109375,10.46333984375,8.25076953125,9.9691640625,8.661890625,9.43765625,10.74730078125,3.96057421875,10.316265625,0.719804687499998,7.15671484375,2.889359375
0.4857890625,9.95325390625,-4.5601484375,17.54861328125,5.93383984375,8.779359375,7.87024609375,7.985984375,2.0206875,7.86744140625,7.88364453125,11.3158515625,14.5036796875,6.40987890625,6.5782265625,10.5421328125,10.008640625,5.0438828125,9.17737109375,9.28933984375,8.10276953125,8.7241640625,7.968890625,8.98665625,9.67030078125,2.73257421875,9.929265625,-0.324195312499999,6.60371484375,2.467359375
-0.961210937500002,8.30425390625,-6.1701484375,15.09161328125,5.44183984375,7.609359375,7.32824609375,6.026984375,0.5416875,6.94144140625,6.78464453125,9.4768515625,13.1876796875,5.76487890625,5.4172265625,9.4631328125,10.162640625,5.2488828125,8.05937109375,7.91133984375,7.94276953125,7.4571640625,6.897890625,8.34565625,8.43530078125,2.63157421875,8.992265625,-1.2261953125,5.83571484375,1.759359375
-2.2972109375,7.34325390625,-8.0791484375,12.52461328125,5.42483984375,6.925359375,7.32724609375,4.695984375,-0.2983125,6.62344140625,6.16964453125,8.1748515625,10.2806796875,5.36887890625,4.8412265625,8.9081328125,9.966640625,5.6968828125,7.02137109375,6.83933984375,8.10476953125,6.4731640625,5.894890625,7.91865625,7.48830078125,3.73857421875,7.873265625,-1.7661953125,5.22171484375,1.165359375
-2.6502109375,7.53425390625,-8.9741484375,10.87861328125,5.62383984375,6.940359375,8.13024609375,4.529984375,-0.226312499999999,6.93044140625,6.23664453125,8.0088515625,6.3196796875,5.10287890625,5.0112265625,9.3501328125,9.549640625,6.3368828125,6.26037109375,6.41833984375,8.71876953125,5.8551640625,5.224890625,7.89665625,7.08330078125,5.62057421875,6.874265625,-2.0191953125,4.92171484375,0.932359375000001
-1.6782109375,8.73625390625,-8.1791484375,10.48561328125,5.70583984375,7.515359375,9.59024609375,5.463984375,0.6866875,7.60844140625,6.90064453125,8.9958515625,2.2676796875,4.68487890625,5.7352265625,10.8161328125,9.035640625,6.7198828125,5.76137109375,6.69433984375,9.61776953125,5.4701640625,4.869890625,8.17465625,7.18530078125,7.60257421875,6.105265625,-2.2511953125,4.82071484375,1.066359375
0.333789062499999,10.35625390625,-5.86314843749999,10.94661328125,5.51683984375,8.257359375,11.15524609375,7.004984375,2.1706875,8.27844140625,7.81164453125,10.5588515625,-0.773320312500001,3.90187890625,6.5952265625,12.8381328125,8.554640625,6.2758828125,5.39137109375,7.42233984375,10.43276953125,5.1581640625,4.632890625,8.46665625,7.54830078125,9.11057421875,5.537265625,-2.6811953125,4.68271484375,1.405359375
2.7517890625,11.74025390625,-2.79314843749999,11.54361328125,5.16983984375,8.762359375,12.16924609375,8.644984375,3.8586875,8.62744140625,8.51364453125,11.8598515625,-1.9943203125,2.81087890625,7.1692265625,14.6481328125,8.221640625,4.7808828125,5.03437109375,8.20133984375,10.79276953125,4.9231640625,4.336890625,8.48865625,7.86730078125,9.86657421875,5.121265625,-3.3161953125,4.36071484375,1.765359375
4.96678906249999,12.51325390625,0.0968515625000066,11.74161328125,4.89983984375,8.797359375,12.20524609375,10.115984375,5.3136875,8.51744140625,8.63564453125,12.2588515625,-1.2153203125,1.72987890625,7.2242265625,15.5051328125,8.059640625,2.6218828125,4.67337109375,8.65133984375,10.47676953125,4.9611640625,3.938890625,8.09965625,7.92330078125,9.86557421875,4.812265625,-3.9321953125,3.90271484375,2.019359375
6.6017890625,12.64825390625,2.0748515625,11.44761328125,4.83883984375,8.353359375,11.21524609375,11.326984375,6.0986875,7.95844140625,8.03464453125,11.6028515625,1.0866796875,1.00187890625,6.7572265625,15.0031328125,7.944640625,0.618882812500001,4.35937109375,8.54333984375,9.47876953125,5.4981640625,3.516890625,7.32065625,7.63430078125,9.18757421875,4.504265625,-4.2101953125,3.48171484375,2.091359375
7.5667890625,12.32725390625,2.8518515625,10.94161328125,4.88983984375,7.570359375,9.49524609375,12.183984375,5.9146875,7.04544140625,6.81864453125,10.1948515625,4.0556796875,0.745878906250001,5.9342265625,13.2321328125,7.631640625,-0.4691171875,4.12737109375,7.85533984375,7.98576953125,6.5961640625,3.154890625,6.27265625,7.05030078125,7.84157421875,4.009265625,-3.9351953125,3.26071484375,1.925359375
8.0387890625,11.78425390625,2.67985156250001,10.58461328125,4.84483984375,6.657359375,7.54524609375,12.506984375,4.7106875,5.94044140625,5.28664453125,8.5448515625,6.8036796875,0.82687890625,5.0052265625,10.7321328125,6.877640625,-0.333117187499999,3.96137109375,6.76133984375,6.30076953125,8.0761640625,2.900890625,5.11465625,6.31330078125,5.77457421875,3.179265625,-3.1261953125,3.28371484375,1.486359375
8.4387890625,11.27425390625,2.2588515625,10.52261328125,4.60783984375,5.845359375,5.86124609375,12.099984375,2.7196875,4.88444140625,3.82664453125,7.0988515625,8.6606796875,1.03687890625,4.2322265625,8.2691328125,5.591640625,0.842882812500001,3.84537109375,5.56833984375,4.74776953125,9.5921640625,2.802890625,4.03265625,5.61430078125,3.05557421875,2.049265625,-2.0411953125,3.47371484375,0.812359375
9.3167890625,11.08925390625,2.4228515625,10.59461328125,4.27783984375,5.332359375,4.73524609375,10.880984375,0.4266875,4.13644140625,2.77564453125,6.1008515625,9.2806796875,1.28087890625,3.8202265625,6.5211328125,3.903640625,2.5958828125,3.81137109375,4.60033984375,3.55176953125,10.7691640625,2.930890625,3.21665625,5.11530078125,0.043574218749999,0.848265624999999,-1.0351953125,3.69071484375,0.0403593749999978
11.1107890625,11.45825390625,3.7028515625,10.50061328125,4.01483984375,5.192359375,4.16824609375,8.985984375,-1.5453125,3.82044140625,2.28564453125,5.5778515625,8.6546796875,1.56887890625,3.8242265625,5.8181328125,2.107640625,4.3918828125,3.88837109375,4.05033984375,2.73876953125,11.3111640625,3.315890625,2.77765625,4.85230078125,-2.63742578125,-0.142734375000001,-0.3991953125,3.79171484375,-0.627640625000002
13.8277890625,12.34225390625,5.9828515625,10.04761328125,3.85883984375,5.315359375,3.93924609375,6.774984375,-2.6203125,3.82544140625,2.24664453125,5.3898515625,7.0786796875,1.90087890625,4.1152265625,6.0591328125,0.515640625,5.7548828125,4.02637109375,3.87733984375,2.13476953125,11.0641640625,3.843890625,2.65965625,4.68530078125,-4.36042578125,-0.740734375000001,-0.262195312500001,3.66271484375,-1.039640625
16.8307890625,13.31425390625,8.4758515625,9.26561328125,3.71783984375,5.463359375,3.77524609375,4.704984375,-2.4973125,3.88444140625,2.37064453125,5.2998515625,5.0366796875,2.23587890625,4.4422265625,6.8501328125,-0.659359374999999,6.3568828125,4.09237109375,3.84633984375,1.48676953125,10.0561640625,4.254890625,2.64965625,4.37430078125,-4.84442578125,-0.953734375000001,-0.6031953125,3.23171484375,-1.191640625
18.9667890625,13.70225390625,10.0718515625,8.32061328125,3.50183984375,5.410359375,3.48024609375,3.109984375,-1.3193125,3.77744140625,2.38564453125,5.0738515625,3.0516796875,2.54587890625,4.5852265625,7.7511328125,-1.324359375,6.1208828125,3.96737109375,3.69133984375,0.653769531250001,8.5031640625,4.281890625,2.51065625,3.73130078125,-4.34642578125,-0.974734375000001,-1.3261953125,2.47171484375,-1.247640625
19.0517890625,12.91225390625,9.8548515625,7.38161328125,3.23483984375,5.060359375,2.99924609375,2.048984375,0.3486875,3.47144140625,2.18764453125,4.5778515625,1.5456796875,2.84187890625,4.4552265625,8.4761328125,-1.466359375,5.2398828125,3.64437109375,3.27333984375,-0.285230468749999,6.7431640625,3.804890625,2.13065625,2.75130078125,-3.54742578125,-1.080734375,-2.3181953125,1.41771484375,-1.452640625
16.4677890625,10.71525390625,7.4888515625,6.55961328125,3.01983984375,4.452359375,2.39324609375,1.345984375,1.7896875,3.08544140625,1.83364453125,3.7978515625,0.784679687499999,3.07987890625,4.0952265625,8.9291328125,-1.125359375,4.0208828125,3.20937109375,2.62033984375,-1.11723046875,5.0931640625,2.878890625,1.55765625,1.59630078125,-3.18442578125,-1.472734375,-3.4631953125,0.169714843749999,-1.976640625
11.4857890625,7.31425390625,3.2898515625,5.95661328125,2.87783984375,3.670359375,1.74424609375,0.738984375000001,2.4956875,2.73044140625,1.41864453125,2.8078515625,0.8916796875,3.06687890625,3.5832265625,9.1061328125,-0.412359374999999,2.6738828125,2.73637109375,1.84833984375,-1.67723046875,3.7191640625,1.662890625,0.906656249999999,0.488300781249999,-3.66242578125,-2.162734375,-4.6311953125,-1.11928515625,-2.815640625
5.1627890625,3.21025390625,-1.9691484375,5.66661328125,2.66283984375,2.777359375,1.04824609375,-0.00101562499999908,2.3636875,2.39244140625,0.97864453125,1.7118515625,1.8246796875,2.51687890625,2.9582265625,8.9951328125,0.451640625,1.2288828125,2.21137109375,1.06133984375,-1.98323046875,2.6141640625,0.317890624999999,0.244656249999998,-0.421699218750001,-4.86542578125,-2.995734375,-5.6801953125,-2.28528515625,-3.799640625
-1.0962109375,-1.00074609375,-7.3291484375,5.69561328125,2.14683984375,1.817359375,0.22124609375,-1.005015625,1.6356875,1.96044140625,0.492644531249999,0.6058515625,3.2806796875,1.27587890625,2.2122265625,8.5611328125,1.157640625,-0.3191171875,1.55737109375,0.298339843749998,-2.22023046875,1.6971640625,-1.025109375,-0.444343750000002,-1.10869921875,-6.26542578125,-3.775734375,-6.4791953125,-3.20928515625,-4.706640625
-6.0472109375,-4.78274609375,-11.8681484375,5.87661328125,1.20483984375,0.857359375000001,-0.782753906249999,-2.258015625,0.6726875,1.34344140625,-0.0593554687500006,-0.438148437499999,4.5906796875,-0.49012109375,1.3492265625,7.7961328125,1.369640625,-1.8041171875,0.713371093750002,-0.454660156250002,-2.60923046875,0.906164062499997,-2.266109375,-1.21634375,-1.66769921875,-7.22342578125,-4.369734375,-6.9341953125,-3.85428515625,-5.375640625
-9.0002109375,-7.72174609375,-14.8561484375,5.89861328125,-0.0831601562500026,-0.0186406249999962,-1.88275390625,-3.577015625,-0.254312499999999,0.549441406249997,-0.664355468750001,-1.4011484375,4.8416796875,-2.33712109375,0.412226562499999,6.7781328125,0.818640625,-2.8781171875,-0.319628906249998,-1.23866015625,-3.26823046875,0.208164062499996,-3.336109375,-2.09434375,-2.23669921875,-7.32742578125,-4.728734375,-6.9921953125,-4.25628515625,-5.761640625
-9.9842109375,-9.55974609375,-15.8961484375,5.45261328125,-1.50616015625,-0.774640624999998,-2.93275390625,-4.687015625,-1.0553125,-0.34955859375,-1.29935546875,-2.3301484375,3.3046796875,-3.82312109375,-0.552773437500001,5.6481328125,-0.583359375,-3.2661171875,-1.49362890625,-2.08866015625,-4.15223046875,-0.4548359375,-4.216109375,-3.04934375,-2.90969921875,-6.59942578125,-4.885734375,-6.6341953125,-4.48828515625,-5.908640625
-9.6312109375,-10.24774609375,-15.0741484375,4.38761328125,-2.85216015625,-1.466640625,-3.84175390625,-5.372015625,-1.7523125,-1.29355859375,-1.96635546875,-3.3101484375,-0.0243203125000004,-4.76112109375,-1.5337734375,4.5651328125,-2.620359375,-3.0411171875,-2.73662890625,-2.99066015625,-5.07123046875,-1.1588359375,-4.929109375,-3.99334375,-3.66569921875,-5.48542578125,-4.951734375,-5.8981953125,-4.60728515625,-5.889640625
-8.8142109375,-9.99274609375,-12.9941484375,2.79361328125,-3.94716015625,-2.180640625,-4.55775390625,-5.555015625,-2.3113125,-2.22555859375,-2.66035546875,-4.3631484375,-4.1983203125,-5.24312109375,-2.5087734375,3.6681328125,-4.721359375,-2.6241171875,-3.93262890625,-3.85166015625,-5.75923046875,-1.9078359375,-5.476109375,-4.78334375,-4.34069921875,-4.59742578125,-5.048734375,-4.9141953125,-4.61928515625,-5.752640625
-8.2172109375,-9.20474609375,-10.6161484375,0.97361328125,-4.57616015625,-2.881640625,-4.90475390625,-5.270015625,-2.5143125,-3.00555859375,-3.28435546875,-5.3311484375,-7.6583203125,-5.40012109375,-3.3417734375,3.0971328125,-6.116359375,-2.4561171875,-4.86962890625,-4.48466015625,-5.94523046875,-2.5318359375,-5.758109375,-5.22034375,-4.66469921875,-4.34342578125,-5.203734375,-3.8831953125,-4.46428515625,-5.487640625
-8.1182109375,-8.34174609375,-8.8891484375,-0.682386718750001,-4.42516015625,-3.310640625,-4.50475390625,-4.603015625,-2.0463125,-3.35155859375,-3.57635546875,-5.8471484375,-8.9813203125,-5.16012109375,-3.7227734375,3.0361328125,-6.175359375,-2.6211171875,-5.21962890625,-4.62866015625,-5.42323046875,-2.7068359375,-5.556109375,-5.06434375,-4.34369921875,-4.64242578125,-5.289734375,-3.0001953125,-4.04028515625,-5.035640625
-8.4272109375,-7.72474609375,-8.3331484375,-1.82338671875,-3.18716015625,-3.072640625,-2.95675390625,-3.661015625,-0.741312499999999,-2.93055859375,-3.17635546875,-5.4671484375,-7.5843203125,-4.25212109375,-3.2727734375,3.6771328125,-4.763359375,-2.7781171875,-4.65162890625,-4.03166015625,-4.13123046875,-2.1278359375,-4.628109375,-4.12634375,-3.18969921875,-4.93142578125,-5.104734375,-2.3461953125,-3.27628515625,-4.337640625
-8.8192109375,-7.40774609375,-8.7571484375,-2.20738671875,-0.777160156250002,-1.870640625,-0.16975390625,-2.545015625,1.2316875,-1.56655859375,-1.83135546875,-3.9231484375,-3.9983203125,-2.45612109375,-1.7787734375,5.1011328125,-2.347359375,-2.4251171875,-3.02662890625,-2.59466015625,-2.22523046875,-0.720835937500002,-2.900109375,-2.40334375,-1.26169921875,-4.49442578125,-4.533734375,-1.8671953125,-2.22228515625,-3.401640625
-8.8332109375,-7.16974609375,-9.2631484375,-1.69438671875,2.49683984375,0.252359375000001,3.43324609375,-1.272015625,3.4556875,0.59844140625,0.386644531250001,-1.3031484375,0.421679687499999,0.13087890625,0.608226562500001,7.1511328125,0.240640625000001,-1.2731171875,-0.553628906249997,-0.482660156250001,-0.0902304687499988,1.2561640625,-0.604109375,-0.160343750000001,1.08330078125,-2.92142578125,-3.633734375,-1.4371953125,-1.08428515625,-2.337640625
-7.9992109375,-6.62774609375,-8.6371484375,-0.25438671875,5.96383984375,2.873359375,6.98524609375,0.245984375000001,5.5436875,3.13144140625,3.04364453125,1.9308515625,4.1196796875,3.05587890625,3.3912265625,9.4171328125,2.228640625,0.599882812500001,2.23937109375,1.90333984375,1.79376953125,3.3051640625,1.761890625,2.12565625,3.28630078125,-0.425425781250002,-2.616734375,-0.951195312499999,-0.153285156250002,-1.332640625
-6.0902109375,-5.45674609375,-6.0231484375,1.95661328125,8.79983984375,5.357359375,9.49824609375,2.072984375,7.3586875,5.48344140625,5.51064453125,5.0868515625,5.9766796875,5.69987890625,5.9372265625,11.3681328125,3.267640625,2.8288828125,4.71537109375,4.06233984375,3.07076953125,4.8931640625,3.643890625,3.95065625,4.82130078125,2.18757421875,-1.772734375,-0.4121953125,0.313714843749999,-0.584640625000002
-3.3862109375,-3.64374609375,-1.5511484375,4.53161328125,10.31383984375,7.125359375,10.28724609375,4.079984375,8.9716875,7.19144140625,7.21464453125,7.4118515625,5.6606796875,7.53787890625,7.7312265625,12.5311328125,3.517640625,4.9788828125,6.36537109375,5.57633984375,3.66076953125,5.6511640625,4.661890625,4.95865625,5.39830078125,3.90757421875,-1.386734375,0.0418046875000009,0.206714843749998,-0.216640625
-0.672210937500001,-1.59074609375,3.53785156250001,6.88061328125,10.20283984375,7.861359375,9.28024609375,5.905984375,10.4146875,8.00044140625,7.83064453125,8.2828515625,3.5936796875,8.31187890625,8.5372265625,12.6441328125,3.449640625,6.7208828125,6.96237109375,6.21333984375,3.72176953125,5.4951640625,4.748890625,5.03465625,5.03430078125,4.07657421875,-1.613734375,0.198804687500001,-0.376285156250001,-0.201640625
1.1147890625,0.0512539062500021,7.4348515625,8.42261328125,8.65183984375,7.579359375,7.02924609375,7.109984375,11.4796875,7.87544140625,7.34164453125,7.4158515625,0.6636796875,8.05287890625,8.3982265625,11.7181328125,3.545640625,7.8788828125,6.56837109375,5.96033984375,3.47876953125,4.6381640625,4.124890625,4.30065625,3.98030078125,2.77257421875,-2.389734375,-0.0741953124999988,-1.16428515625,-0.350640625
1.3867890625,0.756253906250002,8.7138515625,8.80461328125,6.18683984375,6.522359375,4.39424609375,7.387984375,11.7746875,6.92044140625,5.98364453125,5.0388515625,-2.1143203125,6.97387890625,7.5152265625,10.0071328125,4.053640625,8.3568828125,5.42837109375,4.98233984375,3.08376953125,3.4751640625,3.152890625,3.04365625,2.59930078125,0.77657421875,-3.440734375,-0.6901953125,-1.81528515625,-0.382640625000001
0.232789062499997,0.454253906250003,7.1228515625,8.03661328125,3.37383984375,5.001359375,2.13424609375,6.715984375,11.0196875,5.27744140625,4.13264453125,1.9308515625,-3.8983203125,5.29687890625,6.1202265625,7.9351328125,4.885640625,8.0348828125,3.83437109375,3.56333984375,2.59776953125,2.3781640625,2.145890625,1.61065625,1.25130078125,-0.853425781250001,-4.416734375,-1.3031953125,-2.06728515625,-0.056640625
-1.6142109375,-0.425746093749998,3.7328515625,6.46761328125,0.626839843749998,3.300359375,0.675246093750001,5.389984375,9.3136875,3.13544140625,2.21764453125,-0.7911484375,-4.2433203125,3.20287890625,4.4482265625,6.0101328125,5.682640625,6.8098828125,2.05337109375,2.04333984375,2.09576953125,1.5281640625,1.259890625,0.320656249999999,0.238300781249999,-1.31442578125,-5.003734375,-1.4211953125,-1.82728515625,0.744359374999998
-3.1542109375,-1.19974609375,0.395851562499999,4.61761328125,-1.71916015625,1.710359375,0.12924609375,3.933984375,7.1666875,0.84844140625,0.672644531249999,-2.0871484375,-3.2253203125,0.94887890625,2.8062265625,4.7371328125,5.997640625,4.7758828125,0.369371093750001,0.78633984375,1.76576953125,0.916164062499998,0.563890624999999,-0.550343750000001,-0.19669921875,-0.355425781250002,-4.934734375,-0.6011953125,-1.11228515625,2.048359375
-3.6112109375,-1.29474609375,-1.13814843749999,2.94961328125,-3.22816015625,0.584359375000002,0.41824609375,2.893984375,5.2826875,-1.00555859375,-0.10835546875,-1.4521484375,-1.3983203125,-1.00612109375,1.6162265625,4.4981328125,5.555640625,2.4148828125,-0.844628906249998,0.153339843749999,1.89076953125,0.490164062499996,0.194890624999999,-0.749343750000001,0.141300781249999,1.75157421875,-3.986734375,1.3918046875,0.0757148437499993,3.886359375
-2.7472109375,-0.502746093749998,0.0798515624999965,1.72961328125,-3.36416015625,0.268359375000003,1.34424609375,2.594984375,4.2846875,-1.79955859375,0.108644531249999,0.8198515625,0.463679687499999,-2.09312109375,1.2932265625,5.3951328125,4.450640625,0.525882812500001,-1.19362890625,0.410339843749998,2.68276953125,0.313164062499997,0.412890624999999,-0.0853437500000016,1.34130078125,4.44857421875,-2.047734375,4.5068046875,1.82771484375,6.301359375
-0.832210937500001,0.97825390625,3.9518515625,1.04561328125,-1.79416015625,0.888359375000004,2.61124609375,3.001984375,4.5106875,-1.21955859375,1.21864453125,3.7438515625,1.7536796875,-1.97112109375,1.9982265625,7.1391328125,3.158640625,-0.153117187499999,-0.482628906249998,1.56433984375,4.08676953125,0.579164062499999,1.448890625,1.44465625,3.29030078125,7.12257421875,0.757265625,8.4078046875,4.23171484375,9.248359375
1.6067890625,2.68225390625,9.53485156250001,0.906613281249999,1.24883984375,2.182359375,3.86124609375,3.767984375,5.9366875,0.44744140625,2.72164453125,6.1118515625,2.3296796875,-0.84012109375,3.4632265625,9.0921328125,2.296640625,0.5618828125,1.07837109375,3.27233984375,5.71876953125,1.4651640625,3.248890625,3.54565625,5.61830078125,9.24657421875,4.012265625,12.5268046875,7.18171484375,12.451359375
4.0197890625,4.08325390625,15.4788515625,1.28261328125,4.90183984375,3.563359375,4.74124609375,4.407984375,8.1846875,2.39944140625,3.91364453125,7.0708515625,2.5116796875,0.616878906249999,5.0692265625,10.5121328125,2.280640625,2.1498828125,2.89137109375,4.93833984375,7.04076953125,2.9431640625,5.381890625,5.68565625,7.80330078125,10.46657421875,7.084265625,16.1758046875,10.25971484375,15.387359375
5.9567890625,4.83025390625,20.5158515625,2.06161328125,8.01083984375,4.428359375,4.99724609375,4.508984375,10.5926875,3.74944140625,4.25764453125,6.4948515625,2.7726796875,1.65687890625,6.1692265625,10.9021328125,3.091640625,3.7348828125,4.27237109375,5.99933984375,7.64776953125,4.7051640625,7.216890625,7.31965625,9.37330078125,10.66357421875,9.301265625,18.7248046875,12.81371484375,17.444359375
7.1757890625,4.90325390625,23.8168515625,2.99961328125,9.66983984375,4.490359375,4.56924609375,3.916984375,12.3726875,4.00044140625,3.67464453125,4.9208515625,3.4026796875,1.93387890625,6.4332265625,10.2271328125,4.311640625,4.6748828125,4.79537109375,6.19233984375,7.47676953125,6.2831640625,8.249890625,8.13765625,10.07130078125,9.95157421875,10.172265625,19.7818046875,14.20271484375,18.170359375
7.7307890625,4.62125390625,25.1438515625,3.75861328125,9.61483984375,3.892359375,3.62324609375,2.825984375,12.8646875,3.25444140625,2.54064453125,3.1498515625,4.3756796875,1.62987890625,5.9702265625,8.8921328125,5.369640625,4.9188828125,4.46337109375,5.63433984375,6.78976953125,7.2731640625,8.330890625,8.17365625,9.88430078125,8.58557421875,9.573265625,19.3078046875,14.08671484375,17.471359375
7.95178906249999,4.47725390625,24.7738515625,4.00861328125,8.27083984375,3.061359375,2.47724609375,1.664984375,11.8666875,2.06544140625,1.43664453125,1.7828515625,5.4636796875,1.23287890625,5.2112265625,7.4921328125,5.848640625,4.8968828125,3.63637109375,4.70833984375,5.98176953125,7.5201640625,7.691890625,7.73665625,8.97230078125,6.81957421875,7.801265625,17.6178046875,12.59971484375,15.649359375
8.2637890625,4.90025390625,23.3168515625,3.53561328125,6.50283984375,2.446359375,1.43724609375,0.835984375000001,9.8206875,1.10444140625,0.846644531249998,0.9938515625,6.4416796875,1.20587890625,4.6462265625,6.5201328125,5.659640625,5.1398828125,2.82137109375,3.86833984375,5.36876953125,7.1601640625,6.797890625,7.22965625,7.60130078125,4.83357421875,5.448265625,15.2778046875,10.30471484375,13.273359375
9.02178906249999,6.08625390625,21.5288515625,2.33561328125,5.18483984375,2.316359375,0.675246093750001,0.479984375000001,7.6716875,0.832441406249998,0.965644531249998,0.5918515625,7.1746796875,1.75987890625,4.5902265625,6.1961328125,5.003640625,5.9288828125,2.44037109375,3.46233984375,5.06576953125,6.4891640625,6.103890625,6.96265625,6.09930078125,2.76457421875,3.152265625,12.9358046875,7.93671484375,10.949359375
10.4707890625,7.98025390625,20.2048515625,0.67461328125,4.80483984375,2.689359375,0.22824609375,0.489984375000001,6.4046875,1.33844140625,1.67364453125,0.276851562500001,7.5726796875,2.81187890625,5.0742265625,6.4531328125,4.176640625,7.1738828125,2.66237109375,3.62533984375,4.98176953125,5.7451640625,5.848890625,7.00965625,4.78330078125,0.790574218749999,1.376265625,11.1338046875,6.07071484375,9.104359375
12.7907890625,10.36825390625,20.0568515625,-0.920386718750001,5.31383984375,3.402359375,0.0752460937499997,0.701984375,6.5196875,2.38044140625,2.65064453125,-0.0901484374999999,7.4956796875,4.09387890625,5.8882265625,7.0611328125,3.353640625,8.5328828125,3.37937109375,4.27133984375,4.89876953125,4.9661640625,5.977890625,7.20465625,3.88130078125,-0.803425781250001,0.309265624999999,10.1528046875,4.91371484375,7.896359375
16.0457890625,12.95625390625,21.4958515625,-1.83138671875,6.29583984375,4.238359375,0.20924609375,1.047984375,7.7836875,3.58444140625,3.58564453125,-0.3681484375,6.7556796875,5.33287890625,6.7512265625,7.7841328125,2.505640625,9.6368828125,4.32837109375,5.17233984375,4.59876953125,4.0141640625,6.254890625,7.28065625,3.47630078125,-1.67742578125,-0.120734375000001,9.9418046875,4.31171484375,7.260359375
20.0267890625,15.37025390625,24.3568515625,-1.65238671875,7.29183984375,5.023359375,0.650246093750001,1.556984375,9.4336875,4.64444140625,4.32764453125,-0.255148437499999,5.2726796875,6.36787890625,7.4552265625,8.4741328125,1.487640625,10.2458828125,5.26037109375,6.07933984375,3.97776953125,2.7531640625,6.451890625,7.06665625,3.51730078125,-1.58042578125,-0.142734375000001,10.1628046875,3.94471484375,7.036359375
24.0967890625,17.10825390625,27.7778515625,-0.435386718750001,8.03583984375,5.628359375,1.41624609375,2.232984375,10.6846875,5.38744140625,4.88664453125,0.436851562500001,3.2606796875,7.10687890625,7.9072265625,9.0491328125,0.219640625,10.2378828125,6.00637109375,6.78933984375,3.08376953125,1.2231640625,6.460890625,6.57665625,3.84730078125,-0.519425781250002,-0.0157343750000001,10.3358046875,3.54171484375,7.063359375
27.2057890625,17.58225390625,30.4848515625,1.29561328125,8.46983984375,5.906359375,2.46924609375,2.967984375,11.1606875,5.70844140625,5.31264453125,1.5588515625,1.2676796875,7.41487890625,8.0682265625,9.4161328125,-1.181359375,9.5198828125,6.45337109375,7.14633984375,2.06176953125,-0.323835937500004,6.283890625,5.95465625,4.23530078125,1.17657421875,0.0752656249999992,10.0318046875,2.99971484375,7.213359375
28.1847890625,16.35525390625,31.4248515625,2.80261328125,8.61983984375,5.691359375,3.62124609375,3.554984375,10.9596875,5.49944140625,5.59164453125,2.6598515625,-0.0223203124999998,7.10287890625,7.8952265625,9.4511328125,-2.411359375,8.0598828125,6.50637109375,7.04333984375,1.07476953125,-1.5648359375,5.963890625,5.35365625,4.44730078125,2.94257421875,0.0522656249999995,9.0518046875,2.37971484375,7.377359375
26.3347890625,13.49125390625,30.3948515625,3.49861328125,8.48783984375,4.881359375,4.51824609375,3.811984375,10.3666875,4.68444140625,5.63164453125,3.2258515625,-0.120320312500001,6.06187890625,7.3412265625,9.0401328125,-3.157359375,6.0668828125,6.12737109375,6.45533984375,0.255769531250001,-2.2668359375,5.560890625,4.85765625,4.32630078125,4.18657421875,-0.0997343750000006,7.5158046875,1.83971484375,7.452359375
22.0417890625,9.75425390625,28.2088515625,3.20861328125,8.02583984375,3.553359375,4.75424609375,3.708984375,9.5346875,3.30644140625,5.30864453125,2.8988515625,1.0136796875,4.42387890625,6.4072265625,8.1311328125,-3.312359375,4.0598828125,5.37137109375,5.44933984375,-0.311230468749999,-2.3718359375,5.137890625,4.46665625,3.85530078125,4.52357421875,-0.364734375,5.8308046875,1.55571484375,7.354359375
16.9237890625,6.42425390625,26.2768515625,2.18561328125,7.18983984375,1.983359375,4.07124609375,3.387984375,8.4096875,1.58444140625,4.51064453125,1.5758515625,2.9596796875,2.56987890625,5.1762265625,6.7571328125,-3.093359375,2.6778828125,4.38137109375,4.15933984375,-0.619230468749999,-1.9688359375,4.742890625,4.12065625,3.13230078125,3.92457421875,-0.691734375,4.5298046875,1.63871484375,7.020359375
13.1847890625,4.72325390625,25.8328515625,0.91561328125,6.01083984375,0.546359375000002,2.49024609375,3.016984375,6.9406875,-0.130558593750003,3.20464453125,-0.5701484375,5.0696796875,0.96887890625,3.7982265625,5.0221328125,-2.946359375,2.3118828125,3.33437109375,2.73433984375,-0.750230468749999,-1.2358359375,4.372890625,3.74165625,2.28630078125,2.72557421875,-1.009734375,4.0398046875,2.09171484375,6.424359375
12.4517890625,5.16725390625,27.2728515625,-0.156386718749999,4.61883984375,-0.440640624999997,0.294246093750001,2.600984375,5.3406875,-1.47855859375,1.51064453125,-3.0891484375,6.7676796875,-0.0521210937499994,2.4602265625,3.1181328125,-3.274359375,2.8858828125,2.38937109375,1.32533984375,-0.846230468749999,-0.3908359375,3.978890625,3.28365625,1.41030078125,1.45457421875,-1.279734375,4.4708046875,2.80571484375,5.593359375
14.8557890625,7.22025390625,29.9288515625,-0.79038671875,3.24183984375,-0.839640624999998,-2.07175390625,1.961984375,4.1646875,-2.20755859375,-0.27835546875,-5.3351484375,7.7126796875,-0.40912109375,1.3552265625,1.3331328125,-4.155359375,3.9228828125,1.66537109375,0.0963398437499983,-1.02123046875,0.332164062499999,3.500890625,2.77565625,0.545300781249999,0.561574218749998,-1.532734375,5.5418046875,3.60171484375,4.630359375
19.0247890625,9.55425390625,32.4168515625,-0.97238671875,2.20083984375,-0.708640624999997,-4.11275390625,0.915984375000001,4.0786875,-2.23155859375,-1.76135546875,-6.6931484375,7.7976796875,-0.194121093750001,0.6512265625,0.0241328125000013,-5.262359375,4.8538828125,1.23337109375,-0.767660156250001,-1.26423046875,0.724164062499998,2.917890625,2.33065625,-0.290699218750001,0.177574218749999,-1.811734375,6.6988046875,4.30171484375,3.712359375
23.0087890625,10.82125390625,33.4348515625,-0.820386718750001,1.84083984375,-0.233640624999998,-5.41975390625,-0.507015624999999,5.4686875,-1.61055859375,-2.56835546875,-6.8601484375,7.0646796875,0.485878906250001,0.456226562499999,-0.479867187499998,-6.051359375,5.3438828125,1.12237109375,-1.08966015625,-1.42323046875,0.692164062499998,2.283890625,2.12165625,-1.03769921875,0.0515742187499981,-2.091734375,7.3778046875,4.79571484375,3.021359375
25.4817890625,10.47325390625,32.5738515625,-0.47838671875,2.38583984375,0.364359375000003,-5.81475390625,-2.018015625,8.1566875,-0.543558593750003,-2.51935546875,-6.0071484375,5.6716796875,1.57087890625,0.7732265625,-0.0228671874999993,-6.106359375,5.4338828125,1.31337109375,-0.770660156250001,-1.28723046875,0.347164062499999,1.734890625,2.30265625,-1.58269921875,-0.275425781250002,-2.277734375,7.2738046875,5.06171484375,2.635359375
26.3727890625,9.06225390625,30.6338515625,-0.0443867187500011,3.71283984375,0.875359375000002,-5.44175390625,-3.246015625,11.4406875,0.616441406249997,-1.74135546875,-4.7341484375,3.9036796875,2.93787890625,1.4262265625,1.2431328125,-5.406359375,5.3948828125,1.68937109375,0.101339843749999,-0.77723046875,-0.028835937500002,1.402890625,2.89165625,-1.82669921875,-1.15342578125,-2.320734375,6.4518046875,5.12571484375,2.460359375
26.5617890625,7.79225390625,29.1668515625,0.42561328125,5.25183984375,1.078359375,-4.70675390625,-3.975015625,14.3576875,1.37244140625,-0.70835546875,-3.8351484375,2.1306796875,4.22187890625,2.0222265625,2.8201328125,-4.378359375,5.4018828125,1.98537109375,1.17033984375,-0.100230468749999,-0.170835937500001,1.275890625,3.64665625,-1.82569921875,-2.56642578125,-2.330734375,5.2698046875,4.98871484375,2.238359375
26.9437890625,7.67125390625,29.4898515625,0.849613281249999,6.15683984375,0.752359375000001,-4.10175390625,-4.301015625,15.9956875,1.20044140625,-0.120355468750001,-3.9751484375,0.688679687499999,4.81887890625,2.0502265625,3.9821328125,-3.700359375,5.2888828125,1.81437109375,1.85933984375,0.271769531250001,-0.0528359375000029,1.132890625,4.09765625,-1.84769921875,-4.12142578125,-2.566734375,4.1758046875,4.60471484375,1.678359375
27.6527890625,8.89025390625,31.8418515625,1.09261328125,5.76683984375,-0.240640624999997,-4.01675390625,-4.591015625,15.7506875,-0.17455859375,-0.594355468750001,-5.3691484375,-0.2433203125,4.20787890625,1.1202265625,4.0631328125,-3.971359375,4.6228828125,0.879371093750002,1.62433984375,-0.161230468749999,0.0721640624999971,0.671890625,3.77565625,-2.24869921875,-5.28042578125,-3.292734375,3.5168046875,3.93671484375,0.622359374999998
28.0067890625,10.79825390625,35.2398515625,1.03261328125,4.07483984375,-1.787640625,-4.58775390625,-5.267015625,13.5476875,-2.51355859375,-2.31135546875,-7.6151484375,-0.6733203125,2.40387890625,-0.751773437499999,2.7731328125,-5.405359375,3.0888828125,-0.759628906249999,0.272339843749998,-1.60423046875,-0.119835937500003,-0.223109375000002,2.54865625,-3.23069921875,-5.68142578125,-4.570734375,3.4628046875,3.06271484375,-0.817640624999999
27.1327890625,12.38925390625,38.1138515625,0.68461328125,1.81983984375,-3.476640625,-5.64475390625,-6.522015625,9.9456875,-5.04455859375,-4.85535546875,-9.8321484375,-0.700320312500001,0.139878906250001,-3.0527734375,0.3401328125,-7.719359375,0.8608828125,-2.58662890625,-1.87466015625,-3.79723046875,-0.734835937500002,-1.314109375,0.788656249999999,-4.66569921875,-5.33142578125,-6.133734375,4.0268046875,2.21371484375,-2.255640625
24.6867890625,12.88725390625,39.2148515625,0.25861328125,0.083839843749999,-4.745640625,-6.79575390625,-8.193015625,6.0016875,-6.79755859375,-7.39035546875,-11.1051484375,-0.3833203125,-1.46912109375,-4.9847734375,-2.6278671875,-10.279359375,-1.3741171875,-3.84462890625,-4.12766015625,-6.14123046875,-1.5508359375,-2.095109375,-0.785343750000001,-6.15869921875,-4.57642578125,-7.434734375,5.0968046875,1.67771484375,-3.184640625
21.0917890625,12.05925390625,38.2108515625,0.0266132812500004,-0.341160156250002,-5.163640625,-7.62175390625,-9.913015625,2.8486875,-7.09255859375,-9.03635546875,-10.9741484375,0.3426796875,-1.59012109375,-5.8387734375,-5.4528671875,-12.384359375,-2.7961171875,-3.93462890625,-5.76666015625,-7.99423046875,-2.1698359375,-2.089109375,-1.49834375,-7.25369921875,-3.86942578125,-7.906734375,6.4728046875,1.63571484375,-3.207640625
17.2527890625,10.19425390625,35.6768515625,0.137613281249999,0.679839843749999,-4.627640625,-7.85675390625,-11.380015625,1.2656875,-5.82855859375,-9.20435546875,-9.6461484375,1.5936796875,-0.15312109375,-5.2847734375,-7.6248671875,-13.538359375,-2.9021171875,-2.71262890625,-6.32566015625,-8.92523046875,-2.2618359375,-1.122109375,-1.05734375,-7.63769921875,-3.48242578125,-7.270734375,7.8988046875,2.06771484375,-2.208640625
14.0817890625,7.86625390625,32.6538515625,0.52661328125,2.74883984375,-3.321640625,-7.41975390625,-12.468015625,1.5086875,-3.39255859375,-7.73835546875,-7.8081484375,3.3286796875,2.21087890625,-3.3927734375,-8.8468671875,-13.550359375,-1.7381171875,-0.496628906249999,-5.67966015625,-8.79723046875,-1.7158359375,0.614890624999999,0.360656249999998,-7.20969921875,-3.31842578125,-5.672734375,9.1258046875,2.79771484375,-0.378640625000003
12.1737890625,5.66225390625,30.1118515625,0.97361328125,5.32083984375,-1.541640625,-6.34275390625,-13.112015625,3.3966875,-0.348558593750003,-4.87535546875,-6.2001484375,5.1726796875,4.62587890625,-0.492773437499999,-8.9628671875,-12.484359375,0.1718828125,2.14737109375,-3.97366015625,-7.70423046875,-0.648835937500003,2.692890625,2.28165625,-6.04569921875,-2.95142578125,-3.575734375,9.9948046875,3.62571484375,1.890359375
11.6807890625,3.98625390625,28.6118515625,1.23361328125,7.98683984375,0.456359375000002,-4.74275390625,-13.174015625,6.4296875,2.82644140625,-1.13135546875,-5.2281484375,6.4586796875,6.46187890625,2.9702265625,-7.8908671875,-10.541359375,2.0828828125,4.65637109375,-1.49766015625,-5.85123046875,0.651164062499998,4.647890625,4.20765625,-4.31569921875,-1.92742578125,-1.525734375,10.4578046875,4.42871484375,4.149359375
12.3617890625,3.00525390625,28.2788515625,1.16761328125,10.48183984375,2.485359375,-2.86375390625,-12.456015625,9.8556875,5.79444140625,2.83864453125,-4.8051484375,6.5456796875,7.53387890625,6.5082265625,-5.6378671875,-7.949359375,3.3358828125,6.64237109375,1.41833984375,-3.44623046875,1.7871640625,6.153890625,5.82565625,-2.19769921875,-0.121425781250002,0.0462656249999993,10.5498046875,5.17871484375,6.035359375
13.7817890625,2.73025390625,29.0198515625,0.86761328125,12.53983984375,4.392359375,-1.03575390625,-10.834015625,12.7666875,8.28044140625,6.39364453125,-4.4521484375,5.2426796875,8.00287890625,9.6322265625,-2.3618671875,-4.930359375,3.6218828125,7.94737109375,4.44633984375,-0.667230468749999,2.3791640625,7.092890625,7.07865625,0.154300781249999,2.08757421875,0.920265625,10.3428046875,5.89171484375,7.347359375
15.5837890625,3.14025390625,30.7498515625,0.69961328125,13.81683984375,6.029359375,0.483246093750001,-8.354015625,14.3726875,10.01544140625,9.03564453125,-3.5971484375,3.0306796875,8.14087890625,11.9262265625,1.5461328125,-1.747359375,3.0838828125,8.61137109375,7.26233984375,2.30076953125,2.2601640625,7.539890625,8.07865625,2.57730078125,4.00157421875,1.126265625,9.9478046875,6.58271484375,8.100359375
17.6347890625,4.21625390625,33.4018515625,1.15461328125,14.03483984375,7.275359375,1.64224609375,-5.289015625,14.3456875,10.79744140625,10.51664453125,-1.9041484375,0.870679687499999,8.14987890625,13.1562265625,5.4401328125,1.237640625,2.2118828125,8.80437109375,9.55733984375,5.18776953125,1.6441640625,7.682890625,8.96365625,4.84730078125,5.02257421875,0.897265625,9.5428046875,7.25471484375,8.505359375
19.9177890625,5.85225390625,36.7308515625,2.51761328125,13.24983984375,8.091359375,2.56824609375,-2.152015625,13.0066875,10.64944140625,10.88264453125,0.503851562500001,-0.311320312500001,8.16387890625,13.3612265625,8.5181328125,3.554640625,1.6278828125,8.77637109375,11.08633984375,7.62076953125,1.1081640625,7.757890625,9.79565625,6.67730078125,5.02557421875,0.553265624999999,9.3798046875,7.91271484375,8.864359375
22.2857890625,7.72225390625,40.1268515625,4.57461328125,12.00683984375,8.569359375,3.42724609375,0.389984375000001,11.1516875,9.92344140625,10.44364453125,3.0498515625,-0.1503203125,8.34287890625,12.8512265625,10.0491328125,4.759640625,1.8668828125,8.80037109375,11.74133984375,9.22276953125,1.3281640625,7.987890625,10.54465625,7.80930078125,4.43757421875,0.345265625,9.7138046875,8.55071484375,9.421359375
24.3047890625,9.25825390625,42.7128515625,6.63461328125,11.14083984375,8.897359375,4.31824609375,1.740984375,9.5726875,9.20044140625,9.63764453125,4.9128515625,0.956679687499999,8.88287890625,12.0722265625,9.6491328125,4.655640625,3.1998828125,9.08637109375,11.58733984375,9.76376953125,2.7231640625,8.514890625,11.13365625,8.12030078125,3.97657421875,0.375265625,10.6708046875,9.12771484375,10.226359375
25.3237890625,9.81825390625,43.7138515625,7.86361328125,11.28183984375,9.255359375,5.25524609375,1.657984375,8.5896875,9.00344140625,8.85264453125,5.3768515625,2.0966796875,9.89187890625,11.4092265625,7.4541328125,3.452640625,5.5198828125,9.68137109375,10.82333984375,9.28076953125,5.1801640625,9.320890625,11.48665625,7.67730078125,4.19057421875,0.607265624999999,12.1328046875,9.54871484375,11.130359375
24.7237890625,8.97725390625,42.8668515625,7.70161328125,12.42383984375,9.681359375,6.14724609375,0.374984375,8.0106875,9.50344140625,8.30264453125,4.1598515625,2.3786796875,11.24387890625,11.0272265625,4.0731328125,1.730640625,8.3348828125,10.42537109375,9.71033984375,8.07576953125,8.0721640625,10.218890625,11.56565625,6.72330078125,5.12557421875,0.908265624999999,13.7578046875,9.71971484375,11.924359375
22.2377890625,6.74625390625,40.5838515625,6.09061328125,13.89083984375,10.025359375,6.78324609375,-1.523015625,7.5186875,10.41844140625,7.99464453125,1.5958515625,1.4396796875,12.55787890625,10.8352265625,0.3561328125,0.166640625000001,10.9088828125,11.00437109375,8.49333984375,6.60376953125,10.5211640625,10.923890625,11.39265625,5.58330078125,6.34357421875,1.108265625,15.1208046875,9.61971484375,12.495359375
18.1947890625,3.60025390625,37.7738515625,3.43861328125,14.74583984375,9.997359375,6.88024609375,-3.353015625,7.0776875,11.16544140625,7.76064453125,-1.4441484375,-0.3783203125,13.32287890625,10.5742265625,-2.9228671875,-0.812359375,12.4708828125,11.06437109375,7.32533984375,5.27276953125,11.7761640625,11.147890625,11.02365625,4.55030078125,7.24357421875,1.072265625,15.8898046875,9.32771484375,12.877359375
13.5367890625,0.310253906250001,35.4608515625,0.38361328125,14.32883984375,9.311359375,6.21324609375,-4.577015625,6.9456875,11.17144140625,7.35964453125,-3.8881484375,-2.2843203125,13.10387890625,9.9532265625,-5.2708671875,-1.213359375,12.4458828125,10.33637109375,6.23633984375,4.30076953125,11.4941640625,10.690890625,10.48865625,3.77530078125,7.44457421875,0.756265625,15.9198046875,8.95171484375,13.171359375
9.4837890625,-2.32774609375,34.3958515625,-2.50738671875,12.58983984375,7.847359375,4.76324609375,-4.955015625,7.3536875,10.16544140625,6.60264453125,-4.8921484375,-3.5483203125,11.73687890625,8.7792265625,-6.5098671875,-1.396359375,10.6518828125,8.74437109375,5.17133984375,3.68276953125,9.8131640625,9.495890625,9.76965625,3.23730078125,6.96457421875,0.198265624999999,15.2588046875,8.52671484375,13.403359375
6.9707890625,-3.77674609375,34.8098515625,-4.94638671875,10.04783984375,5.756359375,2.78424609375,-4.610015625,8.2036875,8.30744140625,5.48264453125,-4.1861484375,-3.9103203125,9.42387890625,7.0532265625,-6.6988671875,-1.773359375,7.4178828125,6.46337109375,4.07633984375,3.29376953125,7.2561640625,7.694890625,8.82365625,2.81630078125,6.12157421875,-0.555734375,14.0918046875,7.96471484375,13.463359375
6.21978906249999,-3.94074609375,36.3618515625,-6.93138671875,7.46083984375,3.425359375,0.75024609375,-3.955015625,9.0476875,6.09244140625,4.19064453125,-2.1811484375,-3.6553203125,6.65487890625,4.9802265625,-6.0618671875,-2.521359375,3.5358828125,3.87837109375,2.96533984375,2.98976953125,4.5171640625,5.600890625,7.64765625,2.38430078125,5.28357421875,-1.494734375,12.6438046875,7.09771484375,13.148359375
6.7427890625,-3.18074609375,38.3048515625,-8.56738671875,5.43283984375,1.320359375,-0.830753906249999,-3.487015625,9.3216875,4.09444140625,2.99764453125,0.1978515625,-3.3913203125,4.00587890625,2.9032265625,-4.9908671875,-3.478359375,0.0048828125,1.45637109375,1.89133984375,2.64876953125,2.2241640625,3.613890625,6.31065625,1.86330078125,4.64957421875,-2.598734375,11.0748046875,5.79571484375,12.260359375
7.75978906249999,-2.12474609375,39.8238515625,-9.85638671875,4.19083984375,-0.218640624999997,-1.68975390625,-3.563015625,8.6286875,2.71544140625,2.07964453125,1.8638515625,-3.7193203125,1.94187890625,1.1802265625,-4.0468671875,-4.284359375,-2.3391171875,-0.407628906249998,0.887339843749999,2.14376953125,0.728164062499999,2.082890625,4.93965625,1.21930078125,4.18757421875,-3.772734375,9.4348046875,4.08271484375,10.716359375
8.6917890625,-1.37474609375,40.4128515625,-10.62938671875,3.60683984375,-1.090640625,-1.98075390625,-4.290015625,6.9236875,2.05844140625,1.42364453125,1.9778515625,-4.9393203125,0.70587890625,0.069226562499999,-3.8498671875,-4.654359375,-3.1211171875,-1.48862890625,-0.0666601562500002,1.34376953125,0.0151640624999985,1.195890625,3.68365625,0.440300781249999,3.70557421875,-4.850734375,7.7128046875,2.17271484375,8.601359375
9.4397890625,-1.24574609375,40.0858515625,-10.65238671875,3.38283984375,-1.426640625,-2.19275390625,-5.548015625,4.5456875,1.96844140625,0.861644531249999,0.2618515625,-6.8943203125,0.31687890625,-0.340773437500001,-4.8458671875,-4.553359375,-2.5171171875,-1.76462890625,-1.01266015625,0.168769531250001,-0.216835937500001,0.935890624999999,2.67665625,-0.47869921875,2.97657421875,-5.680734375,5.9488046875,0.396714843749999,6.149359375
10.3057890625,-1.68374609375,39.3238515625,-9.78538671875,3.24183984375,-1.466640625,-2.78275390625,-7.059015625,2.1006875,2.16144140625,0.20864453125,-2.8981484375,-8.9883203125,0.629878906250001,-0.132773437499999,-7.0658671875,-4.179359375,-1.1141171875,-1.38762890625,-1.96466015625,-1.33423046875,-0.3588359375,1.110890625,1.98565625,-1.54569921875,1.84057421875,-6.201734375,4.3208046875,-0.958285156250001,3.663359375
11.6607890625,-2.37474609375,38.8058515625,-8.10538671875,3.01983984375,-1.416640625,-3.84075390625,-8.480015625,0.219687500000001,2.37244140625,-0.60135546875,-6.5931484375,-10.4093203125,1.39687890625,0.498226562500001,-10.0208671875,-3.795359375,0.3568828125,-0.616628906249998,-2.86966015625,-2.95523046875,-0.692835937500003,1.440890625,1.58865625,-2.74469921875,0.300574218749999,-6.455734375,3.0918046875,-1.80428515625,1.424359375
13.5767890625,-2.97074609375,39.0658515625,-5.94338671875,2.65883984375,-1.368640625,-5.04775390625,-9.517015625,-0.7143125,2.43544140625,-1.44435546875,-9.7101484375,-10.5033203125,2.35187890625,1.3282265625,-12.8528671875,-3.550359375,1.2798828125,0.268371093750002,-3.60166015625,-4.38923046875,-1.3058359375,1.670890625,1.39565625,-3.99369921875,-1.41942578125,-6.578734375,2.4588046875,-2.29628515625,-0.370640625
15.6777890625,-3.29674609375,40.2508515625,-3.85438671875,2.18783984375,-1.298640625,-5.91475390625,-10.028015625,-0.748312499999999,2.30144140625,-2.06335546875,-11.3271484375,-9.1373203125,3.26687890625,2.1722265625,-14.6718671875,-3.401359375,1.3598828125,1.05137109375,-4.00766015625,-5.36023046875,-2.1388359375,1.657890625,1.27665625,-5.12669921875,-2.92742578125,-6.750734375,2.3948046875,-2.74128515625,-1.635640625
17.3577890625,-3.41774609375,42.0868515625,-2.49738671875,1.70083984375,-1.163640625,-6.08875390625,-10.038015625,-0.2953125,1.99344140625,-2.24835546875,-11.0601484375,-6.8363203125,3.96687890625,2.8892265625,-14.9338671875,-3.183359375,0.6648828125,1.58937109375,-3.99866015625,-5.75423046875,-3.1048359375,1.374890625,1.09765625,-5.96069921875,-3.85842578125,-7.122734375,2.6158046875,-3.43928515625,-2.423640625
18.1447890625,-3.57674609375,44.0388515625,-2.41638671875,1.29383984375,-1.019640625,-5.55375390625,-9.678015625,0.162687500000001,1.50744140625,-2.00835546875,-9.2021484375,-4.5473203125,4.27087890625,3.3372265625,-13.6558671875,-2.757359375,-0.497117187499999,1.75937109375,-3.64166015625,-5.67623046875,-4.1738359375,0.838890624999999,0.728656249999998,-6.40769921875,-4.08942578125,-7.740734375,2.6998046875,-4.54728515625,-2.912640625
17.9457890625,-4.03974609375,45.5538515625,-3.79938671875,0.985839843749996,-1.056640625,-4.65575390625,-9.136015625,0.411687500000001,0.753441406249998,-1.60135546875,-6.5921484375,-3.0983203125,3.93387890625,3.3372265625,-11.3678671875,-2.150359375,-1.8131171875,1.42737109375,-3.15966015625,-5.38623046875,-5.3468359375,0.0538906249999993,0.0806562499999988,-6.53969921875,-3.79642578125,-8.535734375,2.2778046875,-6.01228515625,-3.323640625
17.0357890625,-4.89974609375,46.2978515625,-6.35638671875,0.707839843749998,-1.491640625,-3.93875390625,-8.607015625,0.6056875,-0.382558593750002,-1.37235546875,-4.2101484375,-2.7283203125,2.74187890625,2.7482265625,-8.8258671875,-1.598359375,-3.1231171875,0.502371093750003,-2.81066015625,-5.14123046875,-6.5438359375,-0.957109375000002,-0.82134375,-6.52669921875,-3.29042578125,-9.372734375,1.2038046875,-7.58928515625,-3.787640625
15.9327890625,-5.93874609375,46.3108515625,-9.40138671875,0.394839843749999,-2.366640625,-3.82075390625,-8.219015625,1.0366875,-1.87755859375,-1.51735546875,-2.7391484375,-3.0193203125,0.728878906249999,1.5982265625,-6.6688671875,-1.431359375,-4.4011171875,-0.931628906249998,-2.72966015625,-5.04223046875,-7.5248359375,-2.073109375,-1.78834375,-6.49169921875,-2.78842578125,-10.094734375,-0.3821953125,-8.90828515625,-4.246640625
15.2297890625,-6.63374609375,46.0188515625,-12.11138671875,0.0878398437499968,-3.427640625,-4.30575390625,-7.951015625,1.7806875,-3.42955859375,-1.93935546875,-2.3161484375,-3.2983203125,-1.64912109375,0.188226562500002,-5.2138671875,-1.863359375,-5.5891171875,-2.53162890625,-2.83866015625,-5.00523046875,-7.9558359375,-3.033109375,-2.49134375,-6.41669921875,-2.31742578125,-10.545734375,-2.1171953125,-9.60228515625,-4.485640625
15.3927890625,-6.36674609375,46.0628515625,-13.85238671875,-0.0181601562500013,-4.175640625,-4.94475390625,-7.652015625,2.5356875,-4.48655859375,-2.26635546875,-2.5961484375,-3.1623203125,-3.56212109375,-0.9387734375,-4.4578671875,-2.806359375,-6.4501171875,-3.73462890625,-2.88266015625,-4.84923046875,-7.5868359375,-3.486109375,-2.58134375,-6.14369921875,-1.79742578125,-10.608734375,-3.5631953125,-9.44428515625,-4.280640625
16.5717890625,-4.73174609375,47.0068515625,-14.41138671875,0.379839843749998,-4.079640625,-5.07275390625,-7.155015625,2.8006875,-4.43755859375,-2.01935546875,-3.0111484375,-2.7233203125,-4.10712109375,-1.1617734375,-4.2128671875,-3.880359375,-6.5841171875,-3.92762890625,-2.53266015625,-4.42323046875,-6.4178359375,-3.105109375,-1.81534375,-5.46769921875,-1.19342578125,-10.248734375,-4.3631953125,-8.44828515625,-3.554640625
18.5847890625,-1.75874609375,49.1158515625,-13.99238671875,1.57483984375,-2.821640625,-4.16075390625,-6.391015625,2.2496875,-2.89855859375,-0.84535546875,-3.0731484375,-2.4403203125,-2.71812109375,-0.0377734375000003,-4.2468671875,-4.627359375,-5.6351171875,-2.70162890625,-1.54066015625,-3.69823046875,-4.7248359375,-1.734109375,-0.155343750000002,-4.26769921875,-0.580425781250002,-9.524734375,-4.3501953125,-6.87028515625,-2.425640625
21.0737890625,2.07025390625,52.2728515625,-12.98738671875,3.68783984375,-0.495640624999997,-2.09975390625,-5.406015625,0.999687500000002,0.039441406249999,1.24964453125,-2.5871484375,-2.7023203125,0.49987890625,2.4472265625,-4.3908671875,-4.797359375,-3.5741171875,-0.0906289062499983,0.107339843749999,-2.77123046875,-2.9508359375,0.479890624999999,2.17565625,-2.60569921875,-0.107425781250001,-8.533734375,-3.5911953125,-5.10528515625,-1.137640625
23.6627890625,6.00025390625,56.0248515625,-11.73138671875,6.49383984375,2.357359375,0.678246093749999,-4.350015625,-0.4133125,3.72444140625,3.81364453125,-1.7231484375,-3.5013203125,4.72087890625,5.7652265625,-4.5798671875,-4.488359375,-0.8481171875,3.35137109375,2.12833984375,-1.82223046875,-1.5168359375,3.065890625,4.71065625,-0.754699218750002,0.0845742187499994,-7.366734375,-2.3571953125,-3.53228515625,0.0773593750000003
25.9767890625,9.23925390625,59.6878515625,-10.41738671875,9.36383984375,4.911359375,3.28524609375,-3.466015625,-1.3473125,7.10544140625,6.08164453125,-0.9271484375,-4.3883203125,8.65387890625,8.9702265625,-4.8558671875,-4.044359375,1.7358828125,6.69337109375,4.01133984375,-1.03523046875,-0.659835937500002,5.348890625,6.84565625,0.898300781249999,-0.0784257812500009,-6.118734375,-0.999195312499999,-2.37828515625,1.115359375
27.5727890625,11.13025390625,62.4968515625,-9.19638671875,11.39483984375,6.361359375,4.70324609375,-3.041015625,-1.4283125,9.09344140625,7.28564453125,-0.7121484375,-4.7423203125,11.01087890625,11.0432265625,-5.3358671875,-3.810359375,3.3428828125,8.96037109375,5.20533984375,-0.55323046875,-0.3908359375,6.694890625,8.01165625,1.98530078125,-0.568425781250001,-4.929734375,0.213804687500001,-1.67128515625,2.016359375
27.9817890625,11.24825390625,63.8008515625,-8.30038671875,11.74683984375,6.244359375,4.25824609375,-3.294015625,-0.7493125,8.99744140625,6.96364453125,-1.3961484375,-4.1833203125,10.99987890625,11.2942265625,-6.1448671875,-3.945359375,3.4798828125,9.48637109375,5.32433984375,-0.48223046875,-0.584835937500003,6.739890625,7.84965625,2.27130078125,-1.25842578125,-3.975734375,1.1948046875,-1.30228515625,2.891359375
26.9087890625,9.48125390625,63.2898515625,-8.03038671875,10.06883984375,4.628359375,1.96224609375,-4.265015625,0.225687500000001,6.83744140625,5.16864453125,-2.8991484375,-2.8673203125,8.64687890625,9.6642265625,-7.3298671875,-4.396359375,2.2198828125,8.15637109375,4.29733984375,-0.89023046875,-1.1088359375,5.527890625,6.34565625,1.70730078125,-1.93742578125,-3.388734375,2.0218046875,-1.13328515625,3.804359375
24.4297890625,6.09525390625,61.1338515625,-8.62038671875,6.75383984375,2.097359375,-1.48275390625,-5.827015625,0.973687500000002,3.37844140625,2.47364453125,-4.7261484375,-1.4463203125,4.81387890625,6.7632265625,-8.7868671875,-5.015359375,0.169882812500001,5.46037109375,2.41433984375,-1.76423046875,-1.8718359375,3.495890625,3.86165625,0.43530078125,-2.37742578125,-3.210734375,2.8138046875,-1.09528515625,4.696359375
20.9987890625,1.69025390625,57.8838515625,-10.06638671875,2.80383984375,-0.493640624999998,-5.00675390625,-7.795015625,1.2056875,-0.167558593750002,-0.24035546875,-6.2011484375,-0.6923203125,0.83987890625,3.6122265625,-10.2778671875,-5.676359375,-1.8541171875,2.30237109375,0.211339843749998,-2.96823046875,-2.7868359375,1.287890625,1.03765625,-1.25369921875,-2.43842578125,-3.403734375,3.5928046875,-1.20828515625,5.393359375
17.2377890625,-2.96874609375,54.1918515625,-12.03538671875,-0.637160156250001,-2.373640625,-7.60075390625,-10.004015625,0.940687500000001,-2.65455859375,-2.13535546875,-6.8551484375,-1.0163203125,-2.04412109375,1.2182265625,-11.5388671875,-6.326359375,-3.2581171875,-0.356628906249998,-1.74866015625,-4.27023046875,-3.6998359375,-0.517109375,-1.44534375,-3.01769921875,-2.15642578125,-3.872734375,4.2428046875,-1.54328515625,5.684359375
13.7067890625,-7.14974609375,50.5708515625,-13.94438671875,-2.76416015625,-3.121640625,-8.65175390625,-12.308015625,0.3496875,-3.42955859375,-2.73035546875,-6.6921484375,-2.2193203125,-3.18612109375,0.199226562500002,-12.4078671875,-6.947359375,-3.8971171875,-1.84262890625,-3.08366015625,-5.41823046875,-4.3758359375,-1.596109375,-3.09134375,-4.54869921875,-1.74642578125,-4.455734375,4.5868046875,-2.12428515625,5.428359375
10.8347890625,-10.23374609375,47.4458515625,-15.19738671875,-3.32416015625,-2.734640625,-8.10675390625,-14.524015625,-0.444312499999999,-2.48755859375,-2.00735546875,-6.1081484375,-3.6383203125,-2.60812109375,0.644226562500002,-12.8688671875,-7.488359375,-3.9331171875,-1.91862890625,-3.64666015625,-6.21323046875,-4.5458359375,-1.871109375,-3.70134375,-5.60469921875,-1.51942578125,-4.914734375,4.5428046875,-2.85228515625,4.647359375
9.0477890625,-11.68074609375,45.3798515625,-15.44338671875,-2.50416015625,-1.494640625,-6.41475390625,-16.375015625,-1.3963125,-0.326558593750001,-0.30035546875,-5.5411484375,-4.5483203125,-0.76512109375,2.2212265625,-12.9848671875,-7.832359375,-3.4811171875,-0.723628906249997,-3.44466015625,-6.53623046875,-4.0088359375,-1.380109375,-3.33934375,-6.00869921875,-1.73442578125,-4.994734375,4.2258046875,-3.50728515625,3.536359375
8.9007890625,-11.05674609375,45.1338515625,-14.70938671875,-0.684160156250002,0.220359375000001,-4.25075390625,-17.463015625,-2.4193125,2.35244140625,1.91564453125,-5.1731484375,-4.5393203125,1.76887890625,4.4012265625,-12.8208671875,-7.814359375,-2.4061171875,1.37837109375,-2.53566015625,-6.35623046875,-2.7288359375,-0.165109375,-2.23734375,-5.66569921875,-2.47042578125,-4.532734375,3.9128046875,-3.85228515625,2.393359375
10.9247890625,-8.20274609375,47.3608515625,-13.34138671875,1.79383984375,2.081359375,-2.14775390625,-17.329015625,-3.2493125,4.93044140625,4.20564453125,-4.8871484375,-3.6733203125,4.50887890625,6.6872265625,-12.3868671875,-7.286359375,-0.445117187499999,3.93637109375,-1.00166015625,-5.73323046875,-0.879835937500001,1.706890625,-0.704343750000001,-4.61869921875,-3.56542578125,-3.515734375,3.8768046875,-3.76328515625,1.527359375
15.1807890625,-3.46274609375,52.0958515625,-11.83538671875,4.69783984375,3.857359375,-0.289753906250001,-15.657015625,-3.4573125,7.04744140625,6.29264453125,-4.4451484375,-2.3473203125,7.10387890625,8.7452265625,-11.6438671875,-6.195359375,2.4408828125,6.50737109375,1.03933984375,-4.79623046875,1.1961640625,4.064890625,0.942656249999999,-3.05469921875,-4.63542578125,-2.084734375,4.2158046875,-3.28228515625,1.190359375
20.8657890625,2.24525390625,58.4658515625,-10.62838671875,7.81583984375,5.407359375,1.43024609375,-12.511015625,-2.6353125,8.59644140625,8.08164453125,-3.6621484375,-0.9873203125,9.26787890625,10.4322265625,-10.5338671875,-4.639359375,5.7958828125,8.71937109375,3.40533984375,-3.66623046875,3.0831640625,6.578890625,2.44165625,-1.23169921875,-5.18942578125,-0.493734375000001,4.7948046875,-2.56928515625,1.555359375
26.4387890625,7.69225390625,64.9438515625,-9.88738671875,10.81283984375,6.642359375,3.19824609375,-8.389015625,-0.630312499999999,9.60144140625,9.60164453125,-2.4931484375,0.2116796875,10.70087890625,11.7472265625,-9.0348671875,-2.874359375,8.7398828125,10.31737109375,5.85433984375,-2.39123046875,4.4441640625,8.812890625,3.63065625,0.615300781249999,-4.83742578125,0.983265624999999,5.3288046875,-1.80328515625,2.655359375
30.3377890625,11.82625390625,70.0448515625,-9.41538671875,13.21183984375,7.548359375,5.09624609375,-4.013015625,2.3296875,10.12844140625,10.91264453125,-1.0171484375,1.3246796875,11.17087890625,12.7752265625,-7.2198671875,-1.257359375,10.4188828125,11.21937109375,8.12333984375,-0.946230468749999,5.1571640625,10.373890625,4.47965625,2.33030078125,-3.47842578125,2.187265625,5.5428046875,-1.11528515625,4.332359375
31.8147890625,14.22225390625,73.0358515625,-8.76438671875,14.59483984375,8.236359375,7.03924609375,-0.0240156249999988,5.7196875,10.32044140625,12.05564453125,0.6178515625,2.4956796875,10.72687890625,13.6632265625,-5.2728671875,-0.109359375,10.5648828125,11.57437109375,9.99033984375,0.691769531250001,5.3901640625,11.098890625,5.09865625,3.84230078125,-1.36642578125,3.156265625,5.3388046875,-0.551285156250001,6.263359375
31.2897890625,15.17125390625,74.1858515625,-7.55538671875,14.88083984375,8.947359375,8.78224609375,3.149984375,8.9336875,10.47144140625,13.06864453125,2.2608515625,3.7336796875,9.86387890625,14.5912265625,-3.4538671875,0.418640625,9.7278828125,11.75537109375,11.34833984375,2.45476953125,5.5211640625,11.162890625,5.69465625,5.13430078125,1.01257421875,4.079265625,4.8788046875,-0.101285156250002,8.085359375
30.0077890625,15.35225390625,74.4078515625,-5.74038671875,14.40583984375,9.933359375,10.01624609375,5.252984375,11.5026875,10.96844140625,13.98564453125,3.7588515625,4.9106796875,9.36287890625,15.6932265625,-2.0318671875,0.432640625000001,8.9368828125,12.19737109375,12.21133984375,4.13776953125,5.9151640625,10.981890625,6.45865625,6.19530078125,3.16257421875,5.118265625,4.5218046875,0.264714843749999,9.551359375
29.2627890625,15.33525390625,74.5558515625,-3.59438671875,13.72583984375,11.256359375,10.50024609375,6.134984375,13.1856875,12.05244140625,14.78464453125,4.9188515625,5.9426796875,9.84987890625,16.9342265625,-1.2198671875,0.208640625000001,9.0208828125,13.14537109375,12.65033984375,5.42376953125,6.6841640625,10.948890625,7.42965625,6.96830078125,4.74557421875,6.275265625,4.6358046875,0.544714843749999,10.587359375
29.6767890625,15.27225390625,74.8938515625,-1.49538671875,13.30583984375,12.682359375,10.19124609375,5.803984375,13.9316875,13.62144140625,15.35164453125,5.5378515625,6.9186796875,11.41387890625,18.0752265625,-1.1138671875,0.00264062499999973,10.1088828125,14.48737109375,12.71133984375,5.99476953125,7.5861640625,11.215890625,8.44265625,7.34130078125,5.62557421875,7.383265625,5.3948046875,0.714714843749999,11.245359375
30.9247890625,14.96225390625,75.0988515625,0.269613281249999,13.33483984375,13.773359375,9.25224609375,4.516984375,13.8406875,15.22844140625,15.53864453125,5.5348515625,8.0166796875,13.57587890625,18.7772265625,-1.6388671875,-0.103359375,11.6838828125,15.81937109375,12.41533984375,5.66976953125,8.1781640625,11.659890625,9.22365625,7.20930078125,5.82557421875,8.204265625,6.6978046875,0.769714843749998,11.614359375
32.0287890625,14.15625390625,74.7138515625,1.53261328125,13.75083984375,14.136359375,7.98224609375,2.806984375,13.1896875,16.32144140625,15.29764453125,5.0678515625,9.3076796875,15.60587890625,18.8052265625,-2.5238671875,-0.198359374999999,13.0518828125,16.70037109375,11.82633984375,4.51376953125,8.1101640625,12.051890625,9.56065625,6.57430078125,5.47557421875,8.542265625,8.2298046875,0.748714843749999,11.763359375
32.0027890625,12.82825390625,73.6638515625,2.20061328125,14.37683984375,13.650359375,6.73324609375,1.364984375,12.4536875,16.53044140625,14.75164453125,4.4998515625,10.6386796875,16.90387890625,18.1852265625,-3.3548671875,-0.390359374999999,13.8078828125,16.89237109375,11.10033984375,2.85176953125,7.3601640625,12.226890625,9.42465625,5.59930078125,4.75957421875,8.342265625,9.6188046875,0.709714843749998,11.743359375
30.4717890625,11.25525390625,72.4048515625,2.23661328125,15.03283984375,12.524359375,5.85024609375,0.818984375000001,12.1626875,15.82844140625,14.15664453125,4.1998515625,11.7086796875,17.21287890625,17.1892265625,-3.6988671875,-0.636359375,13.9538828125,16.44137109375,10.46933984375,1.19976953125,6.2481640625,12.155890625,8.97265625,4.59030078125,3.87857421875,7.723265625,10.5748046875,0.664714843749998,11.589359375
27.8907890625,9.87925390625,71.6498515625,1.67261328125,15.58783984375,11.180359375,5.59824609375,1.484984375,12.6236875,14.51244140625,13.78564453125,4.3538515625,12.2466796875,16.61387890625,16.1992265625,-3.2328671875,-0.692359375,13.7088828125,15.59237109375,10.16233984375,0.11676953125,5.2641640625,11.896890625,8.46365625,3.91130078125,3.02757421875,6.920265625,10.9428046875,0.543714843749999,11.337359375
25.3517890625,9.13225390625,71.9248515625,0.634613281249999,15.99283984375,10.079359375,6.09824609375,3.244984375,13.7366875,13.06744140625,13.82664453125,4.9568515625,12.1336796875,15.42087890625,15.5392265625,-1.8528671875,-0.230359374999999,13.2838828125,14.66137109375,10.33933984375,0.0427695312500003,4.8181640625,11.536890625,8.16765625,3.87430078125,2.40857421875,6.186265625,10.6888046875,0.235714843749998,11.026359375
24.1457890625,9.29525390625,73.3118515625,-0.634386718750001,16.28283984375,9.568359375,7.32024609375,5.656984375,15.0536875,11.99644140625,14.30664453125,5.8928515625,11.3876796875,14.05787890625,15.3732265625,0.273132812500002,0.958640625000001,12.7988828125,13.92337109375,11.02333984375,1.13776953125,5.0601640625,11.148890625,8.28865625,4.62830078125,2.23857421875,5.713265625,9.8798046875,-0.316285156250002,10.698359375
25.2207890625,10.41925390625,75.4678515625,-1.79638671875,16.53583984375,9.774359375,9.11924609375,8.187984375,16.0456875,11.64244140625,15.05864453125,7.0108515625,10.0496796875,12.91487890625,15.6712265625,2.7021328125,2.777640625,12.2928828125,13.52037109375,12.06033984375,3.19076953125,5.8041640625,10.764890625,8.88165625,6.06330078125,2.70757421875,5.637265625,8.6858046875,-1.04228515625,10.377359375
28.6557890625,12.26225390625,77.8028515625,-2.51938671875,16.74983984375,10.538359375,11.19024609375,10.387984375,16.3296875,12.04544140625,15.72164453125,8.0998515625,8.0926796875,12.18287890625,16.2192265625,4.7551328125,4.772640625,11.6948828125,13.40937109375,13.10233984375,5.63976953125,6.5791640625,10.325890625,9.78365625,7.78730078125,3.86857421875,6.026265625,7.3978046875,-1.74528515625,10.026359375
33.4217890625,14.26925390625,79.6798515625,-2.63738671875,16.74983984375,11.420359375,12.98724609375,11.883984375,15.7256875,12.88044140625,15.81964453125,8.8578515625,5.4576796875,11.76087890625,16.6622265625,5.6601328125,6.275640625,10.7758828125,13.35837109375,13.65933984375,7.71176953125,6.7961640625,9.684890625,10.61865625,9.20330078125,5.52557421875,6.807265625,6.3718046875,-2.21228515625,9.529359375
37.7007890625,15.66825390625,80.5828515625,-2.28038671875,16.23383984375,11.836359375,13.77524609375,12.338984375,14.2046875,13.57244140625,14.94764453125,8.9268515625,2.1966796875,11.32187890625,16.6062265625,4.7811328125,6.703640625,9.2608828125,13.04837109375,13.25933984375,8.67176953125,6.0441640625,8.684890625,10.92765625,9.70530078125,7.21857421875,7.715265625,5.8868046875,-2.33328515625,8.743359375
39.6747890625,15.70125390625,80.2138515625,-1.88338671875,14.98983984375,11.326359375,12.91124609375,11.522984375,11.8756875,13.56444140625,12.98964453125,8.0058515625,-1.4063203125,10.55587890625,15.7922265625,1.8871328125,5.855640625,7.1658828125,12.26537109375,11.66533984375,8.08776953125,4.3991640625,7.342890625,10.40865625,8.92830078125,8.34857421875,8.373265625,5.9658046875,-2.14928515625,7.652359375
38.2507890625,13.88425390625,78.4808515625,-2.06738671875,13.11183984375,9.791359375,10.16524609375,9.419984375,9.0256875,12.59744140625,10.27464453125,5.9558515625,-4.8583203125,9.41787890625,14.2282265625,-2.6978671875,4.023640625,5.1008828125,11.07637109375,9.03333984375,5.97576953125,2.5331640625,5.996890625,9.11765625,6.93130078125,8.40857421875,8.466265625,6.3168046875,-1.78628515625,6.524359375
33.2887890625,10.15125390625,75.4158515625,-3.44138671875,11.02483984375,7.549359375,5.81224609375,6.240984375,6.0906875,10.80644140625,7.50864453125,2.8468515625,-7.6403203125,8.18587890625,12.1932265625,-8.1968671875,1.819640625,4.2128828125,9.84937109375,5.89933984375,2.74576953125,1.4861640625,5.273890625,7.48565625,4.17830078125,7.16057421875,7.870265625,6.4578046875,-1.34728515625,5.893359375
25.3527890625,4.81925390625,71.1278515625,-6.37238671875,9.23583984375,5.115359375,0.40524609375,2.290984375,3.4816875,8.57344140625,5.44864453125,-1.0771484375,-9.4533203125,7.25687890625,10.0682265625,-13.7408671875,-0.159359374999999,5.6078828125,9.04137109375,2.91833984375,-1.03423046875,2.1391640625,5.787890625,6.08365625,1.29530078125,4.68657421875,6.646265625,5.9718046875,-0.860285156250001,6.304359375
15.3567890625,-1.58974609375,65.8498515625,-10.78338671875,8.01283984375,2.877359375,-5.52775390625,-2.158015625,1.3726875,6.26044140625,4.45564453125,-5.5061484375,-10.3443203125,6.85087890625,8.1162265625,-18.7938671875,-1.625359375,9.5988828125,8.89437109375,0.49133984375,-4.91223046875,4.7001640625,7.728890625,5.26065625,-1.28069921875,1.30657421875,4.964265625,4.7408046875,-0.314285156250001,7.939359375
4.3677890625,-8.50574609375,60.0108515625,-16.09938671875,7.21983984375,0.893359375000003,-11.64675390625,-6.872015625,-0.393312499999999,4.02444140625,4.24664453125,-10.1621484375,-10.6853203125,6.85087890625,6.3542265625,-23.3878671875,-2.682359375,15.3158828125,9.24937109375,-1.46166015625,-8.71023046875,8.5201640625,10.629890625,4.91765625,-3.52069921875,-2.53442578125,3.046265625,3.0078046875,0.275714843749999,10.403359375
4.3677890625,-8.50574609375,60.0108515625,-16.09938671875,7.21983984375,0.893359375000003,-11.64675390625,-6.872015625,-0.393312499999999,4.02444140625,4.24664453125,-10.1621484375,-10.6853203125,6.85087890625,6.3542265625,-23.3878671875,-2.682359375,15.3158828125,9.24937109375,-1.46166015625,-8.71023046875,8.5201640625,10.629890625,4.91765625,-3.52069921875,-2.53442578125,3.046265625,3.0078046875,0.275714843749999,10.403359375
