"Fp1","Fpz","Fp2","F7","F3","Fz","F4","F8","FC5","FC1","FC2","FC6","T7","C3","Cz","C4","T8","CP5","CP1","CP2","CP6","P7","P3","Pz","P4","P8","POz","O1","Oz","O2"
1.70599609375,6.477515625,11.3759609375,-4.24502734375,12.2916796875,13.05897265625,16.11578515625,16.80371875,1.97725390625,19.5520078125,17.489015625,9.2753203125,-15.9368828125,11.0101796875,20.709265625,16.78403125,8.51142578125,5.2581875,17.21653515625,18.289390625,15.13994921875,3.15992578125,13.347046875,17.31393359375,14.30454296875,12.5693203125,13.3254140625,6.63253125,6.16115234375,16.76178515625
5.96199609375,8.616515625,11.2189609375,-6.66002734375,11.0716796875,12.08697265625,14.38778515625,16.49871875,4.81325390625,19.6240078125,18.279015625,10.4343203125,-15.1618828125,12.2751796875,21.896265625,18.02803125,9.47542578125,6.0191875,18.64653515625,20.104390625,16.87494921875,3.50892578125,14.145046875,17.85193359375,16.49454296875,14.1263203125,14.9734140625,7.33453125,7.73015234375,17.56578515625
7.62499609375,9.923515625,11.6839609375,-8.15502734375,10.9436796875,11.81997265625,13.04978515625,16.68371875,7.25925390625,20.1250078125,18.722015625,11.1123203125,-13.4568828125,13.5621796875,22.695265625,18.46603125,10.17342578125,6.6441875,19.91753515625,21.345390625,18.07094921875,3.94092578125,15.186046875,18.34093359375,17.99854296875,15.0193203125,16.3294140625,7.95153125,8.83715234375,18.14178515625
6.68699609375,10.314515625,12.4459609375,-8.81002734375,11.6586796875,12.12597265625,12.14278515625,17.24571875,8.62625390625,20.8230078125,18.794015625,11.4813203125,-10.9728828125,14.6591796875,23.030265625,18.18303125,10.50242578125,7.2071875,20.89953515625,21.923390625,18.51494921875,4.55292578125,16.379046875,18.74493359375,18.70354296875,15.0693203125,17.2724140625,8.42553125,9.37415234375,18.39978515625
4.13999609375,10.005515625,12.8949609375,-8.88702734375,12.6316796875,12.72097265625,11.71978515625,17.72771875,8.35925390625,21.3760078125,18.665015625,11.9093203125,-8.2498828125,15.3711796875,22.966265625,17.60103125,10.41142578125,7.9091875,21.53953515625,21.949390625,18.13294921875,5.46892578125,17.573046875,19.08693359375,18.72054296875,14.2903203125,17.8104140625,8.77253125,9.40615234375,18.36078515625
1.50199609375,9.426515625,12.5229609375,-8.58202734375,13.3556796875,13.39397265625,11.87678515625,17.48571875,6.58125390625,21.5730078125,18.640015625,12.7393203125,-5.9398828125,15.7011796875,22.690265625,17.26403125,9.83842578125,8.9921875,21.93353515625,21.686390625,17.09394921875,6.77492578125,18.671046875,19.47893359375,18.34254296875,12.8983203125,18.1104140625,9.09853125,9.16615234375,18.17178515625
0.0839960937500002,9.007515625,11.2489609375,-7.94702734375,13.6786796875,14.05897265625,12.58678515625,16.06171875,4.23325390625,21.4170078125,18.949015625,14.0283203125,-4.4918828125,15.8721796875,22.388265625,17.51703125,8.69542578125,10.5791875,22.26153515625,21.403390625,15.76794921875,8.42692578125,19.650046875,20.02393359375,17.89954296875,11.2273203125,18.4044140625,9.52253125,8.94615234375,18.02578515625
0.41099609375,8.960515625,9.4949609375,-6.96502734375,13.7416796875,14.63297265625,13.51478515625,13.56871875,2.60625390625,21.0040078125,19.521015625,15.4133203125,-3.9518828125,16.1461796875,22.091265625,18.24603125,6.94442578125,12.5411875,22.61453515625,21.174390625,14.53294921875,10.20692578125,20.508046875,20.67093359375,17.56154296875,9.5843203125,18.8194140625,10.03553125,8.93715234375,18.02378515625
2.09999609375,9.168515625,7.9279609375,-5.67402734375,13.6926796875,14.91897265625,14.04578515625,10.75571875,2.57325390625,20.3340078125,19.930015625,16.1573203125,-3.9808828125,16.5571796875,21.575265625,18.84503125,4.74742578125,14.4781875,22.84253515625,20.770390625,13.51994921875,11.78392578125,21.166046875,21.12093359375,17.21554296875,8.1383203125,19.2444140625,10.43053125,9.10915234375,18.07578515625
4.19399609375,9.251515625,7.0249609375,-4.24302734375,13.4606796875,14.60997265625,13.56178515625,8.58671875,4.07525390625,19.2410078125,19.560015625,15.4093203125,-4.0788828125,16.8031796875,20.429265625,18.48003125,2.52242578125,15.8761875,22.54953515625,19.733390625,12.49694921875,12.84192578125,21.424046875,20.88893359375,16.49954296875,6.8893203125,19.3364140625,10.35153125,9.21415234375,17.91778515625
5.67399609375,8.791515625,6.7819609375,-2.94402734375,12.7946796875,13.42797265625,11.80378515625,7.56171875,6.23225390625,17.5010078125,17.943015625,12.6473203125,-3.8468828125,16.4061796875,18.284265625,16.54103125,0.77042578125,16.3561875,21.30153515625,17.639390625,11.02094921875,13.22692578125,21.022046875,19.52093359375,15.00454296875,5.7213203125,18.6874140625,9.46853125,8.91315234375,17.23478515625
5.87199609375,7.586515625,6.7489609375,-2.03402734375,11.5066796875,11.32097265625,9.06278515625,7.31171875,7.96725390625,15.0270078125,15.047015625,8.1153203125,-3.0798828125,15.0311796875,15.069265625,13.04203125,-0.26057421875,15.8711875,18.89553515625,14.397390625,8.78394921875,13.00992578125,19.769046875,16.83193359375,12.52854296875,4.5003203125,17.0384140625,7.64753125,7.95915234375,15.82678515625
4.64199609375,5.780515625,6.3569609375,-1.58402734375,9.6766796875,8.54997265625,6.04778515625,6.87271875,8.67725390625,11.9960078125,11.328015625,2.8943203125,-1.6928828125,12.7291796875,11.114265625,8.67903125,-0.79757421875,14.6901875,15.51553515625,10.364390625,5.89394921875,12.43392578125,17.648046875,13.02593359375,9.23554296875,3.1573203125,14.4144140625,5.02653125,6.32115234375,13.72178515625
2.29699609375,3.791515625,5.2879609375,-1.39502734375,7.6436796875,5.62697265625,3.51378515625,5.46771875,8.51525390625,8.8170078125,7.518015625,-1.5486796875,0.3551171875,9.9251796875,7.016265625,4.49803125,-1.45957421875,13.2161875,11.66853515625,6.213390625,2.86594921875,11.76292578125,14.844046875,8.63093359375,5.60354296875,1.7303203125,11.1164140625,1.96153125,4.20115234375,11.19378515625
-0.55800390625,2.120515625,3.6569609375,-1.05102734375,5.8526796875,3.12797265625,1.89678515625,3.13671875,8.18925390625,5.9700078125,4.305015625,-4.0256796875,2.9881171875,7.2291796875,3.409265625,1.43203125,-2.85957421875,11.7891875,7.98553515625,2.660390625,0.37394921875,11.17492578125,11.714046875,4.32493359375,2.24454296875,0.3533203125,7.6134140625,-1.08346875,1.96015234375,8.69078515625
-3.19300390625,1.167515625,1.9439609375,-0.10202734375,4.7086796875,1.50797265625,1.19478515625,0.702718750000001,8.49225390625,3.8630078125,2.136015625,-4.0566796875,5.9131171875,5.2221796875,0.782265625000001,-0.015968749999999,-5.18657421875,10.6211875,5.02053515625,0.233390625,-1.06605078125,10.73892578125,8.718046875,0.74493359375,-0.294457031249999,-0.7906796875,4.4214140625,-3.65646875,0.0101523437499997,6.68378515625
-4.88600390625,1.132515625,0.756960937500001,1.73397265625,4.4736796875,0.98097265625,1.12878515625,-0.855281249999999,9.86225390625,2.7400078125,1.176015625,-1.9156796875,8.6341171875,4.2791796875,-0.604734375,0.15903125,-8.01457421875,9.8221875,3.12153515625,-0.834609374999999,-1.29005078125,10.46292578125,6.316046875,-1.66406640625,-1.67745703125,-1.5616796875,1.9734140625,-5.42146875,-1.31784765625,5.49678515625
-5.08400390625,1.980515625,0.5379609375,4.41797265625,5.1556796875,1.46297265625,1.35578515625,-1.03828125,12.16425390625,2.6160078125,1.314015625,1.5423203125,10.6301171875,4.4551796875,-0.769734374999999,1.52303125,-10.45657421875,9.4251875,2.35953515625,-0.648609374999999,-0.55605078125,10.32792578125,4.822046875,-2.76606640625,-1.88245703125,-1.9546796875,0.5054140625,-6.25346875,-1.89984765625,5.15878515625
-3.63400390625,3.424515625,1.3549609375,7.54997265625,6.4066796875,2.55897265625,1.55678515625,-0.00328124999999879,14.73425390625,3.2380078125,2.165015625,5.0933203125,11.5351171875,5.4321796875,-0.041734374999999,3.30203125,-11.56657421875,9.3621875,2.50553515625,0.365390625,0.53494921875,10.26492578125,4.275046875,-2.79006640625,-1.23345703125,-2.1426796875,-0.0345859374999993,-6.29646875,-1.88384765625,5.35378515625
-0.93000390625,4.980515625,2.8489609375,10.45097265625,7.5756796875,3.64697265625,1.44178515625,1.68671875,16.65425390625,4.1160078125,3.139015625,7.4563203125,11.1891171875,6.6041796875,1.023265625,4.59603125,-10.79857421875,9.4471875,3.08753515625,1.569390625,1.26094921875,10.12692578125,4.403046875,-2.26606640625,-0.299457031249998,-2.4086796875,0.0194140624999992,-5.92746875,-1.64684765625,5.53778515625
2.19399609375,6.133515625,4.3889609375,12.38397265625,7.9756796875,4.10797265625,0.82578515625,3.41671875,17.18025390625,4.7210078125,3.659015625,7.7493203125,9.5691171875,7.3341796875,1.855265625,4.74403125,-8.30557421875,9.4451875,3.56653515625,2.370390625,1.13394921875,9.70692578125,4.763046875,-1.80406640625,0.35954296875,-2.9746796875,0.195414062499999,-5.59346875,-1.61384765625,5.20878515625
4.83699609375,6.563515625,5.3389609375,12.88497265625,7.2566796875,3.63997265625,-0.20321484375,4.70571875,16.15625390625,4.7560078125,3.460015625,5.8983203125,6.7621171875,7.2621796875,2.138265625,3.69103125,-4.94057421875,9.2071875,3.57053515625,2.494390625,0.19194921875,8.83092578125,4.968046875,-1.81606640625,0.462542968750001,-3.8396796875,0.1084140625,-5.59646875,-2.02584765625,4.21178515625
6.40899609375,6.270515625,5.3329609375,11.98497265625,5.6186796875,2.42597265625,-1.21921484375,5.22671875,14.15425390625,4.3050078125,2.738015625,2.6853203125,3.0611171875,6.4781796875,1.932265625,2.04603125,-1.93457421875,8.7781875,3.04553515625,2.097390625,-1.01105078125,7.47592578125,4.862046875,-2.33906640625,0.136542968750001,-4.7346796875,-0.3565859375,-5.94746875,-2.80284765625,2.86578515625
6.78199609375,5.513515625,4.4029609375,10.18697265625,3.6996796875,1.00497265625,-1.65921484375,4.78371875,12.16625390625,3.7270078125,2.005015625,-0.6566796875,-0.8838828125,5.4121796875,1.559265625,0.718031250000001,-0.38457421875,8.3591875,2.20953515625,1.604390625,-1.73705078125,5.81792578125,4.529046875,-3.10406640625,-0.222457031249998,-5.2656796875,-1.0385859375,-6.40146875,-3.59584765625,1.80678515625
6.18699609375,4.618515625,2.9229609375,8.19597265625,2.2336796875,-0.0650273437500006,-1.18521484375,3.38671875,11.03525390625,3.3680078125,1.739015625,-3.0296796875,-4.0898828125,4.5401796875,1.338265625,0.365031250000001,-0.75857421875,8.1501875,1.35653515625,1.396390625,-1.50305078125,4.19092578125,4.147046875,-3.75406640625,-0.227457031249999,-5.1426796875,-1.6475859375,-6.63746875,-4.00484765625,1.60978515625
4.98599609375,3.806515625,1.4149609375,6.59497265625,1.6926796875,-0.534027343750001,0.0327851562500001,1.40371875,10.99125390625,3.3270078125,2.053015625,-3.8816796875,-5.5878828125,4.0841796875,1.368265625,1.03203125,-2.66757421875,8.1671875,0.64653515625,1.562390625,-0.34505078125,2.94892578125,3.809046875,-4.06706640625,0.245542968750001,-4.3506796875,-1.9615859375,-6.48746875,-3.83884765625,2.43878515625
3.49299609375,3.149515625,0.310960937500001,5.64397265625,2.0876796875,-0.57702734375,1.33978515625,-0.419281249999999,11.57225390625,3.3990078125,2.610015625,-3.2766796875,-4.9418828125,3.8981796875,1.478265625,2.18503125,-5.02257421875,8.1691875,0.0295351562500006,1.874390625,1.24994921875,2.29192578125,3.445046875,-4.03806640625,0.998542968750001,-3.1706796875,-1.9415859375,-6.04846875,-3.22784765625,3.93978515625
1.92599609375,2.638515625,-0.2170390625,5.26597265625,2.9966796875,-0.672027343750001,1.91478515625,-1.28528125,11.94525390625,3.2110078125,2.823015625,-1.6546796875,-2.5668828125,3.6001796875,1.368265625,3.10503125,-6.57857421875,7.7611875,-0.67046484375,1.983390625,2.65694921875,2.14192578125,2.880046875,-3.79706640625,1.66154296875,-2.0366796875,-1.7055859375,-5.62346875,-2.55284765625,5.41178515625
0.47599609375,2.280515625,-0.279039062499999,5.19997265625,3.7636796875,-1.30702734375,1.23178515625,-0.82428125,11.42425390625,2.4390078125,2.227015625,0.4843203125,0.4301171875,2.8291796875,0.830265625000001,3.36203125,-6.57457421875,6.6091875,-1.57146484375,1.682390625,3.46194921875,2.15792578125,1.984046875,-3.47206640625,1.93354296875,-1.3186796875,-1.3995859375,-5.52946875,-2.21184765625,6.17278515625
-0.58300390625,2.148515625,-0.134039062499999,5.18797265625,3.7936796875,-2.68202734375,-0.625214843749999,0.68071875,9.90425390625,0.999007812499999,0.779015625,2.7413203125,2.7901171875,1.4871796875,-0.0987343749999994,3.04203125,-5.10457421875,4.6491875,-2.60046484375,1.053390625,3.63994921875,1.91192578125,0.793046875,-3.09206640625,1.75554296875,-1.1496796875,-1.0725859375,-5.90246875,-2.40184765625,5.88278515625
-0.91600390625,2.328515625,0.0119609375000005,5.10197265625,2.8256796875,-4.55002734375,-2.99721484375,2.55871875,7.96925390625,-0.8819921875,-1.106984375,4.8013203125,3.6531171875,-0.177820312499998,-1.145734375,2.61503125,-3.00157421875,2.1431875,-3.50146484375,0.412390625,3.48694921875,1.11992578125,-0.471953125000001,-2.57806640625,1.33254296875,-1.4016796875,-0.643585937499999,-6.61646875,-3.02084765625,4.67878515625
-0.32100390625,2.816515625,0.140960937500001,4.91797265625,1.0526796875,-6.34002734375,-5.01021484375,4.23871875,6.56425390625,-2.7639921875,-2.791984375,6.3323203125,2.8051171875,-1.6848203125,-1.920734375,2.57203125,-1.31057421875,-0.428812499999999,-3.96646484375,0.120390625000001,3.36694921875,-0.234074218749999,-1.508953125,-1.83106640625,0.99454296875,-1.7986796875,0.0254140624999994,-7.37346875,-3.75584765625,3.05078515625
1.01899609375,3.440515625,0.3549609375,4.61297265625,-0.997320312499999,-7.47802734375,-6.05221484375,5.51871875,6.35525390625,-4.2209921875,-3.770984375,6.9753203125,0.5541171875,-2.5758203125,-2.104734375,3.07403125,-0.69557421875,-2.5948125,-3.82846484375,0.372390625,3.46194921875,-1.95307421875,-2.098953125,-0.85206640625,0.996542968750001,-2.1086796875,0.9994140625,-7.88346875,-4.27384765625,1.56478515625
2.45399609375,3.858515625,0.659960937500001,4.08097265625,-2.7873203125,-7.73002734375,-6.03821484375,6.46771875,7.19225390625,-5.0729921875,-3.930984375,6.4503203125,-2.5778828125,-2.7178203125,-1.620734375,3.82503125,-1.13157421875,-4.1248125,-3.20246484375,1.068390625,3.63294921875,-3.80007421875,-2.250953125,0.17493359375,1.34954296875,-2.2926796875,2.1624140625,-8.04246875,-4.42184765625,0.566785156250001
3.09599609375,3.685515625,0.780960937500001,3.15497265625,-4.0983203125,-7.31902734375,-5.32921484375,7.12771875,8.05425390625,-5.4609921875,-3.561984375,4.7593203125,-6.1608828125,-2.4308203125,-0.692734374999999,4.25203125,-2.01057421875,-5.1408125,-2.48446484375,1.844390625,3.49894921875,-5.64707421875,-2.232953125,0.90493359375,1.78254296875,-2.5056796875,3.2104140625,-7.97546875,-4.30784765625,0.0627851562500013
2.28299609375,2.699515625,0.259960937500001,1.70397265625,-5.0673203125,-6.72602734375,-4.37221484375,7.30171875,7.62125390625,-5.6709921875,-3.085984375,2.3623203125,-9.9958828125,-2.3128203125,0.293265625,3.91603125,-2.57457421875,-6.0078125,-2.13646484375,2.300390625,2.72694921875,-7.47107421875,-2.413953125,1.02393359375,1.91754296875,-2.9466796875,3.7994140625,-7.91346875,-4.18584765625,-0.17221484375
-0.00700390625000002,1.016515625,-1.1770390625,-0.25002734375,-5.8763203125,-6.30702734375,-3.35621484375,6.61271875,5.15925390625,-5.8189921875,-2.688984375,0.1583203125,-14.0308828125,-2.8028203125,1.083265625,2.90403125,-2.39157421875,-7.0668125,-2.35846484375,2.305390625,1.36694921875,-9.22507421875,-2.989953125,0.498933593750001,1.55354296875,-3.6456796875,3.7764140625,-7.96346875,-4.23184765625,-0.343214843749999
-3.05500390625,-0.888484374999999,-3.2680390625,-2.47602734375,-6.3953203125,-5.98802734375,-2.09421484375,4.82871875,1.13125390625,-5.6279921875,-2.122984375,-0.805679687500001,-18.1608828125,-3.8058203125,1.782265625,1.90603125,-1.58357421875,-8.3918125,-2.88646484375,2.151390625,-0.0260507812500004,-10.73707421875,-3.780953125,-0.29006640625,0.865542968750001,-4.3586796875,3.3344140625,-7.96046875,-4.36284765625,-0.423214843749999
-5.72800390625,-2.386484375,-5.2240390625,-4.59902734375,-6.1333203125,-5.27902734375,-0.205214843749999,2.22571875,-2.98174609375,-4.5409921875,-0.857984374999999,0.1843203125,-22.0958828125,-4.6978203125,2.814265625,1.84003125,-0.67957421875,-9.7588125,-3.10046484375,2.398390625,-0.62705078125,-11.75207421875,-4.302953125,-0.71606640625,0.33754296875,-4.6686796875,2.9324140625,-7.54046875,-4.27284765625,-0.16221484375
-7.08000390625,-3.008484375,-6.1530390625,-6.27802734375,-4.6023203125,-3.62402734375,2.54478515625,-0.365281249999999,-5.60974609375,-2.1219921875,1.515015625,3.1203203125,-25.4408828125,-4.7568203125,4.593265625,3.29003125,-0.19157421875,-10.8398125,-2.42846484375,3.496390625,0.19494921875,-12.11107421875,-4.078953125,-0.269066406249999,0.461542968750001,-4.2386796875,3.0134140625,-6.40146875,-3.64984765625,0.729785156250001
-6.84400390625,-2.695484375,-5.5790390625,-7.39002734375,-1.7773203125,-0.83702734375,5.98778515625,-1.93228125,-6.13374609375,1.5370078125,4.938015625,7.2233203125,-27.9038828125,-3.6868203125,7.193265625,6.14603125,-0.22257421875,-11.4408125,-0.734464843750001,5.476390625,2.50894921875,-11.90707421875,-2.978953125,1.10693359375,1.44754296875,-3.0276796875,3.7304140625,-4.56546875,-2.39484765625,2.34978515625
-5.49400390625,-1.779484375,-3.6680390625,-8.09102734375,1.7626796875,2.72697265625,9.58178515625,-1.79028125,-5.26374609375,5.7480078125,8.859015625,11.3073203125,-29.4248828125,-1.8278203125,10.260265625,9.71603125,-0.35857421875,-11.6108125,1.57753515625,7.924390625,5.77594921875,-11.46207421875,-1.329953125,2.97093359375,3.12554296875,-1.3426796875,4.8564140625,-2.43046875,-0.71584765625,4.48378515625
-3.85600390625,-0.735484375,-1.0240390625,-8.65602734375,5.0946796875,6.38797265625,12.66778515625,0.14871875,-4.45874609375,9.5720078125,12.506015625,14.3163203125,-30.0748828125,0.0961796875000012,13.217265625,13.14403125,0.07142578125,-11.5488125,3.82753515625,10.237390625,9.12094921875,-11.13807421875,0.281046874999999,4.64893359375,5.07854296875,0.2963203125,5.9394140625,-0.59046875,0.96615234375,6.65278515625
-2.61000390625,0.100515625000001,1.7169609375,-9.25602734375,7.4146796875,9.52997265625,14.77578515625,3.42871875,-4.87174609375,12.3190078125,15.275015625,15.7393203125,-29.8358828125,1.4641796875,15.602265625,15.82503125,1.53942578125,-11.4118125,5.47453515625,11.956390625,11.69494921875,-11.09707421875,1.358046875,5.62193359375,6.87654296875,1.3863203125,6.5614140625,0.47753125,2.20915234375,8.28078515625
-2.05000390625,0.661515625000001,4.1589609375,-9.85802734375,8.4146796875,11.89197265625,15.79978515625,7.26971875,-6.58574609375,13.8760078125,16.971015625,15.6773203125,-28.5348828125,2.1591796875,17.297265625,17.54903125,3.90642578125,-11.1468125,6.42053515625,12.975390625,12.96694921875,-11.17007421875,1.790046875,5.78693359375,8.24454296875,1.6373203125,6.5684140625,0.66153125,2.75315234375,8.92678515625
-2.14100390625,1.058515625,6.1199609375,-10.30502734375,8.4166796875,13.58997265625,15.99678515625,10.74571875,-8.60574609375,14.6850078125,17.835015625,14.6553203125,-26.0658828125,2.6461796875,18.556265625,18.40403125,6.35242578125,-10.4438125,7.04753515625,13.531390625,12.83994921875,-10.88407421875,1.936046875,5.48593359375,9.12754296875,1.0533203125,6.1594140625,0.29853125,2.65815234375,8.46578515625
-2.66100390625,1.445515625,7.4569609375,-10.45102734375,8.2356796875,14.96397265625,15.88778515625,12.92971875,-9.48074609375,15.4660078125,18.371015625,13.3393203125,-22.6918828125,3.7241796875,19.829265625,18.60503125,7.71642578125,-8.8208125,7.99553515625,14.031390625,11.61894921875,-9.62507421875,2.482046875,5.30793359375,9.65454296875,-0.1106796875,5.8124140625,0.0665312499999999,2.31415234375,7.16678515625
-3.25300390625,1.931515625,7.9759609375,-10.22902734375,8.8206796875,16.35497265625,16.05378515625,13.08871875,-8.08474609375,16.8440078125,19.081015625,12.2623203125,-19.0618828125,6.0981796875,21.489265625,18.39003125,7.10142578125,-5.8248125,9.82053515625,14.829390625,9.83794921875,-6.88307421875,4.125046875,5.80493359375,10.03754296875,-1.4566796875,6.0654140625,0.71153125,2.29815234375,5.60978515625
-3.47000390625,2.556515625,7.5349609375,-9.62602734375,10.7906796875,17.90397265625,16.84378515625,10.92871875,-4.15274609375,19.0490078125,20.203015625,11.5753203125,-15.8498828125,9.9811796875,23.594265625,17.93903125,4.37042578125,-1.3058125,12.69253515625,16.029390625,8.02794921875,-2.50107421875,7.220046875,7.23093359375,10.44654296875,-2.5876796875,7.2554140625,2.72553125,3.12015234375,4.46378515625
-2.93200390625,3.269515625,6.2079609375,-8.67002734375,14.0706796875,19.43297265625,18.10678515625,6.78671875,1.61325390625,21.7780078125,21.543015625,10.9263203125,-13.2848828125,14.9061796875,25.795265625,17.28703125,0.22442578125,4.3721875,16.25753515625,17.411390625,6.49294921875,3.14492578125,11.541046875,9.40693359375,10.91654296875,-3.2226796875,9.3124140625,6.09353125,4.96215234375,4.21878515625
-1.57100390625,3.882515625,4.3349609375,-7.43302734375,17.8406796875,20.48497265625,19.14478515625,1.60371875,7.80625390625,24.2880078125,22.513015625,9.6143203125,-10.9918828125,19.8351796875,27.437265625,16.26203125,-4.18857421875,10.3271875,19.72353515625,18.487390625,5.22194921875,9.18292578125,16.292046875,11.76893359375,11.30854296875,-3.2826796875,11.7464140625,10.24353125,7.54715234375,4.99578515625
0.22299609375,4.092515625,2.3749609375,-6.04402734375,20.8556796875,20.52297265625,19.01278515625,-3.38928125,12.83025390625,25.7000078125,22.374015625,6.9893203125,-8.2708828125,23.5431796875,27.815265625,14.55203125,-7.89557421875,15.4331875,22.15553515625,18.708390625,3.98194921875,14.49992578125,20.386046875,13.59393359375,11.37654296875,-2.9076796875,13.8354140625,14.24553125,10.24315234375,6.52278515625
1.70199609375,3.600515625,0.674960937500001,-4.68002734375,21.9786796875,19.19397265625,17.02378515625,-7.18628125,15.48525390625,25.3760078125,20.610015625,2.9123203125,-4.6338828125,25.1011796875,26.484265625,11.95003125,-10.55657421875,18.7771875,22.86053515625,17.717390625,2.54394921875,18.14992578125,22.883046875,14.29093359375,10.91654296875,-2.3906796875,14.9484140625,17.18253125,12.33115234375,8.27078515625
2.09599609375,2.289515625,-0.679039062499999,-3.51202734375,20.6836796875,16.50197265625,13.15878515625,-9.42128125,15.39125390625,23.1790078125,17.208015625,-2.0636796875,-0.1948828125,24.2571796875,23.486265625,8.58903125,-12.49857421875,20.0221875,21.66653515625,15.557390625,0.88094921875,19.70692578125,23.357046875,13.65693359375,9.91654296875,-2.0356796875,14.8254140625,18.49953125,13.31515234375,9.68378515625
1.03999609375,0.338515625,-1.8040390625,-2.62702734375,17.2896796875,12.82897265625,8.10978515625,-10.45728125,13.11125390625,19.5200078125,12.694015625,-6.9106796875,4.3621171875,21.4981796875,19.365265625,4.96603125,-14.32457421875,19.4951875,18.98253515625,12.670390625,-0.78305078125,19.38192578125,22.026046875,11.94293359375,8.58654296875,-2.0146796875,13.6714140625,18.18253125,13.09415234375,10.38578515625
-1.17700390625,-1.811484375,-2.8370390625,-1.95502734375,12.8116796875,8.80197265625,2.96178515625,-11.08128125,9.89225390625,15.1700078125,7.901015625,-10.5996796875,8.1521171875,17.7941796875,14.926265625,1.71703125,-16.39857421875,17.9421875,15.58253515625,9.698390625,-2.11605078125,17.84992578125,19.572046875,9.71493359375,7.25354296875,-2.3066796875,11.9944140625,16.67653125,11.92115234375,10.27678515625
-3.73700390625,-3.634484375,-3.7800390625,-1.28202734375,8.5176796875,5.07397265625,-1.28721484375,-12.04128125,7.14525390625,10.9480078125,3.624015625,-12.5216796875,10.5021171875,14.1461796875,10.899265625,-0.684968749999999,-18.55457421875,16.1171875,12.24453515625,7.189390625,-2.89205078125,15.89792578125,16.787046875,7.57593359375,6.16554296875,-2.7486796875,10.3124140625,14.60653125,10.20915234375,9.50078515625
-5.72100390625,-4.737484375,-4.5080390625,-0.35902734375,5.3936796875,2.10197265625,-4.06221484375,-13.68528125,5.84025390625,7.4230078125,0.373015625000001,-12.6386796875,11.1341171875,11.1941796875,7.686265625,-2.08396875,-20.21557421875,14.4541875,9.45453515625,5.384390625,-3.11105078125,14.06892578125,14.237046875,5.89893359375,5.37854296875,-3.1506796875,8.9044140625,12.47753125,8.32315234375,8.31178515625
-6.57300390625,-5.010484375,-4.9200390625,0.96897265625,3.7856796875,0.0399726562499998,-5.27421484375,-15.84528125,6.13625390625,4.7640078125,-1.703984375,-11.3906796875,10.0871171875,9.0491796875,5.309265625,-2.61596875,-20.75857421875,12.9731875,7.29353515625,4.188390625,-2.99705078125,12.48992578125,12.096046875,4.70393359375,4.74954296875,-3.4016796875,7.7274140625,10.49553125,6.46415234375,6.94178515625
-6.29000390625,-4.626484375,-5.0950390625,2.70297265625,3.3476796875,-1.23702734375,-5.16321484375,-17.95328125,7.40725390625,2.7790078125,-2.757984375,-9.4926796875,7.5691171875,7.3981796875,3.509265625,-2.60696875,-19.86757421875,11.4331875,5.51953515625,3.276390625,-2.89205078125,10.90792578125,10.210046875,3.71993359375,4.04154296875,-3.4986796875,6.5214140625,8.58253125,4.67315234375,5.52278515625
-5.30000390625,-3.934484375,-5.2790390625,4.70097265625,3.2986796875,-2.00402734375,-4.11021484375,-19.26528125,8.68125390625,1.0980078125,-3.128984375,-7.7026796875,3.9331171875,5.7821796875,1.927265625,-2.47196875,-17.69757421875,9.5941875,3.77853515625,2.270390625,-3.11605078125,8.91392578125,8.308046875,2.58293359375,3.04354296875,-3.5176796875,4.9994140625,6.52853125,2.90515234375,4.10578515625
-4.19000390625,-3.295484375,-5.7080390625,6.69397265625,2.8496796875,-2.56902734375,-2.56321484375,-19.14128125,9.22225390625,-0.6279921875,-3.228984375,-6.5956796875,-0.1868828125,3.8911796875,0.253265625000001,-2.61696875,-14.85557421875,7.4211875,1.82153515625,0.904390625,-3.83105078125,6.22592578125,6.221046875,1.05293359375,1.67254296875,-3.5366796875,3.0404140625,4.18953125,1.12915234375,2.71878515625
-3.43500390625,-2.951484375,-6.3860390625,8.31997265625,1.5956796875,-3.19302734375,-1.05221484375,-17.26528125,8.90525390625,-2.5729921875,-3.431984375,-6.3746796875,-3.8048828125,1.7431796875,-1.652734375,-3.32196875,-12.19657421875,5.1291875,-0.37346484375,-0.871609375,-4.96905078125,2.90192578125,4.002046875,-0.85406640625,0.0035429687500006,-3.5746796875,0.7814140625,1.61453125,-0.60084765625,1.41078515625
-3.21900390625,-2.959484375,-7.0120390625,9.22797265625,-0.328320312499999,-4.03102734375,-0.14521484375,-13.73728125,8.19625390625,-4.6839921875,-3.995984375,-6.8366796875,-5.8178828125,-0.357820312499999,-3.732734375,-4.64396875,-10.50557421875,3.0851875,-2.61546484375,-2.896609375,-6.27805078125,-0.633074218749998,1.891046875,-2.87606640625,-1.77745703125,-3.5776796875,-1.4285859375,-0.95046875,-2.15284765625,0.239785156250001
-3.39200390625,-3.214484375,-7.1360390625,9.24997265625,-2.4143203125,-5.09902734375,-0.26721484375,-9.03428125,7.77225390625,-6.7239921875,-4.992984375,-7.5156796875,-5.5438828125,-2.0178203125,-5.780734375,-6.40196875,-10.15857421875,1.6271875,-4.62746484375,-4.899609375,-7.46105078125,-3.78707421875,0.172046874999999,-4.65706640625,-3.47745703125,-3.4576796875,-3.1925859375,-3.16746875,-3.38384765625,-0.769214843749999
-3.61300390625,-3.523484375,-6.4530390625,8.52897265625,-4.1313203125,-6.29402734375,-1.47321484375,-3.93528125,8.02325390625,-8.4039921875,-6.295984375,-7.9606796875,-3.1958828125,-2.9988203125,-7.541734375,-8.22896875,-10.95557421875,0.914187500000001,-6.21446484375,-6.630609375,-8.29405078125,-6.09407421875,-0.994953125,-5.95106640625,-4.97945703125,-3.1576796875,-4.2765859375,-4.78146875,-4.22884765625,-1.65421484375
-3.61200390625,-3.708484375,-5.0390390625,7.46197265625,-5.2363203125,-7.46602734375,-3.34121484375,0.57671875,8.74125390625,-9.5389921875,-7.592984375,-7.9696796875,0.1711171875,-3.3558203125,-8.817734375,-9.66696875,-12.24457421875,0.8441875,-7.37046484375,-7.944609375,-8.66105078125,-7.44207421875,-1.688953125,-6.75606640625,-6.26345703125,-2.6996796875,-4.7375859375,-5.74646875,-4.74384765625,-2.51221484375
-3.40400390625,-3.679484375,-3.3500390625,6.49097265625,-5.8333203125,-8.49502734375,-5.11721484375,3.53971875,9.22225390625,-10.1379921875,-8.487984375,-7.6246796875,3.2491171875,-3.4168203125,-9.529734375,-10.28696875,-13.25857421875,1.0671875,-8.27046484375,-8.808609375,-8.51705078125,-8.09507421875,-2.208953125,-7.31106640625,-7.36145703125,-2.1876796875,-4.9055859375,-6.23246875,-5.07784765625,-3.44221484375
-3.24800390625,-3.443484375,-1.9710390625,5.89197265625,-6.1983203125,-9.31702734375,-6.03521484375,4.37971875,8.74325390625,-10.3539921875,-8.648984375,-7.1166796875,5.1611171875,-3.6008203125,-9.736734375,-9.82696875,-13.45157421875,1.1031875,-9.16246484375,-9.280609375,-7.85905078125,-8.52807421875,-2.952953125,-7.95006640625,-8.30145703125,-1.7566796875,-5.2305859375,-6.51746875,-5.39784765625,-4.48121484375
-3.38100390625,-3.057484375,-1.2910390625,5.68797265625,-6.5173203125,-9.89302734375,-5.65821484375,3.20271875,7.10325390625,-10.3729921875,-7.949984375,-6.5076796875,5.7301171875,-4.2018203125,-9.589734375,-8.32396875,-12.62857421875,0.538187500000001,-10.21846484375,-9.466609375,-6.76705078125,-9.17507421875,-4.226953125,-8.91006640625,-9.07245703125,-1.5016796875,-6.0805859375,-6.81846875,-5.81384765625,-5.54121484375
-3.75500390625,-2.558484375,-1.3280390625,5.71397265625,-6.7503203125,-10.18502734375,-4.04421484375,0.747718750000001,4.82925390625,-10.3169921875,-6.537984375,-5.6226796875,5.2551171875,-5.2468203125,-9.256734375,-6.14596875,-10.85557421875,-0.7958125,-11.44746484375,-9.491609375,-5.45105078125,-10.24707421875,-6.111953125,-10.22506640625,-9.64845703125,-1.4326796875,-7.5905859375,-7.19146875,-6.33284765625,-6.43121484375
-4.03200390625,-1.956484375,-1.8230390625,5.78297265625,-6.7383203125,-10.15602734375,-1.66821484375,-1.98928125,2.84125390625,-10.2379921875,-4.767984375,-4.1706796875,4.1061171875,-6.5228203125,-8.865734375,-3.88696875,-8.34357421875,-2.7678125,-12.70846484375,-9.471609375,-4.24005078125,-11.70007421875,-8.447953125,-11.72906640625,-10.02145703125,-1.4896796875,-9.6285859375,-7.56046875,-6.89584765625,-6.95221484375
-3.84100390625,-1.288484375,-2.4730390625,5.83197265625,-6.4273203125,-9.78802734375,0.84978515625,-4.19628125,1.84725390625,-10.1609921875,-3.062984375,-2.0256796875,2.5101171875,-7.7478203125,-8.483734375,-2.13096875,-5.43157421875,-5.0478125,-13.81446484375,-9.481609375,-3.46905078125,-13.33407421875,-10.933953125,-13.15406640625,-10.22545703125,-1.6016796875,-11.8735859375,-7.83046875,-7.43884765625,-7.02521484375
-3.07300390625,-0.680484374999999,-3.1030390625,5.93897265625,-6.0043203125,-9.11702734375,3.00878515625,-5.46328125,1.91125390625,-10.1159921875,-1.763984375,0.5313203125,0.5661171875,-8.7288203125,-8.131734375,-1.22196875,-2.62557421875,-7.2828125,-14.64046484375,-9.523609375,-3.30905078125,-14.93007421875,-13.248953125,-14.23906640625,-10.29645703125,-1.7316796875,-13.9285859375,-7.96546875,-7.92784765625,-6.74721484375
-2.00300390625,-0.349484374999999,-3.6570390625,6.18197265625,-5.7923203125,-8.27502734375,4.52978515625,-5.72728125,2.50525390625,-10.1289921875,-1.047984375,2.8283203125,-1.6638828125,-9.4058203125,-7.805734375,-1.14196875,-0.56357421875,-9.2208125,-15.15046484375,-9.507609375,-3.65205078125,-16.30807421875,-15.119953125,-14.80406640625,-10.21545703125,-1.8806796875,-15.4315859375,-7.96446875,-8.32184765625,-6.32021484375
-1.14400390625,-0.503484374999999,-4.0850390625,6.46997265625,-5.9623203125,-7.46502734375,5.29878515625,-5.06028125,2.95725390625,-10.1779921875,-0.911984374999999,4.1403203125,-4.1098828125,-9.7498203125,-7.463734375,-1.56596875,0.20042578125,-10.7118125,-15.34846484375,-9.272609375,-4.13705078125,-17.31307421875,-16.322953125,-14.76906640625,-9.86145703125,-2.0456796875,-16.1155859375,-7.75246875,-8.51684765625,-5.92421484375
-0.91500390625,-1.179484375,-4.2590390625,6.54197265625,-6.3043203125,-6.84002734375,5.33478515625,-3.48028125,2.96225390625,-10.1239921875,-1.174984375,4.1613203125,-6.6658828125,-9.6458203125,-6.996734375,-2.00596875,-0.49257421875,-11.6528125,-15.19746484375,-8.622609375,-4.31805078125,-17.78507421875,-16.670953125,-14.12206640625,-9.03945703125,-2.1696796875,-15.8445859375,-7.12546875,-8.33884765625,-5.58321484375
-1.36000390625,-2.128484375,-4.0030390625,6.15797265625,-6.2703203125,-6.35302734375,4.84278515625,-0.99128125,2.79725390625,-9.7059921875,-1.485984375,3.2403203125,-9.1178828125,-8.8908203125,-6.223734375,-1.95696875,-2.19957421875,-11.9718125,-14.58346484375,-7.380609375,-3.84805078125,-17.60507421875,-16.040953125,-12.85906640625,-7.55245703125,-2.1246796875,-14.6115859375,-5.82146875,-7.60384765625,-5.13021484375
-2.10000390625,-2.865484375,-3.2410390625,5.29897265625,-5.3173203125,-5.75202734375,4.27678515625,2.19671875,3.07725390625,-8.6539921875,-1.380984375,2.2243203125,-11.1078828125,-7.3568203125,-4.928734375,-0.99196875,-3.96757421875,-11.6748125,-13.38046484375,-5.432609375,-2.55205078125,-16.78207421875,-14.451953125,-10.94906640625,-5.28345703125,-1.7206796875,-12.5235859375,-3.69946875,-6.22584765625,-4.28221484375
-2.53300390625,-2.871484375,-2.0860390625,4.19797265625,-3.3153203125,-4.74802734375,4.22078515625,5.54071875,4.22425390625,-6.8819921875,-0.444984375000001,2.0173203125,-12.2328828125,-5.1878203125,-2.970734375,1.13803125,-4.72157421875,-10.9158125,-11.55046484375,-2.772609375,-0.40305078125,-15.51207421875,-12.119953125,-8.36506640625,-2.25245703125,-0.768679687500001,-9.7745859375,-0.90446875,-4.27584765625,-2.79021484375
-2.14100390625,-1.857484375,-0.7860390625,3.21197265625,-0.7043203125,-3.24802734375,5.12678515625,8.37171875,6.04925390625,-4.6119921875,1.483015625,3.1783203125,-12.2658828125,-2.8508203125,-0.391734374999999,4.39003125,-3.74857421875,-9.9948125,-9.22946484375,0.452390625,2.52494921875,-14.13007421875,-9.438953125,-5.16806640625,1.35054296875,0.8383203125,-6.6185859375,2.11653125,-1.98284765625,-0.58221484375
-0.72600390625,0.0625156250000005,0.4609609375,2.63597265625,1.7136796875,-1.45602734375,7.03078515625,10.31971875,7.76825390625,-2.3049921875,4.173015625,5.6933203125,-11.3718828125,-0.964820312499999,2.527265625,8.34903125,-1.01657421875,-9.2748125,-6.71746484375,3.922390625,6.01994921875,-12.97807421875,-6.869953125,-1.59006640625,5.17454296875,3.0493203125,-3.3445859375,4.76453125,0.33215234375,2.15478515625
1.47199609375,2.391515625,1.6359609375,2.57197265625,3.2176796875,0.215972656249999,9.47778515625,11.52071875,8.43825390625,-0.450992187500001,7.042015625,8.9783203125,-10.1638828125,0.0201796875000007,5.338265625,12.26903125,2.84242578125,-9.0218125,-4.36446484375,7.200390625,9.68494921875,-12.26707421875,-4.781953125,1.97793359375,8.76354296875,5.6193203125,-0.242585937499999,6.54653125,2.36215234375,5.01678515625
3.81799609375,4.447515625,2.8449609375,2.87797265625,3.5426796875,1.37897265625,11.73378515625,12.41271875,7.48325390625,0.681007812499999,9.415015625,12.1163203125,-9.5328828125,0.0861796875000014,7.618265625,15.33403125,6.82542578125,-9.2608125,-2.40446484375,9.876390625,12.95794921875,-12.00007421875,-3.306953125,5.10493359375,11.68254296875,8.1663203125,2.4644140625,7.28953125,3.91315234375,7.52478515625
5.51599609375,5.681515625,4.1399609375,3.21897265625,3.0176796875,1.91297265625,13.20678515625,13.30471875,5.01625390625,1.2000078125,10.875015625,14.3173203125,-10.2598828125,-0.310820312499999,9.205265625,17.03303125,9.96842578125,-9.7268125,-0.82446484375,11.755390625,15.29894921875,-11.96707421875,-2.283953125,7.52893359375,13.67554296875,10.3113203125,4.6944140625,7.23053125,4.98015234375,9.32978515625
6.03099609375,5.944515625,5.4209609375,3.22897265625,2.4126796875,2.10697265625,13.84578515625,14.15371875,1.83725390625,1.5940078125,11.531015625,15.3903203125,-12.5748828125,-0.4218203125,10.323265625,17.46403125,11.67642578125,-9.9398125,0.65253515625,12.984390625,16.44094921875,-11.82507421875,-1.299953125,9.31693359375,14.78654296875,11.8403203125,6.5484140625,6.90953125,5.74915234375,10.36178515625
5.44599609375,5.589515625,6.5539609375,2.70497265625,2.6116796875,2.60397265625,14.21978515625,14.71371875,-0.824746093749999,2.5720078125,12.010015625,15.9273203125,-15.8828828125,0.484179687500001,11.526265625,17.34303125,11.87642578125,-9.3868125,2.45853515625,14.019390625,16.55794921875,-11.21807421875,0.153046874999999,10.85793359375,15.35954296875,12.7883203125,8.2724140625,6.93553125,6.52915234375,10.84778515625
4.48299609375,5.313515625,7.5769609375,1.73097265625,4.2446796875,4.11097265625,15.18178515625,14.88171875,-1.77274609375,4.7560078125,13.152015625,16.9743203125,-18.8588828125,2.8271796875,13.439265625,17.66903125,10.97942578125,-7.7408125,4.98053515625,15.423390625,16.21594921875,-9.91307421875,2.471046875,12.67993359375,15.89454296875,13.4043203125,10.1644140625,7.73853125,7.62415234375,11.17878515625
4.08799609375,5.791515625,8.7269609375,0.63097265625,7.4056796875,7.00097265625,17.27378515625,14.91471875,-0.378746093749999,8.3420078125,15.511015625,19.3113203125,-20.0018828125,6.5161796875,16.401265625,19.16403125,9.71242578125,-5.0158125,8.34453515625,17.564390625,16.07694921875,-7.91107421875,5.747046875,15.14693359375,16.80554296875,14.0003203125,12.4224140625,9.40353125,9.20715234375,11.69578515625
4.82999609375,7.287515625,10.2009609375,-0.22602734375,11.5436796875,11.00897265625,20.25878515625,15.32371875,3.03925390625,12.8950078125,18.934015625,22.7683203125,-18.3938828125,10.9391796875,20.183265625,21.78103125,8.88242578125,-1.5998125,12.27853515625,20.340390625,16.49394921875,-5.46207421875,9.661046875,18.20593359375,18.17754296875,14.7533203125,15.0224140625,11.65853125,11.21915234375,12.51278515625
6.54399609375,9.467515625,11.8449609375,-0.63802734375,15.6246796875,15.24397265625,23.12078515625,16.51771875,7.26325390625,17.4300078125,22.511015625,26.0883203125,-14.2528828125,15.1481796875,23.971265625,24.59803125,9.06742578125,1.8711875,16.14653515625,23.128390625,17.27294921875,-2.96707421875,13.559046875,21.33993359375,19.67854296875,15.5883203125,17.6664140625,14.00953125,13.36215234375,13.45678515625
8.44999609375,11.546515625,13.1229609375,-0.66902734375,18.5356796875,18.54997265625,24.58678515625,18.44371875,10.70925390625,20.7990078125,24.989015625,27.5323203125,-8.8968828125,18.2271796875,26.690265625,26.26403125,10.31842578125,4.7821875,19.18553515625,25.034390625,17.79394921875,-0.783074218749999,16.698046875,23.75493359375,20.70154296875,16.2223203125,19.8854140625,15.95053125,15.20115234375,14.17778515625
9.68999609375,12.716515625,13.4559609375,-0.58402734375,19.5746796875,20.05797265625,23.84278515625,20.49671875,12.20525390625,22.2140078125,25.431015625,25.8993203125,-4.1198828125,19.6691796875,27.525265625,25.74603125,12.06042578125,6.7991875,20.85053515625,25.331390625,17.44494921875,0.954925781250001,18.560046875,24.74593359375,20.68754296875,16.3463203125,21.2364140625,17.16153125,16.35415234375,14.34478515625
9.85399609375,12.582515625,12.6809609375,-0.61602734375,18.7916796875,19.59897265625,20.99278515625,21.80271875,11.57425390625,21.6100078125,23.704015625,21.3233203125,-1.3268828125,19.5741796875,26.317265625,22.93103125,13.34342578125,7.9811875,21.06453515625,23.824390625,16.04194921875,2.39692578125,19.053046875,24.00293359375,19.42354296875,15.8313203125,21.4864140625,17.59953125,16.64715234375,13.82678515625
9.17199609375,11.358515625,11.2509609375,-0.75002734375,16.9386796875,17.75397265625,16.98178515625,21.68171875,9.69425390625,19.6480078125,20.502015625,15.3333203125,-0.9208828125,18.5431796875,23.609265625,18.68503125,13.31642578125,8.6841875,20.21753515625,20.932390625,13.93094921875,3.85092578125,18.492046875,21.72393359375,17.13954296875,14.8043203125,20.6724140625,17.42753125,16.14815234375,12.74878515625
8.26899609375,9.723515625,9.9709609375,-0.65602734375,15.0756796875,15.48297265625,13.07678515625,19.96371875,7.98325390625,17.3270078125,16.941015625,10.1063203125,-2.1868828125,17.3331796875,20.329265625,14.38903125,11.61242578125,9.3351875,18.91653515625,17.460390625,11.76894921875,5.55392578125,17.398046875,18.48193359375,14.37654296875,13.5543203125,19.0294140625,16.86953125,15.08115234375,11.40678515625
7.75799609375,8.442515625,9.4739609375,0.15697265625,14.0566796875,13.60397265625,10.24778515625,16.97771875,7.65125390625,15.4700078125,14.003015625,7.3593203125,-3.6628828125,16.4931796875,17.330265625,11.22703125,8.44842578125,10.2271875,17.65953515625,14.205390625,10.13794921875,7.50092578125,16.236046875,14.95393359375,11.71054296875,12.3343203125,16.8484140625,16.07653125,13.68515234375,10.08478515625
7.94799609375,7.982515625,9.8089609375,2.06197265625,14.1576796875,12.42097265625,8.80178515625,13.28571875,9.11525390625,14.3730078125,12.118015625,7.4853203125,-3.7988828125,16.1581796875,15.034265625,9.63903125,4.46442578125,11.4101875,16.61453515625,11.612390625,9.23394921875,9.42592578125,15.220046875,11.64593359375,9.49154296875,11.2083203125,14.3614140625,15.08053125,12.09415234375,8.89478515625
8.77899609375,8.317515625,10.4319609375,5.05597265625,15.0186796875,11.69597265625,8.39078515625,9.39671875,11.86025390625,13.7620078125,11.061015625,9.4143203125,-1.6708828125,16.0591796875,13.309265625,9.16603125,0.48542578125,12.7001875,15.60253515625,9.629390625,8.75394921875,10.94192578125,14.260046875,8.73893359375,7.70354296875,10.0163203125,11.6774140625,13.83553125,10.31515234375,7.70878515625
9.88599609375,8.969515625,10.5579609375,8.62297265625,15.8356796875,10.88997265625,8.27778515625,5.63371875,14.71325390625,13.0310078125,10.153015625,11.2423203125,2.5751171875,15.6881796875,11.632265625,8.74903125,-2.71057421875,13.7571875,14.24453515625,7.796390625,8.03294921875,11.70492578125,13.037046875,6.10493359375,6.00054296875,8.4753203125,8.7924140625,12.29253125,8.27615234375,6.23278515625
10.72199609375,9.268515625,9.6169609375,11.82897265625,15.7456796875,9.49897265625,7.69678515625,2.19971875,16.40125390625,11.5970078125,8.659015625,11.2663203125,7.8031171875,14.5631796875,9.429265625,7.32603125,-4.61357421875,14.2211875,12.20853515625,5.567390625,6.38894921875,11.54992578125,11.203046875,3.46793359375,3.94454296875,6.3673203125,5.6744140625,10.47153125,5.93615234375,4.19378515625
10.74899609375,8.699515625,7.5499609375,13.68697265625,14.2216796875,7.34797265625,6.16978515625,-0.65128125,16.17525390625,9.2330078125,6.206015625,8.8113203125,12.5021171875,12.4741796875,6.449265625,4.44003125,-5.19357421875,13.8581875,9.43853515625,2.683390625,3.54394921875,10.54292578125,8.616046875,0.65893359375,1.31154296875,3.7333203125,2.3964140625,8.49653125,3.38115234375,1.54978515625
9.68299609375,7.176515625,4.8319609375,13.66297265625,11.3316796875,4.71397265625,3.70378515625,-2.53328125,14.19525390625,6.2050078125,2.997015625,4.4373203125,15.5591171875,9.6081796875,2.940265625,0.51103125,-4.93857421875,12.6721875,6.23853515625,-0.614609375000001,-0.10505078125,8.94292578125,5.458046875,-2.22606640625,-1.70645703125,0.9393203125,-0.7925859375,6.56953125,0.84415234375,-1.41621484375
7.65399609375,5.065515625,2.2129609375,12.00997265625,7.7056796875,2.18797265625,0.73178515625,-3.09528125,11.42925390625,3.1350078125,-0.310984375,-0.5146796875,16.6821171875,6.4621796875,-0.475734375,-3.41496875,-4.62857421875,10.8971875,3.14353515625,-3.700609375,-3.62505078125,7.08392578125,2.162046875,-4.85406640625,-4.56845703125,-1.4406796875,-3.5245859375,4.88453125,-1.39884765625,-4.19821484375
5.16499609375,2.947515625,0.336960937500001,9.68797265625,4.2286796875,0.335972656249999,-2.13721484375,-2.32728125,9.06325390625,0.658007812499999,-2.986984375,-4.6726796875,16.2701171875,3.5711796875,-3.166734375,-6.30096875,-4.92257421875,8.8741875,0.631535156250001,-5.951609375,-6.05705078125,5.21292578125,-0.816953125,-6.88306640625,-6.71345703125,-2.9026796875,-5.5035859375,3.51753125,-3.16984765625,-6.32721484375
2.85499609375,1.294515625,-0.5580390625,7.88097265625,1.6186796875,-0.608027343750001,-4.41921484375,-0.70628125,7.81625390625,-0.9069921875,-4.605984375,-7.2456796875,14.9481171875,1.2681796875,-4.823734375,-7.69596875,-6.00457421875,6.9091875,-1.11346484375,-7.121609375,-6.99905078125,3.41292578125,-3.225953125,-8.19206640625,-7.88845703125,-3.2856796875,-6.6745859375,2.39453125,-4.47184765625,-7.61121484375
1.24499609375,0.301515625,-0.6560390625,7.41997265625,0.152679687500001,-0.81802734375,-5.87921484375,0.981718750000001,7.67425390625,-1.6279921875,-5.189984375,-8.1896796875,13.1801171875,-0.374820312499999,-5.553734375,-7.88096875,-7.46757421875,5.2091875,-2.20646484375,-7.431609375,-6.79105078125,1.65792578125,-5.045953125,-8.92706640625,-8.25945703125,-2.8346796875,-7.2245859375,1.36253125,-5.44584765625,-8.18121484375
0.58799609375,-0.0404843749999992,-0.3420390625,8.43197265625,-0.3143203125,-0.65402734375,-6.45621484375,2.03371875,8.15525390625,-1.7669921875,-5.028984375,-7.9276796875,11.2141171875,-1.4068203125,-5.677734375,-7.52496875,-8.49757421875,3.9031875,-2.85646484375,-7.320609375,-6.19605078125,-0.0670742187499993,-6.373953125,-9.31806640625,-8.20445703125,-2.0256796875,-7.4185859375,0.34053125,-6.22684765625,-8.34221484375
0.87099609375,0.216515625,0.0659609375000008,10.33997265625,-0.1093203125,-0.368027343750001,-6.12021484375,2.13471875,8.76125390625,-1.5339921875,-4.382984375,-6.9236796875,9.2581171875,-1.8388203125,-5.433734375,-7.12796875,-8.30657421875,3.0641875,-3.12446484375,-7.079609375,-5.81405078125,-1.67707421875,-7.260953125,-9.44906640625,-8.00845703125,-1.2836796875,-7.3995859375,-0.58346875,-6.83084765625,-8.35121484375
1.88399609375,1.045515625,0.4609609375,12.17897265625,0.517679687500001,0.0419726562499996,-4.83821484375,1.41571875,9.24325390625,-0.981992187500001,-3.308984375,-5.4076796875,7.6111171875,-1.6088203125,-4.828734375,-6.69896875,-6.60257421875,2.6931875,-2.87146484375,-6.665609375,-5.69105078125,-3.01607421875,-7.664953125,-9.19506640625,-7.67545703125,-0.797679687500001,-7.1205859375,-1.19146875,-7.15484765625,-8.30121484375
3.32899609375,2.359515625,0.924960937500001,13.04997265625,1.4686796875,0.76597265625,-2.67321484375,0.341718750000001,9.54825390625,-0.0899921875,-1.737984375,-3.4096796875,6.5581171875,-0.712820312499998,-3.736734375,-5.86196875,-3.81357421875,2.6821875,-1.93246484375,-5.824609375,-5.38005078125,-3.95107421875,-7.533953125,-8.37106640625,-7.02045703125,-0.5116796875,-6.4445859375,-1.28046875,-7.07784765625,-8.14221484375
4.89899609375,3.912515625,1.6169609375,12.51097265625,2.6986796875,1.97397265625,0.0917851562500003,-0.47828125,9.66925390625,1.0820078125,0.302015624999999,-0.986679687500001,6.1161171875,0.662179687500002,-2.133734375,-4.27196875,-0.85757421875,2.8171875,-0.35446484375,-4.386609375,-4.35505078125,-4.44307421875,-6.914953125,-6.95406640625,-5.90045703125,-0.2356796875,-5.3095859375,-0.80946875,-6.56584765625,-7.78921484375
6.30399609375,5.308515625,2.6289609375,10.69897265625,4.0436796875,3.59697265625,2.90878515625,-0.490281249999999,9.53325390625,2.2830078125,2.523015625,1.5973203125,5.8921171875,2.1221796875,-0.257734375,-1.98696875,1.38742578125,2.8661875,1.49753515625,-2.497609375,-2.45905078125,-4.56107421875,-5.986953125,-5.18106640625,-4.39845703125,0.2323203125,-3.8185859375,0.0755312499999998,-5.70284765625,-7.20321484375
7.26399609375,6.146515625,3.8609609375,8.14397265625,5.1386796875,5.25997265625,5.08478515625,0.57071875,9.01125390625,3.1050078125,4.416015625,3.8973203125,5.2181171875,3.1941796875,1.421265625,0.46703125,2.55642578125,2.6821875,3.05153515625,-0.610609374999999,-0.0630507812500003,-4.42807421875,-5.010953125,-3.46906640625,-2.83045703125,1.0103203125,-2.2105859375,1.11553125,-4.63984765625,-6.43221484375
7.52699609375,6.190515625,4.9739609375,5.42497265625,5.4746796875,6.38397265625,6.00178515625,2.51371875,7.95625390625,3.0960078125,5.458015625,5.4933203125,3.5481171875,3.5021796875,2.373265625,2.34603125,2.91542578125,2.2591875,3.76753515625,0.713390625000001,2.10694921875,-4.18507421875,-4.236953125,-2.22806640625,-1.58745703125,2.0773203125,-0.759585937500001,2.06353125,-3.53084765625,-5.60121484375
6.91799609375,5.452515625,5.4699609375,2.90497265625,4.5726796875,6.41997265625,5.35278515625,4.67971875,6.23025390625,1.9260078125,5.315015625,6.1643203125,0.8561171875,2.8561796875,2.194265625,3.04103125,3.08942578125,1.6921875,3.35253515625,1.047390625,3.34894921875,-3.98207421875,-3.831953125,-1.70606640625,-0.952457031249999,3.2623203125,0.3134140625,2.76253125,-2.49784765625,-4.88121484375
5.38099609375,4.138515625,4.8929609375,0.67297265625,2.1746796875,5.06797265625,3.24578515625,6.15871875,3.72225390625,-0.507992187500001,3.939015625,5.9003203125,-2.2598828125,1.2391796875,0.719265625,2.33003125,3.62242578125,1.0641875,1.83653515625,0.260390624999999,3.34494921875,-4.00607421875,-3.866953125,-1.94306640625,-0.98945703125,4.2953203125,0.8864140625,3.15153125,-1.63584765625,-4.43121484375
3.02199609375,2.519515625,3.0709609375,-1.34102734375,-1.6023203125,2.38997265625,0.14178515625,6.15871875,0.40425390625,-4.0429921875,1.544015625,4.8093203125,-4.8948828125,-1.2488203125,-1.932734375,0.439031250000001,4.65842578125,0.3441875,-0.48946484375,-1.469609375,2.28494921875,-4.49607421875,-4.334953125,-2.83306640625,-1.54845703125,4.9343203125,0.9274140625,3.21953125,-1.02784765625,-4.35321484375
0.14299609375,0.832515625000001,0.277960937500001,-3.19002734375,-6.2263203125,-1.21502734375,-3.30621484375,4.41371875,-3.52074609375,-8.2819921875,-1.484984375,3.0863203125,-6.4028828125,-4.4088203125,-5.391734375,-2.08796875,5.93942578125,-0.633812499999999,-3.20646484375,-3.755609375,0.71894921875,-5.68207421875,-5.196953125,-4.21706640625,-2.37445703125,5.0883203125,0.471414062499999,2.96153125,-0.74784765625,-4.65321484375
-2.74800390625,-0.734484374999999,-2.7920390625,-4.79702734375,-10.8593203125,-5.12302734375,-6.44921484375,1.46871875,-7.51374609375,-12.6719921875,-4.690984375,1.0573203125,-6.7948828125,-7.9298203125,-9.121734375,-4.61696875,7.04642578125,-2.0768125,-5.90746484375,-6.157609375,-0.759050781250001,-7.65907421875,-6.396953125,-5.93206640625,-3.24145703125,4.8703203125,-0.4025859375,2.38253125,-0.83984765625,-5.23221484375
-5.01100390625,-2.035484375,-5.2780390625,-5.97902734375,-14.6183203125,-8.66502734375,-8.82121484375,-1.42628125,-10.79974609375,-16.6269921875,-7.639984375,-0.7876796875,-6.6978828125,-11.3918203125,-12.564734375,-6.63796875,7.65842578125,-4.0768125,-8.28946484375,-8.306609375,-1.75505078125,-10.24807421875,-7.846953125,-7.79306640625,-4.02445703125,4.5523203125,-1.5685859375,1.53253125,-1.27484765625,-5.91421484375
-6.08800390625,-2.969484375,-6.5230390625,-6.58602734375,-16.8873203125,-11.34702734375,-10.24321484375,-2.91328125,-12.74374609375,-19.6899921875,-10.001984375,-1.9186796875,-6.9258828125,-14.3538203125,-15.286734375,-7.89796875,7.66142578125,-6.5038125,-10.18746484375,-9.964609375,-2.13405078125,-12.97607421875,-9.398953125,-9.56406640625,-4.68345703125,4.4303203125,-2.8385859375,0.53453125,-1.93584765625,-6.51221484375
-5.76300390625,-3.530484375,-6.3860390625,-6.66502734375,-17.5403203125,-13.00402734375,-10.83121484375,-2.33028125,-13.23974609375,-21.6609921875,-11.614984375,-2.0136796875,-7.9998828125,-16.4788203125,-17.074734375,-8.42296875,7.10742578125,-9.0108125,-11.55546484375,-11.039609375,-1.95005078125,-15.25807421875,-10.850953125,-10.98006640625,-5.21745703125,4.6703203125,-3.9935859375,-0.44646875,-2.64884765625,-6.90721484375
-4.31500390625,-3.825484375,-5.3120390625,-6.49802734375,-16.9653203125,-13.80602734375,-10.89821484375,-0.16128125,-12.79874609375,-22.6129921875,-12.512984375,-1.1816796875,-9.9058828125,-17.6558203125,-17.964734375,-8.45396875,6.11142578125,-11.1738125,-12.43446484375,-11.566609375,-1.37305078125,-16.68407421875,-12.014953125,-11.83606640625,-5.62945703125,5.2103203125,-4.8505859375,-1.28146875,-3.26184765625,-7.10621484375
-2.45300390625,-4.047484375,-4.1310390625,-6.47202734375,-15.8483203125,-14.12002734375,-10.79521484375,2.23071875,-12.23174609375,-22.8059921875,-12.892984375,0.00132031249999986,-12.1858828125,-18.0128203125,-18.180734375,-8.32096875,4.80542578125,-12.6718125,-12.90346484375,-11.672609375,-0.65505078125,-17.21607421875,-12.779953125,-12.06006640625,-5.92745703125,5.7833203125,-5.3435859375,-1.94546875,-3.70784765625,-7.23121484375
-1.05000390625,-4.366484375,-3.6730390625,-6.85202734375,-14.8363203125,-14.31902734375,-10.80121484375,3.38971875,-12.18374609375,-22.5429921875,-13.009984375,0.7093203125,-14.2338828125,-17.8388203125,-18.006734375,-8.27796875,3.36642578125,-13.3978125,-13.01846484375,-11.504609375,-0.10005078125,-17.15907421875,-13.127953125,-11.70506640625,-6.11245703125,6.0693203125,-5.5145859375,-2.50246875,-3.98684765625,-7.41521484375
-0.76900390625,-4.819484375,-4.3720390625,-7.61102734375,-14.2403203125,-14.62102734375,-11.06121484375,2.58271875,-12.80774609375,-22.0249921875,-13.039984375,0.2693203125,-15.5748828125,-17.4058203125,-17.622734375,-8.37196875,2.08242578125,-13.4388125,-12.75946484375,-11.137609375,0.0269492187499996,-16.92707421875,-13.065953125,-10.86906640625,-6.13245703125,5.9053203125,-5.4285859375,-3.00046875,-4.07184765625,-7.65921484375
-1.72000390625,-5.247484375,-6.0260390625,-8.39902734375,-13.9213203125,-14.99102734375,-11.55321484375,0.16871875,-13.72774609375,-21.2639921875,-12.972984375,-1.4506796875,-15.9958828125,-16.8128203125,-17.013734375,-8.42096875,1.32542578125,-12.9448125,-11.99646484375,-10.515609375,-0.35305078125,-16.75807421875,-12.540953125,-9.57906640625,-5.84945703125,5.4333203125,-5.0535859375,-3.35446875,-3.82384765625,-7.72421484375
-3.32200390625,-5.341484375,-7.8410390625,-8.68602734375,-13.4303203125,-15.13302734375,-12.05021484375,-2.62828125,-14.25574609375,-20.0689921875,-12.614984375,-3.8926796875,-15.5178828125,-15.9178203125,-15.976734375,-8.11096875,1.41342578125,-12.0028125,-10.52646484375,-9.462609375,-1.03105078125,-16.55207421875,-11.415953125,-7.75306640625,-5.05845703125,5.0493203125,-4.2245859375,-3.30346875,-3.00384765625,-7.18621484375
-4.51800390625,-4.782484375,-8.7970390625,-8.02602734375,-12.2983203125,-14.63102734375,-12.19021484375,-4.36728125,-13.75374609375,-18.1699921875,-11.705984375,-6.0066796875,-14.3058828125,-14.4398203125,-14.258734375,-7.18796875,2.43442578125,-10.6078125,-8.19546484375,-7.791609375,-1.57205078125,-15.92707421875,-9.557953125,-5.28106640625,-3.59745703125,5.1943203125,-2.7335859375,-2.53946875,-1.41384765625,-5.65221484375
-4.27000390625,-3.418484375,-8.1470390625,-6.30602734375,-10.3203203125,-13.17802734375,-11.64521484375,-4.08728125,-11.96674609375,-15.4149921875,-10.098984375,-6.7106796875,-12.5998828125,-12.1558203125,-11.730734375,-5.62396875,4.16142578125,-8.7128125,-5.03346484375,-5.460609375,-1.56105078125,-14.45807421875,-6.983953125,-2.17706640625,-1.47645703125,6.0833203125,-0.502585937500001,-0.90146875,0.92415234375,-3.04121484375
-2.09300390625,-1.374484375,-5.8080390625,-3.82302734375,-7.6713203125,-10.77802734375,-10.32021484375,-1.68228125,-9.12574609375,-11.9319921875,-7.897984375,-5.4446796875,-10.6488828125,-9.0788203125,-8.526734375,-3.68096875,6.10742578125,-6.3218125,-1.32746484375,-2.670609375,-0.88205078125,-11.94807421875,-3.934953125,1.30493359375,1.04254296875,7.5623203125,2.2884140625,1.46353125,3.68515234375,0.27678515625
1.65899609375,0.949515625000001,-2.4380390625,-1.13402734375,-4.8173203125,-7.79602734375,-8.44421484375,2.12271875,-5.82474609375,-8.1489921875,-5.456984375,-2.5366796875,-8.6568828125,-5.5148203125,-5.056734375,-1.82696875,7.65942578125,-3.5338125,2.42753515625,0.136390625000001,0.16394921875,-8.58707421875,-0.837953125,4.69893359375,3.49654296875,9.1623203125,5.2074140625,4.11753125,6.33015234375,3.60178515625
5.90899609375,3.007515625,0.8439609375,1.19597265625,-2.3103203125,-4.83802734375,-6.49721484375,6.05971875,-2.76874609375,-4.6659921875,-3.267984375,0.8573203125,-6.7468828125,-1.9748203125,-1.902734375,-0.54296875,8.24842578125,-0.547812499999999,5.68253515625,2.428390625,1.02194921875,-4.89607421875,1.850046875,7.48093359375,5.38454296875,10.3213203125,7.7094140625,6.50853125,8.33115234375,6.20878515625
9.34399609375,4.324515625,2.9779609375,2.80297265625,-0.5503203125,-2.50602734375,-4.98021484375,8.71671875,-0.51474609375,-2.0269921875,-1.744984375,3.3143203125,-4.9608828125,1.0151796875,0.407265625000001,-0.10396875,7.54242578125,2.3931875,8.04053515625,3.803390625,1.22994921875,-1.50807421875,3.819046875,9.26993359375,6.37254296875,10.6403203125,9.3634140625,8.20753125,9.40115234375,7.67278515625
11.02799609375,4.721515625,3.4579609375,3.59797265625,0.357679687500001,-1.14602734375,-4.17321484375,9.01571875,0.73225390625,-0.500992187500001,-1.055984375,3.8763203125,-3.2868828125,3.1341796875,1.602265625,-0.46996875,5.64142578125,5.0991875,9.39753515625,4.149390625,0.71294921875,1.10792578125,5.027046875,9.96093359375,6.42654296875,10.0493203125,10.0204140625,9.04653125,9.59415234375,8.01078515625
10.81199609375,4.394515625,2.5389609375,3.74997265625,0.6006796875,-0.70902734375,-4.03721484375,6.70871875,1.17625390625,0.00700781249999949,-1.090984375,2.4543203125,-1.6608828125,4.3651796875,1.745265625,-1.37096875,3.11642578125,7.4931875,9.94853515625,3.658390625,-0.19505078125,2.82092578125,5.698046875,9.71593359375,5.78654296875,8.8023203125,9.8514140625,9.11353125,9.22815234375,7.59778515625
9.31299609375,3.785515625,1.0209609375,3.57497265625,0.4906796875,-0.845027343750001,-4.32521484375,2.60971875,1.25725390625,-0.1409921875,-1.590984375,-0.3366796875,0.0511171874999996,4.9401796875,1.118265625,-2.50496875,0.80142578125,9.6071875,10.02253515625,2.667390625,-0.99505078125,3.82992578125,6.168046875,8.83993359375,4.81654296875,7.3243203125,9.2224140625,8.62553125,8.67815234375,6.92178515625
7.51999609375,3.334515625,-0.195039062499999,3.38797265625,0.270679687500001,-1.15402734375,-4.81321484375,-1.68928125,1.36125390625,-0.536992187500001,-2.315984375,-3.6426796875,2.0821171875,5.1551796875,0.0552656250000005,-3.67096875,-0.61657421875,11.4951875,9.88753515625,1.486390625,-1.32705078125,4.50492578125,6.687046875,7.61793359375,3.81954296875,5.9933203125,8.4894140625,7.77553125,8.18415234375,6.33678515625
6.32599609375,3.293515625,-0.5120390625,3.40297265625,0.0446796875000004,-1.38702734375,-5.42521484375,-4.55028125,1.63425390625,-0.9039921875,-3.128984375,-6.7376796875,4.7381171875,5.2271796875,-1.185734375,-4.75196875,-0.90457421875,13.1361875,9.62853515625,0.302390624999999,-1.14605078125,5.15392578125,7.275046875,6.23493359375,2.93654296875,5.0053203125,7.8424140625,6.65753125,7.75815234375,5.92578515625
6.22399609375,3.686515625,0.198960937500001,3.74197265625,-0.148320312499999,-1.46402734375,-6.17021484375,-5.04028125,2.01825390625,-1.1429921875,-3.957984375,-9.1186796875,8.2411171875,5.2391796875,-2.437734375,-5.63296875,-0.30857421875,14.4071875,9.18053515625,-0.795609375,-0.689050781250001,5.86792578125,7.744046875,4.77893359375,2.15354296875,4.3593203125,7.2564140625,5.28153125,7.24315234375,5.53678515625
7.21699609375,4.381515625,1.6779609375,4.46897265625,-0.225320312499999,-1.36402734375,-6.97721484375,-3.28828125,2.43425390625,-1.2659921875,-4.723984375,-10.4346796875,12.4881171875,5.1851796875,-3.596734375,-6.16296875,0.69242578125,15.1531875,8.43853515625,-1.767609375,-0.32505078125,6.51992578125,7.843046875,3.30293359375,1.37554296875,3.9423203125,6.5624140625,3.64553125,6.44415234375,4.91878515625
8.86999609375,5.193515625,3.4579609375,5.56097265625,-0.0683203124999991,-1.04302734375,-7.62421484375,-0.27728125,2.89225390625,-1.3259921875,-5.313984375,-10.4246796875,16.9141171875,5.0381796875,-4.573734375,-6.20596875,1.65042578125,15.3081875,7.38553515625,-2.572609375,-0.34205078125,6.88892578125,7.435046875,1.87893359375,0.52954296875,3.6313203125,5.5724140625,1.81053125,5.26915234375,3.89278515625
10.49799609375,5.947515625,5.0839609375,6.82597265625,0.3826796875,-0.444027343750001,-7.80921484375,2.75671875,3.45825390625,-1.3679921875,-5.592984375,-9.0026796875,20.6461171875,4.8011796875,-5.277734375,-5.70596875,2.27742578125,14.9701875,6.14953515625,-3.148609375,-0.79205078125,6.84292578125,6.613046875,0.617933593750001,-0.362457031249999,3.3513203125,4.2214140625,-0.06546875,3.80115234375,2.45578515625
11.44999609375,6.528515625,6.2819609375,7.93497265625,1.0426796875,0.45497265625,-7.29821484375,4.98571875,4.14725390625,-1.3999921875,-5.441984375,-6.4226796875,22.9091171875,4.5221796875,-5.612734375,-4.71996875,2.48342578125,14.3761875,4.98653515625,-3.424609375,-1.46505078125,6.44592578125,5.676046875,-0.34806640625,-1.17445703125,3.0773203125,2.6224140625,-1.75446875,2.27215234375,0.781785156250001
11.44899609375,6.919515625,7.0419609375,8.59597265625,1.7316796875,1.65597265625,-6.03621484375,6.36471875,4.88125390625,-1.3559921875,-4.799984375,-3.3296796875,23.4261171875,4.2811796875,-5.515734375,-3.40996875,2.38542578125,13.7981875,4.18153515625,-3.344609375,-2.01105078125,5.92292578125,4.998046875,-0.910066406249999,-1.73745703125,2.7963203125,1.0364140625,-3.03246875,0.94415234375,-0.863214843749999
10.76899609375,7.207515625,7.5739609375,8.77997265625,2.3286796875,3.15997265625,-4.13921484375,7.48571875,5.56125390625,-1.0799921875,-3.664984375,-0.5456796875,22.5441171875,4.1721796875,-4.979734375,-1.98396875,2.29842578125,13.4311875,3.91753515625,-2.901609375,-2.13305078125,5.51792578125,4.856046875,-1.02406640625,-1.92345703125,2.4823203125,-0.249585937500001,-3.77746875,-0.0218476562500003,-2.24221484375
10.14099609375,7.563515625,8.1189609375,8.80197265625,2.8936796875,4.97497265625,-1.80921484375,8.99371875,6.14125390625,-0.3789921875,-2.091984375,1.3323203125,21.0241171875,4.2831796875,-4.058734375,-0.627968749999999,2.63142578125,13.3201875,4.19253515625,-2.154609375,-1.72705078125,5.34992578125,5.304046875,-0.738066406249999,-1.71245703125,2.1003203125,-1.0385859375,-4.03746875,-0.62184765625,-3.23421484375
10.34199609375,8.139515625,8.7309609375,9.18597265625,3.6466796875,7.06797265625,0.757785156250001,11.00971875,6.63725390625,0.8650078125,-0.173984375,2.2393203125,19.6591171875,4.6471796875,-2.858734375,0.54003125,3.67642578125,13.3481875,4.80153515625,-1.226609375,-0.894050781250001,5.35692578125,6.135046875,-0.18206640625,-1.20345703125,1.6483203125,-1.3065859375,-4.02846875,-0.95884765625,-3.83521484375
11.70499609375,8.953515625,9.2029609375,10.34897265625,4.7606796875,9.29897265625,3.40778515625,12.96571875,7.02825390625,2.5690078125,1.950015625,2.5883203125,18.9171171875,5.1821796875,-1.535734375,1.49003125,5.41642578125,13.2781875,5.41053515625,-0.281609375,0.15094921875,5.33392578125,6.949046875,0.473933593750001,-0.55945703125,1.1903203125,-1.1935859375,-4.05146875,-1.15184765625,-4.09921484375
13.83699609375,9.824515625,9.2099609375,12.26497265625,6.1636796875,11.40797265625,5.98378515625,13.97571875,7.17125390625,4.4190078125,4.098015625,2.9303203125,18.7671171875,5.6791796875,-0.274734375,2.27103125,7.50842578125,12.8301875,5.69653515625,0.516390625,1.19394921875,5.02092578125,7.302046875,1.07593359375,0.0585429687500003,0.8453203125,-0.9375859375,-4.37846875,-1.26384765625,-4.06121484375
15.77999609375,10.445515625,8.5909609375,14.35897265625,7.5236796875,13.08197265625,8.27378515625,13.42071875,6.84325390625,5.9680078125,6.079015625,3.6083203125,18.7461171875,5.8801796875,0.758265625,2.98803125,9.46842578125,11.7971875,5.48853515625,1.068390625,2.09294921875,4.20692578125,6.879046875,1.52993359375,0.55854296875,0.7313203125,-0.7635859375,-5.13646875,-1.29684765625,-3.72821484375
16.53099609375,10.546515625,7.5119609375,15.74897265625,8.4406796875,14.08397265625,10.02978515625,11.35371875,5.91425390625,6.8320078125,7.739015625,4.6433203125,18.2311171875,5.6041796875,1.479265625,3.73803125,10.89542578125,10.1441875,4.84553515625,1.356390625,2.77994921875,2.79692578125,5.613046875,1.79593359375,0.91254296875,0.8933203125,-0.817585937500001,-6.28446875,-1.26084765625,-3.11821484375
15.59899609375,10.033515625,6.3839609375,15.73597265625,8.6726796875,14.35997265625,11.03378515625,8.49171875,4.50325390625,6.8580078125,8.959015625,5.8293203125,16.7731171875,4.8261796875,1.878265625,4.51103125,11.58342578125,8.0181875,3.98753515625,1.402390625,3.22494921875,0.845925781250001,3.681046875,1.84193359375,1.10854296875,1.2513203125,-1.1595859375,-7.65846875,-1.24384765625,-2.34121484375
13.21199609375,9.007515625,5.5959609375,14.19497265625,8.2356796875,14.02597265625,11.16278515625,5.83571875,2.96825390625,6.1590078125,9.610015625,6.9023203125,14.3401171875,3.6491796875,1.950265625,5.11703125,11.50542578125,5.6781875,3.13053515625,1.193390625,3.40894921875,-1.47307421875,1.407046875,1.60293359375,1.09454296875,1.6243203125,-1.8175859375,-9.06446875,-1.41884765625,-1.62721484375
10.11299609375,7.690515625,5.2749609375,11.62497265625,7.3306796875,13.26397265625,10.42378515625,4.14871875,1.71425390625,5.0160078125,9.550015625,7.6883203125,11.3671171875,2.2121796875,1.642265625,5.23403125,10.79742578125,3.3851875,2.33753515625,0.659390625,3.32794921875,-3.92507421875,-0.883953125,1.00193359375,0.793542968750001,1.8103203125,-2.8045859375,-10.34246875,-1.97484765625,-1.27221484375
7.14299609375,6.318515625,5.2559609375,8.83997265625,6.2166796875,12.21097265625,8.96978515625,3.61171875,0.953253906250001,3.7160078125,8.691015625,8.1933203125,8.5851171875,0.620179687500002,0.863265625,4.59703125,9.77942578125,1.3121875,1.48353515625,-0.267609374999999,3.00394921875,-6.27307421875,-2.952953125,0.01393359375,0.17454296875,1.6903203125,-4.0965859375,-11.38746875,-2.99184765625,-1.50321484375
4.88399609375,5.069515625,5.2449609375,6.55297265625,5.0956796875,10.93597265625,7.09178515625,3.83171875,0.598253906250001,2.4430078125,7.095015625,8.5783203125,6.6961171875,-1.0848203125,-0.436734375,3.19603125,8.93042578125,-0.4758125,0.371535156249999,-1.565609375,2.48794921875,-8.30507421875,-4.679953125,-1.27606640625,-0.682457031249999,1.3023203125,-5.5645859375,-12.13346875,-4.34084765625,-2.33721484375
3.53599609375,4.020515625,5.0029609375,5.07897265625,4.0586796875,9.46897265625,5.13978515625,4.16571875,0.37225390625,1.2510078125,4.991015625,8.9673203125,6.0391171875,-2.8798203125,-2.214734375,1.32403125,8.67242578125,-1.9838125,-1.09946484375,-3.075609375,1.86494921875,-9.82107421875,-6.027953125,-2.66506640625,-1.58545703125,0.8253203125,-6.9535859375,-12.52946875,-5.68984765625,-3.51721484375
2.99199609375,3.148515625,4.4009609375,4.31897265625,3.0656796875,7.83397265625,3.37578515625,4.07271875,0.0562539062500012,0.0940078124999992,2.677015625,9.1833203125,6.3981171875,-4.6908203125,-4.312734375,-0.55196875,9.05642578125,-3.2248125,-2.83046484375,-4.537609375,1.25994921875,-10.62007421875,-6.991953125,-3.89106640625,-2.29845703125,0.4783203125,-7.9345859375,-12.52946875,-6.61584765625,-4.58821484375
2.99999609375,2.361515625,3.3789609375,3.96597265625,1.9716796875,6.05397265625,1.86078515625,3.28071875,-0.35874609375,-1.1129921875,0.400015625,8.7083203125,7.0521171875,-6.3688203125,-6.488734375,-2.02596875,9.62642578125,-4.1918125,-4.55146484375,-5.692609375,0.82094921875,-10.55307421875,-7.569953125,-4.74306640625,-2.65045703125,0.3943203125,-8.2325859375,-12.11246875,-6.79084765625,-5.09121484375
3.30399609375,1.555515625,1.9019609375,3.77197265625,0.597679687500001,4.17097265625,0.51178515625,1.75171875,-0.734746093749999,-2.4439921875,-1.691984375,7.0073203125,7.0451171875,-7.7458203125,-8.484734375,-2.91396875,9.65942578125,-4.8888125,-5.96446484375,-6.383609375,0.65994921875,-9.61707421875,-7.791953125,-5.14906640625,-2.61245703125,0.5543203125,-7.7775859375,-11.32146875,-6.13084765625,-4.77821484375
3.69099609375,0.683515625000001,0.0229609375000006,3.69397265625,-1.1423203125,2.28897265625,-0.726214843749999,-0.406281249999999,-0.962746093749999,-3.9189921875,-3.515984375,4.0103203125,5.5941171875,-8.7388203125,-10.094734375,-3.28596875,8.67442578125,-5.3698125,-6.90746484375,-6.616609375,0.77494921875,-8.03507421875,-7.756953125,-5.18806640625,-2.32645703125,0.8183203125,-6.7685859375,-10.27646875,-4.84584765625,-3.72421484375
3.98299609375,-0.218484374999999,-2.0160390625,3.83997265625,-3.1163203125,0.57997265625,-1.75621484375,-2.94828125,-1.04274609375,-5.4619921875,-4.995984375,0.3153203125,2.4951171875,-9.3708203125,-11.208734375,-3.38196875,6.80642578125,-5.7208125,-7.39846484375,-6.542609375,1.03294921875,-6.22807421875,-7.636953125,-5.01606640625,-2.03145703125,1.0203203125,-5.5965859375,-9.14746875,-3.33384765625,-2.27221484375
4.06399609375,-1.026484375,-3.7360390625,4.28997265625,-4.9433203125,-0.761027343750001,-2.39621484375,-5.40628125,-1.03674609375,-6.9099921875,-6.053984375,-3.0766796875,-1.5968828125,-9.7078203125,-11.797734375,-3.48496875,4.77342578125,-5.9868125,-7.55246484375,-6.367609375,1.24594921875,-4.65107421875,-7.593953125,-4.75006640625,-1.93045703125,1.0683203125,-4.6505859375,-8.07346875,-1.98384765625,-0.84221484375
3.95899609375,-1.563484375,-4.5420390625,4.98897265625,-6.1683203125,-1.61302734375,-2.55621484375,-7.04228125,-0.981746093749999,-8.0549921875,-6.641984375,-5.2606796875,-5.2468828125,-9.7868203125,-11.884734375,-3.78696875,3.47242578125,-6.1258125,-7.46446484375,-6.236609375,1.28694921875,-3.58907421875,-7.688953125,-4.39206640625,-2.05545703125,0.9893203125,-4.1225859375,-7.10146875,-0.99884765625,0.287785156250001
3.89599609375,-1.657484375,-4.0070390625,5.74997265625,-6.5393203125,-1.98602734375,-2.34321484375,-7.02228125,-0.895746093749999,-8.7349921875,-6.792984375,-5.8046796875,-6.7998828125,-9.6238203125,-11.542734375,-4.27996875,3.48842578125,-6.0568125,-7.16346484375,-6.169609375,1.16894921875,-3.04707421875,-7.851953125,-3.85706640625,-2.24845703125,0.8993203125,-3.9475859375,-6.19146875,-0.34984765625,1.06278515625
4.19999609375,-1.221484375,-2.1820390625,6.33897265625,-6.2033203125,-2.03802734375,-2.01321484375,-4.85828125,-0.83874609375,-8.9279921875,-6.635984375,-4.8126796875,-5.2808828125,-9.2778203125,-10.925734375,-4.75096875,4.81642578125,-5.7758125,-6.68546484375,-6.086609375,1.01194921875,-2.82507421875,-7.958953125,-3.08906640625,-2.25645703125,0.9063203125,-3.9255859375,-5.31346875,0.11415234375,1.57178515625
5.07399609375,-0.334484375,0.313960937500001,6.53297265625,-5.6243203125,-2.03902734375,-1.81121484375,-0.858281249999999,-0.949746093749999,-8.7789921875,-6.366984375,-2.7826796875,-1.0778828125,-8.8848203125,-10.259734375,-4.89996875,6.91542578125,-5.4308125,-6.14546484375,-5.897609375,0.96394921875,-2.71007421875,-7.945953125,-2.17506640625,-1.89745703125,1.0163203125,-3.8955859375,-4.53046875,0.49915234375,1.86878515625
6.41099609375,0.757515625000001,2.5479609375,6.18097265625,-5.2743203125,-2.27302734375,-1.84921484375,3.78271875,-1.39174609375,-8.5249921875,-6.184984375,-0.4356796875,4.1341171875,-8.5908203125,-9.776734375,-4.54296875,9.03642578125,-5.2508125,-5.72846484375,-5.579609375,1.12194921875,-2.64007421875,-7.848953125,-1.35306640625,-1.17845703125,1.1273203125,-3.8375859375,-4.00046875,0.77615234375,1.87778515625
7.82799609375,1.727515625,3.7129609375,5.30697265625,-5.3313203125,-2.91602734375,-2.09821484375,7.39171875,-2.23374609375,-8.3519921875,-6.229984375,1.4353203125,8.2411171875,-8.4558203125,-9.605734375,-3.75696875,10.59242578125,-5.3978125,-5.57746484375,-5.189609375,1.47894921875,-2.70807421875,-7.743953125,-0.894066406249999,-0.286457031249999,1.1043203125,-3.8255859375,-3.85346875,0.84115234375,1.44078515625
8.85799609375,2.300515625,3.4949609375,4.17697265625,-5.6063203125,-3.94502734375,-2.42621484375,8.48671875,-3.39174609375,-8.2779921875,-6.530984375,2.1533203125,9.7651171875,-8.4148203125,-9.707734375,-2.86496875,11.35642578125,-5.8378125,-5.67646484375,-4.819609375,1.91394921875,-3.03207421875,-7.648953125,-0.940066406249999,0.498542968750001,0.8943203125,-3.9135859375,-4.06146875,0.64915234375,0.488785156250001
9.17799609375,2.364515625,2.1439609375,3.20497265625,-5.7273203125,-5.13102734375,-2.63621484375,6.34971875,-4.66374609375,-8.1599921875,-6.960984375,1.4413203125,8.5201171875,-8.3268203125,-9.877734375,-2.22796875,11.43342578125,-6.3408125,-5.82046484375,-4.517609375,2.22794921875,-3.59007421875,-7.461953125,-1.41706640625,0.946542968750001,0.5713203125,-4.0545859375,-4.39346875,0.31715234375,-0.81321484375
8.72099609375,2.004515625,0.293960937500001,2.70897265625,-5.4073203125,-6.12502734375,-2.47021484375,1.32671875,-5.83174609375,-7.7869921875,-7.227984375,-0.3386796875,5.5361171875,-8.0478203125,-9.824734375,-1.98996875,11.06142578125,-6.5918125,-5.71246484375,-4.230609375,2.25894921875,-4.15107421875,-6.996953125,-2.05606640625,0.98954296875,0.2953203125,-4.1015859375,-4.49546875,0.10315234375,-2.05921484375
7.65699609375,1.457515625,-1.3270390625,2.70297265625,-4.6263203125,-6.57902734375,-1.67721484375,-5.17828125,-6.72974609375,-7.0009921875,-6.972984375,-2.2116796875,2.4221171875,-7.4948203125,-9.285734375,-1.96596875,10.40642578125,-6.3478125,-5.11146484375,-3.831609375,1.97994921875,-4.36307421875,-6.089953125,-2.51406640625,0.74254296875,0.2063203125,-3.8915859375,-4.07646875,0.27215234375,-2.76021484375
6.26999609375,0.985515625000001,-2.1650390625,2.89397265625,-3.6463203125,-6.29202734375,-0.19221484375,-11.03928125,-7.26674609375,-5.7759921875,-5.984984375,-3.0566796875,0.540117187499999,-6.6718203125,-8.176734375,-1.80796875,9.49142578125,-5.5478125,-3.98946484375,-3.227609375,1.51794921875,-3.94807421875,-4.733953125,-2.54706640625,0.403542968750001,0.3283203125,-3.3765859375,-3.06846875,0.91115234375,-2.59521484375
4.79699609375,0.729515625,-2.0040390625,2.89397265625,-2.8773203125,-5.33802734375,1.63878515625,-14.09428125,-7.44674609375,-4.2609921875,-4.439984375,-2.3126796875,0.4061171875,-5.6918203125,-6.677734375,-1.34196875,8.26742578125,-4.3498125,-2.57746484375,-2.487609375,1.04294921875,-2.84807421875,-3.145953125,-2.13806640625,0.0995429687500007,0.5443203125,-2.6925859375,-1.69346875,1.83015234375,-1.60221484375
3.33899609375,0.643515625000001,-0.985039062499999,2.47797265625,-2.6843203125,-4.09902734375,3.03478515625,-13.06828125,-7.40574609375,-2.7549921875,-2.934984375,-0.4416796875,1.5781171875,-4.7498203125,-5.178734375,-0.790968749999999,6.75442578125,-3.0348125,-1.27646484375,-1.859609375,0.66994921875,-1.26407421875,-1.717953125,-1.51006640625,-0.206457031249998,0.6523203125,-2.1325859375,-0.37146875,2.61815234375,-0.19421484375
1.96499609375,0.557515625000001,0.510960937500001,1.71697265625,-3.2063203125,-3.10402734375,3.14478515625,-8.27528125,-7.38474609375,-1.5789921875,-2.212984375,1.2933203125,3.0721171875,-4.0348203125,-4.091734375,-0.67096875,5.12442578125,-1.8478125,-0.43646484375,-1.639609375,0.41494921875,0.457925781250001,-0.825953125,-0.99806640625,-0.651457031249999,0.4813203125,-1.9875859375,0.48253125,2.85015234375,1.03578515625
0.88599609375,0.349515625,2.0459609375,0.92197265625,-4.2513203125,-2.71302734375,1.63378515625,-1.65928125,-7.56374609375,-0.879992187500001,-2.690984375,1.6473203125,4.0311171875,-3.5958203125,-3.599734375,-1.41096875,3.65642578125,-0.851812499999999,-0.137464843749999,-1.950609375,0.22894921875,1.98092578125,-0.603953125,-0.82506640625,-1.31845703125,-0.0226796875000002,-2.3675859375,0.65653125,2.31315234375,1.61678515625
0.49299609375,0.0795156250000009,3.2729609375,0.44797265625,-5.3063203125,-2.86802734375,-0.92621484375,4.01971875,-7.86474609375,-0.4899921875,-4.121984375,0.2493203125,4.2351171875,-3.2548203125,-3.524734375,-2.98496875,2.59942578125,0.0921874999999996,-0.109464843750001,-2.609609375,0.0419492187500001,3.11392578125,-0.821953125,-0.94506640625,-2.11145703125,-0.7646796875,-3.1065859375,0.23853125,1.13915234375,1.42678515625
1.13999609375,-0.0304843749999995,3.9999609375,0.49897265625,-5.7043203125,-3.11202734375,-3.25621484375,6.46771875,-7.93574609375,-0.000992187500001407,-5.656984375,-2.1186796875,4.1281171875,-2.6658203125,-3.396734375,-4.82396875,2.03442578125,1.1951875,0.13053515625,-3.164609375,-0.20505078125,3.82992578125,-0.974953125000001,-1.06506640625,-2.75345703125,-1.5376796875,-3.8105859375,-0.43246875,-0.23184765625,0.723785156250001
2.83999609375,0.246515625000001,4.2079609375,1.06197265625,-4.8973203125,-2.87002734375,-4.05721484375,4.94671875,-7.39374609375,0.9940078125,-6.280984375,-4.0486796875,4.4111171875,-1.5128203125,-2.700734375,-6.08396875,1.85242578125,2.5551875,1.00653515625,-3.116609375,-0.52805078125,4.22092578125,-0.539953125,-0.81606640625,-2.91645703125,-2.0976796875,-4.0305859375,-0.91746875,-1.24884765625,-0.0242148437500003
5.13299609375,0.985515625000001,4.0499609375,1.99597265625,-2.7363203125,-1.77002734375,-2.73521484375,0.577718750000001,-6.12174609375,2.6440078125,-5.364984375,-4.4776796875,5.5571171875,0.273179687500001,-1.152734375,-6.08096875,1.89542578125,4.0351875,2.65553515625,-2.162609375,-0.852050781250001,4.42092578125,0.745046875,0.0319335937500007,-2.38445703125,-2.2286796875,-3.4625859375,-0.85646875,-1.48784765625,-0.402214843749999
7.26399609375,2.069515625,3.8489609375,3.15697265625,0.4306796875,0.189972656249999,0.31978515625,-4.27128125,-4.37574609375,4.7700078125,-2.968984375,-3.3846796875,7.5981171875,2.4421796875,1.180265625,-4.62896875,2.19242578125,5.3331875,4.87753515625,-0.331609374999999,-1.00905078125,4.55792578125,2.760046875,1.47693359375,-1.13945703125,-1.8026796875,-2.0625859375,-0.0674687500000002,-0.80784765625,-0.22021484375
8.57399609375,3.306515625,4.0529609375,4.45697265625,3.9106796875,2.71997265625,4.03078515625,-7.18828125,-2.57674609375,7.0110078125,0.290015625000001,-1.6876796875,10.2361171875,4.5791796875,3.972265625,-2.07196875,3.06642578125,6.1991875,7.29153515625,2.078390625,-0.77705078125,4.73692578125,5.107046875,3.33493359375,0.67854296875,-0.7936796875,-0.0165859375000004,1.45453125,0.64815234375,0.47878515625
8.85399609375,4.595515625,5.0859609375,5.83697265625,7.0016796875,5.44497265625,7.28278515625,-6.83728125,-0.952746093749999,9.0830078125,3.660015625,-0.401679687500001,13.0611171875,6.3731796875,6.869265625,1.00403125,4.93442578125,6.6491875,9.56453515625,4.716390625,0.0329492187499998,5.01992578125,7.351046875,5.38793359375,2.89454296875,0.7283203125,2.3784140625,3.60053125,2.58015234375,1.54078515625
8.43899609375,5.979515625,7.1119609375,7.22497265625,9.2746796875,8.11097265625,9.47678515625,-3.41428125,0.63925390625,10.9320078125,6.660015625,0.223320312499999,15.6591171875,7.8041796875,9.663265625,4.12203125,7.87242578125,6.9851875,11.55653515625,7.353390625,1.49694921875,5.41092578125,9.207046875,7.48093359375,5.36954296875,2.6083203125,4.8354140625,6.19253125,4.66615234375,2.82778515625
7.94499609375,7.523515625,9.8309609375,8.49297265625,10.6316796875,10.59297265625,10.64778515625,1.67971875,2.51025390625,12.6660078125,9.172015625,0.8043203125,17.6141171875,9.0561796875,12.248265625,7.04603125,11.30642578125,7.5641875,13.25053515625,9.887390625,3.50694921875,5.82992578125,10.553046875,9.49193359375,7.96554296875,4.5803203125,7.0954140625,8.95553125,6.61515234375,4.22078515625
7.81899609375,9.091515625,12.4749609375,9.40797265625,11.1516796875,12.75097265625,11.13978515625,6.59671875,4.68425390625,14.3080078125,11.215015625,2.1333203125,18.5531171875,10.2351796875,14.457265625,9.64003125,14.12342578125,8.4721875,14.56653515625,12.186390625,5.74794921875,6.11092578125,11.307046875,11.21593359375,10.42554296875,6.2663203125,8.8864140625,11.46453125,8.15415234375,5.53678515625
8.03899609375,10.272515625,14.0799609375,9.66397265625,10.9206796875,14.30697265625,11.21978515625,9.72871875,6.64425390625,15.6230078125,12.701015625,4.3743203125,18.3281171875,11.1571796875,15.958265625,11.65803125,15.21342578125,9.3711875,15.25453515625,13.938390625,7.74094921875,6.05592578125,11.323046875,12.31093359375,12.32754296875,7.2403203125,9.9144140625,13.17853125,9.02315234375,6.48578515625
8.20499609375,10.555515625,13.9179609375,9.04497265625,10.0346796875,14.94097265625,10.96178515625,10.15771875,7.58325390625,16.2140078125,13.419015625,6.8683203125,17.1701171875,11.4271796875,16.374265625,12.72603125,14.07142578125,9.6711875,14.99853515625,14.717390625,8.98294921875,5.54392578125,10.439046875,12.41693359375,13.20554296875,7.1773203125,9.9434140625,13.62053125,9.04715234375,6.75678515625
7.88999609375,9.669515625,11.8679609375,7.63597265625,8.7086796875,14.53697265625,10.41078515625,7.87071875,6.99225390625,15.8340078125,13.242015625,8.6183203125,15.5961171875,10.7501796875,15.536265625,12.56903125,11.06742578125,8.9221875,13.66553515625,14.225390625,9.14494921875,4.62492578125,8.640046875,11.39193359375,12.78654296875,6.0083203125,8.9484140625,12.62653125,8.24115234375,6.19778515625
6.95899609375,7.797515625,8.5159609375,5.88597265625,7.3196796875,13.34397265625,9.73678515625,3.75271875,5.07525390625,14.6230078125,12.331015625,8.9613203125,14.0691171875,9.2191796875,13.680265625,11.27203125,7.22942578125,7.1471875,11.51053515625,12.548390625,8.20394921875,3.51192578125,6.191046875,9.49293359375,11.17954296875,3.9813203125,7.1924140625,10.49553125,6.85515234375,4.94278515625
5.61799609375,5.495515625,4.9109609375,4.40797265625,6.2706796875,11.86497265625,9.17478515625,-0.76428125,2.64925390625,13.0480078125,11.099015625,7.8843203125,12.6591171875,7.3151796875,11.394265625,9.29703125,3.71642578125,4.8701875,9.10853515625,10.180390625,6.43994921875,2.47692578125,3.601046875,7.30993359375,8.86454296875,1.5613203125,5.1604140625,7.90253125,5.30215234375,3.34578515625
4.22199609375,3.369515625,2.1029609375,3.65397265625,5.7596796875,10.54397265625,8.79078515625,-4.29428125,0.630253906250001,11.5890078125,9.941015625,5.8493203125,11.0651171875,5.6371796875,9.310265625,7.20403125,1.29242578125,2.8391875,7.07053515625,7.775390625,4.27094921875,1.70592578125,1.415046875,5.48293359375,6.44954296875,-0.7906796875,3.3464140625,5.60453125,3.96815234375,1.77978515625
3.03699609375,1.757515625,0.706960937500001,3.68497265625,5.6416796875,9.50697265625,8.34978515625,-6.07128125,-0.49874609375,10.4230078125,8.949015625,3.3983203125,9.0031171875,4.5431796875,7.759265625,5.29303125,0.09742578125,1.6271875,5.71153515625,5.791390625,2.05294921875,1.23892578125,-0.0199531250000007,4.38193359375,4.36854296875,-2.7946796875,2.0324140625,4.12653125,3.05615234375,0.44678515625
2.11599609375,0.636515625,0.704960937500001,4.16797265625,5.5356796875,8.55097265625,7.44978515625,-6.17228125,-0.878746093749999,9.3690078125,7.894015625,0.912320312499999,6.6711171875,4.0021796875,6.649265625,3.51103125,-0.24057421875,1.3871875,4.93153515625,4.313390625,-0.00205078125000036,1.02792578125,-0.669953125000001,3.97493359375,2.73854296875,-4.3906796875,1.2144140625,3.59753125,2.53515234375,-0.658214843749999
1.33099609375,-0.220484374999999,1.5419609375,4.57297265625,5.0846796875,7.36497265625,5.87678515625,-5.29428125,-1.08174609375,8.0930078125,6.479015625,-1.3456796875,4.8391171875,3.6951796875,5.635265625,1.69303125,-0.30057421875,1.8601875,4.36553515625,3.147390625,-1.73305078125,1.03792578125,-0.741953125,3.94693359375,1.44854296875,-5.6186796875,0.698414062499999,3.80553125,2.23415234375,-1.63621484375
0.49299609375,-1.012484375,2.4329609375,4.44397265625,4.1626796875,5.75797265625,3.82378515625,-4.26928125,-1.74574609375,6.3910078125,4.624015625,-3.0946796875,4.4381171875,3.2611796875,4.411265625,-0.15796875,-0.54957421875,2.5631875,3.64053515625,2.051390625,-2.95305078125,1.29492578125,-0.539953125,3.92793359375,0.33754296875,-6.4966796875,0.2624140625,4.35653125,1.96115234375,-2.53821484375
-0.51700390625,-1.802484375,2.7189609375,3.59397265625,2.8806796875,3.76497265625,1.78278515625,-3.61528125,-3.25974609375,4.3220078125,2.507015625,-4.1066796875,5.9101171875,2.4831796875,2.857265625,-1.86596875,-1.11157421875,3.0231875,2.55853515625,0.870390625000001,-3.52905078125,1.81892578125,-0.337953125,3.65593359375,-0.69445703125,-6.9946796875,-0.2475859375,4.83853125,1.57515234375,-3.32021484375
-1.65300390625,-2.553484375,2.1299609375,2.17597265625,1.4466796875,1.58597265625,0.18678515625,-3.41528125,-5.61874609375,2.1620078125,0.387015625,-4.4256796875,8.7891171875,1.3441796875,1.025265625,-3.31096875,-1.68157421875,2.9461875,1.12953515625,-0.455609375,-3.55405078125,2.54392578125,-0.316953125,3.02893359375,-1.68945703125,-7.0836796875,-0.8955859375,4.92753125,1.00815234375,-3.88321484375
-2.67900390625,-3.189484375,0.8549609375,0.60597265625,0.0426796874999997,-0.50002734375,-0.82521484375,-3.51828125,-8.43774609375,0.268007812499999,-1.545984375,-4.3876796875,11.8891171875,-0.00282031249999903,-0.933734375,-4.56296875,-1.68157421875,2.3121875,-0.47246484375,-1.908609375,-3.37605078125,3.29592578125,-0.526953125,2.10393359375,-2.63945703125,-6.7836796875,-1.6535859375,4.47453125,0.28015234375,-4.14421484375
-3.25000390625,-3.621484375,-0.588039062499999,-0.61502734375,-1.2103203125,-2.17802734375,-1.35221484375,-3.81428125,-11.08274609375,-1.0419921875,-3.149984375,-4.3286796875,13.9571171875,-1.2858203125,-2.778734375,-5.73796875,-0.66157421875,1.3591875,-1.96246484375,-3.354609375,-3.36105078125,3.87492578125,-0.873953125,1.07193359375,-3.45345703125,-6.1676796875,-2.3965859375,3.55653125,-0.47784765625,-4.07221484375
-3.06200390625,-3.748484375,-1.6460390625,-1.11402734375,-2.2203203125,-3.14102734375,-1.50721484375,-4.29428125,-12.88574609375,-1.5639921875,-4.252984375,-4.2886796875,14.3131171875,-2.2128203125,-4.209734375,-6.76596875,1.31342578125,0.446187500000001,-3.03546484375,-4.525609375,-3.60705078125,4.17192578125,-1.176953125,0.20693359375,-3.94845703125,-5.3276796875,-2.9325859375,2.45853125,-1.05684765625,-3.69921484375
-2.03100390625,-3.518484375,-2.0220390625,-0.82402734375,-2.9213203125,-3.19402734375,-1.31821484375,-4.88828125,-13.41474609375,-1.2759921875,-4.674984375,-4.0676796875,13.0691171875,-2.5888203125,-4.960734375,-7.34296875,3.58642578125,-0.163812499999999,-3.48946484375,-5.105609375,-3.84305078125,4.22192578125,-1.287953125,-0.247066406249999,-3.92845703125,-4.3596796875,-3.0935859375,1.56053125,-1.27084765625,-3.12321484375
-0.39900390625,-2.998484375,-1.8060390625,-0.0360273437499999,-3.2893203125,-2.38802734375,-0.814214843749999,-5.38928125,-12.67774609375,-0.382992187500001,-4.384984375,-3.5466796875,10.8821171875,-2.4308203125,-4.944734375,-7.14596875,5.24742578125,-0.4508125,-3.33446484375,-4.904609375,-3.63005078125,4.17192578125,-1.184953125,-0.19406640625,-3.32345703125,-3.3626796875,-2.8475859375,1.15453125,-1.06884765625,-2.48521484375
1.30899609375,-2.394484375,-1.3760390625,0.70397265625,-3.3673203125,-1.06802734375,-0.15321484375,-5.58928125,-11.12974609375,0.716007812499999,-3.599984375,-2.8526796875,8.5351171875,-1.9518203125,-4.321734375,-6.09896875,5.65642578125,-0.611812499999999,-2.79646484375,-3.976609375,-2.68005078125,4.20392578125,-0.971953125000001,0.27393359375,-2.26445703125,-2.4356796875,-2.3255859375,1.32653125,-0.56184765625,-1.91421484375
2.48199609375,-1.940484375,-1.1430390625,0.85897265625,-3.2553203125,0.25997265625,0.409785156250001,-5.46228125,-9.43374609375,1.5810078125,-2.712984375,-2.1816796875,6.5981171875,-1.4498203125,-3.430734375,-4.45196875,4.80142578125,-0.864812499999999,-2.20946484375,-2.605609375,-1.07705078125,4.46592578125,-0.778953125000001,0.93993359375,-1.03245703125,-1.6616796875,-1.7475859375,1.93753125,0.0371523437499999,-1.46421484375
2.68099609375,-1.777484375,-1.3050390625,0.15097265625,-3.0853203125,1.17297265625,0.677785156250001,-5.15328125,-8.16274609375,1.9240078125,-2.085984375,-1.5266796875,5.3121171875,-1.1578203125,-2.637734375,-2.63696875,3.28742578125,-1.2838125,-1.84646484375,-1.185609375,0.72794921875,5.01792578125,-0.665953125,1.57893359375,0.06554296875,-1.0736796875,-1.3045859375,2.72253125,0.53015234375,-1.09821484375
1.79399609375,-1.917484375,-1.7740390625,-1.33002734375,-3.0063203125,1.49197265625,0.621785156250001,-4.80728125,-7.66274609375,1.6960078125,-1.883984375,-0.6846796875,4.6511171875,-1.1888203125,-2.194734375,-1.04896875,1.94942578125,-1.7818125,-1.83446484375,-0.0666093750000005,2.13094921875,5.79492578125,-0.619953125,2.03693359375,0.813542968750001,-0.6306796875,-1.0755859375,3.40653125,0.80015234375,-0.73021484375
-0.01500390625,-2.332484375,-2.3080390625,-3.23302734375,-3.1613203125,1.26497265625,0.32878515625,-4.47228125,-8.10474609375,1.0330078125,-2.053984375,0.4263203125,4.4631171875,-1.5578203125,-2.172734375,0.0750312500000003,1.32342578125,-2.2418125,-2.15746484375,0.541390625,2.66394921875,6.60392578125,-0.613953125,2.25593359375,1.13954296875,-0.2396796875,-1.0245859375,3.80853125,0.84515234375,-0.308214843749999
-2.44600390625,-3.056484375,-2.7310390625,-5.14502734375,-3.6413203125,0.657972656249999,-0.15521484375,-4.13028125,-9.51674609375,0.120007812499999,-2.442984375,1.4573203125,4.5561171875,-2.2318203125,-2.480734375,0.65203125,1.30342578125,-2.6388125,-2.71446484375,0.605390625,2.23394921875,7.19892578125,-0.675953124999999,2.23793359375,1.09854296875,0.1843203125,-1.0555859375,3.87753125,0.74915234375,0.140785156250001
-5.16000390625,-4.158484375,-3.0650390625,-6.74402734375,-4.4223203125,-0.14602734375,-0.93021484375,-3.74628125,-11.68374609375,-0.891992187500001,-2.926984375,1.6313203125,4.7381171875,-3.1478203125,-2.951734375,0.69103125,1.25842578125,-3.0478125,-3.39146484375,0.230390625,1.14594921875,7.37892578125,-0.887953125000001,2.01693359375,0.81154296875,0.6553203125,-1.0905859375,3.68553125,0.62515234375,0.518785156250001
-7.76500390625,-5.610484375,-3.4820390625,-7.85602734375,-5.3473203125,-0.992027343750001,-2.19521484375,-3.27428125,-14.04674609375,-1.9089921875,-3.482984375,0.1563203125,4.8931171875,-4.1898203125,-3.434734375,0.23603125,0.55442578125,-3.5648125,-4.10546484375,-0.412609375000001,-0.0980507812500004,7.07692578125,-1.338953125,1.62593359375,0.398542968750001,1.0773203125,-1.1295859375,3.35653125,0.54115234375,0.707785156250001
-9.81600390625,-7.182484375,-4.1050390625,-8.44102734375,-6.1683203125,-1.76602734375,-4.07321484375,-2.72228125,-15.82874609375,-2.8599921875,-4.141984375,-3.1866796875,5.0841171875,-5.1938203125,-3.847734375,-0.617968749999999,-0.91657421875,-4.2228125,-4.81646484375,-1.150609375,-1.07905078125,6.37692578125,-2.058953125,1.06793359375,-0.0674570312499991,1.2863203125,-1.2495859375,2.99653125,0.48115234375,0.62878515625
-10.90400390625,-8.472484375,-4.8400390625,-8.56102734375,-6.6363203125,-2.37502734375,-6.39721484375,-2.27928125,-16.38174609375,-3.6309921875,-4.874984375,-7.6456796875,5.5631171875,-5.9598203125,-4.148734375,-1.68896875,-2.60857421875,-4.9398125,-5.48546484375,-1.830609375,-1.64405078125,5.48792578125,-2.966953125,0.345933593750001,-0.548457031249999,1.1313203125,-1.5325859375,2.66653125,0.37415234375,0.296785156250001
-10.78500390625,-9.058484375,-5.3780390625,-8.32502734375,-6.5453203125,-2.68702734375,-8.60521484375,-2.37028125,-15.44774609375,-3.9899921875,-5.492984375,-11.6356796875,6.5921171875,-6.2568203125,-4.242734375,-2.70496875,-3.69257421875,-5.5118125,-5.98746484375,-2.316609375,-1.87905078125,4.69592578125,-3.828953125,-0.47406640625,-1.01445703125,0.5623203125,-1.9615859375,2.40753125,0.17515234375,-0.174214843749999
-9.49700390625,-8.699484375,-5.3620390625,-7.82402734375,-5.7543203125,-2.49402734375,-9.88121484375,-3.44628125,-13.15274609375,-3.5909921875,-5.670984375,-13.4796796875,8.1991171875,-5.8448203125,-3.956734375,-3.40096875,-3.62657421875,-5.6508125,-6.08746484375,-2.489609375,-1.97505078125,4.30092578125,-4.299953125,-1.21106640625,-1.42545703125,-0.3516796875,-2.3925859375,2.26553125,-0.0868476562500002,-0.628214843749999
-7.38000390625,-7.437484375,-4.5960390625,-7.09602734375,-4.2233203125,-1.60002734375,-9.56321484375,-5.59328125,-9.83674609375,-2.1199921875,-5.123984375,-12.3496796875,10.0901171875,-4.5458203125,-3.093734375,-3.64396875,-2.50157421875,-5.0908125,-5.51246484375,-2.300609375,-2.09705078125,4.54392578125,-4.050953125,-1.61606640625,-1.77345703125,-1.4816796875,-2.6275859375,2.26853125,-0.33784765625,-0.98021484375
-4.98000390625,-5.579484375,-3.1730390625,-6.13902734375,-2.0923203125,0.0219726562499991,-7.56821484375,-8.29128125,-5.93874609375,0.473007812499999,-3.812984375,-8.7946796875,11.7881171875,-2.3728203125,-1.591734375,-3.51896875,-0.96457421875,-3.7358125,-4.13246484375,-1.820609375,-2.34805078125,5.50492578125,-2.956953125,-1.51806640625,-2.13345703125,-2.7396796875,-2.5735859375,2.35153125,-0.558847656250001,-1.33421484375
-2.86300390625,-3.587484375,-1.4790390625,-4.97402734375,0.2506796875,2.10397265625,-4.53921484375,-10.55328125,-2.02174609375,3.8090078125,-2.065984375,-4.4736796875,12.8511171875,0.360179687500001,0.346265625000001,-3.30496875,0.16042578125,-1.7718125,-2.12746484375,-1.278609375,-2.82005078125,7.03492578125,-1.226953125,-0.98306640625,-2.70345703125,-4.1666796875,-2.3865859375,2.30053125,-0.87384765625,-2.00221484375
-1.44300390625,-1.940484375,-0.085039062499999,-3.73902734375,2.1916796875,4.10297265625,-1.60121484375,-11.37128125,1.20325390625,7.0910078125,-0.508984375000001,-1.2736796875,13.0021171875,3.0231796875,2.210265625,-3.39996875,0.28942578125,0.330187500000001,-0.0294648437500005,-1.045609375,-3.68205078125,8.75792578125,0.609046875000001,-0.37106640625,-3.77245703125,-5.9226796875,-2.4765859375,1.78453125,-1.55584765625,-3.39221484375
-0.93100390625,-1.037484375,0.4479609375,-2.75602734375,3.0886796875,5.37497265625,0.11478515625,-10.21828125,2.98125390625,9.3440078125,0.162015625,-0.3876796875,12.1391171875,4.8521796875,3.332265625,-4.17796875,-0.67857421875,1.9561875,1.44053515625,-1.514609375,-5.17105078125,10.16192578125,1.890046875,-0.21006640625,-5.60345703125,-8.1706796875,-3.3325859375,0.51553125,-2.88584765625,-5.77421484375
-1.41400390625,-1.104484375,-0.192039062499999,-2.48902734375,2.5636796875,5.41697265625,-0.0362148437499998,-7.34528125,2.78325390625,9.7680078125,-0.489984375000001,-1.8426796875,10.3291171875,5.2431796875,3.183265625,-5.77296875,-2.39557421875,2.5941875,1.67253515625,-2.911609375,-7.42705078125,10.77992578125,2.100046875,-0.933066406249999,-8.22945703125,-10.8736796875,-5.2185859375,-1.56246875,-4.93684765625,-9.03721484375
-2.91600390625,-2.133484375,-1.8870390625,-3.32802734375,0.706679687500001,4.10597265625,-1.92621484375,-3.77028125,0.60725390625,8.0740078125,-2.387984375,-4.6666796875,7.8341171875,4.0291796875,1.650265625,-7.89796875,-4.30157421875,2.0421875,0.452535156250001,-5.117609375,-10.24505078125,10.37992578125,1.090046875,-2.61706640625,-11.30945703125,-13.6696796875,-7.9495859375,-4.16046875,-7.42484765625,-12.60521484375
-5.38100390625,-3.880484375,-4.1010390625,-5.33202734375,-1.9623203125,1.76197265625,-4.72221484375,-0.907281249999999,-2.91074609375,4.6060078125,-4.948984375,-7.4836796875,5.0851171875,1.5351796875,-0.902734375,-9.89396875,-5.91957421875,0.455187500000001,-1.95446484375,-7.664609375,-12.99705078125,9.05992578125,-0.888953125,-4.92006640625,-14.17945703125,-15.9476796875,-10.9045859375,-6.71646875,-9.75484765625,-15.61021484375
-8.59500390625,-5.970484375,-6.1180390625,-8.12102734375,-4.7923203125,-1.04402734375,-7.35821484375,0.0477187500000014,-6.73374609375,0.1510078125,-7.410984375,-9.2036796875,2.5651171875,-1.6228203125,-3.866734375,-11.07896875,-6.98957421875,-1.7898125,-4.98546484375,-9.966609375,-14.88505078125,7.20792578125,-3.350953125,-7.26006640625,-16.14545703125,-17.1106796875,-13.3015859375,-8.61046875,-11.27384765625,-17.25921484375
-12.14700390625,-8.050484375,-7.3930390625,-11.02302734375,-7.3473203125,-3.82302734375,-9.15321484375,-1.33728125,-9.92674609375,-4.4479921875,-9.291984375,-9.4986796875,0.641117187499999,-4.8728203125,-6.733734375,-11.21996875,-7.42457421875,-4.3028125,-8.08246484375,-11.640609375,-15.39805078125,5.34092578125,-5.821953125,-9.13506640625,-16.83345703125,-16.8786796875,-14.5755859375,-9.42346875,-11.57784765625,-17.19821484375
-15.46400390625,-9.910484375,-7.8030390625,-13.37102734375,-9.5833203125,-6.42102734375,-10.20421484375,-4.56328125,-12.06774609375,-8.6299921875,-10.655984375,-8.8706796875,-0.5408828125,-7.8968203125,-9.318734375,-10.74696875,-7.20357421875,-6.7948125,-10.91346484375,-12.696609375,-14.64105078125,3.91692578125,-8.002953125,-10.35506640625,-16.38245703125,-15.4196796875,-14.6245859375,-9.08946875,-10.70784765625,-15.65921484375
-17.90500390625,-11.484484375,-7.6580390625,-14.76702734375,-11.7453203125,-8.98502734375,-11.23721484375,-8.49428125,-13.30074609375,-12.2009921875,-11.996984375,-8.3016796875,-1.0558828125,-10.6228203125,-11.700734375,-10.51796875,-6.39357421875,-9.0698125,-13.38946484375,-13.457609375,-13.26805078125,3.19292578125,-9.787953125,-11.04006640625,-15.33545703125,-13.2646796875,-13.7905859375,-7.89446875,-9.11184765625,-13.34221484375
-18.94700390625,-12.777484375,-7.4850390625,-15.19802734375,-14.0723203125,-11.71402734375,-13.03221484375,-11.92928125,-14.03074609375,-15.1679921875,-13.812984375,-8.6446796875,-1.1538828125,-13.0538203125,-13.984734375,-11.26196875,-5.26057421875,-10.9808125,-15.51946484375,-14.271609375,-12.05405078125,3.18092578125,-11.182953125,-11.44106640625,-14.30345703125,-11.0546796875,-12.6195859375,-6.36046875,-7.43284765625,-11.09621484375
-18.40600390625,-13.780484375,-7.7340390625,-14.99202734375,-16.5193203125,-14.59602734375,-15.80521484375,-14.13028125,-14.53974609375,-17.5299921875,-16.177984375,-10.1456796875,-1.2048828125,-15.1108203125,-16.086734375,-13.08196875,-4.26257421875,-12.4608125,-17.26546484375,-15.234609375,-11.42205078125,3.66592578125,-12.238953125,-11.72306640625,-13.63145703125,-9.2666796875,-11.5785859375,-5.07746875,-6.22284765625,-9.57221484375
-16.58200390625,-14.452484375,-8.5680390625,-14.67002734375,-18.6903203125,-17.32002734375,-18.99221484375,-15.00228125,-14.78874609375,-19.1839921875,-18.632984375,-12.3596796875,-1.6098828125,-16.6098203125,-17.721734375,-15.38296875,-3.84557421875,-13.5698125,-18.51546484375,-16.124609375,-11.25205078125,4.26392578125,-13.025953125,-11.89206640625,-13.28045703125,-8.0426796875,-10.8855859375,-4.54946875,-5.74484765625,-9.02521484375
-14.20600390625,-14.774484375,-9.8450390625,-14.72902734375,-20.0673203125,-19.42102734375,-21.54521484375,-14.87528125,-14.53174609375,-20.0129921875,-20.460984375,-14.4896796875,-2.6798828125,-17.4018203125,-18.599734375,-17.24496875,-4.20157421875,-14.5038125,-19.18446484375,-16.582609375,-11.08405078125,4.51692578125,-13.651953125,-11.87906640625,-12.96045703125,-7.1986796875,-10.5165859375,-5.06946875,-5.94184765625,-9.29721484375
-12.18200390625,-14.820484375,-11.2900390625,-15.45002734375,-20.3843203125,-20.56002734375,-22.54221484375,-14.14928125,-13.65174609375,-20.0589921875,-21.143984375,-15.8486796875,-4.5008828125,-17.5438203125,-18.679734375,-17.97196875,-5.18257421875,-15.5168125,-19.35046484375,-16.402609375,-10.51105078125,4.03892578125,-14.262953125,-11.69306640625,-12.40045703125,-6.3986796875,-10.3355859375,-6.63746875,-6.53884765625,-9.97921484375
-11.26200390625,-14.773484375,-12.7110390625,-16.80102734375,-19.8733203125,-20.74002734375,-21.68421484375,-13.12328125,-12.45674609375,-19.6099921875,-20.658984375,-16.0976796875,-6.8748828125,-17.3658203125,-18.232734375,-17.41796875,-6.41957421875,-16.7928125,-19.28946484375,-15.686609375,-9.47605078125,2.67092578125,-14.992953125,-11.48606640625,-11.53345703125,-5.3896796875,-10.2225859375,-8.95346875,-7.20084765625,-10.63021484375
-11.76900390625,-14.832484375,-14.0800390625,-18.46702734375,-19.1443203125,-20.30202734375,-19.39621484375,-12.06328125,-11.67674609375,-19.1039921875,-19.418984375,-15.2246796875,-9.3538828125,-17.3158203125,-17.669734375,-15.93296875,-7.49357421875,-18.3498125,-19.33946484375,-14.767609375,-8.29405078125,0.573925781250002,-15.880953125,-11.46806640625,-10.50845703125,-4.1466796875,-10.1345859375,-11.50946875,-7.66584765625,-10.95221484375
-13.49400390625,-15.091484375,-15.4160390625,-19.95802734375,-18.7783203125,-19.68502734375,-16.52221484375,-11.28928125,-12.07974609375,-18.8719921875,-17.970984375,-13.4226796875,-11.3588828125,-17.6848203125,-17.256734375,-14.06496875,-8.05557421875,-19.9998125,-19.69746484375,-13.967609375,-7.43205078125,-1.81807421875,-16.804953125,-11.73406640625,-9.55745703125,-2.8746796875,-10.0865859375,-13.75446875,-7.81484765625,-10.86721484375
-15.81100390625,-15.465484375,-16.5910390625,-20.78202734375,-18.9163203125,-19.15902734375,-13.90621484375,-11.11628125,-13.93974609375,-18.9409921875,-16.708984375,-11.0636796875,-12.3588828125,-18.3838203125,-16.963734375,-12.28196875,-7.92457421875,-21.4098125,-20.27846484375,-13.406609375,-7.21905078125,-3.96907421875,-17.510953125,-12.16506640625,-8.86045703125,-1.8756796875,-10.1105859375,-15.28446875,-7.67384765625,-10.47121484375
-17.99900390625,-15.771484375,-17.2910390625,-20.64502734375,-19.1933203125,-18.76202734375,-12.16321484375,-11.70128125,-16.75474609375,-19.0489921875,-15.806984375,-8.7526796875,-12.0898828125,-18.9628203125,-16.562734375,-10.88396875,-7.16557421875,-22.2178125,-20.77546484375,-12.994609375,-7.67805078125,-5.43307421875,-17.720953125,-12.47906640625,-8.48745703125,-1.4046796875,-10.2325859375,-15.94746875,-7.38484765625,-9.94921484375
-19.59000390625,-15.876484375,-17.2030390625,-19.58502734375,-19.0513203125,-18.45102734375,-11.67321484375,-12.98928125,-19.47074609375,-18.8979921875,-15.331984375,-7.2766796875,-10.7128828125,-18.9058203125,-15.874734375,-10.07696875,-6.10757421875,-22.1918125,-20.87546484375,-12.605609375,-8.59005078125,-5.99507421875,-17.289953125,-12.42206640625,-8.44245703125,-1.5796796875,-10.4785859375,-15.83446875,-7.14384765625,-9.50821484375
-20.47700390625,-15.805484375,-16.3010390625,-17.93102734375,-18.1843203125,-18.27002734375,-12.60821484375,-14.75528125,-21.06674609375,-18.4129921875,-15.363984375,-7.3356796875,-8.7878828125,-17.9828203125,-14.981734375,-10.05896875,-5.22957421875,-21.3478125,-20.48246484375,-12.269609375,-9.68605078125,-5.69307421875,-16.305953125,-11.95506640625,-8.73645703125,-2.3866796875,-10.8845859375,-15.19046875,-7.13884765625,-9.34521484375
-20.75400390625,-15.718484375,-14.9580390625,-16.10002734375,-16.7733203125,-18.34602734375,-14.83821484375,-16.66628125,-21.05274609375,-17.8139921875,-15.975984375,-9.1646796875,-7.0048828125,-16.4308203125,-14.221734375,-10.98396875,-4.98257421875,-19.9508125,-19.79746484375,-12.220609375,-10.83205078125,-4.75307421875,-15.062953125,-11.30306640625,-9.42445703125,-3.7376796875,-11.4795859375,-14.28546875,-7.47384765625,-9.61721484375
-20.46400390625,-15.776484375,-13.7590390625,-14.40002734375,-15.3543203125,-18.73102734375,-17.80121484375,-18.32528125,-19.56574609375,-17.4239921875,-17.106984375,-12.3306796875,-5.7778828125,-14.8008203125,-13.976734375,-12.84896875,-5.60157421875,-18.4138125,-19.19946484375,-12.759609375,-12.06405078125,-3.48807421875,-13.935953125,-10.84906640625,-10.56245703125,-5.5226796875,-12.2665859375,-13.32846875,-8.12984765625,-10.39221484375
-19.54800390625,-16.034484375,-13.1520390625,-12.98502734375,-14.4463203125,-19.26602734375,-20.56721484375,-19.32428125,-17.10674609375,-17.4129921875,-18.475984375,-15.8786796875,-4.9708828125,-13.6198203125,-14.417734375,-15.39096875,-7.04157421875,-17.1278125,-19.03146484375,-14.027609375,-13.48005078125,-2.20107421875,-13.209953125,-10.93706640625,-12.14045703125,-7.6416796875,-13.1955859375,-12.43346875,-8.96684765625,-11.61721484375
-18.03400390625,-16.417484375,-13.2130390625,-11.94002734375,-14.2393203125,-19.59802734375,-22.14921484375,-19.33428125,-14.20174609375,-17.6559921875,-19.627984375,-18.7646796875,-3.9728828125,-13.1008203125,-15.375734375,-18.10096875,-9.04457421875,-16.3228125,-19.41646484375,-15.867609375,-15.08005078125,-1.13107421875,-12.981953125,-11.71206640625,-14.02845703125,-9.9926796875,-14.1655859375,-11.63346875,-9.78384765625,-13.11921484375
-16.24200390625,-16.799484375,-13.6880390625,-11.35002734375,-14.5423203125,-19.35802734375,-21.95121484375,-18.19428125,-11.25374609375,-17.8319921875,-20.144984375,-20.3176796875,-2.1638828125,-13.0968203125,-16.432734375,-20.37596875,-11.32157421875,-16.0098125,-20.21946484375,-17.858609375,-16.68405078125,-0.430074218749999,-13.133953125,-13.05306640625,-15.98345703125,-12.4566796875,-15.0425859375,-10.90646875,-10.39884765625,-14.65821484375
-14.78500390625,-17.116484375,-14.2580390625,-11.29702734375,-14.9853203125,-18.43002734375,-20.11321484375,-16.00528125,-8.60274609375,-17.6769921875,-19.900984375,-20.4996796875,0.4581171875,-13.2938203125,-17.189734375,-21.78496875,-13.65657421875,-16.0218125,-21.14946484375,-19.529609375,-18.00305078125,-0.162074218749998,-13.423953125,-14.64406640625,-17.73645703125,-14.8786796875,-15.6935859375,-10.20746875,-10.71484765625,-15.99921484375
-14.30600390625,-17.449484375,-14.8280390625,-11.82802734375,-15.2913203125,-17.15302734375,-17.60221484375,-13.29328125,-6.67674609375,-17.2359921875,-19.243984375,-19.8666796875,2.8641171875,-13.4778203125,-17.533734375,-22.32096875,-15.86357421875,-16.1488125,-21.93946484375,-20.619609375,-18.88905078125,-0.304074218749999,-13.628953125,-16.13806640625,-19.11845703125,-17.0896796875,-16.0335859375,-9.50346875,-10.75584765625,-16.98921484375
-15.17300390625,-18.037484375,-15.6530390625,-12.92602734375,-15.4153203125,-16.31402734375,-15.95621484375,-11.11428125,-6.03674609375,-16.9219921875,-18.953984375,-19.2756796875,3.1081171875,-13.6918203125,-17.739734375,-22.47796875,-17.66557421875,-16.2698125,-22.50146484375,-21.239609375,-19.57805078125,-0.758074218749998,-13.689953125,-17.33306640625,-20.17145703125,-18.9576796875,-16.0675859375,-8.81346875,-10.66184765625,-17.60621484375
-17.31300390625,-19.182484375,-17.2230390625,-14.49902734375,-15.5043203125,-16.84502734375,-16.72621484375,-10.84028125,-7.23474609375,-17.3379921875,-19.957984375,-19.4836796875,-0.9708828125,-14.1948203125,-18.335734375,-23.05996875,-18.67357421875,-16.4208125,-22.95746484375,-21.816609375,-20.71505078125,-1.39007421875,-13.755953125,-18.25206640625,-21.13845703125,-20.4366796875,-15.8985859375,-8.21746875,-10.64584765625,-17.95321484375
-20.32800390625,-21.107484375,-19.9760390625,-16.39002734375,-15.7503203125,-19.37102734375,-20.81621484375,-13.55328125,-10.54274609375,-18.9409921875,-22.892984375,-20.8526796875,-10.7388828125,-15.2708203125,-19.810734375,-24.76996875,-18.56057421875,-16.7398125,-23.53046484375,-22.840609375,-23.02305078125,-2.07507421875,-14.073953125,-19.07006640625,-22.33145703125,-21.5686796875,-15.6695859375,-7.81946875,-10.90584765625,-18.19221484375
-23.75400390625,-23.805484375,-23.9860390625,-18.43502734375,-16.2503203125,-23.85202734375,-28.04721484375,-19.36028125,-15.72774609375,-21.7679921875,-27.756984375,-23.2636796875,-25.9338828125,-17.0218203125,-22.309734375,-27.81196875,-17.31457421875,-17.3218125,-24.37046484375,-24.552609375,-26.80205078125,-2.74307421875,-14.793953125,-19.96306640625,-23.92545703125,-22.4566796875,-15.4915859375,-7.66846875,-11.51584765625,-18.45021484375
-27.29000390625,-26.993484375,-28.8370390625,-20.53202734375,-16.9613203125,-29.54002734375,-37.16221484375,-27.12528125,-22.02174609375,-25.3839921875,-33.824984375,-26.2606796875,-44.4728828125,-19.2498203125,-25.512734375,-31.75296875,-15.36357421875,-18.1188125,-25.44346484375,-26.785609375,-31.61005078125,-3.39007421875,-15.832953125,-20.97606640625,-25.83245703125,-23.2216796875,-15.3785859375,-7.69446875,-12.36984765625,-18.76121484375
-27.29000390625,-26.993484375,-28.8370390625,-20.53202734375,-16.9613203125,-29.54002734375,-37.16221484375,-27.12528125,-22.02174609375,-25.3839921875,-33.824984375,-26.2606796875,-44.4728828125,-19.2498203125,-25.512734375,-31.75296875,-15.36357421875,-18.1188125,-25.44346484375,-26.785609375,-31.61005078125,-3.39007421875,-15.832953125,-20.97606640625,-25.83245703125,-23.2216796875,-15.3785859375,-7.69446875,-12.36984765625,-18.76121484375
