"Fp1","Fpz","Fp2","F7","F3","Fz","F4","F8","FC5","FC1","FC2","FC6","T7","C3","Cz","C4","T8","CP5","CP1","CP2","CP6","P7","P3","Pz","P4","P8","POz","O1","Oz","O2"
6.9500234375,5.36126171875,8.69319921875,13.6769375,3.7623984375,2.56741015625,-2.74594140625,4.62821875,7.60820703125,4.18537109375,6.05525,11.30112890625,-8.2118984375,8.15325,3.9230859375,10.28103515625,14.3905234375,10.8016328125,5.59209375,2.27475,6.98917578125,5.924234375,5.6673125,6.00081640625,7.97478125,4.91362890625,-0.41904296875,10.84518359375,1.08546875,3.41155859375
6.1570234375,6.32826171875,9.45119921875,11.9929375,4.5463984375,3.71141015625,-1.33494140625,9.29021875,8.25220703125,3.51737109375,6.17125,8.03112890625,-7.6468984375,11.27925,5.1460859375,10.00403515625,11.5725234375,12.7116328125,7.62809375,3.10775,6.89917578125,3.963234375,7.3933125,7.35881640625,8.71478125,3.51762890625,1.56795703125,9.65618359375,0.80846875,4.37955859375
6.3870234375,7.74526171875,10.64819921875,11.5519375,5.6173984375,4.76141015625,-0.0409414062500009,12.23421875,9.21320703125,3.26337109375,6.44925,5.34412890625,-7.0428984375,13.18625,6.1790859375,10.48703515625,9.0335234375,13.6496328125,8.93709375,3.77875,7.36117578125,2.404234375,8.4693125,8.34381640625,9.28678125,3.86662890625,3.14195703125,8.94918359375,1.17346875,5.13355859375
7.3460234375,9.22926171875,11.84619921875,12.1179375,6.6783984375,5.51441015625,0.833058593749999,12.94421875,10.16220703125,3.26737109375,6.67525,3.64812890625,-6.4998984375,13.53525,6.7790859375,11.28703515625,7.3805234375,13.4306328125,9.20609375,3.95075,7.93417578125,1.116234375,8.6373125,8.67981640625,9.36878125,5.80362890625,4.10195703125,8.55818359375,1.96546875,5.62655859375
8.3660234375,10.16826171875,12.38319921875,13.0619375,7.2633984375,5.71641015625,1.00305859375,11.44621875,10.62220703125,3.21537109375,6.54925,3.33712890625,-6.1798984375,12.27125,6.6950859375,11.59403515625,7.1205234375,12.1116328125,8.25809375,3.24275,7.86017578125,-0.176765625,7.7643125,8.11281640625,8.58778125,8.45262890625,4.28395703125,8.09818359375,2.70646875,5.87755859375
8.7940234375,10.07126171875,11.78819921875,13.7789375,7.0003984375,5.20041015625,0.416058593749999,8.35621875,10.27320703125,2.81837109375,5.88625,4.62012890625,-6.2498984375,9.65925,5.8020859375,10.73203515625,8.2575234375,9.9596328125,6.14709375,1.45975,6.55917578125,-1.686765625,5.9133125,6.54281640625,6.75578125,10.63762890625,3.63595703125,7.16718359375,2.91746875,5.95955859375
8.2870234375,8.82926171875,10.03519921875,13.9699375,5.8233984375,3.99141015625,-0.682941406250001,4.63021875,9.12020703125,1.95937109375,4.74825,7.32212890625,-6.7898984375,6.23525,4.2010859375,8.58203515625,10.1585234375,7.3926328125,3.18909375,-1.24425,4.06317578125,-3.392765625,3.3763125,4.12181640625,4.05578125,11.49962890625,2.27095703125,5.57318359375,2.37246875,5.94855859375
6.8870234375,6.72026171875,7.51119921875,13.6729375,3.9903984375,2.31941015625,-1.89294140625,1.18621875,7.45020703125,0.72737109375,3.41025,10.79312890625,-7.7268984375,2.67025,2.1910859375,5.64903515625,11.7895234375,4.8966328125,-0.11290625,-4.40625,1.03417578125,-5.025765625,0.6173125,1.24281640625,1.01178125,10.90262890625,0.47295703125,3.47218359375,1.20946875,5.88655859375
4.9140234375,4.23426171875,4.77519921875,13.1209375,1.9253984375,0.51741015625,-2.88594140625,-1.35078125,5.63920703125,-0.65362890625,2.18425,14.01812890625,-8.8268984375,-0.42075,0.1510859375,2.74803515625,12.1735234375,2.9076328125,-3.21590625,-7.47025,-1.68882421875,-6.226765625,-1.8756875,-1.58818359375,-1.77521875,9.42462890625,-1.40904296875,1.30518359375,-0.14553125,5.77555859375
2.7570234375,1.82926171875,2.27019921875,12.5589375,0.0223984375000001,-1.12458984375,-3.55794140625,-2.72378125,3.97720703125,-1.94062890625,1.25125,15.93612890625,-9.7768984375,-2.64675,-1.6089140625,0.559035156249999,10.7855234375,1.6886328125,-5.69090625,-10.01625,-3.61782421875,-6.752765625,-3.7556875,-3.92718359375,-3.91921875,7.95362890625,-3.08704296875,-0.43381640625,-1.21153125,5.59055859375
0.6980234375,-0.24273828125,0.19019921875,12.1389375,-1.4906015625,-2.44858984375,-4.04994140625,-2.97678125,2.58720703125,-2.97362890625,0.58925,15.86912890625,-10.3178984375,-3.92875,-2.9339140625,-0.66596484375,7.7505234375,1.2366328125,-7.31590625,-11.86725,-4.78682421875,-6.596765625,-4.9266875,-5.52718359375,-5.37521875,7.19962890625,-4.41204296875,-1.44181640625,-1.68553125,5.29955859375
-1.1609765625,-1.95873828125,-1.47780078125,11.9029375,-2.5596015625,-3.44858984375,-4.63294140625,-2.36078125,1.46220703125,-3.72962890625,0.00524999999999981,13.84512890625,-10.3638984375,-4.44575,-3.8339140625,-1.12996484375,3.8205234375,1.2936328125,-8.09790625,-13.05425,-5.52082421875,-5.949765625,-5.5286875,-6.38118359375,-6.35021875,7.37462890625,-5.38204296875,-1.73581640625,-1.57953125,4.87155859375
-2.8559765625,-3.43073828125,-2.81880078125,11.8319375,-3.2516015625,-4.24058984375,-5.56994140625,-1.21878125,0.55420703125,-4.30162890625,-0.77175,10.60612890625,-10.0528984375,-4.51875,-4.4599140625,-1.33196484375,0.170523437500001,1.4616328125,-8.24790625,-13.72125,-6.07682421875,-5.071765625,-5.8486875,-6.68618359375,-7.11421875,8.17262890625,-6.11504296875,-1.61481640625,-1.19853125,4.26255859375
-4.4699765625,-4.79673828125,-3.89380078125,11.8899375,-3.7086015625,-5.01858984375,-6.96994140625,0.09821875,-0.15679296875,-4.83662890625,-1.96775,7.25812890625,-9.6818984375,-4.46275,-5.0449140625,-1.79596484375,-1.9714765625,1.3726328125,-8.11490625,-14.05125,-6.48082421875,-4.182765625,-6.1986875,-6.75518359375,-7.84921875,9.01262890625,-6.80404296875,-1.50181640625,-0.99353125,3.43355859375
-6.0669765625,-6.13473828125,-4.73180078125,12.0239375,-4.1046015625,-5.95458984375,-8.69294140625,1.26121875,-0.64879296875,-5.44862890625,-3.63475,4.75812890625,-9.5438984375,-4.47175,-5.8009140625,-2.78796484375,-1.8374765625,0.8556328125,-8.07490625,-14.19725,-6.56982421875,-3.420765625,-6.7866875,-6.88318359375,-8.56021875,9.42762890625,-7.63804296875,-1.75081640625,-1.32353125,2.40555859375
-7.6339765625,-7.42773828125,-5.35580078125,12.1419375,-4.5956015625,-7.07858984375,-10.32994140625,1.98421875,-0.87079296875,-6.14462890625,-5.54475,3.49312890625,-9.7458984375,-4.57375,-6.7919140625,-4.11196484375,0.437523437500001,0.0196328124999994,-8.36190625,-14.19825,-6.13482421875,-2.851765625,-7.6236875,-7.20718359375,-9.06321875,9.35662890625,-8.67704296875,-2.48081640625,-2.26353125,1.31655859375
-9.0409765625,-8.52973828125,-5.77880078125,12.1429375,-5.2366015625,-8.21058984375,-11.32994140625,2.08921875,-0.75779296875,-6.78462890625,-7.19875,3.14912890625,-10.1218984375,-4.64475,-7.8609140625,-5.09796484375,3.7945234375,-0.7853671875,-8.94590625,-13.94025,-5.08182421875,-2.495765625,-8.5086875,-7.63918359375,-9.06821875,9.13962890625,-9.79704296875,-3.52081640625,-3.55953125,0.403558593750001
-10.0279765625,-9.19173828125,-5.97780078125,12.0189375,-5.9176015625,-9.02458984375,-11.24494140625,1.59621875,-0.24679296875,-7.11962890625,-8.00775,2.92712890625,-10.3088984375,-4.50175,-8.6729140625,-4.87196484375,6.7635234375,-1.1363671875,-9.52190625,-13.20325,-3.52382421875,-2.329765625,-9.1206875,-7.90718359375,-8.33721875,9.20262890625,-10.73004296875,-4.48781640625,-4.76853125,-0.10244140625
-10.3109765625,-9.15873828125,-5.90980078125,11.9359375,-6.3896015625,-9.21258984375,-9.96394140625,0.74021875,0.67420703125,-6.91362890625,-7.56575,2.02012890625,-9.9548984375,-4.00975,-8.8899140625,-2.78996484375,8.2195234375,-0.7373671875,-9.66790625,-11.82525,-1.79582421875,-2.261765625,-9.1596875,-7.72618359375,-6.85421875,9.69362890625,-11.20004296875,-4.94881640625,-5.49253125,-0.0794414062499995
-9.7339765625,-8.31273828125,-5.54980078125,12.1889375,-6.3756015625,-8.63858984375,-7.79594140625,-0.12478125,1.90920703125,-6.07962890625,-5.87775,0.182128906250001,-8.9448984375,-3.15475,-8.3419140625,1.15603515625,7.8505234375,0.423632812499999,-9.06290625,-9.84125,-0.32882421875,-2.115765625,-8.4906875,-6.95018359375,-4.86821875,10.37662890625,-11.03504296875,-4.59781640625,-5.56053125,0.456558593750001
-8.3729765625,-6.75573828125,-4.90680078125,13.0349375,-5.7326015625,-7.42558984375,-5.33094140625,-0.67978125,3.23920703125,-4.75962890625,-3.40875,-1.95087109375,-7.4988984375,-2.05175,-7.1439140625,6.19103515625,6.1405234375,2.0656328125,-7.66490625,-7.54325,0.53017578125,-1.652765625,-7.2026875,-5.66318359375,-2.79521875,10.87662890625,-10.22204296875,-3.38381640625,-5.05953125,1.39355859375
-6.5199765625,-4.79973828125,-3.99580078125,14.4629375,-4.5706015625,-5.91858984375,-3.18394140625,-0.74278125,4.38720703125,-3.28662890625,-0.92375,-3.06387109375,-6.0838984375,-0.90375,-5.6729140625,10.94003515625,4.0025234375,3.7336328125,-5.76690625,-5.40425,0.63117578125,-0.673765625,-5.5926875,-4.14718359375,-1.06021875,11.05862890625,-8.90404296875,-1.53581640625,-4.24553125,2.58155859375
-4.6039765625,-2.88173828125,-2.83380078125,16.0559375,-3.2686015625,-4.57558984375,-1.78094140625,-0.32778125,5.11920703125,-2.08262890625,0.78925,-1.92587109375,-5.1698984375,0.05525,-4.4479140625,13.92003515625,2.3535234375,4.9816328125,-3.89590625,-3.92925,0.01417578125,0.859234375,-4.0716875,-2.77118359375,0.0407812500000003,11.21762890625,-7.33604296875,0.51318359375,-3.40153125,3.86755859375
-3.0929765625,-1.44273828125,-1.48980078125,17.0569375,-2.3566015625,-3.80858984375,-1.25394140625,0.33021875,5.31220703125,-1.53362890625,1.21425,1.70412890625,-4.9908984375,0.61425,-3.9289140625,14.17303515625,1.7695234375,5.5346328125,-2.60890625,-3.45625,-1.13782421875,2.752234375,-3.0216875,-1.85918359375,0.40278125,11.89262890625,-5.82004296875,2.28618359375,-2.72653125,5.09555859375
-2.3899765625,-0.80873828125,-0.15080078125,16.6709375,-2.3126015625,-3.83658984375,-1.47794140625,0.85521875,4.96320703125,-1.86262890625,0.28325,6.70812890625,-5.4328984375,0.62925,-4.3419140625,11.73503515625,2.2675234375,5.3506328125,-2.26890625,-4.02125,-2.52482421875,4.633234375,-2.6616875,-1.57618359375,0.11978125,13.41662890625,-4.63204296875,3.44218359375,-2.29553125,6.11055859375
-2.7089765625,-1.08673828125,0.91419921875,14.5129375,-3.3466015625,-4.62958984375,-2.19294140625,0.92521875,4.16120703125,-3.05462890625,-1.63075,11.15012890625,-6.1098984375,0.05925,-5.5879140625,7.63003515625,3.3195234375,4.6056328125,-2.90190625,-5.34525,-3.75882421875,6.150234375,-2.9596875,-1.87818359375,-0.58621875,15.51962890625,-3.95304296875,3.91818359375,-2.05953125,6.77155859375
-4.0069765625,-2.13673828125,1.46919921875,10.9039375,-5.2936015625,-5.92958984375,-3.12094140625,0.48421875,3.05520703125,-4.83462890625,-3.90075,13.40812890625,-6.5788984375,-1.00675,-7.2979140625,3.33803515625,4.1885234375,3.6156328125,-4.19690625,-6.97425,-4.47382421875,7.188234375,-3.6346875,-2.54118359375,-1.45421875,17.32062890625,-3.80704296875,3.96318359375,-1.87953125,6.99855859375
-6.0009765625,-3.64373828125,1.40919921875,6.8329375,-7.6576015625,-7.35858984375,-4.04194140625,-0.21278125,1.83020703125,-6.75262890625,-5.90575,13.03212890625,-6.5428984375,-2.34575,-8.9889140625,0.0510351562499993,4.4015234375,2.7526328125,-5.64390625,-8.49925,-4.48382421875,7.956234375,-4.2546875,-3.25518359375,-2.27421875,17.71662890625,-4.03204296875,4.04518359375,-1.57153125,6.80855859375
-8.3009765625,-5.25973828125,0.75119921875,3.5419375,-9.7936015625,-8.56458984375,-4.85794140625,-0.76478125,0.68620703125,-8.33862890625,-7.24775,10.74812890625,-5.9648984375,-3.63475,-10.2659140625,-1.84696484375,3.9875234375,2.3446328125,-6.74590625,-9.72725,-3.90582421875,8.843234375,-4.4056875,-3.75618359375,-2.94321875,15.97162890625,-4.34504296875,4.62318359375,-0.99953125,6.32055859375
-10.5459765625,-6.75373828125,-0.47880078125,1.9799375,-11.1626015625,-9.35958984375,-5.63694140625,-0.89378125,-0.18579296875,-9.26762890625,-7.86075,7.74012890625,-5.0528984375,-4.55875,-10.9889140625,-2.79896484375,3.2645234375,2.5696328125,-7.22590625,-10.73925,-3.18282421875,10.138234375,-3.8806875,-3.94318359375,-3.49321875,12.17262890625,-4.48504296875,5.89318359375,-0.16653125,5.68855859375
-12.5279765625,-8.10773828125,-2.32580078125,2.3839375,-11.5416015625,-9.80558984375,-6.60194140625,-0.65178125,-0.65179296875,-9.46162890625,-7.97775,4.85812890625,-4.1328984375,-4.91575,-11.3169140625,-3.69796484375,2.4505234375,3.3826328125,-7.12390625,-11.80825,-2.97182421875,11.812234375,-2.8006875,-3.94618359375,-4.10321875,7.33462890625,-4.38504296875,7.60918359375,0.72346875,5.02555859375
-14.2309765625,-9.52273828125,-4.88380078125,4.1749375,-11.1126015625,-10.16258984375,-8.03194140625,-0.45878125,-0.70979296875,-9.09462890625,-7.99075,2.29112890625,-3.4988984375,-4.69275,-11.6149140625,-5.35596484375,1.4675234375,4.5056328125,-6.75490625,-13.23425,-3.90182421875,13.501234375,-1.5956875,-4.09118359375,-5.05521875,3.03062890625,-4.25404296875,9.12018359375,1.30246875,4.34955859375
-15.7699765625,-11.28573828125,-8.14180078125,6.2159375,-10.3716015625,-10.74258984375,-10.08994140625,-0.90478125,-0.53379296875,-8.49662890625,-8.26675,-0.221871093749999,-3.3008984375,-4.07275,-12.2359140625,-8.09196484375,0.103523437500001,5.4876328125,-6.55090625,-15.17325,-6.25682421875,14.671234375,-0.8476875,-4.77118359375,-6.61821875,0.681628906249999,-4.49204296875,9.60218359375,1.17346875,3.58355859375
-17.2329765625,-13.55073828125,-11.81380078125,7.3519375,-9.8936015625,-11.73358984375,-12.66794140625,-2.35278125,-0.43079296875,-7.99762890625,-8.98375,-2.91387109375,-3.5218984375,-3.40375,-13.3229140625,-11.56096484375,-1.7064765625,5.8466328125,-6.88390625,-17.52525,-9.72982421875,14.869234375,-1.0666875,-6.25918359375,-8.88621875,0.836628906250001,-5.49204296875,8.42418359375,0.0964687499999999,2.60455859375
-18.5319765625,-16.12873828125,-15.27780078125,6.9469375,-10.0636015625,-13.07758984375,-15.34694140625,-4.59678125,-0.69179296875,-7.79962890625,-10.07175,-5.60787109375,-4.0018984375,-3.10775,-14.7159140625,-14.88196484375,-3.6824765625,5.2486328125,-7.91190625,-19.92825,-13.40382421875,13.916234375,-2.4796875,-8.54318359375,-11.64921875,2.92462890625,-7.40504296875,5.49018359375,-1.84653125,1.34055859375
-19.3959765625,-18.46173828125,-17.74380078125,5.1349375,-10.9136015625,-14.48458984375,-17.51394140625,-6.82778125,-1.44179296875,-7.92562890625,-11.26275,-7.66987109375,-4.5128984375,-3.54275,-16.0239140625,-17.03996484375,-5.2314765625,3.6526328125,-9.52390625,-21.86725,-16.08282421875,11.986234375,-4.9106875,-11.27918359375,-14.39321875,5.64062890625,-9.98404296875,1.37018359375,-4.20253125,-0.11744140625
-19.5409765625,-19.85373828125,-18.57980078125,2.6409375,-12.1786015625,-15.57458984375,-18.61394140625,-8.00278125,-2.59779296875,-8.31262890625,-12.25375,-8.31987109375,-4.8468984375,-4.87575,-16.8499140625,-17.39396484375,-5.6904765625,1.3316328125,-11.39990625,-22.89025,-16.85382421875,9.530234375,-7.8446875,-13.91818359375,-16.48821875,7.70162890625,-12.63804296875,-2.88781640625,-6.31453125,-1.49944140625
-18.8639765625,-19.80573828125,-17.61480078125,0.3229375,-13.5076015625,-16.09858984375,-18.37994140625,-7.37978125,-3.94679296875,-8.92662890625,-12.87375,-7.09487109375,-4.9208984375,-7.02375,-17.0249140625,-16.02496484375,-4.6804765625,-1.2543671875,-13.15890625,-22.83325,-15.59282421875,7.078234375,-10.6366875,-15.92818359375,-17.47521875,8.43562890625,-14.68604296875,-6.22181640625,-7.62053125,-2.46644140625
-17.5089765625,-18.25973828125,-15.19480078125,-1.2850625,-14.6606015625,-16.08458984375,-16.95194140625,-4.89378125,-5.26679296875,-9.81462890625,-13.15475,-4.20187109375,-4.8278984375,-9.67675,-16.7129140625,-13.67196484375,-2.3514765625,-3.6503671875,-14.51190625,-21.90625,-13.04282421875,5.029234375,-12.7716875,-16.98718359375,-17.26621875,7.90162890625,-15.66704296875,-8.00981640625,-7.92653125,-2.80244140625
-15.7879765625,-15.60673828125,-12.01080078125,-2.1880625,-15.5816015625,-15.80358984375,-14.81794140625,-1.18878125,-6.41479296875,-11.04562890625,-13.26775,-0.57187109375,-4.7748984375,-12.37775,-16.3069140625,-11.29696484375,0.607523437500001,-5.5463671875,-15.32690625,-20.57125,-10.38282421875,3.537234375,-14.0036875,-17.04418359375,-16.13721875,6.63162890625,-15.51804296875,-8.26181640625,-7.44953125,-2.54344140625
-14.0519765625,-12.51973828125,-8.81580078125,-2.8510625,-16.3296015625,-15.58758984375,-12.62694140625,2.65721875,-7.33579296875,-12.62262890625,-13.36875,2.45212890625,-4.9448984375,-14.64175,-16.1869140625,-9.57496484375,3.1895234375,-6.8193671875,-15.60290625,-19.28025,-8.55482421875,2.540234375,-14.3486875,-16.26118359375,-14.53221875,5.28962890625,-14.51304296875,-7.47581640625,-6.63353125,-1.93944140625
-12.6029765625,-9.71273828125,-6.20480078125,-3.8690625,-16.9796015625,-15.63558984375,-10.94194140625,5.57221875,-8.02479296875,-14.43762890625,-13.49175,3.72312890625,-5.3768984375,-16.09775,-16.5199140625,-8.63596484375,4.3935234375,-7.5033671875,-15.41390625,-18.25125,-7.80882421875,1.898234375,-13.9926875,-14.91718359375,-12.84321875,4.45062890625,-13.07104296875,-6.31281640625,-5.86953125,-1.30744140625
-11.6469765625,-7.74273828125,-4.50380078125,-5.5610625,-17.5546015625,-15.94958984375,-10.04594140625,6.92421875,-8.48779296875,-16.31162890625,-13.54775,2.88912890625,-5.9618984375,-16.62775,-17.2289140625,-8.18596484375,3.5795234375,-7.7323671875,-14.89890625,-17.44125,-7.71782421875,1.518234375,-13.1996875,-13.34518359375,-11.30521875,4.48962890625,-11.57904296875,-5.30281640625,-5.31353125,-0.870441406249999
-11.2889765625,-6.90573828125,-3.78580078125,-7.7440625,-18.0596015625,-16.42858984375,-9.91394140625,6.72621875,-8.75979296875,-18.10262890625,-13.46975,0.619128906250001,-6.5368984375,-16.43875,-18.1319140625,-7.83396484375,0.747523437500001,-7.7003671875,-14.29390625,-16.71225,-7.59282421875,1.404234375,-12.2736875,-11.90918359375,-10.03121875,5.50462890625,-10.31304296875,-4.70681640625,-4.88253125,-0.69244140625
-11.5649765625,-7.23973828125,-3.97780078125,-9.8440625,-18.5646015625,-17.03258984375,-10.37294140625,5.49621875,-8.96579296875,-19.80562890625,-13.38275,-1.76287109375,-6.9968984375,-16.02375,-19.1519140625,-7.41996484375,-3.3644765625,-7.6443671875,-13.97590625,-16.06625,-6.97182421875,1.597234375,-11.5366875,-11.00818359375,-9.12521875,7.27062890625,-9.46604296875,-4.55381640625,-4.39753125,-0.718441406249999
-12.4789765625,-8.62473828125,-4.98080078125,-11.2950625,-19.2696015625,-17.88658984375,-11.30294140625,3.89121875,-9.35679296875,-21.57362890625,-13.66175,-3.05487109375,-7.3528984375,-15.98975,-20.4209140625,-7.13696484375,-7.4864765625,-7.8173671875,-14.39690625,-15.77025,-5.90682421875,2.096234375,-11.2936875,-11.02918359375,-8.76921875,9.27962890625,-9.19304296875,-4.74681640625,-3.76953125,-0.851441406249999
-14.0089765625,-10.86773828125,-6.72480078125,-11.9090625,-20.4456015625,-19.23158984375,-12.72594140625,2.39521875,-10.21979296875,-23.60262890625,-14.76775,-2.90887109375,-7.6978984375,-16.80775,-22.2099140625,-7.40796484375,-10.2584765625,-8.4023671875,-15.91390625,-16.28125,-4.91082421875,2.799234375,-11.7456875,-12.25318359375,-9.20621875,10.89262890625,-9.62304296875,-5.14881640625,-3.06653125,-1.00844140625
-16.0829765625,-13.73573828125,-9.14280078125,-11.9720625,-22.2586015625,-21.23858984375,-14.68394140625,1.18721875,-11.67279296875,-25.93862890625,-16.93575,-2.05787109375,-8.1518984375,-18.56075,-24.6959140625,-8.58196484375,-10.7674765625,-9.3913671875,-18.56290625,-17.98425,-4.60182421875,3.515234375,-12.8906875,-14.72018359375,-10.60921875,11.55562890625,-10.79604296875,-5.61181640625,-2.46453125,-1.11144140625
-18.5679765625,-16.95073828125,-12.09980078125,-12.0500625,-24.5906015625,-23.79358984375,-17.05294140625,0.18721875,-13.50679296875,-28.33862890625,-19.91775,-1.83087109375,-8.7988984375,-20.84475,-27.7259140625,-10.62996484375,-8.9544765625,-10.5343671875,-21.95190625,-20.89825,-5.28482421875,4.010234375,-14.4726875,-18.13218359375,-12.89721875,10.99162890625,-12.58104296875,-5.98681640625,-2.11353125,-1.08544140625
-21.2749765625,-20.19573828125,-15.36080078125,-12.6500625,-26.9896015625,-26.43158984375,-19.42794140625,-0.81278125,-15.20679296875,-30.29562890625,-22.98275,-3.24587109375,-9.6678984375,-22.91375,-30.7489140625,-13.06296484375,-5.6634765625,-11.4363671875,-25.34290625,-24.55725,-6.74282421875,4.085234375,-16.0476875,-21.87918359375,-15.66621875,9.31062890625,-14.65504296875,-6.16881640625,-2.06553125,-0.88944140625
-23.9729765625,-23.16573828125,-18.61380078125,-13.9250625,-28.8146015625,-28.47358984375,-21.22594140625,-1.95378125,-16.17679296875,-31.21462890625,-25.18875,-6.30487109375,-10.7258984375,-24.00575,-32.9829140625,-15.13596484375,-2.2674765625,-11.7623671875,-27.91590625,-28.15625,-8.40082421875,3.642234375,-17.1536875,-25.19718359375,-18.29321875,7.00462890625,-16.59804296875,-6.16581640625,-2.28853125,-0.574441406249999
-26.4109765625,-25.64573828125,-21.55580078125,-15.5810625,-29.4936015625,-29.32858984375,-21.95994140625,-3.18778125,-16.03479296875,-30.64162890625,-25.79575,-9.99687109375,-11.8708984375,-23.69875,-33.7509140625,-16.24696484375,-0.0374765624999993,-11.3983671875,-29.05690625,-30.90025,-9.69282421875,2.758234375,-17.4906875,-27.41718359375,-20.20121875,4.80162890625,-18.05904296875,-6.11581640625,-2.73053125,-0.30744140625
-28.3859765625,-27.57873828125,-24.00780078125,-17.0430625,-28.7706015625,-28.75158984375,-21.52294140625,-4.37778125,-14.81179296875,-28.45062890625,-24.60075,-12.95487109375,-12.9358984375,-22.07775,-32.7879140625,-16.28396484375,0.405523437500001,-10.4703671875,-28.54290625,-32.33425,-10.35782421875,1.710234375,-17.0136875,-28.18118359375,-21.09521875,3.40062890625,-18.87504296875,-6.18881640625,-3.35053125,-0.29644140625
-29.8279765625,-29.06673828125,-25.96980078125,-17.7970625,-26.8066015625,-26.92658984375,-20.25694140625,-5.50078125,-12.94379296875,-24.90262890625,-22.00675,-14.27087109375,-13.7118984375,-19.66375,-30.3389140625,-15.69596484375,-0.719476562499999,-9.2183671875,-26.55790625,-32.47625,-10.49682421875,0.929234375,-15.8966875,-27.52218359375,-21.04821875,3.19562890625,-19.05604296875,-6.42881640625,-4.06953125,-0.633441406249999
-30.7909765625,-30.26673828125,-27.54180078125,-17.6560625,-24.0976015625,-24.33958984375,-18.75494140625,-6.68578125,-11.04679296875,-20.55862890625,-18.79875,-13.91587109375,-14.0128984375,-17.13375,-27.0209140625,-15.20496484375,-2.5694765625,-7.8443671875,-23.56990625,-31.69025,-10.38682421875,0.857234375,-14.4166875,-25.78218359375,-20.36921875,4.13162890625,-18.69304296875,-6.66881640625,-4.71853125,-1.17444140625
-31.3499765625,-31.23273828125,-28.74180078125,-16.7790625,-21.2496015625,-21.54758984375,-17.52294140625,-7.98978125,-9.61679296875,-16.08762890625,-15.76375,-12.60687109375,-13.7568984375,-15.01575,-23.5409140625,-15.32996484375,-4.1714765625,-6.4503671875,-20.13890625,-30.40725,-10.20382421875,1.770234375,-12.8116875,-23.41818359375,-19.37321875,5.75962890625,-17.87104296875,-6.58381640625,-5.04153125,-1.56144140625
-31.4969765625,-31.84873828125,-29.41480078125,-15.5120625,-18.7446015625,-18.97958984375,-16.74894140625,-9.17878125,-8.81779296875,-12.07962890625,-13.39375,-11.30887109375,-13.0278984375,-13.49375,-20.4409140625,-16.08596484375,-4.9404765625,-5.0483671875,-16.75990625,-28.90725,-9.85482421875,3.655234375,-11.2156875,-20.83118359375,-18.20121875,7.51462890625,-16.63604296875,-5.85181640625,-4.78153125,-1.38844140625
-31.1639765625,-31.91273828125,-29.33480078125,-14.2220625,-16.8056015625,-16.85658984375,-16.30494140625,-9.81378125,-8.47679296875,-8.94862890625,-11.81175,-10.72587109375,-12.0498984375,-12.43375,-17.9999140625,-17.05296484375,-4.9684765625,-3.6323671875,-13.79690625,-27.27625,-9.08182421875,6.211234375,-9.6646875,-18.30218359375,-16.79721875,9.06462890625,-15.02804296875,-4.32581640625,-3.80653125,-0.399441406249999
-30.3149765625,-31.29973828125,-28.39880078125,-13.2030625,-15.4166015625,-15.22958984375,-15.93994140625,-9.60878125,-8.26479296875,-6.93062890625,-10.89575,-11.02087109375,-11.0828984375,-11.58575,-16.2789140625,-17.72296484375,-4.9474765625,-2.2203671875,-11.47990625,-25.51325,-7.77982421875,8.946234375,-8.1686875,-16.01818359375,-15.05121875,10.47962890625,-13.14604296875,-2.16281640625,-2.21253125,1.36955859375
-29.0149765625,-30.05473828125,-26.73680078125,-12.6290625,-14.4396015625,-14.06558984375,-15.47394140625,-8.70778125,-7.91779296875,-6.10662890625,-10.44075,-11.81887109375,-10.3028984375,-10.80075,-15.2169140625,-17.81896484375,-5.7484765625,-0.8863671875,-9.92590625,-23.64625,-6.21882421875,11.340234375,-6.7916875,-14.11218359375,-12.97321875,12.03962890625,-11.19704296875,0.16118359375,-0.35353125,3.56355859375
-27.4069765625,-28.36373828125,-24.67080078125,-12.5510625,-13.7486015625,-13.31758984375,-14.88594140625,-7.62578125,-7.37979296875,-6.41562890625,-10.27475,-12.42987109375,-9.7468984375,-10.12475,-14.6949140625,-17.36296484375,-7.8744765625,0.2436328125,-9.13290625,-21.75425,-4.94982421875,13.011234375,-5.6556875,-12.66318359375,-10.75921875,13.80862890625,-9.48304296875,1.96618359375,1.23446875,5.58055859375
-25.6649765625,-26.45573828125,-22.57780078125,-12.9570625,-13.3066015625,-12.93158984375,-14.26994140625,-6.92978125,-6.82679296875,-7.65862890625,-10.29075,-12.16587109375,-9.3468984375,-9.71475,-14.5559140625,-16.52396484375,-11.1424765625,1.0086328125,-8.95690625,-19.91625,-4.42982421875,13.807234375,-4.8906875,-11.67618359375,-8.71721875,15.36262890625,-8.29004296875,2.63718359375,2.00746875,6.76655859375
-23.9379765625,-24.50973828125,-20.75180078125,-13.8490625,-13.1556015625,-12.83058984375,-13.74094140625,-6.90578125,-6.56079296875,-9.51862890625,-10.44575,-10.68987109375,-9.0088984375,-9.69475,-14.6169140625,-15.42896484375,-14.7684765625,1.2756328125,-9.12690625,-18.15925,-4.70482421875,13.802234375,-4.5526875,-11.06718359375,-7.11421875,15.94862890625,-7.76204296875,1.91918359375,1.63146875,6.65555859375
-22.2809765625,-22.59473828125,-19.29080078125,-15.1960625,-13.3286015625,-12.90058984375,-13.38094140625,-7.41678125,-6.82479296875,-11.58462890625,-10.72775,-8.24187109375,-8.6798984375,-10.04975,-14.6919140625,-14.05496484375,-17.7834765625,1.0156328125,-9.30990625,-16.47425,-5.36482421875,13.194234375,-4.5966875,-10.69918359375,-6.06021875,14.98462890625,-7.83304296875,0.0391835937500002,0.11846875,5.18755859375
-20.5959765625,-20.62973828125,-18.04480078125,-16.7820625,-13.7526015625,-12.99558984375,-13.21694140625,-8.00778125,-7.61779296875,-13.41162890625,-11.11475,-5.61687109375,-8.3728984375,-10.62075,-14.6289140625,-12.26896484375,-19.4524765625,0.3536328125,-9.22290625,-14.84725,-5.77782421875,12.177234375,-4.8966875,-10.42018359375,-5.47421875,12.48262890625,-8.26304296875,-2.42681640625,-2.17153125,2.76255859375
-18.6709765625,-18.44773828125,-16.69880078125,-18.1080625,-14.2186015625,-12.96958984375,-13.23394140625,-8.16278125,-8.64879296875,-14.62562890625,-11.55575,-3.79787109375,-8.1548984375,-11.18875,-14.3449140625,-9.99896484375,-19.4524765625,-0.467367187500001,-8.73790625,-13.30325,-5.41382421875,10.840234375,-5.3136875,-10.12018359375,-5.14821875,9.11562890625,-8.73404296875,-4.85581640625,-4.66253125,0.10355859375
-16.3539765625,-15.94973828125,-14.96980078125,-18.5350625,-14.4526015625,-12.73258984375,-13.39894140625,-7.55478125,-9.47679296875,-15.05762890625,-12.00175,-3.39087109375,-8.1218984375,-11.58175,-13.8489140625,-7.43096484375,-17.8224765625,-1.1933671875,-7.92890625,-11.93825,-4.12082421875,9.151234375,-5.7676875,-9.75718359375,-4.87921875,5.86262890625,-8.97204296875,-6.83481640625,-6.75853125,-2.05344140625
-13.7219765625,-13.25673828125,-12.80980078125,-17.6450625,-14.2486015625,-12.28158984375,-13.63094140625,-6.11078125,-9.74179296875,-14.79562890625,-12.42075,-4.19187109375,-8.3698984375,-11.73975,-13.2339140625,-5.07196484375,-14.8814765625,-1.6953671875,-7.04590625,-10.89625,-2.20682421875,7.037234375,-6.2676875,-9.37118359375,-4.58821875,3.54062890625,-8.84004296875,-8.23281640625,-8.04253125,-3.25944140625
-11.1319765625,-10.73573828125,-10.47780078125,-15.5710625,-13.5736015625,-11.68958984375,-13.75394140625,-3.94678125,-9.35979296875,-14.10762890625,-12.76275,-5.23787109375,-8.9728984375,-11.70075,-12.6079140625,-3.53896484375,-11.1994765625,-2.0373671875,-6.40090625,-10.29925,-0.30582421875,4.508234375,-6.8826875,-9.04918359375,-4.35121875,2.49762890625,-8.37404296875,-9.08781640625,-8.37453125,-3.48744140625
-9.0789765625,-8.85573828125,-8.41980078125,-13.0370625,-12.5746015625,-11.03558984375,-13.48394140625,-1.30878125,-8.56279296875,-13.26462890625,-12.89375,-5.36087109375,-9.9598984375,-11.52975,-12.0149140625,-3.16296484375,-7.5524765625,-2.4193671875,-6.20590625,-10.13525,0.92817578125,1.767234375,-7.6636875,-8.86818359375,-4.31121875,2.64462890625,-7.73804296875,-9.45781640625,-7.86653125,-3.00944140625
-7.9849765625,-7.95973828125,-7.05380078125,-11.0430625,-11.4956015625,-10.33258984375,-12.51494140625,1.39921875,-7.76379296875,-12.40862890625,-12.58175,-3.87187109375,-11.2868984375,-11.23075,-11.3799140625,-3.70596484375,-4.7294765625,-3.0293671875,-6.46590625,-10.20825,1.14517578125,-0.797765625,-8.5716875,-8.83918359375,-4.53921875,3.66962890625,-7.12104296875,-9.34881640625,-6.77053125,-2.16044140625
-7.9909765625,-8.10873828125,-6.58180078125,-10.3650625,-10.5516015625,-9.50558984375,-10.68894140625,3.64421875,-7.32779296875,-11.50862890625,-11.59375,-0.94687109375,-12.7968984375,-10.72975,-10.5309140625,-4.44796484375,-3.2174765625,-3.8883671875,-6.95590625,-10.19925,0.47717578125,-2.732765625,-9.4626875,-8.89818359375,-4.95521875,5.20262890625,-6.65604296875,-8.76781640625,-5.36053125,-1.15644140625
-8.8719765625,-9.04673828125,-6.91280078125,-11.1530625,-9.8206015625,-8.45158984375,-8.13394140625,4.96921875,-7.36179296875,-10.41362890625,-9.81775,2.48212890625,-14.2268984375,-9.91675,-9.2999140625,-4.60096484375,-2.9714765625,-4.8013671875,-7.31990625,-9.82725,-0.54882421875,-3.701765625,-10.1366875,-8.94218359375,-5.35821875,6.83362890625,-6.39404296875,-7.83281640625,-3.88153125,-0.112441406249999
-10.1239765625,-10.32073828125,-7.74180078125,-12.8920625,-9.2086015625,-7.11358984375,-5.26494140625,5.24521875,-7.66079296875,-8.93662890625,-7.34675,5.21312890625,-15.2518984375,-8.72775,-7.6059140625,-3.76096484375,-3.4664765625,-5.4473671875,-7.22290625,-8.99025,-1.32682421875,-3.620765625,-10.4216875,-8.87918359375,-5.54721875,8.08562890625,-6.31904296875,-6.80581640625,-2.54853125,0.84855859375
-11.1829765625,-11.46873828125,-8.69580078125,-14.7010625,-8.4916015625,-5.51158984375,-2.62294140625,4.75521875,-7.82979296875,-6.92962890625,-4.42975,6.35312890625,-15.5698984375,-7.20275,-5.4909140625,-2.07696484375,-4.0134765625,-5.5353671875,-6.47190625,-7.81025,-1.56882421875,-2.677765625,-10.2276875,-8.66618359375,-5.44721875,8.49662890625,-6.36304296875,-5.99781640625,-1.56653125,1.52455859375
-11.6559765625,-12.15473828125,-9.46480078125,-15.7520625,-7.4156015625,-3.70058984375,-0.610941406250001,4.01521875,-7.49279296875,-4.32362890625,-1.34875,5.71412890625,-14.9838984375,-5.46575,-3.0709140625,-0.0849648437500008,-4.1384765625,-4.9343671875,-5.04690625,-6.52725,-1.47582421875,-1.251765625,-9.5556875,-8.29618359375,-5.14621875,7.81462890625,-6.41504296875,-5.59781640625,-1.08453125,1.70455859375
-11.3999765625,-12.19973828125,-9.82380078125,-15.5360625,-5.7786015625,-1.72258984375,0.702058593749999,3.44821875,-6.45079296875,-1.13562890625,1.71225,3.83912890625,-13.4678984375,-3.63775,-0.4719140625,1.65203515625,-3.7874765625,-3.6993671875,-3.04790625,-5.34025,-1.53982421875,0.229234375,-8.4716875,-7.75018359375,-4.80621875,6.18962890625,-6.33404296875,-5.56281640625,-1.11653125,1.32055859375
-10.4769765625,-11.56473828125,-9.63780078125,-13.9060625,-3.5066015625,0.386410156250001,1.57205859375,3.15021875,-4.73479296875,2.52637109375,4.66025,1.63212890625,-11.1928984375,-1.77675,2.1940859375,2.79003515625,-3.2544765625,-2.0273671875,-0.63990625,-4.32025,-2.16882421875,1.431234375,-7.0816875,-6.97518359375,-4.55521875,4.20462890625,-5.99404296875,-5.65281640625,-1.48853125,0.55755859375
-9.0799765625,-10.35873828125,-8.90580078125,-11.0080625,-0.7146015625,2.53141015625,2.33705859375,2.91221875,-2.57879296875,6.41837109375,7.37425,-0.144871093749999,-8.4868984375,0.0942500000000002,4.7750859375,3.18503515625,-2.9134765625,-0.1923671875,1.94709375,-3.47725,-3.44382421875,2.180234375,-5.5436875,-5.93918359375,-4.43821875,2.66162890625,-5.35904296875,-5.59081640625,-1.89753125,-0.20844140625
-7.4799765625,-8.84073828125,-7.80180078125,-7.2080625,2.2613984375,4.49041015625,3.11905859375,2.48421875,-0.33279296875,10.11937109375,9.57225,-1.18387109375,-5.7288984375,1.88325,7.0120859375,2.72803515625,-2.9454765625,1.5216328125,4.39609375,-2.87125,-5.14882421875,2.421234375,-4.0686875,-4.72818359375,-4.45921875,2.17562890625,-4.53204296875,-5.22881640625,-2.07353125,-0.62144140625
-5.9449765625,-7.34673828125,-6.61480078125,-3.0130625,4.9333984375,5.93641015625,3.71205859375,1.87221875,1.66620703125,13.09837109375,10.84325,-1.56487109375,-3.2198984375,3.36725,8.5760859375,1.30503515625,-3.2764765625,2.8806328125,6.34809375,-2.63425,-6.88782421875,2.145234375,-2.8926875,-3.54918359375,-4.61021875,2.79262890625,-3.72404296875,-4.61781640625,-1.95053125,-0.553441406249999
-4.6279765625,-6.13073828125,-5.60280078125,1.0259375,6.8293984375,6.58141015625,3.75105859375,1.41921875,3.20820703125,14.88937109375,10.87525,-1.49087109375,-1.1108984375,4.26325,9.2030859375,-1.01896484375,-3.7924765625,3.7636328125,7.52909375,-2.82525,-8.19282421875,1.369234375,-2.1846875,-2.62118359375,-4.84421875,3.88062890625,-3.14404296875,-3.93681640625,-1.69653125,-0.178441406249999
-3.5019765625,-5.24473828125,-4.87680078125,4.3929375,7.6863984375,6.35141015625,3.04705859375,1.57421875,4.26720703125,15.28637109375,9.71225,-1.04987109375,0.581101562499999,4.38325,8.8660859375,-3.76896484375,-4.6104765625,4.1866328125,7.89809375,-3.27725,-8.64082421875,0.209234375,-1.9396875,-2.00618359375,-5.02121875,4.44062890625,-2.85504296875,-3.35781640625,-1.59653125,0.13255859375
-2.4159765625,-4.54473828125,-4.39380078125,6.6729375,7.5593984375,5.45941015625,1.80105859375,2.55321875,4.94520703125,14.42437109375,7.82625,-0.182871093749999,1.8941015625,3.78425,7.8200859375,-6.10696484375,-6.1384765625,4.2896328125,7.69109375,-3.60325,-8.05282421875,-1.013765625,-1.9506875,-1.54918359375,-4.94421875,3.68062890625,-2.72104296875,-2.91381640625,-1.84553125,0.0155585937500002
-1.2079765625,-3.80773828125,-4.01680078125,7.6579375,6.7813984375,4.31441015625,0.545058593749999,4.14121875,5.38520703125,12.70937109375,5.91725,1.16812890625,2.8531015625,2.79725,6.4990859375,-7.22096484375,-8.7654765625,4.2886328125,7.31709375,-3.39325,-6.68382421875,-1.754765625,-1.8816875,-0.972183593749999,-4.45221875,1.48962890625,-2.47504296875,-2.46781640625,-2.39153125,-0.70044140625
0.2080234375,-2.84073828125,-3.56880078125,7.4669375,5.8173984375,3.32741015625,-0.159941406250001,5.77221875,5.70120703125,10.64737109375,4.57725,2.87912890625,3.4591015625,1.92025,5.3030859375,-6.76896484375,-12.4004765625,4.4346328125,7.16409375,-2.45825,-5.18582421875,-1.390765625,-1.4016875,-0.0581835937499993,-3.51521875,-1.48237109375,-1.85504296875,-1.77381640625,-2.90353125,-1.87644140625
1.8350234375,-1.55173828125,-2.88080078125,6.5539375,5.0843984375,2.75641015625,-0.0269414062500006,6.78921875,5.96120703125,8.66937109375,4.05625,4.55912890625,3.7361015625,1.62325,4.4430859375,-5.01896484375,-16.1994765625,4.9596328125,7.43809375,-0.921249999999999,-4.26482421875,0.509234375,-0.3266875,1.20481640625,-2.22421875,-4.19537109375,-0.72504296875,-0.60081640625,-2.90353125,-3.06544140625
3.6010234375,0.0232617187499998,-1.85780078125,5.5189375,4.8013984375,2.63841015625,0.831058593749999,6.72821875,6.15920703125,6.99637109375,4.22525,5.67212890625,3.7651015625,2.13825,3.9060859375,-2.63396484375,-18.7804765625,5.9856328125,8.09309375,0.870750000000001,-4.23182421875,3.929234375,1.3143125,2.60481640625,-0.71221875,-5.78837109375,0.888957031249999,1.12918359375,-1.99653125,-3.65244140625
5.3620234375,1.71926171875,-0.54980078125,4.8419375,4.9133984375,2.81741015625,2.00205859375,5.53821875,6.20120703125,5.60537109375,4.71825,5.79212890625,3.6541015625,3.32625,3.5150859375,-0.31996484375,-18.8994765625,7.4136328125,8.86409375,2.52275,-4.80282421875,8.313234375,3.2613125,3.79281640625,0.88378125,-5.98837109375,2.78995703125,3.25018359375,-0.0995312500000001,-3.11044140625
6.9040234375,3.26426171875,0.82219921875,4.7179375,5.1463984375,3.00441015625,2.99305859375,3.62321875,5.93620703125,4.29937109375,5.12025,4.83712890625,3.4751015625,4.71025,3.0260859375,1.40803515625,-16.2364765625,8.8746328125,9.38609375,3.71675,-5.32282421875,12.689234375,5.0943125,4.42681640625,2.40278125,-5.12537109375,4.62395703125,5.35718359375,2.43846875,-1.28444140625
7.9750234375,4.35826171875,1.93619921875,5.0709375,5.1713984375,2.89941015625,3.44405859375,1.61321875,5.25220703125,2.87737109375,5.13725,3.14012890625,3.2161015625,5.67325,2.2500859375,2.31303515625,-11.7504765625,9.8456328125,9.34809375,4.26575,-5.21882421875,15.988234375,6.3713125,4.31281640625,3.62778125,-3.81637109375,5.96395703125,6.94318359375,4.93746875,1.45455859375
8.3630234375,4.77026171875,2.49819921875,5.6689375,4.8093984375,2.34741015625,3.23605859375,-0.00478125000000018,4.20120703125,1.30537109375,4.69225,1.31112890625,2.8001015625,5.74425,1.1670859375,2.42603515625,-7.2604765625,9.8936328125,8.66209375,4.14875,-4.33682421875,17.407234375,6.8123125,3.50681640625,4.35278125,-2.59137109375,6.46395703125,7.62518359375,6.65446875,4.31855859375
8.0160234375,4.44026171875,2.38419921875,6.2509375,4.1503984375,1.45341015625,2.49505859375,-1.09878125,3.05020703125,-0.20362890625,3.93925,-0.0798710937499996,2.1441015625,4.81325,-0.0139140624999996,2.00803515625,-4.4684765625,8.8946328125,7.54509375,3.52575,-2.95382421875,16.674234375,6.4233125,2.31881640625,4.50178125,-1.68737109375,6.04295703125,7.31918359375,7.09746875,6.43255859375
7.1580234375,3.54426171875,1.71419921875,6.6249375,3.5223984375,0.555410156250001,1.51605859375,-1.76078125,2.21020703125,-1.24962890625,3.19625,-0.833871093749999,1.2241015625,3.17125,-0.9129140625,1.44103515625,-4.0624765625,7.0936328125,6.44809375,2.70175,-1.55982421875,14.102234375,5.4773125,1.20081640625,4.20978125,-1.07037109375,4.93295703125,6.25118359375,6.20546875,7.22455859375
6.2680234375,2.47326171875,0.82119921875,6.7529375,3.3173984375,0.0744101562500004,0.663058593749999,-2.02378125,2.05920703125,-1.42562890625,2.82225,-1.23487109375,0.1201015625,1.38425,-1.1359140625,1.10903515625,-5.4874765625,4.9676328125,5.86209375,2.02975,-0.61182421875,10.440234375,4.3793125,0.544816406250001,3.76278125,-0.567371093749999,3.58095703125,4.81018359375,4.32146875,6.65055859375
5.8800234375,1.69526171875,0.11119921875,6.7599375,3.7903984375,0.306410156250001,0.269058593749999,-1.74578125,2.74920703125,-0.54562890625,3.08525,-1.78787109375,-0.9508984375,0.07125,-0.4639140625,1.27603515625,-7.4454765625,3.0246328125,6.10409375,1.78475,-0.35982421875,6.618234375,3.4953125,0.526816406250001,3.45478125,-0.0273710937500002,2.45295703125,3.37418359375,1.98946875,5.13555859375
6.2740234375,1.55626171875,-0.11980078125,6.8639375,4.9293984375,1.27241015625,0.531058593749999,-0.77978125,4.08620703125,1.21637109375,4.03925,-2.73987109375,-1.6798984375,-0.32775,1.0200859375,1.99903515625,-8.6974765625,1.6206328125,7.18109375,2.07075,-0.76882421875,3.497234375,3.0383125,1.05481640625,3.44578125,0.56562890625,1.85195703125,2.21518359375,-0.28753125,3.27955859375
7.2820234375,2.09726171875,0.19619921875,7.2409375,6.4303984375,2.67441015625,1.41405859375,0.80421875,5.57720703125,3.33837109375,5.44025,-3.72587109375,-1.7678984375,0.28125,2.9120859375,3.06603515625,-8.6504765625,0.8786328125,8.78009375,2.77475,-1.52882421875,1.646234375,3.0323125,1.83781640625,3.69278125,1.02662890625,1.79695703125,1.46918359375,-2.21953125,1.52555859375
8.3540234375,3.01326171875,0.87419921875,7.8879375,7.7913984375,3.97841015625,2.60805859375,2.65221875,6.63020703125,5.12937109375,6.75025,-3.89187109375,-1.0908984375,1.61325,4.5980859375,3.97003515625,-7.4274765625,0.7026328125,10.37809375,3.58275,-2.21982421875,1.208234375,3.3363125,2.50681640625,3.95878125,1.03162890625,2.03595703125,1.14118359375,-3.75253125,-0.0114414062499995
8.8350234375,3.77926171875,1.54319921875,8.5669375,8.4833984375,4.61241015625,3.60805859375,4.24521875,6.78220703125,5.98337109375,7.29525,-2.48687109375,0.1911015625,3.13225,5.4680859375,4.03403515625,-5.5644765625,0.8526328125,11.42709375,4.06675,-2.57682421875,1.869234375,3.7303125,2.73581640625,3.90478125,0.30262890625,2.17195703125,1.13518359375,-4.97353125,-1.45944140625
8.3000234375,3.89126171875,1.77219921875,8.8849375,8.1603984375,4.21541015625,3.92205859375,5.07521875,5.87520703125,5.61537109375,6.56325,0.470128906250001,1.6521015625,4.30525,5.1580859375,2.72103515625,-3.6494765625,1.0476328125,11.54509375,3.84475,-2.69782421875,2.975234375,3.9983125,2.35281640625,3.24578125,-1.17237109375,1.87195703125,1.29418359375,-5.95653125,-2.97144140625
6.7640234375,3.12026171875,1.25119921875,8.5309375,6.8153984375,2.81341015625,3.33805859375,4.82921875,4.11020703125,4.16537109375,4.49625,4.01012890625,2.7641015625,4.82425,3.7100859375,0.00303515624999928,-2.1274765625,1.0686328125,10.65509375,2.77575,-2.98382421875,3.787234375,4.0003125,1.41281640625,1.91278125,-3.06437109375,1.03795703125,1.46018359375,-6.67453125,-4.54244140625
4.6910234375,1.64826171875,-0.0528007812499998,7.5219375,4.8063984375,0.798410156250001,2.05305859375,3.52621875,1.96820703125,2.13037109375,1.59025,6.71312890625,3.1371015625,4.68725,1.5520859375,-3.50196484375,-1.2484765625,0.8156328125,9.00509375,1.06675,-3.83882421875,3.759234375,3.6733125,0.193816406250001,0.13578125,-4.83137109375,-0.16104296875,1.50518359375,-7.02853125,-5.99744140625
2.7910234375,-0.00273828125000025,-1.83680078125,6.2529375,2.7113984375,-1.25658984375,0.567058593749999,1.57221875,0.0222070312499998,0.13537109375,-1.32575,7.50112890625,2.6841015625,4.10525,-0.7089140625,-6.77996484375,-1.0294765625,0.2846328125,7.04709375,-0.794249999999999,-5.33582421875,2.709234375,2.9983125,-0.903183593749999,-1.64021875,-5.96037109375,-1.38204296875,1.34618359375,-6.94953125,-7.12144140625
1.7050234375,-1.20373828125,-3.55780078125,5.2789375,1.0873984375,-2.86258984375,-0.626941406250001,-0.33578125,-1.27179296875,-1.35962890625,-3.48975,6.14812890625,1.6311015625,3.33325,-2.5539140625,-8.90396484375,-1.2544765625,-0.4973671875,5.24109375,-2.25225,-7.09782421875,0.825234375,1.9713125,-1.53518359375,-2.95121875,-6.17737109375,-2.27804296875,0.93918359375,-6.51653125,-7.81044140625
1.7460234375,-1.48573828125,-4.61880078125,4.9829375,0.2633984375,-3.79458984375,-1.32194140625,-1.46078125,-1.71679296875,-2.22862890625,-4.55075,3.24612890625,0.363101562499999,2.53225,-3.7419140625,-9.43696484375,-1.6144765625,-1.5353671875,3.86709375,-2.92625,-8.46282421875,-1.471765625,0.6173125,-1.56418359375,-3.51321875,-5.49137109375,-2.63104296875,0.28918359375,-5.94953125,-8.11144140625
2.8090234375,-0.71673828125,-4.58180078125,5.3699375,0.2563984375,-4.11858984375,-1.64594140625,-1.30778125,-1.39679296875,-2.65162890625,-4.64675,-0.174871093749999,-0.779898437500001,1.74625,-4.3359140625,-8.50196484375,-1.9974765625,-2.8643671875,2.96409375,-2.73625,-8.81282421875,-3.712765625,-0.9656875,-1.09518359375,-3.29621875,-4.12137109375,-2.40804296875,-0.51681640625,-5.49853125,-8.14744140625
4.4530234375,0.87026171875,-3.35380078125,6.0969375,0.8293984375,-4.06558984375,-1.86294140625,0.15921875,-0.59479296875,-2.92162890625,-4.20975,-2.99287109375,-1.6398984375,0.98225,-4.5769140625,-6.53796484375,-2.6854765625,-4.4853671875,2.40209375,-1.85225,-7.80982421875,-5.524765625,-2.5716875,-0.377183593749999,-2.45121875,-2.36737109375,-1.72404296875,-1.29481640625,-5.28853125,-7.98044140625
6.0940234375,2.80126171875,-1.24780078125,6.6669375,1.6173984375,-3.86858984375,-2.12294140625,2.48421875,0.32920703125,-3.25562890625,-3.66875,-4.23687109375,-2.2498984375,0.29225,-4.7019140625,-3.97396484375,-4.2174765625,-6.2823671875,2.04009375,-0.528249999999999,-5.46582421875,-6.710765625,-3.8956875,0.362816406250001,-1.16421875,-0.500371093750001,-0.744042968750001,-1.80281640625,-5.25853125,-7.56044140625
7.2260234375,4.54826171875,1.13719921875,6.6509375,2.2723984375,-3.64958984375,-2.36694140625,4.88521875,1.04920703125,-3.71162890625,-3.26375,-3.34687109375,-2.7248984375,-0.21475,-4.8299140625,-1.08596484375,-6.9154765625,-8.0023671875,1.83409375,1.03375,-2.12382421875,-7.257765625,-4.6176875,1.02181640625,0.41278125,1.29162890625,0.377957031249999,-1.85781640625,-5.23553125,-6.78344140625
7.6240234375,5.73526171875,3.16519921875,5.8679375,2.5623984375,-3.44358984375,-2.45694140625,6.59721875,1.35220703125,-4.22362890625,-3.05375,-0.442871093749999,-3.1628984375,-0.45275,-4.9769140625,1.88103515625,-10.4074765625,-9.3343671875,1.84109375,2.69075,1.54517578125,-7.286765625,-4.5326875,1.61881640625,2.10478125,2.90562890625,1.50895703125,-1.45481640625,-5.09453125,-5.61544140625
7.4050234375,6.23526171875,4.40719921875,4.4629375,2.4193984375,-3.28858984375,-2.37994140625,7.19221875,1.18320703125,-4.68862890625,-3.03875,3.61212890625,-3.6068984375,-0.44175,-5.1429140625,4.52603515625,-13.5584765625,-10.0563671875,2.12209375,4.26775,4.64217578125,-6.954765625,-3.6656875,2.20281640625,3.63778125,4.31862890625,2.50495703125,-0.80281640625,-4.86053125,-4.16044140625
6.8920234375,6.13426171875,4.71719921875,2.8539375,1.9243984375,-3.26858984375,-2.29894140625,6.71321875,0.64020703125,-5.04262890625,-3.23975,7.51812890625,-4.0728984375,-0.31875,-5.3839140625,6.29303515625,-14.9704765625,-10.1483671875,2.65209375,5.50975,6.32917578125,-6.369765625,-2.2886875,2.77881640625,4.67978125,5.56662890625,3.22795703125,-0.21481640625,-4.67953125,-2.61944140625
6.3900234375,5.61426171875,4.18019921875,1.5809375,1.2673984375,-3.46358984375,-2.41494140625,5.57921875,-0.0977929687500003,-5.27362890625,-3.65375,10.07812890625,-4.5778984375,-0.26075,-5.7629140625,6.72603515625,-13.7914765625,-9.8183671875,3.29409375,6.16075,6.23717578125,-5.576765625,-0.8376875,3.28781640625,5.00878125,6.71362890625,3.59495703125,0.0661835937500002,-4.68353125,-1.19244140625
6.0320234375,4.88026171875,3.04719921875,1.0889375,0.6973984375,-3.84858984375,-2.73594140625,4.35821875,-0.83179296875,-5.36462890625,-4.13175,10.67612890625,-5.1238984375,-0.36275,-6.2519140625,5.82403515625,-10.3044765625,-9.3843671875,3.86009375,6.13275,4.69917578125,-4.642765625,0.2613125,3.64581640625,4.67878125,7.80662890625,3.62795703125,-0.00581640624999991,-4.84953125,-0.00344140624999945
5.8220234375,4.15826171875,1.70819921875,1.5579375,0.4563984375,-4.21758984375,-2.98094140625,3.50721875,-1.36379296875,-5.22762890625,-4.33975,9.47512890625,-5.6588984375,-0.56375,-6.6509140625,4.18103515625,-5.8534765625,-9.1023671875,4.21009375,5.63075,2.60417578125,-3.753765625,0.7573125,3.81081640625,4.04078125,8.82662890625,3.46895703125,-0.23781640625,-4.94553125,0.92055859375
5.7480234375,3.70926171875,0.62719921875,2.8149375,0.7403984375,-4.23058984375,-2.70594140625,3.18621875,-1.49479296875,-4.68962890625,-3.86175,7.30912890625,-6.0658984375,-0.66275,-6.6299140625,2.76603515625,-2.1404765625,-9.0273671875,4.34709375,5.09875,0.98017578125,-3.191765625,0.6723125,3.82481640625,3.59278125,9.67262890625,3.34195703125,-0.24981640625,-4.58953125,1.64455859375
5.8350234375,3.74326171875,0.16919921875,4.4119375,1.6343984375,-3.56958984375,-1.60894140625,3.22421875,-1.03679296875,-3.57662890625,-2.45675,5.33612890625,-6.2108984375,-0.41375,-5.8939140625,2.40103515625,-0.367476562499999,-9.0093671875,4.42009375,4.99575,0.54317578125,-3.182765625,0.2703125,3.79281640625,3.72878125,10.19062890625,3.49395703125,0.39418359375,-3.43153125,2.29155859375
6.0730234375,4.27526171875,0.39119921875,5.8359375,3.0813984375,-2.15558984375,0.206058593749999,3.29121875,0.12020703125,-1.84962890625,-0.28475,4.55412890625,-6.0268984375,0.32725,-4.3939140625,3.23303515625,-0.720476562499999,-8.8323671875,4.61909375,5.50375,1.42917578125,-3.709765625,-0.1146875,3.80181640625,4.51678125,10.23362890625,4.06795703125,1.98018359375,-1.37053125,2.95855859375
6.3260234375,5.03226171875,0.97119921875,6.7499375,4.8733984375,-0.27458984375,2.17705859375,3.13921875,1.92420703125,0.30437109375,2.04425,5.32912890625,-5.5778984375,1.47725,-2.4449140625,4.55603515625,-2.4454765625,-8.4033671875,5.02509375,6.35975,3.18417578125,-4.464765625,-0.2876875,3.82881640625,5.62678125,9.70262890625,4.98995703125,4.42618359375,1.27646875,3.62255859375
6.3180234375,5.52126171875,1.34719921875,7.1109375,6.6993984375,1.51341015625,3.53405859375,2.74621875,4.12320703125,2.50337109375,3.71325,7.13312890625,-5.0378984375,2.71925,-0.6089140625,5.19003515625,-4.3964765625,-7.8443671875,5.52809375,6.97575,4.96417578125,-4.977765625,-0.3066875,3.73381640625,6.46678125,8.55462890625,5.94395703125,7.17718359375,3.81246875,4.09455859375
5.7670234375,5.26326171875,1.00219921875,7.0989375,8.2503984375,2.65241015625,3.71305859375,2.27121875,6.30920703125,4.31637109375,4.10825,8.72312890625,-4.5768984375,3.63925,0.5940859375,4.21303515625,-5.6824765625,-7.4253671875,5.89909375,6.78675,5.89017578125,-4.861765625,-0.4056875,3.36981640625,6.49778125,6.82962890625,6.51595703125,9.35618359375,5.41046875,4.10255859375
4.5980234375,4.08226171875,-0.26780078125,6.9379375,9.3113984375,2.88541015625,2.67105859375,1.93321875,8.02120703125,5.43137109375,3.14725,8.77512890625,-4.2448984375,3.92625,0.9610859375,1.58003515625,-6.0154765625,-7.3953671875,5.96209375,5.60975,5.42817578125,-4.019765625,-0.7986875,2.74781640625,5.54978125,4.72262890625,6.43195703125,10.14518359375,5.50546875,3.47755859375
3.1050234375,2.26226171875,-2.23280078125,6.7779375,9.8043984375,2.35941015625,0.918058593749999,1.92221875,8.88420703125,5.74937109375,1.31125,6.66912890625,-3.9298984375,3.51325,0.6730859375,-1.79996484375,-5.6254765625,-7.8163671875,5.72709375,3.77775,3.64817578125,-2.686765625,-1.5086875,2.09081640625,3.94578125,2.60862890625,5.71495703125,9.19318359375,4.07046875,2.30255859375
1.8840234375,0.45126171875,-4.32480078125,6.6839375,9.7753984375,1.48641015625,-0.756941406250001,2.36921875,8.73320703125,5.37337109375,-0.64775,2.93712890625,-3.4348984375,2.59225,0.1230859375,-4.54796484375,-4.9124765625,-8.5103671875,5.39109375,1.97975,1.19917578125,-1.325765625,-2.3516875,1.73281640625,2.35278125,0.93962890625,4.67995703125,6.79018359375,1.62946875,0.89455859375
1.5350234375,-0.66973828125,-5.91680078125,6.6689375,9.3573984375,0.70241015625,-1.68494140625,3.30321875,7.66920703125,4.52637109375,-2.09975,-0.911871093749999,-2.6078984375,1.51825,-0.3359140625,-5.56596484375,-4.1584765625,-9.1423671875,5.20609375,0.910750000000001,-1.05582421875,-0.415765625,-3.0506875,1.90881640625,1.41778125,0.0246289062499994,3.75995703125,3.69218359375,-1.01753125,-0.375441406249999
2.3220234375,-0.73673828125,-6.60180078125,6.7239375,8.7243984375,0.26741015625,-1.60094140625,4.59721875,6.05220703125,3.46137109375,-2.79475,-3.11687109375,-1.4418984375,0.65725,-0.5499140625,-4.56696484375,-3.4544765625,-9.3713671875,5.32409375,0.973750000000001,-2.52082421875,-0.255765625,-3.3936875,2.59781640625,1.43278125,-0.161371093750001,3.28995703125,0.71418359375,-3.17253125,-1.28144140625
4.0360234375,0.14426171875,-6.31080078125,6.8359375,8.0733984375,0.23141015625,-0.670941406250001,5.97521875,4.41820703125,2.41837109375,-2.84075,-2.51687109375,-0.0748984375000008,0.26725,-0.5429140625,-2.11296484375,-2.8334765625,-9.0033671875,5.72309375,2.18075,-3.08382421875,-0.814765625,-3.3346875,3.53481640625,2.23278125,0.0126289062500007,3.36295703125,-1.61381640625,-4.49653125,-1.81744140625
6.1370234375,1.52926171875,-5.23980078125,7.0079375,7.5833984375,0.51341015625,0.716058593749999,7.08521875,3.32920703125,1.61337109375,-2.48875,0.892128906250001,1.2951015625,0.44025,-0.3839140625,0.806035156249999,-2.4134765625,-8.0453671875,6.24709375,4.25075,-2.93582421875,-1.701765625,-2.9706875,4.36481640625,3.37778125,0.04262890625,3.83695703125,-3.16481640625,-5.02953125,-2.12344140625
8.0210234375,2.91626171875,-3.69580078125,7.2249375,7.3753984375,1.02641015625,2.22405859375,7.60221875,3.17320703125,1.21737109375,-1.89575,5.96912890625,2.5321015625,1.11725,-0.0649140624999995,3.35303515625,-2.4044765625,-6.6663671875,6.71709375,6.78975,-2.20382421875,-2.305765625,-2.4496875,4.83281640625,4.46478125,-0.407371093750001,4.46295703125,-4.07781640625,-5.01453125,-2.31644140625
9.2470234375,3.97626171875,-1.99680078125,7.3769375,7.4623984375,1.73341015625,3.70605859375,7.32021875,3.99320703125,1.28237109375,-1.06875,10.95712890625,3.6131015625,2.14325,0.4940859375,5.20503515625,-2.9414765625,-5.0973671875,7.03009375,9.40775,-0.80182421875,-2.075765625,-1.8736875,4.87881640625,5.33478125,-1.30637109375,5.02795703125,-4.55081640625,-4.67853125,-2.39944140625
9.6200234375,4.62326171875,-0.44280078125,7.2179375,7.7103984375,2.58541015625,5.13405859375,6.24721875,5.43520703125,1.67037109375,0.0152499999999998,14.19612890625,4.5851015625,3.30825,1.3320859375,6.50503515625,-3.8824765625,-3.5553671875,7.16109375,11.73775,1.35717578125,-0.830765625,-1.2726875,4.59281640625,6.02378125,-2.29937109375,5.40795703125,-4.70081640625,-4.14053125,-2.29044140625
9.1720234375,4.92326171875,0.69119921875,6.4419375,7.8633984375,3.42841015625,6.40205859375,4.64421875,6.87120703125,2.03637109375,1.21225,14.70812890625,5.4441015625,4.34925,2.3060859375,7.53503515625,-4.7954765625,-2.2313671875,7.09809375,13.40375,3.98417578125,1.081234375,-0.6696875,4.08781640625,6.55278125,-2.91937109375,5.51995703125,-4.55781640625,-3.45753125,-1.95144140625
8.0780234375,4.95926171875,1.19719921875,4.8569375,7.6353984375,3.97341015625,7.21705859375,2.93421875,7.65820703125,1.94537109375,2.12425,12.48012890625,6.0651015625,4.98125,3.0710859375,8.36503515625,-5.2064765625,-1.3013671875,6.77709375,14.04175,6.28917578125,2.910234375,-0.1346875,3.40081640625,6.78978125,-2.82137109375,5.28495703125,-4.12681640625,-2.72253125,-1.47844140625
6.5950234375,4.75726171875,1.02119921875,2.5629375,6.8653984375,3.94541015625,7.20605859375,1.51321875,7.41720703125,1.10037109375,2.25625,8.46412890625,6.2471015625,5.01825,3.2440859375,8.76803515625,-4.9244765625,-0.900367187500001,6.12409375,13.45075,7.33517578125,3.870234375,0.2373125,2.52081640625,6.52478125,-1.92137109375,4.68995703125,-3.42681640625,-2.07153125,-1.04444140625
5.0470234375,4.34726171875,0.34619921875,0.0159374999999997,5.6643984375,3.29541015625,6.22205859375,0.62621875,6.21920703125,-0.42162890625,1.32925,4.27812890625,5.8731015625,4.52325,2.6710859375,8.43803515625,-4.1684765625,-1.0323671875,5.17309375,11.77175,6.67117578125,3.572234375,0.4223125,1.52081640625,5.72478125,-0.40837109375,3.90595703125,-2.46681640625,-1.58453125,-0.729441406249999
3.8000234375,3.84826171875,-0.39880078125,-2.0840625,4.4273984375,2.34041015625,4.58505859375,0.39921875,4.56820703125,-2.08762890625,-0.44175,1.58712890625,5.0481015625,3.85325,1.6130859375,7.33003515625,-3.3964765625,-1.4953671875,4.17609375,9.56675,4.76017578125,2.267234375,0.5543125,0.66781640625,4.70978125,1.33762890625,3.32595703125,-1.20381640625,-1.18353125,-0.402441406249999
3.1690234375,3.48126171875,-0.68480078125,-3.0840625,3.6673984375,1.66641015625,3.05305859375,0.89821875,3.13820703125,-3.10362890625,-2.31575,1.36312890625,4.1051015625,3.51025,0.6920859375,5.83103515625,-2.9504765625,-1.9203671875,3.55109375,7.65575,2.79917578125,0.761234375,0.8883125,0.376816406250001,4.07478125,2.88462890625,3.42495703125,0.43718359375,-0.64653125,0.230558593750001
3.2660234375,3.44326171875,-0.14180078125,-2.7380625,3.7323984375,1.85541015625,2.48505859375,2.09721875,2.40820703125,-2.80562890625,-3.31275,3.46312890625,3.4371015625,3.84825,0.6010859375,4.61603515625,-2.7504765625,-1.9393671875,3.67809375,6.77075,2.00517578125,-0.000765624999999992,1.6553125,0.988816406250001,4.36978125,3.87362890625,4.50295703125,2.46618359375,0.23146875,1.40255859375
3.9170234375,3.76726171875,1.24619921875,-1.3890625,4.6113984375,3.17841015625,3.39605859375,3.76421875,2.41520703125,-1.01562890625,-2.67775,6.82112890625,3.2741015625,4.85325,1.7480859375,4.25903515625,-2.2754765625,-1.3863671875,4.65709375,7.21775,2.88717578125,0.546234375,2.9003125,2.51681640625,5.74278125,4.11462890625,6.45595703125,4.70918359375,1.43746875,3.05955859375
4.7630234375,4.30226171875,3.15319921875,0.1979375,5.9503984375,5.44041015625,5.69105859375,5.44921875,2.81120703125,1.88137109375,-0.24675,10.12612890625,3.5581015625,6.13525,4.0480859375,4.89803515625,-0.884476562499999,-0.3973671875,6.20809375,8.74775,5.01117578125,2.257234375,4.4243125,4.56081640625,7.82678125,3.63662890625,8.74695703125,6.78918359375,2.66446875,4.81055859375
5.4350234375,4.81826171875,5.08419921875,1.2199375,7.2563984375,8.08341015625,8.74205859375,6.65521875,3.14820703125,5.14437109375,3.48125,12.50012890625,3.9961015625,7.16425,6.9720859375,6.18303515625,1.7085234375,0.6596328125,7.79309375,10.69875,7.38217578125,4.353234375,5.8703125,6.46981640625,9.92378125,2.71162890625,10.63795703125,8.26318359375,3.45546875,6.11655859375
5.7100234375,5.13726171875,6.59619921875,1.1959375,8.1383984375,10.44741015625,11.73005859375,7.10621875,3.15320703125,8.02137109375,7.59025,13.79312890625,4.2341015625,7.54325,9.8100859375,7.51103515625,5.1625234375,1.3646328125,8.88109375,12.32475,9.08517578125,5.835234375,6.8973125,7.66281640625,11.35778125,1.80062890625,11.54595703125,8.84918359375,3.48446875,6.59155859375
5.5420234375,5.20126171875,7.44819921875,0.096937500000001,8.4393984375,12.04541015625,14.01005859375,6.88821875,2.81420703125,10.00537109375,11.13025,14.36612890625,4.0551015625,7.17425,11.9510859375,8.33703515625,8.6355234375,1.4216328125,9.18909375,13.10375,9.72217578125,5.987234375,7.3123125,7.89381640625,11.78778125,1.38262890625,11.32795703125,8.56718359375,2.77446875,6.19455859375
5.0220234375,5.04826171875,7.66219921875,-1.7380625,8.2033984375,12.67541015625,15.25205859375,6.38421875,2.27320703125,10.91337109375,13.40625,14.60412890625,3.4681015625,6.20925,13.0500859375,8.35703515625,11.1965234375,0.7276328125,8.73609375,12.88475,9.43317578125,4.679234375,7.1013125,7.31281640625,11.28378125,1.68562890625,10.28195703125,7.66418359375,1.66946875,5.18155859375
4.2820234375,4.74626171875,7.47219921875,-3.7900625,7.5613984375,12.35941015625,15.37405859375,6.02021875,1.66420703125,10.79137109375,14.07725,14.55612890625,2.6621015625,4.88425,13.0140859375,7.51603515625,12.1865234375,-0.658367187500001,7.72909375,11.84075,8.59817578125,2.347234375,6.3553125,6.30281640625,10.19378125,2.51562890625,8.90695703125,6.40418359375,0.59146875,3.89255859375
3.4050234375,4.31726171875,7.16919921875,-5.5650625,6.6133984375,11.22641015625,14.40905859375,5.97721875,1.01820703125,9.77237109375,13.13125,13.99312890625,1.8591015625,3.36925,11.9200859375,5.92803515625,11.3315234375,-2.6013671875,6.39409375,10.30675,7.53417578125,-0.275765625,5.1923125,5.23881640625,8.90178125,3.35162890625,7.60495703125,4.88218359375,-0.22653125,2.55655859375
2.3950234375,3.71226171875,6.90919921875,-6.7440625,5.3873984375,9.43541015625,12.48405859375,6.07021875,0.27220703125,7.98137109375,10.81225,12.82312890625,1.1811015625,1.74425,9.9440859375,3.81303515625,8.6975234375,-4.9413671875,4.87309375,8.62475,6.37717578125,-2.495765625,3.7253125,4.31581640625,7.66478125,3.66462890625,6.53095703125,3.04918359375,-0.83753125,1.27055859375
1.2650234375,2.87126171875,6.64319921875,-7.2090625,3.8933984375,7.18041015625,9.90105859375,5.91921875,-0.63379296875,5.56137109375,7.58325,11.40212890625,0.5921015625,0.07325,7.3430859375,1.49803515625,4.7185234375,-7.4803671875,3.26109375,7.05575,5.19617578125,-3.902765625,2.1063125,3.54481640625,6.57878125,3.25862890625,5.63695703125,0.91218359375,-1.43953125,0.125558593750001
0.1830234375,1.85026171875,6.20519921875,-6.9970625,2.1973984375,4.71941015625,7.15205859375,5.31021875,-1.67779296875,2.75537109375,4.06825,10.38212890625,-0.0478984375000007,-1.48875,4.4650859375,-0.554964843750001,0.272523437500001,-9.9293671875,1.69109375,5.77575,4.18317578125,-4.434765625,0.5683125,2.87581640625,5.67478125,2.36262890625,4.83495703125,-1.26581640625,-2.14453125,-0.67944140625
-0.4959765625,0.89426171875,5.49219921875,-6.2600625,0.4483984375,2.36641015625,4.79505859375,4.43221875,-2.75379296875,-0.0726289062500003,0.92025,10.19412890625,-0.872898437500001,-2.68675,1.7110859375,-1.78396484375,-3.3874765625,-11.9013671875,0.37609375,4.89675,3.70117578125,-4.290765625,-0.5826875,2.31781640625,5.02278125,1.43862890625,4.12195703125,-2.97181640625,-2.84453125,-0.86144140625
-0.3909765625,0.36126171875,4.57819921875,-5.2870625,-1.1846015625,0.42041015625,3.22805859375,3.80421875,-3.75379296875,-2.52962890625,-1.36275,10.61012890625,-1.8918984375,-3.26575,-0.5479140625,-1.71696484375,-5.0294765625,-12.9943671875,-0.46490625,4.45675,4.08117578125,-3.780765625,-1.0806875,1.96281640625,4.73178125,0.868628906250001,3.58395703125,-3.71181640625,-3.27853125,-0.242441406249999
0.6570234375,0.54326171875,3.71619921875,-4.5140625,-2.5986015625,-0.945589843749999,2.54605859375,3.94321875,-4.62679296875,-4.35562890625,-2.60275,10.78512890625,-2.9308984375,-3.14275,-2.0959140625,-0.24496484375,-4.0324765625,-12.9463671875,-0.74390625,4.36875,5.28017578125,-3.198765625,-0.8506875,1.87481640625,4.82978125,0.74062890625,3.28495703125,-3.33581640625,-3.25253125,1.04755859375
2.4430234375,1.49926171875,3.24519921875,-4.4140625,-3.7766015625,-1.74458984375,2.55505859375,5.03621875,-5.36579296875,-5.52262890625,-2.97475,9.77412890625,-3.6728984375,-2.50375,-2.9339140625,2.22903515625,-0.814476562499999,-11.7673671875,-0.60090625,4.41575,6.74717578125,-2.734765625,-0.0956875000000001,1.98681640625,5.16778125,0.86962890625,3.15795703125,-2.16181640625,-2.80753125,2.53355859375
4.4510234375,3.01726171875,3.43919921875,-5.3080625,-4.7506015625,-2.15458984375,2.91305859375,6.78221875,-5.94579296875,-6.21662890625,-2.88775,7.15112890625,-3.7898984375,-1.75075,-3.2539140625,4.89203515625,3.2355234375,-9.7693671875,-0.35290625,4.31875,7.68517578125,-2.439765625,0.7693125,2.08981640625,5.44278125,1.00362890625,3.00695703125,-0.78681640625,-2.21653125,3.58955859375
6.0470234375,4.68926171875,4.34719921875,-7.2090625,-5.5316015625,-2.41158984375,3.25105859375,8.44821875,-6.30679296875,-6.71862890625,-2.80875,3.35612890625,-3.0968984375,-1.31775,-3.3399140625,6.81303515625,6.3845234375,-7.4923671875,-0.35290625,3.85175,7.54917578125,-2.251765625,1.2983125,1.92881640625,5.36178125,1.05262890625,2.62495703125,0.25818359375,-1.80253125,3.76155859375
6.7280234375,6.06626171875,5.69619921875,-9.7900625,-6.0836015625,-2.69758984375,3.24805859375,9.16921875,-6.39179296875,-7.25362890625,-3.10275,-0.447871093749999,-1.6488984375,-1.48375,-3.4519140625,7.26503515625,7.4595234375,-5.5363671875,-0.82190625,2.92975,6.37717578125,-2.087765625,1.2013125,1.33581640625,4.79578125,1.15562890625,1.92895703125,0.75518359375,-1.72753125,2.99855859375
6.3290234375,6.82226171875,6.97519921875,-12.4740625,-6.3286015625,-3.07858984375,2.69705859375,8.34121875,-6.17479296875,-7.85162890625,-3.91875,-2.92087109375,0.2691015625,-2.26675,-3.7319140625,5.98503515625,6.4885234375,-4.3883671875,-1.77190625,1.62375,4.71417578125,-1.928765625,0.4363125,0.292816406250001,3.82378125,1.54162890625,0.994957031249999,0.80918359375,-1.91153125,1.63655859375
5.1020234375,6.85026171875,7.66019921875,-14.6150625,-6.1836015625,-3.48658984375,1.60105859375,5.94421875,-5.67479296875,-8.31662890625,-5.13175,-3.19987109375,2.2401015625,-3.45275,-4.1529140625,3.31303515625,4.6605234375,-4.2663671875,-3.01690625,0.136750000000001,3.25517578125,-1.845765625,-0.8216875,-1.08618359375,2.65778125,2.31062890625,-0.0130429687500007,0.65518359375,-2.12753125,0.15955859375
3.5840234375,6.25526171875,7.44119921875,-15.7010625,-5.6046015625,-3.76358984375,0.225058593749999,2.58121875,-4.96079296875,-8.31662890625,-6.36475,-1.33787109375,3.8501015625,-4.69475,-4.5369140625,0.10603515625,3.5785234375,-5.0493671875,-4.26190625,-1.26325,2.46617578125,-1.928765625,-2.2816875,-2.61318359375,1.51578125,3.29862890625,-0.93604296875,0.45518359375,-2.18053125,-1.07444140625
2.3230234375,5.24526171875,6.32419921875,-15.5110625,-4.6316015625,-3.74358984375,-0.995941406250001,-0.75478125,-4.16079296875,-7.57062890625,-7.14075,1.74912890625,4.8081015625,-5.65675,-4.6359140625,-2.62096484375,4.2595234375,-6.3383671875,-5.21390625,-2.32925,2.42217578125,-2.183765625,-3.6596875,-4.09018359375,0.51578125,4.14862890625,-1.68604296875,0.20218359375,-2.03753125,-1.97244140625
1.6020234375,4.00026171875,4.56219921875,-14.1570625,-3.4196015625,-3.36058984375,-1.67794140625,-3.08078125,-3.45879296875,-6.02962890625,-7.12175,4.74512890625,5.0291015625,-6.13475,-4.2889140625,-4.20796484375,6.5295234375,-7.6173671875,-5.69490625,-2.94225,2.83117578125,-2.481765625,-4.7496875,-5.35118359375,-0.35721875,4.51462890625,-2.25304296875,-0.21881640625,-1.83253125,-2.65044140625
1.3290234375,2.61126171875,2.51919921875,-12.0070625,-2.2406015625,-2.72158984375,-1.70094140625,-3.79378125,-3.03879296875,-3.94562890625,-6.30275,6.53112890625,4.6411015625,-6.11475,-3.5359140625,-4.69496484375,9.1805234375,-8.4653671875,-5.69590625,-3.17925,3.19917578125,-2.597765625,-5.4496875,-6.28918359375,-1.22421875,4.24962890625,-2.68204296875,-0.89581640625,-1.73353125,-3.26444140625
1.1310234375,1.09326171875,0.54419921875,-9.5740625,-1.4156015625,-2.06458984375,-1.26494140625,-2.87678125,-2.99879296875,-1.78762890625,-5.01875,6.56812890625,3.9411015625,-5.73575,-2.6159140625,-4.73096484375,10.7755234375,-8.6923671875,-5.34690625,-3.27025,3.06217578125,-2.312765625,-5.7316875,-6.85918359375,-2.21621875,3.45262890625,-3.01304296875,-1.74781640625,-1.78253125,-3.86144140625
0.6010234375,-0.51573828125,-1.07880078125,-7.4010625,-1.1856015625,-1.62258984375,-0.749941406250001,-0.86278125,-3.26479296875,-0.0526289062500003,-3.76675,4.94412890625,3.2911015625,-5.20175,-1.8279140625,-5.10796484375,10.4725234375,-8.3633671875,-4.81790625,-3.44125,2.21017578125,-1.513765625,-5.5936875,-7.05118359375,-3.34821875,2.37262890625,-3.22704296875,-2.48381640625,-1.81653125,-4.33144140625
-0.4049765625,-2.04573828125,-2.12180078125,-5.9410625,-1.5676015625,-1.47358984375,-0.490941406250001,1.42221875,-3.58679296875,0.94637109375,-2.93175,2.17712890625,3.0011015625,-4.69775,-1.3429140625,-6.21896484375,8.3605234375,-7.7263671875,-4.21290625,-3.73925,0.77617578125,-0.263765625,-5.0526875,-6.86318359375,-4.45721875,1.23762890625,-3.23504296875,-2.71781640625,-1.56953125,-4.48444140625
-1.5989765625,-3.16273828125,-2.43180078125,-5.4380625,-2.3186015625,-1.50058984375,-0.599941406250001,3.22021875,-3.63479296875,1.18437109375,-2.61875,-1.01787109375,3.2201015625,-4.35275,-1.1089140625,-7.81296484375,5.2425234375,-7.0873671875,-3.53390625,-3.97825,-0.84182421875,1.162234375,-4.1646875,-6.29018359375,-5.24621875,0.127628906249999,-2.94604296875,-2.18981640625,-0.89153125,-4.19144140625
-2.3959765625,-3.49673828125,-1.98980078125,-5.8520625,-3.0386015625,-1.47358984375,-0.907941406250001,4.11221875,-3.17679296875,0.89637109375,-2.64375,-3.87887109375,3.8841015625,-4.22575,-0.9129140625,-9.17896484375,2.1905234375,-6.6723671875,-2.72290625,-3.83125,-2.15882421875,2.328234375,-3.0456875,-5.32418359375,-5.41721875,-1.04237109375,-2.34204296875,-0.94481640625,0.09146875,-3.48844140625
-2.2619765625,-2.84373828125,-0.96080078125,-6.9050625,-3.3676015625,-1.19158984375,-1.04494140625,4.09421875,-2.21879296875,0.41737109375,-2.68875,-5.70787109375,4.7591015625,-4.27275,-0.5289140625,-9.55296484375,0.168523437500001,-6.5323671875,-1.71590625,-2.99525,-2.73082421875,2.777234375,-1.8376875,-3.96718359375,-4.78021875,-2.41037109375,-1.48104296875,0.66918359375,1.02546875,-2.54244140625
-1.0329765625,-1.29873828125,0.35519921875,-8.2070625,-3.1476015625,-0.57158984375,-0.629941406250001,3.46921875,-1.02779296875,0.0263710937499997,-2.48975,-6.03087109375,5.5621015625,-4.33175,0.1510859375,-8.48296484375,-0.193476562499999,-6.5273671875,-0.48290625,-1.32925,-2.22382421875,2.238234375,-0.6526875,-2.24518359375,-3.29021875,-3.98637109375,-0.449042968750001,2.16518359375,1.54446875,-1.53544140625
1.0140234375,0.79726171875,1.66619921875,-9.3990625,-2.4746015625,0.33241015625,0.51605859375,2.68321875,-0.0157929687499996,-0.15462890625,-1.95275,-4.81187109375,6.0811015625,-4.15475,1.0770859375,-5.97196484375,1.2735234375,-6.4233671875,0.97409375,1.08475,-0.49582421875,0.767234375,0.4793125,-0.235183593749999,-1.04421875,-5.50437109375,0.683957031249999,3.14718359375,1.49546875,-0.52544140625
3.3370234375,3.04126171875,2.85119921875,-10.2500625,-1.6186015625,1.39041015625,2.26205859375,2.17521875,0.42920703125,-0.15262890625,-1.15075,-2.57187109375,6.2431015625,-3.51975,2.1100859375,-2.40096484375,4.2385234375,-6.0443671875,2.62309375,3.98175,2.30517578125,-1.240765625,1.5813125,1.91981640625,1.75578125,-6.42137109375,1.87795703125,3.48318359375,1.00846875,0.588558593750001
5.3800234375,5.14526171875,4.01919921875,-10.6690625,-0.8806015625,2.48541015625,4.24905859375,2.26621875,0.0922070312500001,-0.0846289062500003,-0.21975,-0.235871093749999,6.0911015625,-2.35175,3.1320859375,1.66803515625,7.9455234375,-5.3923671875,4.39509375,6.99075,5.72517578125,-3.203765625,2.6843125,4.02781640625,4.83878125,-6.11237109375,3.11795703125,3.35018359375,0.39946875,2.00255859375
6.7800234375,7.01226171875,5.45319921875,-10.6660625,-0.4586015625,3.57441015625,6.09105859375,3.05021875,-0.99379296875,-0.0806289062500003,0.75425,1.30212890625,5.7291015625,-0.79975,4.1100859375,5.69503515625,11.4605234375,-4.6593671875,6.16409375,9.74575,9.09917578125,-4.586765625,3.7633125,5.88681640625,7.89478125,-4.24437109375,4.39195703125,3.14218359375,-0.00753124999999999,3.85355859375
7.4620234375,8.67626171875,7.43419921875,-10.2780625,-0.3926015625,4.63341015625,7.54205859375,4.31621875,-2.57379296875,-0.24162890625,1.74525,1.67612890625,5.2611015625,0.78325,5.0440859375,9.25903515625,13.9995234375,-4.1493671875,7.73109375,11.93275,11.75817578125,-5.161765625,4.6973125,7.31981640625,10.58678125,-1.10637109375,5.63395703125,3.22218359375,-0.0485312500000001,6.04555859375
7.5950234375,10.16526171875,10.01419921875,-9.5470625,-0.6316015625,5.54741015625,8.48505859375,5.56821875,-4.29179296875,-0.65462890625,2.66325,1.29312890625,4.7521015625,1.93225,5.8410859375,11.98503515625,15.1745234375,-4.1643671875,8.81109375,13.27675,13.23017578125,-5.135765625,5.2743125,8.15281640625,12.52978125,2.35262890625,6.65795703125,3.66418359375,0.19446875,8.15655859375
7.4220234375,11.38526171875,12.83519921875,-8.5660625,-1.1406015625,6.02741015625,8.79205859375,6.16921875,-5.83979296875,-1.42862890625,3.22425,1.07012890625,4.2321015625,2.21825,6.2160859375,13.42003515625,15.0355234375,-4.9033671875,9.07709375,13.49675,13.33917578125,-5.061765625,5.2403125,8.20081640625,13.30878125,4.87762890625,7.15695703125,4.13518359375,0.42646875,9.52755859375
7.0950234375,12.10326171875,15.15619921875,-7.5300625,-1.9456015625,5.68841015625,8.24305859375,5.59121875,-7.03879296875,-2.67762890625,2.96925,1.77112890625,3.7201015625,1.44025,5.7640859375,13.04403515625,13.9085234375,-6.3803671875,8.27309375,12.33475,12.20417578125,-5.518765625,4.4143125,7.28681640625,12.56678125,5.46762890625,6.81395703125,4.03418359375,0.29046875,9.55255859375
6.6270234375,12.06226171875,16.13219921875,-6.6810625,-3.0636015625,4.25741015625,6.64605859375,3.68721875,-7.81779296875,-4.42262890625,1.51025,3.38412890625,3.2601015625,-0.24375,4.2000859375,10.54003515625,12.1725234375,-8.3633671875,6.36109375,9.69175,10.17217578125,-6.725765625,2.8183125,5.35481640625,10.17678125,3.82262890625,5.47195703125,2.85518359375,-0.43153125,8.01455859375
5.9620234375,11.15326171875,15.21219921875,-6.1790625,-4.4006015625,1.80141015625,4.08305859375,0.81121875,-8.13579296875,-6.45862890625,-1.13575,5.03412890625,2.9421015625,-2.31075,1.6060859375,6.13903515625,10.1395234375,-10.3803671875,3.62109375,5.81475,7.69517578125,-8.347765625,0.7443125,2.59781640625,6.39578125,0.461628906250001,3.26495703125,0.55018359375,-1.67153125,5.27455859375
5.0570234375,9.49126171875,12.42719921875,-5.9980625,-5.6906015625,-1.18058984375,1.07905859375,-2.30778125,-7.96779296875,-8.33362890625,-4.36975,5.54612890625,2.8871015625,-4.03975,-1.4699140625,0.75203515625,8.0895234375,-11.8343671875,0.61609375,1.36675,5.18817578125,-9.626765625,-1.2766875,-0.508183593749999,1.89278125,-3.52737109375,0.622957031249999,-2.32081640625,-3.06853125,2.17455859375
3.8910234375,7.36426171875,8.39619921875,-5.9620625,-6.5626015625,-3.88758984375,-1.48894140625,-4.92678125,-7.33579296875,-9.47362890625,-7.15675,4.24112890625,3.2101015625,-4.80075,-4.1659140625,-4.29096484375,6.3795234375,-12.2293671875,-2.00190625,-2.70725,2.93017578125,-9.784765625,-2.6536875,-3.32318359375,-2.40621875,-6.93537109375,-1.85704296875,-4.81581640625,-4.13053125,-0.30444140625
2.4590234375,5.10726171875,4.07119921875,-5.8660625,-6.6736015625,-5.52158984375,-2.76194140625,-6.64778125,-6.36279296875,-9.40462890625,-8.45775,1.35712890625,3.9671015625,-4.31575,-5.6409140625,-7.78496484375,5.3925234375,-11.3853671875,-3.74290625,-5.50725,1.05117578125,-8.447765625,-2.9766875,-5.28218359375,-5.62321875,-8.91437109375,-3.64704296875,-6.10181640625,-4.48953125,-1.46444140625
0.7970234375,2.98726171875,0.35819921875,-5.5560625,-5.8626015625,-5.62258984375,-2.35494140625,-7.53778125,-5.25679296875,-7.95962890625,-7.72275,-2.18287109375,5.1081015625,-2.77475,-5.4269140625,-9.15996484375,5.3275234375,-9.5343671875,-4.47790625,-6.53825,-0.39882421875,-5.841765625,-2.1996875,-6.11918359375,-7.25321875,-9.26937109375,-4.51204296875,-5.90081640625,-4.10553125,-1.19344140625
-1.0039765625,1.13526171875,-2.22080078125,-4.9350625,-4.2336015625,-4.27358984375,-0.599941406250001,-7.98478125,-4.23779296875,-5.36362890625,-5.17175,-5.37287109375,6.4691015625,-0.72975,-3.6389140625,-8.70696484375,6.0185234375,-7.2103671875,-4.44890625,-5.92425,-1.38682421875,-2.648765625,-0.6456875,-5.95518359375,-7.35021875,-8.43237109375,-4.57204296875,-4.60081640625,-3.26753125,0.0335585937500005
-2.8079765625,-0.46273828125,-3.67080078125,-3.9420625,-2.1386015625,-2.04258984375,1.58705859375,-8.42878125,-3.44179296875,-2.17062890625,-1.72475,-7.63287109375,7.8071015625,1.16325,-0.9189140625,-7.41296484375,7.0325234375,-5.0073671875,-4.09690625,-4.33725,-1.90582421875,0.365234375,1.1733125,-5.18918359375,-6.45321875,-7.10437109375,-4.16604296875,-2.95081640625,-2.39353125,1.45555859375
-4.4649765625,-1.92673828125,-4.39680078125,-2.5770625,-0.0396015624999998,0.289410156250001,3.16205859375,-9.10378125,-2.85779296875,0.94237109375,1.42125,-8.93287109375,8.8811015625,2.42425,1.8360859375,-6.44596484375,7.9935234375,-3.3283671875,-3.81990625,-2.66625,-2.04682421875,2.667234375,2.7963125,-4.26118359375,-5.30521875,-5.81937109375,-3.60804296875,-1.60781640625,-1.77053125,2.45855859375
-5.8159765625,-3.36873828125,-4.89180078125,-0.9650625,1.6783984375,2.07241015625,3.47105859375,-9.88078125,-2.33579296875,3.44337109375,3.32925,-9.59287109375,9.5521015625,2.90925,3.8560859375,-6.55596484375,8.8205234375,-2.2713671875,-3.79190625,-1.58025,-2.02482421875,4.057234375,3.9673125,-3.43218359375,-4.49821875,-4.68037109375,-3.02704296875,-0.84081640625,-1.41653125,2.84855859375
-6.7029765625,-4.79473828125,-5.43880078125,0.6209375,2.8593984375,3.03941015625,2.54805859375,-10.28878125,-1.65279296875,5.13237109375,3.72925,-9.99687109375,9.8371015625,2.80225,4.8040859375,-7.68696484375,9.6955234375,-1.6743671875,-3.93090625,-1.23125,-2.09582421875,4.560234375,4.6563125,-2.69518359375,-4.22621875,-3.45437109375,-2.36504296875,-0.53281640625,-1.13553125,2.82355859375
-7.0229765625,-6.05873828125,-5.99280078125,1.8439375,3.6113984375,3.36541015625,1.06705859375,-9.76378125,-0.62679296875,6.16437109375,3.08525,-10.37387109375,9.8861015625,2.48525,4.8780859375,-9.00696484375,10.8295234375,-1.2733671875,-3.97490625,-1.22225,-2.37782421875,4.278234375,4.9763125,-1.83718359375,-4.24721875,-1.88637109375,-1.48704296875,-0.39181640625,-0.71053125,2.72155859375
-6.7749765625,-6.88873828125,-6.26480078125,2.4999375,4.2273984375,3.53141015625,0.00605859374999884,-8.02378125,0.81720703125,6.90737109375,2.32725,-10.66187109375,9.9081015625,2.36425,4.6670859375,-9.33296484375,12.2195234375,-0.8413671875,-3.63090625,-0.843249999999999,-2.70582421875,3.352234375,5.1043125,-0.590183593749999,-4.02921875,-0.000371093750000995,-0.29004296875,-0.18481640625,-0.06553125,2.77455859375
-6.0289765625,-6.96273828125,-5.91280078125,2.7149375,5.0303984375,4.05741015625,0.197058593749999,-5.28578125,2.63520703125,7.71537109375,2.38525,-10.49187109375,10.0751015625,2.73225,4.8360859375,-7.72296484375,13.5435234375,-0.2453671875,-2.70090625,0.546750000000001,-2.61682421875,2.013234375,5.2243125,1.20281640625,-3.03821875,1.81962890625,1.22595703125,0.13918359375,0.69246875,3.01255859375
-4.8659765625,-6.02873828125,-4.72480078125,2.9589375,6.1883984375,5.22441015625,1.95805859375,-2.18978125,4.68920703125,8.73637109375,3.74225,-9.37787109375,10.4781015625,3.67625,5.7830859375,-3.95196484375,14.2515234375,0.572632812499999,-1.18790625,3.17675,-1.53882421875,0.620234375,5.4853125,3.46881640625,-1.02821875,2.98462890625,2.94295703125,0.46718359375,1.34946875,3.32555859375
-3.3709765625,-4.06373828125,-2.74380078125,3.7849375,7.5903984375,6.90941015625,4.94005859375,0.52821875,6.76120703125,9.81837109375,6.19725,-7.09487109375,11.1081015625,5.06525,7.4260859375,1.35003515625,13.8445234375,1.6366328125,0.65909375,6.69675,0.89417578125,-0.417765625,5.9643125,5.87481640625,1.78378125,2.97762890625,4.62795703125,0.63618359375,1.71146875,3.57755859375
-1.6709765625,-1.35773828125,-0.27680078125,5.4959375,8.8523984375,8.62941015625,8.27505859375,2.35521875,8.57120703125,10.57737109375,8.94225,-3.99587109375,11.8701015625,6.60925,9.2510859375,6.95903515625,12.1715234375,2.9256328125,2.39809375,10.28775,4.55917578125,-0.807765625,6.6243125,7.90681640625,4.75978125,1.62262890625,5.97995703125,0.55618359375,1.69946875,3.68655859375
0.0550234375,1.53326171875,2.20119921875,7.9719375,9.5023984375,9.77241015625,10.93105859375,3.14021875,9.83720703125,10.62537109375,10.92925,-0.94687109375,12.6061015625,7.96925,10.5640859375,11.55803515625,9.5825234375,4.3416328125,3.55409375,12.99875,8.75517578125,-0.541765625,7.3123125,9.04481640625,7.08378125,-0.808371093750001,6.69795703125,0.25918359375,1.34846875,3.62055859375
1.6270234375,3.99826171875,4.22219921875,10.7549375,9.2533984375,9.89641015625,12.13705859375,2.99221875,10.40020703125,9.83137109375,11.32825,1.15812890625,13.1371015625,8.88925,10.8470859375,14.21503515625,6.8155234375,5.6966328125,3.82009375,14.14375,12.34517578125,0.0662343750000001,7.8113125,8.96181640625,8.07778125,-3.70137109375,6.55495703125,-0.16081640625,0.73046875,3.32755859375
2.9250234375,5.59726171875,5.45819921875,13.2369375,8.1893984375,8.94841015625,11.65705859375,2.08321875,10.31620703125,8.46537109375,9.88625,1.92712890625,13.3441015625,9.30625,10.0160859375,14.61703515625,4.6855234375,6.7816328125,3.21409375,13.58375,14.14117578125,0.532234375,7.9453125,7.66481640625,7.44678125,-6.38637109375,5.48195703125,-0.63681640625,-0.0965312500000002,2.69255859375
3.8970234375,6.21126171875,5.81019921875,14.8019375,6.7673984375,7.31141015625,9.82905859375,0.56521875,9.85520703125,7.09837109375,7.03425,1.60512890625,13.2331015625,9.37025,8.4800859375,13.05003515625,3.7075234375,7.4736328125,2.09709375,11.74675,13.39217578125,0.476234375,7.6813125,5.51181640625,5.36878125,-8.43037109375,3.63695703125,-1.16481640625,-1.07853125,1.59655859375
4.5590234375,6.04626171875,5.42619921875,14.9549375,5.6123984375,5.63741015625,7.36105859375,-1.36078125,9.37820703125,6.34137109375,3.71725,0.722128906250001,12.9471015625,9.35825,6.9610859375,10.20803515625,3.8445234375,7.8076328125,1.02509375,9.41275,10.18317578125,-0.162765625,7.1433125,3.08781640625,2.41578125,-9.79337109375,1.40595703125,-1.76481640625,-2.11353125,0.0395585937500003
4.9780234375,5.52226171875,4.67119921875,13.4989375,5.2253984375,4.55741015625,5.01205859375,-3.34178125,9.16020703125,6.55137109375,1.00725,-0.374871093749999,12.7041015625,9.52425,6.1650859375,6.92703515625,4.5585234375,7.9536328125,0.51009375,7.36275,5.48317578125,-1.107765625,6.5403125,0.989816406250001,-0.66121875,-10.78237109375,-0.715042968750001,-2.41981640625,-3.04353125,-1.79544140625
5.2460234375,5.08626171875,4.00419921875,10.7019375,5.7663984375,4.42541015625,3.30905859375,-4.95278125,9.25520703125,7.69137109375,-0.32075,-1.66487109375,12.6661015625,9.97025,6.4740859375,3.91303515625,5.1705234375,8.1206328125,0.80809375,6.06675,0.75417578125,-1.924765625,6.0733125,-0.373183593749999,-3.20221875,-11.82637109375,-2.27604296875,-3.03581640625,-3.68053125,-3.57244140625
5.4240234375,5.02226171875,3.77519921875,7.2759375,7.0293984375,5.24341015625,2.45105859375,-5.94278125,9.48920703125,9.40937109375,-0.0287500000000002,-3.21487109375,12.8401015625,10.63625,7.8380859375,1.56403515625,5.2545234375,8.4496328125,1.86309375,5.57575,-2.68682421875,-2.260765625,5.8933125,-0.857183593749999,-4.82921875,-13.19237109375,-2.98204296875,-3.42681640625,-3.84653125,-4.91744140625
5.5180234375,5.37026171875,4.07419921875,4.1789375,8.6203984375,6.76541015625,2.40705859375,-6.41378125,9.62220703125,11.29537109375,1.63125,-4.85287109375,13.0731015625,11.38925,9.8880859375,-0.00296484375000006,4.7715234375,8.9776328125,3.41809375,5.66275,-4.21382421875,-1.986765625,6.1223125,-0.518183593749999,-5.49221875,-14.75237109375,-2.71904296875,-3.31881640625,-3.38553125,-5.53144140625
5.5190234375,5.97626171875,4.71919921875,2.3179375,10.2213984375,8.69841015625,3.08405859375,-6.70878125,9.55120703125,13.15237109375,4.17925,-6.07687109375,13.1451015625,12.13325,12.1970859375,-0.786964843750001,3.9065234375,9.6526328125,5.18809375,6.08175,-4.03182421875,-1.180765625,6.8653125,0.533816406250001,-5.36621875,-15.95937109375,-1.51704296875,-2.42481640625,-2.17653125,-5.25244140625
5.4670234375,6.61726171875,5.38919921875,2.2719375,11.7623984375,10.85541015625,4.41105859375,-7.08178125,9.41920703125,15.09737109375,7.17925,-6.27087109375,12.9051015625,12.85725,14.5000859375,-0.764964843750001,2.8605234375,10.3826328125,6.98909375,6.77175,-2.87482421875,-0.010765625,8.1813125,2.23781640625,-4.67721875,-16.07837109375,0.481957031249999,-0.57581640625,-0.18153125,-4.08244140625
5.4610234375,7.11226171875,5.78619921875,4.0789375,13.3833984375,13.18541015625,6.29605859375,-7.47578125,9.50620703125,17.43437109375,10.36425,-5.05587109375,12.3461015625,13.61425,16.7630859375,0.0950351562499998,1.7965234375,11.0866328125,8.75409375,7.85975,-1.50682421875,1.375234375,10.0263125,4.56481640625,-3.57021875,-14.56037109375,3.05695703125,2.12018359375,2.48846875,-2.18544140625
5.6240234375,7.36326171875,5.76919921875,7.1509375,15.2423984375,15.68541015625,8.52805859375,-7.60378125,10.01520703125,20.36937109375,13.56325,-2.54387109375,11.6031015625,14.44225,19.0800859375,1.66303515625,0.914523437500001,11.7346328125,10.46209375,9.49075,-0.33382421875,2.865234375,12.2013125,7.43181640625,-2.09221875,-11.38537109375,5.92395703125,5.20118359375,5.52746875,0.129558593750001
6.0510234375,7.37126171875,5.39519921875,10.4169375,17.3133984375,18.26741015625,10.74305859375,-7.22178125,10.90220703125,23.77737109375,16.56425,0.618128906250001,10.8841015625,15.30825,21.4870859375,3.53803515625,0.503523437500001,12.3396328125,12.05609375,11.63075,0.65117578125,4.318234375,14.3753125,10.60381640625,-0.26521875,-7.17437109375,8.75395703125,7.93218359375,8.45946875,2.46455859375
6.7590234375,7.21026171875,4.87719921875,12.6929375,19.3173984375,20.68541015625,12.50605859375,-6.32478125,11.87820703125,27.17237109375,19.03825,3.43012890625,10.3911015625,16.08625,23.8160859375,5.12903515625,0.889523437500001,12.9296328125,13.41809375,13.98975,1.66917578125,5.507234375,16.1693125,13.68781640625,1.82178125,-3.01737109375,11.21495703125,9.57518359375,10.76646875,4.42855859375
7.6410234375,6.98426171875,4.44919921875,13.1439375,20.8183984375,22.56441015625,13.45605859375,-5.15178125,12.55020703125,29.86437109375,20.59725,4.89812890625,10.2441015625,16.57825,25.6930859375,5.92903515625,2.2935234375,13.4806328125,14.39009375,16.11275,2.90217578125,6.159234375,17.2743125,16.22781640625,3.98078125,-0.0563710937500002,13.03895703125,9.72118359375,12.07746875,5.74655859375
8.4390234375,6.76026171875,4.23119921875,11.5909375,21.3943984375,23.52041015625,13.45005859375,-4.04178125,12.59120703125,31.20737109375,20.94325,4.46912890625,10.4381015625,16.52925,26.6650859375,5.80403515625,4.6925234375,13.8556328125,14.81109375,17.58075,4.37617578125,6.049234375,17.5213125,17.84481640625,5.98578125,0.95262890625,14.07095703125,8.47718359375,12.30246875,6.31655859375
8.8070234375,6.53826171875,4.19519921875,8.5349375,20.7773984375,23.29441015625,12.61005859375,-3.22678125,11.84120703125,30.80337109375,20.00625,2.30612890625,10.8341015625,15.65125,26.3710859375,5.07403515625,7.7035234375,13.7816328125,14.52709375,18.17375,6.01017578125,5.081234375,16.8653125,18.33981640625,7.66178125,-0.0733710937499996,14.26295703125,6.34818359375,11.61746875,6.18255859375
8.4560234375,6.29426171875,4.24719921875,4.8849375,18.9193984375,21.83141015625,11.28305859375,-2.69678125,10.32620703125,28.59537109375,17.98125,-0.742871093749999,11.2051015625,13.67325,24.6890859375,4.33303515625,10.5745234375,12.9226328125,13.41109375,17.93175,7.71217578125,3.297234375,15.3313125,17.73881640625,8.93078125,-2.56637109375,13.64395703125,3.92218359375,10.33846875,5.44655859375
7.3260234375,6.05626171875,4.33919921875,1.5809375,16.0053984375,19.32941015625,9.91705859375,-2.24478125,8.22920703125,24.85437109375,15.27525,-3.50887109375,11.3411015625,10.49425,21.8180859375,4.14703515625,12.3365234375,11.0606328125,11.42809375,17.11175,9.40817578125,0.862234375,13.0083125,16.26781640625,9.81478125,-5.55537109375,12.31295703125,1.62018359375,8.78546875,4.22355859375
5.6680234375,5.93926171875,4.50419921875,-0.7250625,12.4513984375,16.22241015625,8.90305859375,-1.65478125,5.84420703125,20.09637109375,12.37425,-4.96687109375,11.1581015625,6.36925,18.2520859375,4.80903515625,12.1585234375,8.3066328125,8.73509375,16.09075,10.98317578125,-1.929765625,10.1353125,14.30881640625,10.39678125,-8.04637109375,10.50095703125,-0.33881640625,7.24546875,2.65155859375
4.0080234375,6.10726171875,4.81719921875,-1.7800625,8.8483984375,13.09541015625,8.43905859375,-0.88178125,3.54920703125,14.99337109375,9.69825,-4.61587109375,10.7501015625,2.00225,14.6590859375,6.23503515625,9.8125234375,5.1896328125,5.73309375,15.24575,12.23217578125,-4.659765625,7.1573125,12.32881640625,10.76578125,-9.36237109375,8.57995703125,-1.82581640625,5.98146875,0.94255859375
2.9840234375,6.69226171875,5.32619921875,-1.6630625,5.8383984375,10.50741015625,8.45705859375,-0.0557812500000003,1.74520703125,10.26837109375,7.49925,-2.67587109375,10.3541015625,-1.60575,11.6710859375,8.02003515625,5.9965234375,2.5186328125,2.99509375,14.83375,12.89717578125,-6.864765625,4.6663125,10.77681640625,10.95678125,-9.36237109375,6.97595703125,-2.72381640625,5.20846875,-0.63144140625
3.1020234375,7.70226171875,6.01719921875,-0.630062499999999,3.9233984375,8.79741015625,8.67005859375,0.64521875,0.76620703125,6.56337109375,5.84125,-0.0448710937499994,10.2281015625,-3.53175,9.6850859375,9.62203515625,2.2335234375,1.0666328125,1.06409375,14.91075,12.81517578125,-8.198765625,3.1863125,9.95181640625,10.93178125,-8.43237109375,5.99495703125,-2.95881640625,5.02946875,-1.81544140625
4.5040234375,9.00126171875,6.82319921875,0.9899375,3.2993984375,8.00741015625,8.75305859375,1.08921875,0.76820703125,4.28437109375,4.68925,2.04512890625,10.5201015625,-3.34475,8.7650859375,10.61603515625,0.225523437500001,1.2236328125,0.25009375,15.33075,12.07217578125,-8.590765625,2.9413125,9.91681640625,10.62278125,-7.27537109375,5.70195703125,-2.56581640625,5.36346875,-2.46544140625
6.8950234375,10.37326171875,7.67619921875,2.8349375,3.7943984375,7.93041015625,8.55005859375,1.18021875,1.64920703125,3.47937109375,4.00425,2.59712890625,11.1671015625,-1.30775,8.7040859375,10.89503515625,0.935523437500001,2.8116328125,0.53009375,15.83275,11.02817578125,-8.283765625,3.7373125,10.49381640625,10.01978125,-6.58937109375,5.92295703125,-1.70481640625,5.95446875,-2.62044140625
9.6920234375,11.65426171875,8.57519921875,4.5179375,4.9383984375,8.25141015625,8.15205859375,0.84021875,3.04120703125,3.82137109375,3.77225,1.30912890625,11.8921015625,1.72925,9.1550859375,10.66603515625,3.9385234375,5.1716328125,1.59409375,16.15775,10.12017578125,-7.703765625,5.0553125,11.34181640625,9.21578125,-6.77237109375,6.35295703125,-0.60481640625,6.46746875,-2.48744140625
12.3030234375,12.82926171875,9.60019921875,5.6659375,6.1323984375,8.67341015625,7.77905859375,0.03821875,4.39320703125,4.72737109375,3.95925,-1.35587109375,12.3151015625,4.69825,9.7730859375,10.22403515625,7.5525234375,7.4616328125,3.00609375,16.13075,9.55817578125,-7.235765625,6.2973125,12.09781640625,8.38178125,-7.79637109375,6.70595703125,0.51818359375,6.64346875,-2.35344140625
14.3500234375,14.00526171875,10.83119921875,6.0039375,6.8633984375,9.00141015625,7.59505859375,-1.16178125,5.14420703125,5.57237109375,4.44925,-4.49887109375,12.1441015625,6.75525,10.3120859375,9.69303515625,9.7595234375,9.0336328125,4.39409375,15.69875,9.11917578125,-7.020765625,7.0673125,12.51181640625,7.66578125,-9.27537109375,6.84295703125,1.52718359375,6.41846875,-2.44544140625
15.7180234375,15.28826171875,12.25219921875,5.4529375,6.8813984375,9.17941015625,7.59105859375,-2.57978125,4.94520703125,5.92437109375,5.05725,-7.19987109375,11.3571015625,7.58425,10.6640859375,8.92803515625,9.3195234375,9.6956328125,5.58409375,14.91175,8.23517578125,-6.926765625,7.3413125,12.53681640625,7.12078125,-10.71537109375,6.82295703125,2.38518359375,5.94946875,-2.82144140625
16.4800234375,16.63526171875,13.71319921875,4.2089375,6.2873984375,9.26841015625,7.62505859375,-3.92878125,3.84620703125,5.71837109375,5.59625,-8.82687109375,10.2531015625,7.44225,10.8550859375,7.67103515625,6.3405234375,9.7226328125,6.61309375,13.90175,6.37317578125,-6.677765625,7.4103125,12.31681640625,6.69978125,-11.79637109375,6.84295703125,3.11518359375,5.51046875,-3.35044140625
16.7510234375,17.79226171875,14.95819921875,2.7239375,5.4693984375,9.38841015625,7.54605859375,-4.87978125,2.29520703125,5.26437109375,5.97125,-9.18287109375,9.3231015625,6.94025,10.9950859375,5.83803515625,2.0215234375,9.6336328125,7.62209375,12.83975,3.47717578125,-6.075765625,7.6703125,12.10281640625,6.32378125,-12.54637109375,7.10295703125,3.72518359375,5.33546875,-3.79944140625
16.5640234375,18.34326171875,15.67119921875,1.5449375,4.9033984375,9.65341015625,7.34605859375,-5.19478125,0.91020703125,5.09037109375,6.23325,-8.52187109375,9.0021015625,6.71525,11.2230859375,3.71003515625,-2.1024765625,9.8736328125,8.70109375,11.90075,0.17417578125,-5.161765625,8.3793125,12.11981640625,5.97578125,-13.26637109375,7.68795703125,4.15218359375,5.49846875,-3.95644140625
15.8450234375,17.88926171875,15.56019921875,1.0729375,4.9403984375,10.15041015625,7.22505859375,-4.87378125,0.15820703125,5.67637109375,6.58925,-7.41187109375,9.4441015625,7.17025,11.6710859375,1.88603515625,-4.8804765625,10.5946328125,9.81109375,11.23175,-2.45282421875,-4.226765625,9.5443125,12.48681640625,5.73478125,-14.27837109375,8.53495703125,4.28918359375,5.92746875,-3.72244140625
14.5600234375,16.30626171875,14.49519921875,1.3899375,5.6793984375,10.94441015625,7.52405859375,-4.18678125,0.15420703125,7.24237109375,7.33925,-6.50387109375,10.4281015625,8.37725,12.4580859375,1.03103515625,-5.8594765625,11.6486328125,10.82509375,10.94475,-3.42282421875,-3.641765625,10.9623125,13.19681640625,5.75278125,-15.65437109375,9.49495703125,4.07718359375,6.50546875,-3.11644140625
12.8990234375,13.92826171875,12.67319921875,2.2779375,6.9913984375,12.08541015625,8.53405859375,-3.52478125,0.69820703125,9.66937109375,8.75325,-6.29887109375,11.4461015625,10.13725,13.6800859375,1.56803515625,-5.2444765625,12.7316328125,11.64009375,11.10975,-2.38382421875,-3.625765625,12.3563125,14.15881640625,6.15678125,-17.09937109375,10.41195703125,3.59018359375,7.17746875,-2.21744140625
11.3130234375,11.46826171875,10.61319921875,3.3519375,8.6173984375,13.55741015625,10.28405859375,-3.18878125,1.47620703125,12.55537109375,10.91625,-7.00487109375,11.8931015625,12.07625,15.3420859375,3.44003515625,-3.6854765625,13.5676328125,12.21509375,11.72075,0.16617578125,-4.115765625,13.4793125,15.23181640625,6.95078125,-18.05537109375,11.18195703125,3.03918359375,7.96946875,-1.11544140625
10.2730234375,9.66826171875,8.93619921875,4.2019375,10.2523984375,15.21041015625,12.43405859375,-3.27678125,2.22920703125,15.33637109375,13.60025,-8.45987109375,11.2961015625,13.73625,17.2730859375,6.04903515625,-2.0454765625,13.9796328125,12.51609375,12.64075,3.09917578125,-4.843765625,14.1413125,16.21581640625,7.93278125,-18.02237109375,11.73795703125,2.68018359375,8.89646875,0.0495585937500005
9.9520234375,8.89626171875,8.04319921875,4.4839375,11.5863984375,16.70941015625,14.34805859375,-3.68178125,2.80320703125,17.43137109375,16.25425,-10.11387109375,9.4911015625,14.63725,19.0640859375,8.42103515625,-1.1314765625,13.8686328125,12.40209375,13.56575,5.18917578125,-5.539765625,14.1943125,16.84781640625,8.73278125,-16.93537109375,12.00495703125,2.66418359375,9.85546875,1.01755859375
10.0900234375,8.98226171875,7.94319921875,3.9929375,12.3403984375,17.57941015625,15.31205859375,-4.13678125,3.08820703125,18.38837109375,18.13825,-11.17187109375,6.7161015625,14.37125,20.1440859375,9.58703515625,-1.4094765625,13.1516328125,11.59909375,14.09875,5.70517578125,-6.101765625,13.5063125,16.85081640625,8.96378125,-15.35537109375,11.86495703125,2.94718359375,10.59946875,1.40755859375
10.1540234375,9.37526171875,8.30019921875,2.6879375,12.3103984375,17.37641015625,14.81505859375,-4.28178125,2.95120703125,17.99437109375,18.59725,-10.94487109375,3.5631015625,12.71125,19.9850859375,9.02303515625,-2.7944765625,11.7506328125,9.80609375,13.90275,4.75017578125,-6.620765625,11.9923125,16.02881640625,8.43678125,-14.26737109375,11.18695703125,3.28018359375,10.85146875,0.86855859375
9.6490234375,9.47826171875,8.63219921875,0.683937500000001,11.4103984375,15.88441015625,12.76205859375,-3.84978125,2.21320703125,16.29837109375,17.33425,-9.29887109375,0.7741015625,9.70325,18.3430859375,6.91003515625,-4.6684765625,9.6316328125,6.87209375,12.85975,3.10817578125,-7.280765625,9.6503125,14.35381640625,7.26378125,-14.54537109375,9.89995703125,3.29018359375,10.44646875,-0.69544140625
8.4030234375,8.94926171875,8.53219921875,-1.7900625,9.6953984375,13.24841015625,9.55305859375,-2.88878125,0.70820703125,13.55637109375,14.55925,-6.86087109375,-1.0598984375,5.66525,15.3850859375,4.06003515625,-6.1424765625,6.8666328125,2.93809375,11.13875,1.70417578125,-8.222765625,6.6013125,11.97581640625,5.78378125,-16.41637109375,8.05295703125,2.60118359375,9.41046875,-3.02944140625
6.6930234375,7.84426171875,7.86819921875,-4.4050625,7.3573984375,9.92741015625,5.93205859375,-1.85478125,-1.61079296875,10.12937109375,10.89525,-4.75787109375,-1.7388984375,1.10225,11.6300859375,1.51203515625,-6.4484765625,3.6616328125,-1.55090625,9.11175,1.04217578125,-9.456765625,3.0943125,9.15481640625,4.35178125,-19.26737109375,5.81795703125,0.97218359375,7.91946875,-5.64144140625
5.1350234375,6.57226171875,6.86719921875,-6.7630625,4.7023984375,6.51641015625,2.69505859375,-1.41078125,-4.55879296875,6.41137109375,7.10525,-3.99687109375,-1.5018984375,-3.38975,7.7400859375,0.0100351562499998,-5.2704765625,0.365632812499999,-5.94090625,7.18675,1.00217578125,-10.814765625,-0.5056875,6.19781640625,3.17078125,-21.89337109375,3.45895703125,-1.53881640625,6.21546875,-8.02844140625
4.3790234375,5.69426171875,6.02119921875,-8.4810625,2.1123984375,3.55441015625,0.406058593749999,-2.00778125,-7.69979296875,2.77137109375,3.79125,-4.92487109375,-0.8628984375,-7.20375,4.2980859375,-0.32496484375,-2.8984765625,-2.5693671875,-9.52690625,5.65375,1.07117578125,-11.979765625,-3.7346875,3.40981640625,2.26578125,-23.06937109375,1.30795703125,-4.46081640625,4.57246875,-9.85244140625
4.7550234375,5.64926171875,5.83319921875,-9.3230625,-0.0186015624999998,1.39941015625,-0.727941406250001,-3.53578125,-10.44479296875,-0.46562890625,1.25325,-7.09687109375,-0.358898437500001,-9.76475,1.6860859375,0.0740351562499999,-0.107476562499999,-4.6583671875,-11.72590625,4.63475,0.78317578125,-12.597765625,-6.0876875,1.09981640625,1.60578125,-22.12037109375,-0.26704296875,-6.98681640625,3.28546875,-10.96544140625
6.1390234375,6.57326171875,6.54719921875,-9.2520625,-1.3506015625,0.205410156250001,-0.786941406250001,-5.29078125,-12.23579296875,-3.00662890625,-0.45275,-9.54787109375,-0.326898437500001,-10.62775,0.0730859375000004,0.63003515625,2.1555234375,-5.5203671875,-12.21190625,4.14775,0.07317578125,-12.448765625,-7.1536875,-0.435183593749999,1.23778125,-19.24337109375,-0.94704296875,-8.29681640625,2.64246875,-11.35044140625
8.0860234375,8.27626171875,8.04419921875,-8.3780625,-1.6666015625,-0.0455898437499997,0.0100585937499993,-6.33378125,-12.72879296875,-4.60662890625,-1.35975,-11.23287109375,-0.8078984375,-9.62175,-0.5379140625,1.06103515625,3.1245234375,-5.0143671875,-11.00390625,4.19975,-0.69382421875,-11.586765625,-6.7726875,-0.960183593749999,1.32478125,-15.38037109375,-0.586042968750001,-7.98781640625,2.82446875,-11.06644140625
10.0900234375,10.34926171875,9.91019921875,-6.8900625,-0.9486015625,0.512410156250001,1.41705859375,-6.03678125,-11.91579296875,-5.11762890625,-1.48975,-11.43687109375,-1.5878984375,-6.97475,-0.2399140625,1.52103515625,2.4955234375,-3.3173671875,-8.45290625,4.81375,-0.98282421875,-10.327765625,-5.1296875,-0.388183593749999,2.03978125,-11.76737109375,0.69895703125,-6.29981640625,3.79646875,-10.26544140625
11.7770234375,12.31326171875,11.62819921875,-5.0600625,0.5873984375,1.67541015625,3.15905859375,-4.49678125,-10.14579296875,-4.58562890625,-0.86775,-10.08387109375,-2.3268984375,-3.31675,0.8090859375,2.37303515625,0.541523437500001,-0.887367187500001,-5.15490625,5.96475,-0.45682421875,-9.093765625,-2.7136875,1.13881640625,3.38778125,-9.40337109375,2.53595703125,-4.00281640625,5.26546875,-9.21944140625
12.9460234375,13.77526171875,12.77819921875,-3.3090625,2.5053984375,3.19541015625,4.88305859375,-2.54578125,-8.01079296875,-3.30562890625,0.39625,-7.83587109375,-2.7238984375,0.50025,2.3960859375,3.79603515625,-1.9464765625,1.6706328125,-1.80090625,7.48775,0.82517578125,-8.203765625,-0.1456875,3.24081640625,5.09878125,-8.74237109375,4.41795703125,-2.01681640625,6.76146875,-8.31244140625
13.5680234375,14.55526171875,13.19719921875,-2.1790625,4.2793984375,4.80741015625,6.18105859375,-1.29578125,-6.13279296875,-1.73162890625,2.06625,-5.86587109375,-2.6398984375,3.69825,4.2630859375,5.57303515625,-3.9474765625,3.8146328125,1.01009375,9.07175,2.46117578125,-7.727765625,2.0443125,5.39381640625,6.69578125,-9.65537109375,5.87095703125,-0.97481640625,7.82446875,-7.93344140625
13.7660234375,14.73326171875,13.03419921875,-2.1060625,5.5103984375,6.28741015625,6.73305859375,-1.51278125,-4.89479296875,-0.27262890625,3.84525,-5.30087109375,-2.1268984375,5.86425,6.1620859375,7.16303515625,-4.6604765625,5.2676328125,2.95409375,10.36375,3.91517578125,-7.447765625,3.6033125,7.12581640625,7.70678125,-11.57137109375,6.63495703125,-0.96981640625,8.22046875,-8.29544140625
13.7760234375,14.58926171875,12.67419921875,-3.1180625,6.1223984375,7.52841015625,6.49305859375,-3.19178125,-4.26279296875,0.91337109375,5.48525,-6.61187109375,-1.3398984375,7.09325,7.9220859375,7.98403515625,-3.9774765625,6.1206328125,4.08909375,11.12875,4.67717578125,-6.962765625,4.6163125,8.21481640625,7.88178125,-13.68237109375,6.76095703125,-1.55881640625,8.08246875,-9.28544140625
13.8750234375,14.44426171875,12.57519921875,-4.6900625,6.3993984375,8.55341015625,5.75905859375,-5.60578125,-3.79379296875,1.99637109375,6.85325,-9.32687109375,-0.4088984375,7.89125,9.4880859375,7.64103515625,-2.6924765625,6.7766328125,4.80509375,11.32075,4.25017578125,-5.880765625,5.3903125,8.75081640625,7.23978125,-15.19737109375,6.54195703125,-2.01881640625,7.85846875,-10.47344140625
14.2880234375,14.51126171875,13.08019921875,-5.9310625,6.8143984375,9.44041015625,5.02805859375,-7.74578125,-2.86179296875,3.35437109375,7.91125,-12.28587109375,0.635101562499999,8.88925,10.8730859375,5.99303515625,-2.2114765625,7.7306328125,5.61609375,11.01975,2.09017578125,-4.027765625,6.2483125,9.02881640625,5.93778125,-15.58937109375,6.31395703125,-1.71381640625,8.07946875,-11.31544140625
15.1150234375,14.83026171875,14.30719921875,-6.0440625,7.7473984375,10.24241015625,4.74005859375,-8.83678125,-0.97679296875,5.33537109375,8.66625,-14.31187109375,1.8331015625,10.51325,12.1000859375,3.10403515625,-3.8214765625,9.3146328125,6.89709375,10.32175,-2.24582421875,-1.499765625,7.3473125,9.34481640625,4.11678125,-14.74537109375,6.26195703125,-0.36181640625,9.09546875,-11.42444140625
16.3060234375,15.32226171875,16.13419921875,-4.7690625,9.2923984375,10.96541015625,5.04405859375,-8.67678125,1.95120703125,8.03837109375,9.16125,-14.87287109375,3.2131015625,12.83225,13.1890859375,-0.780964843750001,-7.9234765625,11.5586328125,8.72509375,9.31875,-8.72682421875,1.447234375,8.6673125,9.84381640625,1.89378125,-12.93837109375,6.38495703125,1.91018359375,10.91246875,-10.75344140625
17.6910234375,15.87626171875,18.27619921875,-2.5570625,11.2473984375,11.63441015625,5.75605859375,-7.65778125,5.56220703125,11.23737109375,9.50925,-14.34087109375,4.7261015625,15.59225,14.1940859375,-5.21896484375,-13.7194765625,14.2156328125,10.90309375,8.14375,-16.54982421875,4.557234375,10.1053125,10.50681640625,-0.55721875,-10.67137109375,6.60095703125,4.70018359375,13.22746875,-9.59144140625
17.6910234375,15.87626171875,18.27619921875,-2.5570625,11.2473984375,11.63441015625,5.75605859375,-7.65778125,5.56220703125,11.23737109375,9.50925,-14.34087109375,4.7261015625,15.59225,14.1940859375,-5.21896484375,-13.7194765625,14.2156328125,10.90309375,8.14375,-16.54982421875,4.557234375,10.1053125,10.50681640625,-0.55721875,-10.67137109375,6.60095703125,4.70018359375,13.22746875,-9.59144140625
