"Fp1","Fpz","Fp2","F7","F3","Fz","F4","F8","FC5","FC1","FC2","FC6","T7","C3","Cz","C4","T8","CP5","CP1","CP2","CP6","P7","P3","Pz","P4","P8","POz","O1","Oz","O2"
-14.48363671875,-11.86263671875,-18.80659765625,-18.47862109375,-20.59728125,-21.42703515625,-22.9176171875,-25.865859375,-26.8994453125,-23.343046875,-23.3248125,-20.9225546875,-14.82448046875,-22.783234375,-23.41509375,-21.035703125,-17.36528125,-20.752890625,-21.4785078125,-21.9835859375,-19.333265625,-8.77788671875,-19.04789453125,-18.4596796875,-18.1411484375,-14.70608203125,-15.57066796875,-15.08997265625,-14.368609375,-15.40261328125
-16.91363671875,-14.83863671875,-24.91459765625,-19.44362109375,-20.45828125,-21.33703515625,-24.2626171875,-28.566859375,-22.5864453125,-23.297046875,-22.6008125,-24.4075546875,-13.52648046875,-21.746234375,-22.79609375,-21.467703125,-16.35828125,-20.658890625,-20.9885078125,-21.5835859375,-19.111265625,-7.18988671875,-18.42989453125,-17.0826796875,-18.4841484375,-15.42208203125,-15.25766796875,-15.40397265625,-13.469609375,-15.69661328125
-17.95163671875,-16.26263671875,-27.32359765625,-19.54862109375,-20.66428125,-21.39203515625,-25.0266171875,-29.996859375,-20.7114453125,-23.497046875,-21.9848125,-25.6635546875,-12.85148046875,-21.447234375,-22.63909375,-21.340703125,-15.86928125,-20.653890625,-20.8195078125,-21.3085859375,-18.979265625,-6.28988671875,-18.36589453125,-16.4226796875,-18.9221484375,-15.90908203125,-15.24966796875,-15.24097265625,-13.440609375,-16.20961328125
-17.53963671875,-15.96863671875,-26.00759765625,-18.82462109375,-21.07928125,-21.50303515625,-24.9926171875,-29.930859375,-21.0874453125,-23.868046875,-21.4238125,-24.6825546875,-12.92548046875,-21.772234375,-22.83909375,-20.621703125,-15.83228125,-20.706890625,-20.8685078125,-21.0685859375,-18.877265625,-6.09488671875,-18.75589453125,-16.4206796875,-19.3061484375,-15.90908203125,-15.51866796875,-14.59497265625,-14.218609375,-16.72861328125
-16.00963671875,-14.24163671875,-22.19459765625,-17.55262109375,-21.37428125,-21.46803515625,-24.0366171875,-28.456859375,-22.6884453125,-24.184046875,-20.8248125,-22.1985546875,-13.66748046875,-22.305234375,-23.08709375,-19.448703125,-15.99928125,-20.701890625,-20.8795078125,-20.6965859375,-18.704265625,-6.37488671875,-19.24289453125,-16.7336796875,-19.4061484375,-15.21108203125,-15.88466796875,-13.61497265625,-15.394609375,-16.93361328125
-13.84263671875,-11.63463671875,-17.70759765625,-16.07362109375,-21.15728125,-21.05203515625,-22.2226171875,-25.924859375,-24.2034453125,-24.139046875,-20.1028125,-19.3105546875,-14.78748046875,-22.509234375,-23.00009375,-18.054703125,-16.10128125,-20.444890625,-20.5595078125,-20.0285859375,-18.376265625,-6.76588671875,-19.36889453125,-16.8966796875,-19.0291484375,-13.82208203125,-16.06366796875,-12.50697265625,-16.396609375,-16.59661328125
-11.45163671875,-8.73163671875,-14.10559765625,-14.64362109375,-20.14028125,-20.08203515625,-19.8846171875,-22.890859375,-24.5954453125,-23.455046875,-19.2028125,-16.9925546875,-15.88448046875,-21.953234375,-22.27709375,-16.648703125,-15.96928125,-19.715890625,-19.6915078125,-18.9635859375,-17.848265625,-6.91888671875,-18.76389453125,-16.5096796875,-18.1121484375,-12.03008203125,-15.75866796875,-11.43497265625,-16.734609375,-15.71561328125
-9.05363671875,-5.99563671875,-12.06559765625,-13.36462109375,-18.27728125,-18.53403515625,-17.5716171875,-19.971859375,-23.4224453125,-22.001046875,-18.1078125,-15.6995546875,-16.59548046875,-20.466234375,-20.79809375,-15.322703125,-15.55828125,-18.370890625,-18.2255078125,-17.5145859375,-17.114265625,-6.63088671875,-17.29389453125,-15.3956796875,-16.7471484375,-10.29508203125,-14.78066796875,-10.47797265625,-16.197609375,-14.49961328125
-6.70063671875,-3.76463671875,-11.31559765625,-12.21562109375,-15.83328125,-16.57203515625,-15.8186171875,-17.653859375,-20.8814453125,-19.871046875,-16.8428125,-15.2655546875,-16.71748046875,-18.198234375,-18.68409375,-14.064703125,-14.89228125,-16.460890625,-16.3045078125,-15.8415859375,-16.208265625,-5.89388671875,-15.12189453125,-13.6626796875,-15.1621484375,-9.03308203125,-13.13466796875,-9.66797265625,-14.906609375,-13.23861328125
-4.49063671875,-2.32763671875,-11.08859765625,-11.17762109375,-13.32328125,-14.52003515625,-14.9096171875,-16.181859375,-17.6294453125,-17.388046875,-15.4848125,-15.1235546875,-16.21548046875,-15.553234375,-16.27509375,-12.848703125,-13.98428125,-14.285890625,-14.2285078125,-14.2265859375,-15.213265625,-4.87288671875,-12.64789453125,-11.6676796875,-13.6421484375,-8.43508203125,-11.04366796875,-9.04197265625,-13.232609375,-12.16461328125
-2.75563671875,-1.95963671875,-10.73559765625,-10.36562109375,-11.32128125,-12.76303515625,-14.7736171875,-15.580859375,-14.4964453125,-15.009046875,-14.1598125,-14.6995546875,-15.14548046875,-13.045234375,-14.03209375,-11.732703125,-12.82328125,-12.329890625,-12.3565078125,-12.9815859375,-14.243265625,-3.82788671875,-10.37089453125,-9.8656796875,-12.4291484375,-8.42708203125,-8.88466796875,-8.65897265625,-11.625609375,-11.38761328125
-1.98463671875,-2.80463671875,-10.09059765625,-10.02862109375,-10.23428125,-11.61203515625,-15.0376171875,-15.718859375,-12.1744453125,-13.178046875,-13.0208125,-13.7455546875,-13.57748046875,-11.128234375,-12.39209375,-10.873703125,-11.42828125,-11.083890625,-10.9825078125,-12.3215859375,-13.414265625,-3.01688671875,-8.72789453125,-8.6386796875,-11.6341484375,-8.77408203125,-7.05766796875,-8.57297265625,-10.450609375,-10.91461328125
-2.42663671875,-4.65763671875,-9.35559765625,-10.36662109375,-10.13928125,-11.18903515625,-15.2126171875,-16.311859375,-11.0144453125,-12.164046875,-12.2128125,-12.4235546875,-11.62748046875,-10.070234375,-11.61109375,-10.431703125,-9.93828125,-10.818890625,-10.2465078125,-12.2705859375,-12.783265625,-2.60488671875,-7.96089453125,-8.1596796875,-11.2061484375,-9.22508203125,-5.84266796875,-8.77397265625,-9.891609375,-10.70161328125
-3.72763671875,-6.84363671875,-8.65359765625,-11.30462109375,-10.76228125,-11.36203515625,-14.9226171875,-16.931859375,-10.9834453125,-11.967046875,-11.8008125,-11.1025546875,-9.54748046875,-9.881234375,-11.65609375,-10.434703125,-8.63028125,-11.432890625,-10.0895078125,-12.6305859375,-12.305265625,-2.61488671875,-8.03889453125,-8.3326796875,-10.9531484375,-9.59308203125,-5.30266796875,-9.15697265625,-9.926609375,-10.68061328125
-4.97363671875,-8.34963671875,-7.68859765625,-12.41962109375,-11.58928125,-11.79103515625,-14.0706171875,-17.113859375,-11.7644453125,-12.315046875,-11.7138125,-10.0335546875,-7.72348046875,-10.327234375,-12.20209375,-10.682703125,-7.80928125,-12.482890625,-10.2745078125,-13.0275859375,-11.833265625,-2.91688671875,-8.66089453125,-8.8326796875,-10.6231484375,-9.74608203125,-5.28466796875,-9.52797265625,-10.357609375,-10.74461328125
-5.14763671875,-8.24663671875,-5.81559765625,-13.10962109375,-12.07828125,-12.05503515625,-12.8426171875,-16.524859375,-12.9244453125,-12.780046875,-11.7468125,-9.1535546875,-6.53648046875,-11.027234375,-12.75309375,-10.797703125,-7.60728125,-13.398890625,-10.4835078125,-13.0575859375,-11.202265625,-3.28288671875,-9.37689453125,-9.2376796875,-10.0171484375,-9.56708203125,-5.49866796875,-9.69197265625,-10.910609375,-10.73961328125
-3.66063671875,-6.15563671875,-2.50959765625,-12.88962109375,-11.87128125,-11.83403515625,-11.5236171875,-15.080859375,-14.0454453125,-12.963046875,-11.6558125,-8.1365546875,-6.16248046875,-11.615234375,-12.85309375,-10.391703125,-7.83328125,-13.755890625,-10.4595078125,-12.4615859375,-10.332265625,-3.47388671875,-9.77589453125,-9.2156796875,-9.0841484375,-8.94908203125,-5.64066796875,-9.55197265625,-11.339609375,-10.50761328125
-0.632636718750001,-2.46463671875,2.10640234375,-11.63462109375,-10.91628125,-11.02503515625,-10.2756171875,-12.954859375,-14.8004453125,-12.647046875,-11.2668125,-6.6435546875,-6.48448046875,-11.863234375,-12.25309375,-9.268703125,-8.01228125,-13.424890625,-10.0825078125,-11.2315859375,-9.264265625,-3.31788671875,-9.63489453125,-8.6496796875,-7.9281484375,-7.84508203125,-5.46966796875,-9.13597265625,-11.496609375,-9.94561328125
3.14736328125,1.83236328125,7.11840234375,-9.63462109375,-9.43328125,-9.72803515625,-9.0376171875,-10.511859375,-14.9544453125,-11.835046875,-10.5048125,-4.5445546875,-7.16948046875,-11.702234375,-10.95909375,-7.503703125,-7.63028125,-12.532890625,-9.3585078125,-9.5645859375,-8.100265625,-2.74188671875,-8.94489453125,-7.6336796875,-6.7021484375,-6.32008203125,-4.83766796875,-8.51097265625,-11.336609375,-9.03961328125
6.52736328125,5.59336328125,11.18940234375,-7.44362109375,-7.76328125,-8.14903515625,-7.6026171875,-8.179859375,-14.3724453125,-10.670046875,-9.3718125,-1.9975546875,-7.85448046875,-11.159234375,-9.15709375,-5.387703125,-6.41028125,-11.335890625,-8.3355078125,-7.7185859375,-6.911265625,-1.78988671875,-7.83389453125,-6.3626796875,-5.4921484375,-4.55508203125,-3.68466796875,-7.66997265625,-10.878609375,-7.85561328125
8.41636328125,7.97836328125,13.21040234375,-5.60462109375,-6.21428125,-6.49703515625,-5.7876171875,-6.320859375,-13.0584453125,-9.336046875,-7.9158125,0.621445312500002,-8.31248046875,-10.309234375,-7.10109375,-3.288703125,-4.45728125,-10.094890625,-7.0765078125,-5.9015859375,-5.703265625,-0.61688671875,-6.49289453125,-5.0416796875,-4.2931484375,-2.81108203125,-2.07266796875,-6.52297265625,-10.183609375,-6.51461328125
8.15736328125,8.67136328125,12.76740234375,-4.43262109375,-4.99028125,-4.94303515625,-3.5876171875,-5.146859375,-11.2164453125,-7.985046875,-6.2558125,2.8504453125,-8.49248046875,-9.253234375,-5.04309375,-1.521703125,-2.19228125,-9.021890625,-5.6795078125,-4.2635859375,-4.479265625,0.55611328125,-5.13489453125,-3.8456796875,-3.0831484375,-1.36308203125,-0.20766796875,-5.00897265625,-9.365609375,-5.18361328125
5.68536328125,7.81036328125,10.16940234375,-3.97962109375,-4.18328125,-3.61103515625,-1.2286171875,-4.729859375,-9.2434453125,-6.719046875,-4.5848125,4.2664453125,-8.43648046875,-8.121234375,-3.21309375,-0.288703125000001,-0.128281249999999,-8.219890625,-4.2885078125,-2.9365859375,-3.301265625,1.51711328125,-3.95089453125,-2.9096796875,-1.9101484375,-0.442082031249999,1.58233203125,-3.21597265625,-8.571609375,-4.07661328125
1.49036328125,5.79636328125,6.15640234375,-4.14062109375,-3.79028125,-2.57603515625,0.9103828125,-5.054859375,-7.5994453125,-5.598046875,-3.1338125,4.5964453125,-8.13448046875,-7.038234375,-1.81009375,0.345296874999999,1.38871875,-7.639890625,-3.0655078125,-2.0385859375,-2.292265625,2.16911328125,-3.04989453125,-2.3086796875,-0.9011484375,-0.183082031249999,2.96733203125,-1.39597265625,-7.931609375,-3.40061328125
-3.53463671875,3.13436328125,1.59840234375,-4.79662109375,-3.73228125,-1.86603515625,2.4993828125,-6.004859375,-6.6184453125,-4.663046875,-2.1038125,3.8054453125,-7.47948046875,-6.102234375,-0.98609375,0.434296874999999,2.28371875,-7.103890625,-2.1415078125,-1.6485859375,-1.586265625,2.55911328125,-2.42589453125,-2.0376796875,-0.201148437500001,-0.58508203125,3.74833203125,0.162027343749999,-7.499609375,-3.27761328125
-8.29063671875,0.37236328125,-2.65759765625,-5.85262109375,-3.90828125,-1.48703515625,3.4073828125,-7.306859375,-6.4004453125,-3.977046875,-1.6178125,2.1484453125,-6.36148046875,-5.396234375,-0.82309375,0.111296874999999,2.69371875,-6.442890625,-1.6015078125,-1.7745859375,-1.267265625,2.82011328125,-2.00089453125,-2.0146796875,0.0938515624999994,-1.49708203125,3.93533203125,1.27502734375,-7.235609375,-3.66561328125
-11.74063671875,-1.95163671875,-5.87159765625,-7.20462109375,-4.25028125,-1.45503515625,3.6863828125,-8.554859375,-6.8514453125,-3.645046875,-1.6988125,0.138445312500002,-4.84448046875,-5.019234375,-1.30909375,-0.474703125000001,2.80171875,-5.676890625,-1.4975078125,-2.3385859375,-1.333265625,3.06211328125,-1.69089453125,-2.1156796875,-0.0131484374999999,-2.63308203125,3.71733203125,1.93302734375,-7.032609375,-4.33361328125
-13.20563671875,-3.40263671875,-7.54159765625,-8.67862109375,-4.73928125,-1.77403515625,3.4593828125,-9.345859375,-7.7714453125,-3.763046875,-2.2538125,-1.5775546875,-3.25548046875,-5.061234375,-2.31509375,-1.185703125,2.71371875,-5.067890625,-1.8285078125,-3.1715859375,-1.676265625,3.30611328125,-1.45489453125,-2.2136796875,-0.3971484375,-3.62708203125,3.36833203125,2.27302734375,-6.751609375,-4.92561328125
-12.51463671875,-3.75863671875,-7.52759765625,-9.98162109375,-5.34128125,-2.39103515625,2.8423828125,-9.422859375,-8.9044453125,-4.336046875,-3.0888125,-2.4245546875,-2.07148046875,-5.526234375,-3.60609375,-1.899703125,2.44071875,-4.967890625,-2.5055078125,-4.0245859375,-2.119265625,3.52011328125,-1.27789453125,-2.2176796875,-0.829148437500001,-4.12608203125,3.13833203125,2.48102734375,-6.253609375,-5.08461328125
-9.93863671875,-3.04263671875,-6.02159765625,-10.72262109375,-5.92428125,-3.15003515625,1.9763828125,-8.737859375,-9.9264453125,-5.200046875,-3.9688125,-2.1325546875,-1.66748046875,-6.274234375,-4.88209375,-2.510703125,1.95271875,-5.557890625,-3.3425078125,-4.6455859375,-2.492265625,3.70011328125,-1.14189453125,-2.0936796875,-1.0581484375,-3.92208203125,3.16133203125,2.67902734375,-5.437609375,-4.60961328125
-6.06063671875,-1.47863671875,-3.36059765625,-10.55562109375,-6.23328125,-3.81203515625,1.0363828125,-7.429859375,-10.4544453125,-6.041046875,-4.6998125,-0.887554687499998,-2.12548046875,-7.034234375,-5.86409375,-2.943703125,1.24071875,-6.654890625,-4.0855078125,-4.8655859375,-2.706265625,3.91011328125,-1.00989453125,-1.8656796875,-0.909148437500001,-3.04408203125,3.43233203125,2.86802734375,-4.293609375,-3.56461328125
-1.67463671875,0.60136328125,0.143402343749999,-9.39662109375,-5.97828125,-4.14303515625,0.175382812500001,-5.778859375,-10.1704453125,-6.510046875,-5.1828125,0.743445312500002,-3.23248046875,-7.501234375,-6.36409375,-3.181703125,0.368718750000001,-7.768890625,-4.4775078125,-4.6465859375,-2.770265625,4.24011328125,-0.834894531250001,-1.5846796875,-0.3551484375,-1.74908203125,3.83333203125,2.95402734375,-2.939609375,-2.24761328125
2.30636328125,2.83636328125,4.17640234375,-7.54862109375,-5.03028125,-4.00403515625,-0.524617187500001,-4.137859375,-9.0234453125,-6.390046875,-5.4098125,2.0724453125,-4.63148046875,-7.477234375,-6.33609375,-3.263703125,-0.494281249999998,-8.370890625,-4.3545078125,-4.0775859375,-2.733265625,4.73811328125,-0.58589453125,-1.2876796875,0.4938515625,-0.397082031249999,4.21633203125,2.82502734375,-1.602609375,-1.04561328125
5.08836328125,4.91236328125,8.30440234375,-5.60262109375,-3.58728125,-3.41803515625,-1.0016171875,-2.808859375,-7.3514453125,-5.725046875,-5.4288125,2.6254453125,-5.99648046875,-6.981234375,-5.87709375,-3.263703125,-1.08828125,-8.221890625,-3.7215078125,-3.3295859375,-2.620265625,5.35411328125,-0.279894531250001,-0.9916796875,1.4368515625,0.71091796875,4.46633203125,2.44002734375,-0.538609375000002,-0.23161328125
6.28836328125,6.62336328125,11.94440234375,-4.18462109375,-2.17328125,-2.57003515625,-1.1646171875,-1.951859375,-5.8014453125,-4.817046875,-5.3138125,2.3334453125,-7.11948046875,-6.247234375,-5.18609375,-3.257703125,-1.15028125,-7.503890625,-2.7755078125,-2.5975859375,-2.428265625,5.94411328125,0.0141054687499995,-0.7116796875,2.2518515625,1.44191796875,4.54333203125,1.87802734375,0.0793906249999985,0.14238671875
6.06436328125,7.88436328125,14.50440234375,-3.70762109375,-1.40428125,-1.74203515625,-0.9606171875,-1.594859375,-5.0394453125,-4.075046875,-5.1378125,1.5034453125,-7.91348046875,-5.607234375,-4.50909375,-3.303703125,-0.547281249999999,-6.697890625,-1.8325078125,-2.0495859375,-2.167265625,6.32311328125,0.201105468750001,-0.4746796875,2.7498515625,1.81391796875,4.45933203125,1.33102734375,0.222390624999999,0.21338671875
4.94936328125,8.66836328125,15.55140234375,-4.25262109375,-1.65628125,-1.20903515625,-0.4926171875,-1.719859375,-5.4054453125,-3.805046875,-4.9678125,0.609445312500002,-8.36448046875,-5.327234375,-4.06409375,-3.431703125,0.593718750000001,-6.278890625,-1.2035078125,-1.7975859375,-1.912265625,6.34211328125,0.198105468750001,-0.338679687500001,2.8098515625,1.89391796875,4.24733203125,1.02102734375,-0.00760937500000125,0.16438671875
3.52136328125,8.91236328125,14.92440234375,-5.56562109375,-2.85628125,-1.15403515625,-0.0456171874999995,-2.307859375,-6.7514453125,-4.080046875,-4.8788125,0.019445312500002,-8.50848046875,-5.516234375,-3.98709375,-3.648703125,1.85871875,-6.463890625,-1.0875078125,-1.9115859375,-1.826265625,5.96611328125,-0.0468945312500004,-0.3976796875,2.3828515625,1.68991796875,3.92433203125,1.07302734375,-0.461609375000002,0.0763867187499994
2.09236328125,8.47436328125,12.73540234375,-7.16662109375,-4.52728125,-1.62703515625,0.0263828124999996,-3.296859375,-8.5804453125,-4.751046875,-4.9638125,-0.184554687499999,-8.41748046875,-6.124234375,-4.30509375,-3.967703125,2.67271875,-7.144890625,-1.5315078125,-2.4265859375,-2.102265625,5.29111328125,-0.568894531250001,-0.764679687500001,1.4788515625,1.12391796875,3.48733203125,1.41902734375,-1.017609375,-0.0986132812499996
0.58636328125,7.20036328125,9.33840234375,-8.54762109375,-6.05528125,-2.54203515625,-0.5226171875,-4.548859375,-10.3534453125,-5.561046875,-5.2898125,-0.231554687499999,-8.18348046875,-6.993234375,-4.93709375,-4.414703125,2.56371875,-7.999890625,-2.4275078125,-3.3265859375,-2.856265625,4.51111328125,-1.36689453125,-1.5106796875,0.174851562499999,0.10191796875,2.92733203125,1.80602734375,-1.620609375,-0.46661328125
-1.30863671875,5.06536328125,5.25440234375,-9.39462109375,-6.98428125,-3.69603515625,-1.7046171875,-5.886859375,-11.7284453125,-6.268046875,-5.8248125,-0.511554687499999,-7.88148046875,-7.911234375,-5.70809375,-5.006703125,1.42871875,-8.676890625,-3.5425078125,-4.4965859375,-4.026265625,3.83511328125,-2.37489453125,-2.6006796875,-1.3651484375,-1.35108203125,2.25433203125,1.94402734375,-2.256609375,-1.07061328125
-3.76963671875,2.30236328125,1.05440234375,-9.70762109375,-7.16728125,-4.80503515625,-3.2286171875,-7.137859375,-12.5814453125,-6.705046875,-6.4068125,-1.3275546875,-7.56748046875,-8.646234375,-6.39309375,-5.695703125,-0.371281249999999,-8.932890625,-4.5685078125,-5.7015859375,-5.354265625,3.41711328125,-3.43789453125,-3.8596796875,-2.8791484375,-3.01508203125,1.50333203125,1.67802734375,-2.899609375,-1.82561328125
-6.51163671875,-0.58563671875,-2.73459765625,-9.71762109375,-6.74128125,-5.56103515625,-4.5476171875,-8.145859375,-12.8994453125,-6.778046875,-6.7828125,-2.6775546875,-7.30748046875,-8.991234375,-6.77709375,-6.328703125,-2.16328125,-8.697890625,-5.2045078125,-6.6295859375,-6.464265625,3.33111328125,-4.33589453125,-5.0056796875,-4.0601484375,-4.50408203125,0.731332031250001,1.09402734375,-3.473609375,-2.54261328125
-8.80763671875,-2.95663671875,-5.64859765625,-9.69362109375,-5.97928125,-5.71803515625,-5.0656171875,-8.767859375,-12.6834453125,-6.459046875,-6.7008125,-4.1685546875,-7.18648046875,-8.827234375,-6.71809375,-6.653703125,-3.29028125,-8.078890625,-5.2475078125,-6.9825859375,-7.000265625,3.58911328125,-4.84289453125,-5.7356796875,-4.6271484375,-5.39508203125,0.0163320312500002,0.497027343749998,-3.843609375,-2.99761328125
-9.85563671875,-4.24863671875,-7.22159765625,-9.75762109375,-5.13428125,-5.16703515625,-4.4326171875,-8.898859375,-11.9294453125,-5.774046875,-6.0088125,-5.1525546875,-7.24048046875,-8.162234375,-6.18509375,-6.397703125,-3.40528125,-7.285890625,-4.6525078125,-6.5775859375,-6.758265625,4.16311328125,-4.80089453125,-5.8376796875,-4.4181484375,-5.40608203125,-0.54266796875,0.277027343749998,-3.854609375,-3.02161328125
-9.23763671875,-4.18663671875,-7.01359765625,-9.81762109375,-4.35428125,-3.99303515625,-2.7346171875,-8.514859375,-10.6424453125,-4.810046875,-4.7368125,-5.0545546875,-7.35648046875,-7.125234375,-5.26009375,-5.410703125,-2.57728125,-6.528890625,-3.5545078125,-5.4335859375,-5.764265625,4.99311328125,-4.18689453125,-5.2826796875,-3.4601484375,-4.53708203125,-0.85266796875,0.708027343749999,-3.428609375,-2.58461328125
-7.18863671875,-2.89363671875,-4.83859765625,-9.62862109375,-3.65928125,-2.46503515625,-0.4446171875,-7.690859375,-8.8784453125,-3.709046875,-3.1308125,-3.7325546875,-7.25548046875,-5.923234375,-4.11509375,-3.788703125,-1.18828125,-5.927890625,-2.2305078125,-3.8075859375,-4.293265625,5.96611328125,-3.14089453125,-4.2516796875,-1.9981484375,-3.08908203125,-0.86366796875,1.78502734375,-2.644609375,-1.82361328125
-4.52863671875,-0.86663671875,-1.09559765625,-8.96562109375,-2.98628125,-0.964035156249999,1.8043828125,-6.606859375,-6.8004453125,-2.639046875,-1.5998125,-1.6265546875,-6.63648046875,-4.788234375,-2.96209375,-1.903703125,0.265718750000001,-5.492890625,-1.0145078125,-2.1425859375,-2.777265625,6.92011328125,-1.94189453125,-3.0916796875,-0.4291484375,-1.54708203125,-0.60766796875,3.18302734375,-1.736609375,-1.00861328125
-2.33063671875,1.17936328125,3.12340234375,-7.80362109375,-2.27428125,0.150964843750002,3.4443828125,-5.556859375,-4.7314453125,-1.765046875,-0.552812500000002,0.449445312500002,-5.38148046875,-3.908234375,-2.00309375,-0.281703125000002,1.37371875,-5.185890625,-0.1845078125,-0.901585937499998,-1.652265625,7.68311328125,-0.901894531250001,-2.1746796875,0.8298515625,-0.369082031249999,-0.184667968749999,4.39102734375,-0.996609375,-0.41861328125
-1.42263671875,2.57736328125,6.40640234375,-6.39862109375,-1.55728125,0.656964843750002,4.1253828125,-4.868859375,-3.1274453125,-1.212046875,-0.233812500000001,1.7414453125,-3.68148046875,-3.380234375,-1.39209375,0.608296874999999,1.91371875,-4.976890625,0.121492187500001,-0.389585937499998,-1.184265625,8.13811328125,-0.24389453125,-1.7606796875,1.5078515625,0.19691796875,0.285332031249999,4.94402734375,-0.625609375000002,-0.195613281250001
-1.97563671875,2.96836328125,7.69740234375,-5.18662109375,-0.994281249999998,0.533964843750001,3.7863828125,-4.707859375,-2.3894453125,-1.047046875,-0.637812500000001,1.9304453125,-1.95448046875,-3.200234375,-1.22509375,0.551296874999998,1.87371875,-4.851890625,-0.0795078124999993,-0.653585937499999,-1.382265625,8.27711328125,-0.0198945312499994,-1.8986796875,1.5538515625,0.18191796875,0.724332031249999,4.65302734375,-0.638609375000001,-0.265613281249999
-3.40363671875,2.44436328125,6.84240234375,-4.55162109375,-0.807281249999999,-0.0650351562499996,2.6423828125,-4.937859375,-2.6284453125,-1.277046875,-1.5488125,1.2104453125,-0.604480468750001,-3.272234375,-1.53109375,-0.337703125000001,1.39971875,-4.756890625,-0.660507812499999,-1.5075859375,-2.020265625,8.24211328125,-0.109894531249999,-2.4276796875,1.1348515625,-0.16408203125,1.13233203125,3.71402734375,-0.874609375,-0.37361328125
-4.64863671875,1.49136328125,4.62340234375,-4.62762109375,-1.13628125,-0.881035156249999,1.0893828125,-5.196859375,-3.5634453125,-1.844046875,-2.6518125,0.0984453125000009,0.193519531249999,-3.452234375,-2.26509375,-1.682703125,0.711718750000001,-4.548890625,-1.4335078125,-2.6255859375,-2.755265625,8.31211328125,-0.27589453125,-3.0506796875,0.539851562499999,-0.50108203125,1.58033203125,2.66902734375,-1.066609375,-0.205613281250001
-4.70763671875,0.78436328125,2.32740234375,-5.21762109375,-1.90928125,-1.64103515625,-0.431617187499999,-5.130859375,-4.6654453125,-2.627046875,-3.6278125,-0.868554687499998,0.55051953125,-3.580234375,-3.29609375,-3.002703125,0.0457187500000025,-4.011890625,-2.1905078125,-3.6455859375,-3.271265625,8.83011328125,-0.24989453125,-3.4506796875,0.0818515624999989,-0.53008203125,2.16133203125,2.20302734375,-0.944609375000001,0.47338671875
-3.09863671875,0.90036328125,1.17240234375,-5.87862109375,-2.82328125,-2.11303515625,-1.5156171875,-4.581859375,-5.4454453125,-3.445046875,-4.2358125,-1.3435546875,0.731519531249999,-3.511234375,-4.39409375,-3.875703125,-0.379281249999998,-2.938890625,-2.7415078125,-4.2575859375,-3.382265625,10.06811328125,0.17710546875,-3.4076796875,0.000851562499999403,-0.0970820312500003,2.94433203125,2.85802734375,-0.325609375000001,1.72438671875
-0.116636718750001,2.10036328125,1.83340234375,-6.13262109375,-3.45428125,-2.14903515625,-1.8716171875,-3.599859375,-5.6934453125,-4.077046875,-4.3548125,-1.2455546875,0.96951953125,-3.145234375,-5.26809375,-4.057703125,-0.387281249999999,-1.245890625,-2.9505078125,-4.2815859375,-3.089265625,12.08711328125,1.08510546875,-2.8656796875,0.404851562499999,0.76091796875,3.93533203125,4.77802734375,0.825390624999999,3.42838671875
3.22436328125,4.19236328125,4.20140234375,-5.74662109375,-3.44828125,-1.71203515625,-1.4196171875,-2.388859375,-5.5254453125,-4.324046875,-3.9988125,-0.712554687499999,1.32451953125,-2.467234375,-5.66909375,-3.517703125,0.104718750000002,0.942109374999999,-2.7555078125,-3.7145859375,-2.551265625,14.68111328125,2.40210546875,-1.9466796875,1.2548515625,1.82991796875,5.07133203125,7.64902734375,2.391390625,5.34538671875
5.57436328125,6.55436328125,7.39040234375,-4.90862109375,-2.68728125,-0.896035156249999,-0.3806171875,-1.261859375,-5.2574453125,-4.084046875,-3.3108125,-0.0135546874999992,1.67851953125,-1.592234375,-5.50809375,-2.431703125,1.02971875,3.273109375,-2.1855078125,-2.7275859375,-2.003265625,17.44111328125,3.92610546875,-0.880679687500001,2.3858515625,2.79291796875,6.24033203125,10.85602734375,4.161390625,7.20938671875
5.88236328125,8.34536328125,10.06040234375,-4.15562109375,-1.36128125,0.0879648437500009,0.786382812500001,-0.577859374999999,-5.1864453125,-3.431046875,-2.5278125,0.551445312500002,1.84451953125,-0.772234374999998,-4.92909375,-1.121703125,2.13371875,5.244109375,-1.3775078125,-1.6155859375,-1.646265625,19.89211328125,5.37610546875,0.0703203124999998,3.5588515625,3.35391796875,7.30033203125,13.74802734375,5.891390625,8.79338671875
3.98936328125,8.86936328125,10.99540234375,-4.04662109375,0.10171875,0.97096484375,1.6213828125,-0.604859374999998,-5.4174453125,-2.614046875,-1.9228125,0.746445312500002,1.74051953125,-0.328234374999997,-4.26209375,0.0352968749999985,3.02871875,6.358109375,-0.570507812499999,-0.6975859375,-1.581265625,21.63411328125,6.46310546875,0.7043203125,4.5128515625,3.33991796875,8.10933203125,15.83302734375,7.332390625,9.91538671875
0.78336328125,7.92936328125,9.70040234375,-4.81562109375,1.22571875,1.52296484375,1.9073828125,-1.397859375,-5.8174453125,-1.957046875,-1.6878125,0.471445312500002,1.51251953125,-0.487234374999998,-3.85309375,0.732296874999999,3.33171875,6.344109375,-0.0245078124999996,-0.189585937499999,-1.794265625,22.42211328125,6.97310546875,0.9353203125,5.0408515625,2.77691796875,8.54333203125,16.83902734375,8.233390625,10.40838671875
-2.24263671875,5.94236328125,6.69440234375,-6.22562109375,1.71371875,1.66496484375,1.7513828125,-2.765859375,-6.1054453125,-1.688046875,-1.8288125,-0.208554687499998,1.51251953125,-1.212234375,-3.86909375,0.835296874999999,2.84871875,5.312109375,0.109492187500001,-0.106585937499998,-2.180265625,22.20611328125,6.85610546875,0.824320312499999,5.0628515625,1.86491796875,8.54533203125,16.68402734375,8.379390625,10.12538671875
-3.75163671875,3.72436328125,3.27840234375,-7.71062109375,1.56971875,1.48996484375,1.4513828125,-4.338859375,-6.0134453125,-1.822046875,-2.1588125,-1.1185546875,2.08151953125,-2.159234375,-4.21109375,0.418296874999999,1.69571875,3.752109375,-0.1295078125,-0.282585937499999,-2.601265625,21.11811328125,6.24810546875,0.5353203125,4.6468515625,0.881917968750001,8.13333203125,15.44102734375,7.681390625,8.99538671875
-3.20263671875,2.04336328125,0.85540234375,-8.69362109375,1.02171875,1.16496484375,1.2613828125,-5.676859375,-5.4264453125,-2.201046875,-2.4508125,-2.0595546875,3.26151953125,-2.868234375,-4.62809375,-0.320703125000001,0.236718750000001,2.282109375,-0.5685078125,-0.528585937499999,-2.960265625,19.40611328125,5.37110546875,0.212320312499999,3.9338515625,0.0439179687499998,7.37133203125,13.30202734375,6.252390625,7.09638671875
-1.06863671875,1.22936328125,0.19040234375,-8.88762109375,0.30571875,0.780964843750001,1.1963828125,-6.436859375,-4.4634453125,-2.644046875,-2.6378125,-2.8955546875,4.66651953125,-3.053234375,-4.93309375,-1.206703125,-1.11928125,1.311109375,-1.0535078125,-0.814585937499999,-3.277265625,17.34611328125,4.39010546875,-0.1356796875,3.0238515625,-0.59108203125,6.29033203125,10.53702734375,4.395390625,4.68138671875
1.42236328125,1.07336328125,1.06640234375,-8.42162109375,-0.49228125,0.28796484375,0.991382812499999,-6.554859375,-3.4664453125,-3.082046875,-2.8638125,-3.5835546875,5.66051953125,-2.799234375,-5.14809375,-2.161703125,-2.13328125,0.845109375,-1.5575078125,-1.2995859375,-3.685265625,15.15911328125,3.33410546875,-0.636679687500001,1.9258515625,-1.09108203125,4.86733203125,7.44802734375,2.497390625,2.14138671875
2.88836328125,1.06236328125,2.51740234375,-7.72962109375,-1.40928125,-0.437035156249999,0.2813828125,-6.311859375,-2.8794453125,-3.568046875,-3.3568125,-4.1395546875,5.72551953125,-2.482234375,-5.45809375,-3.165703125,-2.80828125,0.585109375,-2.1595078125,-2.1835859375,-4.329265625,13.00211328125,2.15910546875,-1.4326796875,0.613851562499999,-1.53908203125,3.09033203125,4.34002734375,0.887390624999998,-0.089613281250001
2.44536328125,0.72336328125,3.44040234375,-7.27062109375,-2.45128125,-1.44603515625,-1.1066171875,-6.199859375,-3.0514453125,-4.173046875,-4.2258125,-4.5855546875,4.75251953125,-2.513234375,-6.02509375,-4.144703125,-3.28728125,0.191109375,-2.9215078125,-3.5035859375,-5.246265625,10.99011328125,0.86910546875,-2.5306796875,-0.857148437500001,-1.93308203125,1.07733203125,1.51202734375,-0.251609375000001,-1.64961328125
0.0453632812499993,-0.14963671875,3.11040234375,-7.27462109375,-3.45628125,-2.62003515625,-2.9546171875,-6.654859375,-4.0604453125,-4.884046875,-5.3358125,-4.9165546875,3.06551953125,-3.085234375,-6.81109375,-4.920703125,-3.68428125,-0.494890625,-3.7945078125,-5.0265859375,-6.285265625,9.22511328125,-0.401894531250001,-3.7376796875,-2.2841484375,-2.15208203125,-0.85666796875,-0.735972656250002,-0.871609375,-2.34761328125
-3.65563671875,-1.50063671875,1.34940234375,-7.66162109375,-4.12028125,-3.68203515625,-4.7226171875,-7.841859375,-5.6464453125,-5.548046875,-6.3398125,-5.1075546875,1.19651953125,-4.064234375,-7.54309375,-5.245703125,-3.97128125,-1.382890625,-4.5835078125,-6.3105859375,-7.131265625,7.80611328125,-1.40289453125,-4.7166796875,-3.3531484375,-2.02808203125,-2.25866796875,-2.10397265625,-0.991609375000001,-2.21361328125
-7.69063671875,-3.13363671875,-1.55759765625,-8.13562109375,-4.12628125,-4.29303515625,-5.8216171875,-9.582859375,-7.2794453125,-5.920046875,-6.8248125,-5.1365546875,-0.39848046875,-5.055234375,-7.83309375,-4.913703125,-3.99628125,-2.209890625,-5.0185078125,-6.8935859375,-7.419265625,6.80611328125,-1.86889453125,-5.1226796875,-3.7631484375,-1.44708203125,-2.72066796875,-2.35097265625,-0.647609375000002,-1.46261328125
-11.10463671875,-4.79363671875,-4.93659765625,-8.34662109375,-3.31828125,-4.20803515625,-5.8796171875,-11.398859375,-8.3364453125,-5.775046875,-6.5148125,-5.0195546875,-1.49548046875,-5.603234375,-7.37709375,-3.872703125,-3.59828125,-2.684890625,-4.8805078125,-6.5025859375,-6.906265625,6.27111328125,-1.65089453125,-4.7656796875,-3.3751484375,-0.44408203125,-2.07366796875,-1.43097265625,0.103390624999999,-0.42161328125
-13.12163671875,-6.17863671875,-7.81059765625,-8.04462109375,-1.81428125,-3.40003515625,-4.8716171875,-12.668859375,-8.3454453125,-5.044046875,-5.4198125,-4.8135546875,-2.09548046875,-5.432234375,-6.14609375,-2.295703125,-2.74728125,-2.615890625,-4.1395078125,-5.2055859375,-5.607265625,6.21211328125,-0.817894531249999,-3.7216796875,-2.3091484375,0.76191796875,-0.508667968749999,0.384027343749999,1.125390625,0.57238671875
-13.28963671875,-6.97663671875,-9.14959765625,-7.20062109375,-0.0292812499999986,-2.11003515625,-3.1216171875,-12.895859375,-7.2354453125,-3.902046875,-3.8558125,-4.5885546875,-2.28348046875,-4.597234375,-4.44509375,-0.548703125000001,-1.61228125,-1.982890625,-3.0095078125,-3.4115859375,-3.833265625,6.59711328125,0.33010546875,-2.3476796875,-0.925148437500001,1.82291796875,1.45933203125,2.51502734375,2.185390625,1.26438671875
-11.66463671875,-6.97463671875,-8.32059765625,-6.06362109375,1.44371875,-0.77303515625,-1.2046171875,-11.951859375,-5.4484453125,-2.735046875,-2.3148125,-4.3685546875,-2.09248046875,-3.473234375,-2.81009375,0.935296874999999,-0.512281249999999,-0.948890625000001,-1.8955078125,-1.7105859375,-2.074265625,7.32111328125,1.35310546875,-1.1556796875,0.3178515625,2.40591796875,3.16433203125,4.28702734375,3.012390625,1.54638671875
-8.85563671875,-6.21363671875,-5.49759765625,-5.07762109375,2.06971875,0.157964843750001,0.2693828125,-10.112859375,-3.7814453125,-1.976046875,-1.2568125,-4.0825546875,-1.46348046875,-2.574234375,-1.77909375,1.822296875,0.220718750000001,0.195109374999999,-1.2245078125,-0.638585937499998,-0.794265625000001,8.20411328125,1.85310546875,-0.614679687500001,1.0598515625,2.35391796875,4.05033203125,5.21402734375,3.414390625,1.48638671875
-5.82363671875,-5.03463671875,-1.69759765625,-4.65862109375,1.62471875,0.405964843750001,0.9223828125,-7.864859375,-2.9824453125,-1.877046875,-0.925812500000001,-3.5965546875,-0.342480468750001,-2.290234375,-1.65409375,2.001296875,0.406718750000001,1.125109375,-1.2625078125,-0.464585937499999,-0.249265625000001,9.04011328125,1.64710546875,-0.938679687500001,1.1708515625,1.76891796875,3.89233203125,5.19802734375,3.370390625,1.28438671875
-3.51363671875,-3.96263671875,1.61340234375,-4.97262109375,0.330718750000001,-0.00603515624999851,0.771382812500001,-5.664859375,-3.3154453125,-2.370046875,-1.2768125,-2.8245546875,1.15951953125,-2.689234375,-2.37909375,1.592296875,0.094718750000002,1.595109375,-1.9895078125,-1.0995859375,-0.415265625000002,9.66411328125,0.857105468749999,-1.9856796875,0.7818515625,0.971917968750001,2.87733203125,4.52102734375,3.037390625,1.18738671875
-2.50663671875,-3.46563671875,3.14240234375,-5.84362109375,-1.23028125,-0.782035156249998,0.1703828125,-3.840859375,-4.4074453125,-3.095046875,-2.0178125,-1.8465546875,2.71251953125,-3.487234375,-3.57209375,0.858296874999999,-0.457281249999998,1.536109375,-3.0905078125,-2.1535859375,-1.049265625,10.00311328125,-0.13789453125,-3.3116796875,0.189851562499999,0.348917968750001,1.50133203125,3.66002734375,2.659390625,1.36338671875
-2.84063671875,-3.74463671875,2.31540234375,-6.83262109375,-2.37528125,-1.49303515625,-0.402617187499999,-2.599859375,-5.4794453125,-3.577046875,-2.7588125,-0.915554687499998,3.87951953125,-4.194234375,-4.69909375,0.0642968749999984,-0.904281249999999,1.093109375,-4.0855078125,-3.1245859375,-1.833265625,10.07411328125,-0.879894531250001,-4.3646796875,-0.2911484375,0.156917968750001,0.32033203125,3.02802734375,2.434390625,1.81338671875
-4.04163671875,-4.64963671875,-0.50159765625,-7.41962109375,-2.60328125,-1.77703515625,-0.559617187499999,-2.021859375,-5.7904453125,-3.457046875,-3.1588125,-0.320554687499998,4.33551953125,-4.365234375,-5.26509375,-0.598703125,-0.975281249999998,0.586109374999999,-4.5215078125,-3.6035859375,-2.505265625,9.94911328125,-1.04689453125,-4.7296796875,-0.466148437500001,0.40191796875,-0.293667968749999,2.78902734375,2.420390625,2.35938671875
-5.40063671875,-5.79663671875,-4.20259765625,-7.22862109375,-1.75828125,-1.46003515625,-0.1146171875,-2.016859375,-5.0084453125,-2.632046875,-3.0118125,-0.173554687499998,4.03451953125,-3.781234375,-4.96109375,-1.010703125,-0.613281249999998,0.370109375,-4.1445078125,-3.3975859375,-2.913265625,9.70911328125,-0.56989453125,-4.2656796875,-0.294148437500001,0.845917968750001,-0.277667968749999,2.81002734375,2.536390625,2.73538671875
-6.38563671875,-6.77663671875,-7.45159765625,-6.19562109375,-0.0212812499999995,-0.582035156249999,0.8843828125,-2.349859375,-3.3134453125,-1.250046875,-2.2488125,-0.303554687499998,3.21251953125,-2.503234375,-3.71509375,-1.071703125,-0.0082812499999978,0.666109375,-2.9475078125,-2.5285859375,-2.996265625,9.40211328125,0.399105468749999,-3.0966796875,0.170851562499999,1.14891796875,0.180332031250001,2.79502734375,2.645390625,2.73738671875
-6.93863671875,-7.35563671875,-9.23659765625,-4.60262109375,2.19871875,0.670964843750001,2.2273828125,-2.729859375,-1.2284453125,0.387953125000001,-0.913812500000001,-0.347554687499999,2.25551953125,-0.800234374999999,-1.68709375,-0.689703125000001,0.494718750000002,1.455109375,-1.1455078125,-1.1675859375,-2.740265625,9.03411328125,1.60110546875,-1.5096796875,0.8458515625,1.06191796875,0.795332031250001,2.48602734375,2.650390625,2.33838671875
-7.42263671875,-7.55063671875,-9.22059765625,-2.93462109375,4.40071875,2.02596484375,3.6383828125,-2.910859375,0.678554687499997,1.941953125,0.8101875,-0.000554687499999318,1.51251953125,0.943765625000003,0.755906249999999,0.150296874999999,0.574718750000002,2.485109375,0.884492187500001,0.404414062500001,-2.188265625,8.57311328125,2.76410546875,0.152320312499999,1.6278515625,0.541917968750001,1.33033203125,1.82102734375,2.524390625,1.68338671875
-8.29463671875,-7.59863671875,-7.80359765625,-1.66062109375,6.08871875,3.16796484375,4.8523828125,-2.779859375,2.0335546875,3.110953125,2.5681875,0.727445312500002,1.14251953125,2.319765625,3.08390625,1.289296875,0.113718750000002,3.364109375,2.6714921875,1.8144140625,-1.475265625,7.96611328125,3.62710546875,1.5393203125,2.3528515625,-0.25408203125,1.64133203125,0.966027343749998,2.283390625,0.97538671875
-9.75963671875,-7.83563671875,-5.93059765625,-1.08662109375,6.85371875,3.77896484375,5.6083828125,-2.416859375,2.7125546875,3.667953125,3.8691875,1.4704453125,1.05351953125,2.964765625,4.69390625,2.376296875,-0.709281249999998,3.712109375,3.7464921875,2.6464140625,-0.814265625000001,7.16411328125,3.95510546875,2.3343203125,2.7958515625,-1.07808203125,1.65133203125,0.216027343749998,1.953390625,0.35638671875
-11.61463671875,-8.51563671875,-4.66559765625,-1.30762109375,6.45671875,3.62996484375,5.6603828125,-2.062859375,2.7445546875,3.487953125,4.2451875,1.7244453125,0.971519531249999,2.669765625,5.08390625,3.002296875,-1.50228125,3.318109375,3.7814921875,2.5844140625,-0.398265625000001,6.14411328125,3.59810546875,2.3213203125,2.7668515625,-1.70008203125,1.32833203125,-0.155972656250002,1.571390625,-0.11461328125
-13.29463671875,-9.61163671875,-4.65759765625,-2.22862109375,4.91971875,2.68896484375,4.9043828125,-1.934859375,2.1955546875,2.594953125,3.4801875,1.1944453125,0.616519531249999,1.473765625,4.06290625,2.926296875,-1.86428125,2.241109375,2.7244921875,1.5804140625,-0.277265625000002,4.94111328125,2.57410546875,1.4693203125,2.2388515625,-1.96808203125,0.706332031250001,-0.011972656250002,1.211390625,-0.41161328125
-14.09463671875,-10.73763671875,-5.81659765625,-3.61862109375,2.56471875,1.17596484375,3.5293828125,-2.014859375,1.1275546875,1.173953125,1.7461875,0.0394453125000016,-0.101480468750001,-0.320234374999998,1.87690625,2.230296875,-1.61028125,0.782109374999999,0.843492187500001,-0.0795859374999992,-0.325265625000002,3.64811328125,1.10310546875,-0.0126796875000004,1.4068515625,-1.83208203125,-0.0776679687500001,0.617027343749999,0.988390624999999,-0.471613281250001
-13.53463671875,-11.32063671875,-7.43459765625,-5.19862109375,-0.0512812499999988,-0.505035156249999,2.0073828125,-2.050859375,-0.358445312500002,-0.468046875000001,-0.422812500000001,-1.1545546875,-1.03548046875,-2.237234375,-0.834093750000001,1.309296875,-0.874281249999999,-0.669890625000001,-1.3595078125,-1.8625859375,-0.326265625000001,2.38611328125,-0.45789453125,-1.7116796875,0.610851562499999,-1.33608203125,-0.78366796875,1.56802734375,1.008390625,-0.214613281250001
-11.69163671875,-10.93363671875,-8.63059765625,-6.73662109375,-2.30228125,-1.91803515625,0.879382812500001,-1.777859375,-2.0584453125,-1.986046875,-2.3288125,-1.6665546875,-1.94548046875,-3.807234375,-3.26509375,0.691296874999999,-0.0482812499999987,-1.836890625,-3.3075078125,-3.1935859375,-0.118265625000001,1.26111328125,-1.73489453125,-3.1396796875,0.171851562499999,-0.61108203125,-1.14666796875,2.62802734375,1.292390625,0.38338671875
-9.20963671875,-9.56563671875,-8.78559765625,-8.04562109375,-3.67828125,-2.74303515625,0.4963828125,-1.145859375,-3.6404453125,-3.087046875,-3.3858125,-1.0375546875,-2.69248046875,-4.705234375,-4.73709375,0.795296874999998,0.430718750000002,-2.648890625,-4.5295078125,-3.6845859375,0.326734374999999,0.34411328125,-2.46489453125,-3.8986796875,0.260851562499999,0.166917968750001,-0.98066796875,3.59502734375,1.748390625,1.23138671875
-6.91963671875,-7.60763671875,-7.69159765625,-8.89962109375,-3.92228125,-2.85803515625,0.912382812500001,-0.322859375,-4.6884453125,-3.586046875,-3.3448125,0.660445312500002,-3.29848046875,-4.830234375,-4.94309375,1.744296875,0.317718750000001,-3.183890625,-4.7855078125,-3.2525859375,0.912734374999999,-0.30988671875,-2.55389453125,-3.8236796875,0.844851562499999,0.83791796875,-0.26766796875,4.31902734375,2.207390625,2.13238671875
-5.35463671875,-5.56563671875,-5.48759765625,-8.99762109375,-3.08628125,-2.34003515625,1.9173828125,0.464140625000002,-4.8624453125,-3.448046875,-2.3648125,2.8524453125,-3.81248046875,-4.278234375,-4.01909375,3.324296875,-0.284281249999998,-3.515890625,-4.1105078125,-2.1105859375,1.512734375,-0.65088671875,-2.07289453125,-3.0216796875,1.7368515625,1.31291796875,0.83633203125,4.69402734375,2.501390625,2.84438671875
-4.54063671875,-3.77763671875,-2.56159765625,-8.07362109375,-1.48628125,-1.39903515625,3.1483828125,1.081140625,-4.0894453125,-2.792046875,-0.897812500000001,4.7644453125,-4.16348046875,-3.257234375,-2.43909375,5.093296875,-0.967281249999999,-3.600890625,-2.7685078125,-0.631585937499999,2.050734375,-0.65088671875,-1.19889453125,-1.8056796875,2.6958515625,1.58691796875,2.06033203125,4.62402734375,2.513390625,3.16938671875
-4.14563671875,-2.33663671875,0.51740234375,-6.11062109375,0.409718750000001,-0.311035156249998,4.2083828125,1.502140625,-2.6364453125,-1.866046875,0.523187499999999,5.8044453125,-4.14548046875,-2.014234375,-0.80009375,6.583296875,-1.21728125,-3.298890625,-1.1435078125,0.808414062500001,2.524734375,-0.36388671875,-0.15089453125,-0.5646796875,3.5058515625,1.70191796875,3.11533203125,4.00002734375,2.182390625,3.00438671875
-3.81463671875,-1.23763671875,3.08940234375,-3.46562109375,2.12671875,0.65996484375,4.7963828125,1.733140625,-0.989445312500003,-0.973046875,1.4901875,5.8094453125,-3.59648046875,-0.789234374999998,0.418906249999999,7.502296875,-0.690281249999998,-2.529890625,0.3644921875,1.9314140625,2.949734375,0.0431132812499997,0.83410546875,0.363320312499999,4.0108515625,1.68491796875,3.77833203125,2.73102734375,1.492390625,2.36938671875
-3.44663671875,-0.56863671875,4.51040234375,-0.809621093750001,3.31471875,1.31596484375,4.8093828125,1.729140625,0.414554687499997,-0.361046875,1.8561875,5.0474453125,-2.60248046875,0.210765625000002,1.01990625,7.809296875,0.606718750000002,-1.413890625,1.4474921875,2.6054140625,3.294734375,0.33011328125,1.53710546875,0.7883203125,4.1178515625,1.50891796875,3.94233203125,0.843027343749998,0.471390625,1.40238671875
-3.29263671875,-0.57063671875,4.27540234375,1.11037890625,3.82871875,1.58196484375,4.3473828125,1.348140625,1.3885546875,-0.107046875,1.7581875,4.0184453125,-1.50148046875,0.871765625000002,1.11690625,7.671296875,2.29771875,-0.262890625000001,1.9744921875,2.8304140625,3.478734375,0.31211328125,1.82110546875,0.713320312499999,3.8198515625,1.11991796875,3.63333203125,-1.39797265625,-0.770609375000001,0.32238671875
-3.78963671875,-1.47963671875,2.15540234375,1.79037890625,3.75071875,1.52896484375,3.6283828125,0.422140625000001,2.0065546875,-0.0770468750000006,1.5331875,3.1954453125,-0.649480468750001,1.226765625,1.03690625,7.315296875,3.80971875,0.610109375,2.0264921875,2.7124140625,3.413734375,0.00311328124999966,1.70110546875,0.331320312499999,3.2138515625,0.50191796875,2.99733203125,-3.45297265625,-2.014609375,-0.62061328125
-5.14963671875,-3.26963671875,-1.60759765625,1.25837890625,3.33771875,1.34296484375,2.8963828125,-1.073859375,2.4585546875,0.0109531250000003,1.5331875,2.8284453125,-0.13548046875,1.444765625,1.13590625,6.880296875,4.61571875,1.108109375,1.8334921875,2.3974140625,3.065734375,-0.31988671875,1.35810546875,-0.0606796875000004,2.4818515625,-0.26808203125,2.26533203125,-4.65097265625,-2.959609375,-1.21361328125
-6.96263671875,-5.47963671875,-6.16559765625,0.132378906249999,2.92971875,1.25296484375,2.3693828125,-2.886859375,2.8985546875,0.441953125,1.9421875,2.8744453125,0.26151953125,1.766765625,1.62790625,6.369296875,4.44671875,1.438109375,1.6684921875,2.0214140625,2.476734375,-0.21488671875,1.09210546875,-0.1806796875,1.8308515625,-1.01008203125,1.69433203125,-4.46697265625,-3.309609375,-1.34961328125
-8.21363671875,-7.29863671875,-10.15859765625,-0.649621093750001,2.82671875,1.45496484375,2.2053828125,-4.554859375,3.4025546875,1.376953125,2.7241875,3.0894453125,0.83851953125,2.407765625,2.51790625,5.713296875,3.39271875,1.990109375,1.7474921875,1.7034140625,1.776734375,0.69111328125,1.21410546875,0.1333203125,1.4398515625,-1.49708203125,1.50733203125,-2.76497265625,-2.887609375,-1.04061328125
-7.78863671875,-7.90963671875,-12.14259765625,-0.322621093750001,3.18371875,2.04996484375,2.4873828125,-5.628859375,3.9875546875,2.785953125,3.7081875,3.2084453125,1.65751953125,3.458765625,3.65890625,4.904296875,1.87371875,3.089109375,2.1844921875,1.5714140625,1.169734375,2.44911328125,1.91010546875,0.876320312499999,1.4388515625,-1.54308203125,1.83733203125,0.123027343749998,-1.726609375,-0.410613281250001
-5.16463671875,-6.89063671875,-11.18159765625,1.29537890625,3.93371875,3.01496484375,3.2223828125,-5.867859375,4.6335546875,4.450953125,4.7181875,3.1184453125,2.45951953125,4.820765625,4.85990625,4.083296875,0.496718750000001,4.752109375,2.9674921875,1.7524140625,0.894734374999999,4.68411328125,3.13910546875,1.8823203125,1.8818515625,-1.07908203125,2.67733203125,3.50202734375,-0.0966093750000017,0.35038671875
-0.810636718750001,-4.42063671875,-7.32159765625,3.73237890625,4.79571875,4.19396484375,4.3393828125,-5.263859375,5.2805546875,6.036953125,5.6391875,2.9334453125,2.87951953125,6.199765625,5.96390625,3.511296875,-0.163281249999999,6.601109375,3.9554921875,2.3214140625,1.123734375,6.70711328125,4.60510546875,2.8863203125,2.7148515625,-0.18008203125,3.85233203125,6.53202734375,1.559390625,1.03738671875
3.93336328125,-1.22063671875,-1.67059765625,6.13237890625,5.38571875,5.33696484375,5.6593828125,-3.982859375,5.8165546875,7.193953125,6.4061875,2.9364453125,2.76151953125,7.186765625,6.86890625,3.444296875,0.220718750000001,8.001109375,4.9014921875,3.2294140625,1.872734375,7.81811328125,5.86610546875,3.6183203125,3.7588515625,0.96391796875,5.04933203125,8.49902734375,2.774390625,1.49038671875
7.46436328125,1.76636328125,4.02740234375,7.68337890625,5.39571875,6.17796484375,6.8813828125,-2.303859375,6.1015546875,7.674953125,6.9711875,3.4294453125,2.28451953125,7.434765625,7.49290625,3.991296875,1.59471875,8.362109375,5.5354921875,4.2964140625,2.955734375,7.63211328125,6.52310546875,3.9193203125,4.7498515625,2.10691796875,5.93133203125,9.03702734375,3.236390625,1.63838671875
8.73336328125,3.79036328125,8.17640234375,7.95937890625,4.74571875,6.53096484375,7.6773828125,-0.532859374999997,6.0305546875,7.420953125,7.2761875,4.5804453125,1.80951953125,6.822765625,7.74590625,5.030296875,3.52371875,7.448109375,5.6724921875,5.2644140625,4.029734375,6.26711328125,6.40710546875,3.7913203125,5.4058515625,3.00791796875,6.26433203125,8.22502734375,2.898390625,1.51838671875
7.83236328125,4.63436328125,10.04540234375,7.05437890625,3.62771875,6.34296484375,7.8493828125,1.108140625,5.6005546875,6.568953125,7.2541875,6.2854453125,1.59251953125,5.516765625,7.53890625,6.245296875,5.34871875,5.515109375,5.2814921875,5.8754140625,4.707734375,4.28511328125,5.62810546875,3.3763203125,5.5048515625,3.46591796875,6.00333203125,6.49302734375,1.963390625,1.22838671875
5.93536328125,4.68136328125,10.01040234375,5.46337890625,2.41171875,5.70296484375,7.4053828125,2.542140625,4.9215546875,5.381953125,6.8491875,8.1354453125,1.64951953125,3.890765625,6.82590625,7.245296875,6.42471875,3.189109375,4.4964921875,5.9534140625,4.710734375,2.41611328125,4.50110546875,2.8533203125,4.9488515625,3.34391796875,5.27733203125,4.41302734375,0.752390624999999,0.843386718750001
4.56736328125,4.64436328125,9.18540234375,3.79737890625,1.50571875,4.79696484375,6.4873828125,3.756140625,4.1945546875,4.153953125,6.0621875,9.5184453125,1.83351953125,2.381765625,5.67790625,7.721296875,6.36271875,1.189109375,3.5694921875,5.4784140625,4.000734375,1.23711328125,3.39810546875,2.3743203125,3.8048515625,2.59391796875,4.31233203125,2.48902734375,-0.448609375,0.343386718750001
4.69136328125,5.13036328125,8.72840234375,2.52337890625,1.21371875,3.85996484375,5.2613828125,4.675140625,3.6435546875,3.128953125,4.9801875,9.8814453125,1.99851953125,1.354765625,4.30890625,7.551296875,5.17171875,0.0521093750000006,2.7924921875,4.6034140625,2.812734375,0.96311328125,2.62510546875,2.0283203125,2.2968515625,1.28791796875,3.32633203125,1.05102734375,-1.478609375,-0.362613281250001
6.23436328125,6.30136328125,9.26440234375,1.85737890625,1.66571875,3.10496484375,3.8803828125,5.129140625,3.4845546875,2.462953125,3.7631875,8.9954453125,2.06751953125,1.020765625,3.03390625,6.820296875,3.23271875,0.00710937499999886,2.3894921875,3.5914140625,1.545734375,1.43411328125,2.33110546875,1.8483203125,0.7278515625,-0.37608203125,2.46333203125,0.250027343749998,-2.290609375,-1.31961328125
8.30736328125,7.80036328125,10.66440234375,1.81137890625,2.78071875,2.65596484375,2.5033828125,4.940140625,3.8735546875,2.196953125,2.5721875,7.0534453125,2.02551953125,1.408765625,2.13690625,5.723296875,1.13071875,0.979109375,2.4304921875,2.6784140625,0.568734374999998,2.27711328125,2.48210546875,1.8123203125,-0.640148437500001,-2.10708203125,1.77833203125,0.0840273437499981,-2.897609375,-2.42661328125
9.81736328125,8.95536328125,12.17940234375,2.27637890625,4.25571875,2.48796484375,1.2603828125,4.024140625,4.8385546875,2.236953125,1.5011875,4.5554453125,1.90651953125,2.372765625,1.73790625,4.458296875,-0.577281249999999,2.665109375,2.7964921875,1.9634140625,0.0487343749999987,3.10811328125,2.89510546875,1.8533203125,-1.6711484375,-3.59208203125,1.25533203125,0.417027343749998,-3.316609375,-3.41561328125
10.06236328125,9.11736328125,12.80840234375,3.07837890625,5.61171875,2.44196484375,0.1963828125,2.449140625,6.1805546875,2.364953125,0.549187499999999,2.0794453125,1.80451953125,3.618765625,1.72990625,3.158296875,-1.55928125,4.620109375,3.2274921875,1.3784140625,-0.0882656250000018,3.67111328125,3.31510546875,1.8753203125,-2.3721484375,-4.58808203125,0.85133203125,0.999027343749999,-3.558609375,-3.97961328125
8.99136328125,7.96636328125,11.74440234375,4.04437890625,6.32471875,2.29896484375,-0.699617187499999,0.466140625000001,7.4655546875,2.301953125,-0.335812500000001,0.080445312500002,1.86251953125,4.779765625,1.84490625,1.894296875,-1.80228125,6.356109375,3.4184921875,0.751414062500002,-0.0942656250000002,3.85911328125,3.49510546875,1.7773203125,-2.8561484375,-4.96808203125,0.510332031250001,1.53002734375,-3.659609375,-3.95461328125
7.06036328125,5.62236328125,8.73540234375,5.02837890625,6.04171875,1.88296484375,-1.4166171875,-1.514859375,8.1555546875,1.841953125,-1.1898125,-1.2105546875,2.18951953125,5.523765625,1.79490625,0.726296874999999,-1.56328125,7.455109375,3.1364921875,-0.0655859374999981,-0.255265625000002,3.66911328125,3.26810546875,1.4743203125,-3.2741484375,-4.75408203125,0.16933203125,1.76202734375,-3.704609375,-3.44561328125
4.79936328125,2.53536328125,4.17740234375,5.90137890625,4.76371875,1.15096484375,-1.9096171875,-3.082859375,7.8245546875,0.953953125000002,-1.9748125,-1.8005546875,2.75151953125,5.660765625,1.42290625,-0.274703125,-1.22228125,7.668109375,2.3124921875,-1.0905859375,-0.763265625000001,3.12611328125,2.59310546875,0.9093203125,-3.7441484375,-4.10308203125,-0.245667968749999,1.58702734375,-3.820609375,-2.79361328125
2.44536328125,-0.75263671875,-1.07059765625,6.48737890625,2.85671875,0.195964843750001,-2.1926171875,-4.029859375,6.3305546875,-0.197046875,-2.5908125,-1.8925546875,3.32951953125,5.197765625,0.758906249999999,-1.043703125,-1.11628125,6.979109375,1.0714921875,-2.1805859375,-1.630265625,2.24611328125,1.56210546875,0.081320312499999,-4.2971484375,-3.28808203125,-0.82766796875,1.04902734375,-4.132609375,-2.41461328125
-0.0606367187500005,-3.79063671875,-6.01759765625,6.55637890625,0.878718750000001,-0.797035156249999,-2.3716171875,-4.433859375,3.8685546875,-1.323046875,-2.9378125,-1.8065546875,3.61951953125,4.314765625,-0.0200937500000009,-1.563703125,-1.42228125,5.608109375,-0.327507812499999,-3.1115859375,-2.690265625,1.06311328125,0.37910546875,-0.9466796875,-4.8651484375,-2.64008203125,-1.66266796875,0.286027343749998,-4.686609375,-2.58761328125
-2.74063671875,-6.26663671875,-9.83459765625,5.93637890625,-0.670281249999999,-1.60703515625,-2.5406171875,-4.525859375,0.937554687499997,-2.126046875,-2.9648125,-1.8615546875,3.40251953125,3.313765625,-0.67609375,-1.858703125,-2.11928125,3.966109375,-1.5825078125,-3.6835859375,-3.675265625,-0.29588671875,-0.69489453125,-2.0286796875,-5.3081484375,-2.46008203125,-2.76866796875,-0.545972656250001,-5.382609375,-3.31061328125
-5.29063671875,-7.96563671875,-12.00459765625,4.64637890625,-1.49528125,-2.02703515625,-2.6636171875,-4.452859375,-1.7854453125,-2.374046875,-2.6588125,-2.2365546875,2.65351953125,2.540765625,-0.98009375,-1.946703125,-3.01328125,2.548109375,-2.4155078125,-3.7825859375,-4.307265625,-1.55888671875,-1.38389453125,-2.9356796875,-5.4581484375,-2.88908203125,-4.01766796875,-1.29697265625,-5.965609375,-4.30461328125
-7.14363671875,-8.71763671875,-12.35259765625,2.94537890625,-1.52028125,-1.89803515625,-2.5616171875,-4.164859375,-3.6164453125,-1.949046875,-1.9948125,-2.8615546875,1.54351953125,2.296765625,-0.76609375,-1.775703125,-3.81928125,1.774109375,-2.6145078125,-3.3575859375,-4.379265625,-2.35788671875,-1.46289453125,-3.3856796875,-5.1581484375,-3.81608203125,-5.10666796875,-1.80597265625,-6.098609375,-5.12661328125
-7.78863671875,-8.40363671875,-11.00359765625,1.25737890625,-0.839281249999999,-1.15403515625,-2.0346171875,-3.449859375,-4.0854453125,-0.868046874999999,-0.928812500000001,-3.4245546875,0.379519531249999,2.718765625,0.0289062500000004,-1.238703125,-4.26428125,1.815109375,-2.0795078125,-2.3995859375,-3.801265625,-2.39088671875,-0.837894531250001,-3.1276796875,-4.3151484375,-4.86408203125,-5.63366796875,-1.89497265625,-5.506609375,-5.36261328125
-7.06063671875,-7.02963671875,-8.34259765625,0.0383789062499993,0.336718750000001,0.129964843750001,-1.0026171875,-2.066859375,-3.1224453125,0.695953125000001,0.527187499999998,-3.5245546875,-0.41748046875,3.698765625,1.32590625,-0.271703125,-4.19128125,2.507109375,-0.8865078125,-0.964585937499999,-2.625265625,-1.57788671875,0.39710546875,-2.0536796875,-2.9361484375,-5.52508203125,-5.25466796875,-1.38697265625,-4.091609375,-4.76861328125
-5.22363671875,-4.80663671875,-4.98659765625,-0.377621093750001,1.71371875,1.73696484375,0.392382812500001,0.0711406250000017,-1.1244453125,2.451953125,2.2211875,-2.8865546875,-0.38248046875,4.918765625,2.91690625,1.031296875,-3.60828125,3.452109375,0.7034921875,0.799414062500002,-1.041265625,-0.10488671875,1.97810546875,-0.2696796875,-1.1471484375,-5.37408203125,-3.83866796875,-0.176972656250001,-1.977609375,-3.32661328125
-2.86763671875,-2.19463671875,-1.74759765625,0.0923789062499996,2.97171875,3.37196484375,1.7613828125,2.753140625,1.1615546875,4.066953125,3.8621875,-1.5375546875,0.80651953125,6.008765625,4.52690625,2.385296875,-2.65528125,4.252109375,2.3264921875,2.6494140625,0.666734374999999,1.65511328125,3.59810546875,1.9323203125,0.841851562499999,-4.26808203125,-1.53466796875,1.69402734375,0.553390624999999,-1.19061328125
-0.712636718750001,0.17636328125,0.486402343749999,1.23237890625,3.86871875,4.76196484375,2.6253828125,5.462140625,2.9605546875,5.274953125,5.1241875,0.177445312500002,3.07351953125,6.744765625,5.91590625,3.410296875,-1.51628125,4.739109375,3.6614921875,4.3204140625,2.201734375,3.29211328125,5.03310546875,4.1743203125,2.7908515625,-2.40108203125,1.28333203125,4.00702734375,3.171390625,1.40538671875
0.62836328125,1.69836328125,1.01040234375,2.62637890625,4.33671875,5.74696484375,2.7013828125,7.573140625,3.8555546875,5.974953125,5.8091875,1.7394453125,5.86151953125,7.141765625,6.96690625,3.818296875,-0.342281249999999,5.038109375,4.5474921875,5.5994140625,3.354734375,4.51011328125,6.21810546875,6.1233203125,4.4938515625,-0.183082031249999,4.15733203125,6.41102734375,5.600390625,4.21638671875
0.83336328125,2.03836328125,-0.37659765625,3.85637890625,4.53871875,6.32396484375,2.1263828125,8.673140625,3.9935546875,6.273953125,5.9551875,2.7004453125,8.33351953125,7.431765625,7.71590625,3.585296875,0.794718750000001,5.451109375,5.0344921875,6.4084140625,4.075734375,5.21011328125,7.20410546875,7.5813203125,5.8218515625,1.95491796875,6.69333203125,8.54102734375,7.668390625,6.99938671875
-0.0476367187500006,1.31936328125,-3.17159765625,4.66137890625,4.79471875,6.62196484375,1.4023828125,8.748140625,3.9195546875,6.436953125,5.8461875,2.9144453125,9.75651953125,7.921765625,8.30090625,2.998296875,1.89571875,6.269109375,5.3394921875,6.8264140625,4.497734375,5.48911328125,8.08710546875,8.5233203125,6.7598515625,3.74191796875,8.64533203125,10.14302734375,9.319390625,9.51638671875
-1.60463671875,0.12036328125,-6.26059765625,4.98737890625,5.41571875,6.83596484375,1.0863828125,8.174140625,4.1565546875,6.758953125,5.8851875,2.6294453125,9.83151953125,8.833765625,8.87690625,2.529296875,3.00471875,7.610109375,5.7344921875,7.0504140625,4.876734375,5.55411328125,8.93210546875,9.0613203125,7.3878515625,5.12491796875,9.92933203125,11.14202734375,10.586390625,11.55538671875
-3.14663671875,-0.75263671875,-8.33959765625,4.96237890625,6.51071875,7.12196484375,1.4883828125,7.541140625,4.8045546875,7.405953125,6.3811875,2.3504453125,8.79751953125,10.171765625,9.52090625,2.599296875,4.15871875,9.371109375,6.3964921875,7.2894140625,5.465734375,5.60211328125,9.71510546875,9.3533203125,7.8218515625,6.20491796875,10.55833203125,11.61802734375,11.534390625,12.95438671875
-3.91163671875,-0.62163671875,-8.46059765625,4.81937890625,7.91071875,7.52196484375,2.5423828125,7.425140625,5.4815546875,8.322953125,7.3551875,2.5684453125,7.29451953125,11.683765625,10.19390625,3.376296875,5.33271875,11.243109375,7.2854921875,7.6344140625,6.382734375,5.72911328125,10.31110546875,9.4973203125,8.1268515625,7.09791796875,10.57933203125,11.69702734375,12.200390625,13.61538671875
-3.38463671875,0.74436328125,-6.42359765625,4.79537890625,9.24371875,7.93496484375,3.8553828125,8.138140625,5.5885546875,9.239953125,8.5041875,3.5064453125,6.06551953125,12.939765625,10.76390625,4.697296875,6.38971875,12.801109375,8.1484921875,8.0034140625,7.538734375,5.89611328125,10.54010546875,9.4693203125,8.2818515625,7.82691796875,10.03233203125,11.42702734375,12.549390625,13.50938671875
-1.59163671875,3.01536328125,-2.80359765625,5.02237890625,10.10371875,8.15596484375,4.8803828125,9.559140625,4.7395546875,9.779953125,9.3431875,5.0094453125,5.62351953125,13.513765625,11.05790625,6.159296875,7.11971875,13.616109375,8.6314921875,8.1894140625,8.655734375,5.95211328125,10.24010546875,9.1483203125,8.1808515625,8.27891796875,8.94833203125,10.71302734375,12.474390625,12.65338671875
0.891363281249999,5.45136328125,1.35940234375,5.47037890625,10.21071875,7.95996484375,5.1673828125,11.178140625,3.0545546875,9.610953125,9.4341875,6.6324453125,6.04751953125,13.167765625,10.93290625,7.299296875,7.33671875,13.383109375,8.4614921875,7.9584140625,9.354734375,5.70211328125,9.34610546875,8.3923203125,7.6778515625,8.25591796875,7.36233203125,9.36302734375,11.839390625,11.09938671875
3.22936328125,7.21636328125,4.95340234375,5.97037890625,9.49171875,7.20496484375,4.6133828125,12.363140625,1.1095546875,8.592953125,8.5911875,7.8324453125,6.97351953125,11.945765625,10.31490625,7.780296875,6.97271875,12.027109375,7.5664921875,7.1554140625,9.293734375,4.99211328125,7.91010546875,7.1263203125,6.6388515625,7.56691796875,5.34333203125,7.23402734375,10.561390625,8.91238671875
4.66736328125,7.68036328125,7.05840234375,6.27637890625,8.06971875,5.90296484375,3.5283828125,12.658140625,-0.424445312500001,6.837953125,6.9641875,8.1894453125,7.78651953125,10.144765625,9.22290625,7.500296875,6.10571875,9.772109375,6.1084921875,5.7724140625,8.309734375,3.78211328125,6.09410546875,5.3983203125,5.0098515625,6.12691796875,3.00133203125,4.39902734375,8.675390625,6.19038671875
4.71036328125,6.58836328125,7.06940234375,6.11237890625,6.19571875,4.23396484375,2.4313828125,11.911140625,-1.2114453125,4.673953125,4.9751875,7.5614453125,7.89451953125,8.174765625,7.76790625,6.596296875,4.91171875,7.100109375,4.3964921875,3.9754140625,6.499734375,2.17111328125,4.12710546875,3.3783203125,2.8878515625,4.03191796875,0.48933203125,1.22802734375,6.380390625,3.10738671875
3.16336328125,4.07836328125,4.81440234375,5.23537890625,4.13771875,2.47496484375,1.7183828125,10.237140625,-1.4504453125,2.504953125,3.1241875,6.1184453125,6.96251953125,6.380765625,6.11790625,5.351296875,3.59471875,4.568109375,2.7364921875,2.0624140625,4.208734375,0.35211328125,2.22810546875,1.3073203125,0.539851562499999,1.57591796875,-2.02366796875,-1.70697265625,4.010390625,-0.0486132812500006
0.193363281249999,0.63936328125,0.726402343749999,3.54637890625,2.08071875,0.872964843750001,1.4363828125,7.947140625,-1.7224453125,0.626953125,1.7631875,4.2584453125,5.03051953125,4.876765625,4.45590625,4.061296875,2.33271875,2.547109375,1.2764921875,0.348414062500002,1.898734375,-1.49288671875,0.52210546875,-0.5966796875,-1.6711484375,-0.815082031249999,-4.38166796875,-3.88097265625,1.924390625,-2.90861328125
-3.59663671875,-2.97063671875,-4.06559765625,1.19837890625,0.08871875,-0.46203515625,1.2993828125,5.496140625,-2.6424453125,-0.890046874999999,0.9541875,2.4434453125,2.49251953125,3.511765625,2.92990625,2.938296875,1.24671875,1.083109375,-0.0365078125,-0.943585937499998,-0.00626562500000105,-3.25688671875,-0.987894531249999,-2.1906796875,-3.4051484375,-2.70108203125,-6.45966796875,-5.06097265625,0.389390624999999,-5.12361328125
-7.22663671875,-5.86963671875,-7.98959765625,-1.37762109375,-1.82728125,-1.55703515625,0.8983828125,3.406140625,-4.4984453125,-2.178046875,0.5181875,1.0584453125,-0.0344804687500009,2.024765625,1.62690625,2.086296875,0.410718750000001,-0.0358906250000004,-1.3465078125,-1.7305859375,-1.235265625,-4.89588671875,-2.34189453125,-3.3916796875,-4.4401484375,-3.75608203125,-8.14166796875,-5.36197265625,-0.493609375,-6.47061328125
-9.59763671875,-7.30663671875,-9.64759765625,-3.56162109375,-3.58328125,-2.49903515625,-0.0136171874999995,2.115140625,-7.0714453125,-3.425046875,0.203187499999999,0.302445312500002,-1.90748046875,0.282765625000001,0.58490625,1.542296875,-0.123281249999998,-1.035890625,-2.7215078125,-2.0365859375,-1.696265625,-6.35488671875,-3.51889453125,-4.1206796875,-4.7041484375,-3.84508203125,-9.28966796875,-5.09997265625,-0.772609375000002,-6.90661328125
-9.84863671875,-6.93663671875,-8.53359765625,-4.73562109375,-4.94928125,-3.34003515625,-1.3236171875,1.829140625,-9.7104453125,-4.705046875,-0.165812500000001,0.149445312500001,-2.66248046875,-1.560234375,-0.197093750000001,1.301296875,-0.318281249999998,-1.974890625,-4.0555078125,-1.9485859375,-1.462265625,-7.50288671875,-4.38789453125,-4.2856796875,-4.2551484375,-3.04108203125,-9.75366796875,-4.57997265625,-0.588609375000001,-6.56061328125
-7.69963671875,-4.98363671875,-5.37159765625,-4.48362109375,-5.61128125,-4.05103515625,-2.5966171875,2.456140625,-11.6204453125,-5.901046875,-0.6228125,0.366445312500002,-2.18248046875,-3.110234375,-0.751093750000001,1.314296875,-0.164281249999998,-2.705890625,-5.1245078125,-1.5855859375,-0.726265625000002,-8.15088671875,-4.75389453125,-3.8276796875,-3.2481484375,-1.60708203125,-9.41566796875,-3.98097265625,-0.110609375000001,-5.67661328125
-3.61063671875,-2.15363671875,-1.80659765625,-2.78662109375,-5.33628125,-4.52303515625,-3.3576171875,3.645140625,-12.2064453125,-6.740046875,-1.0908125,0.613445312500001,-0.736480468750001,-3.918234375,-1.10809375,1.488296875,0.302718750000002,-2.980890625,-5.6815078125,-1.0635859375,0.270734374999998,-8.12488671875,-4.44289453125,-2.7626796875,-1.8901484375,0.0649179687500006,-8.24466796875,-3.33997265625,0.526390624999999,-4.53461328125
1.34736328125,0.67236328125,0.455402343749999,-0.0786210937500016,-4.09428125,-4.58203515625,-3.3976171875,4.931140625,-11.2844453125,-6.899046875,-1.4198125,0.626445312500001,1.14351953125,-3.675234375,-1.24209375,1.726296875,0.988718750000002,-2.569890625,-5.5405078125,-0.441585937499999,1.316734375,-7.34788671875,-3.35889453125,-1.1766796875,-0.3841484375,1.54191796875,-6.30466796875,-2.60597265625,1.268390625,-3.36061328125
5.94236328125,2.84036328125,0.58640234375,2.91537890625,-2.08028125,-4.04803515625,-2.8526171875,5.948140625,-9.0844453125,-6.149046875,-1.4368125,0.386445312500001,2.88851953125,-2.321234375,-1.04609375,1.993296875,1.74771875,-1.339890625,-4.6125078125,0.298414062500001,2.291734375,-5.87988671875,-1.52889453125,0.8033203125,1.1028515625,2.47591796875,-3.74366796875,-1.69497265625,2.158390625,-2.27061328125
9.30836328125,4.18036328125,-0.911597656250001,5.50937890625,0.364718750000002,-2.83403515625,-2.0366171875,6.597140625,-6.1064453125,-4.481046875,-1.0218125,0.124445312500001,4.09451953125,-0.0752343749999973,-0.39109375,2.333296875,2.40571875,0.686109374999999,-2.9455078125,1.2094140625,3.152734375,-3.91088671875,0.84710546875,3.0003203125,2.4458515625,2.72391796875,-0.78966796875,-0.564972656250001,3.277390625,-1.26661328125
11.20736328125,4.97236328125,-2.51759765625,7.36037890625,2.85271875,-1.06203515625,-1.2616171875,7.029140625,-2.9364453125,-2.186046875,-0.184812500000001,0.138445312500002,4.62951953125,2.604765625,0.732906249999999,2.807296875,2.82071875,3.292109375,-0.771507812499999,2.2924140625,3.894734375,-1.72088671875,3.38510546875,5.1763203125,3.5538515625,2.40491796875,2.25233203125,0.740027343749999,4.639390625,-0.28361328125
11.90636328125,5.64636328125,-2.63759765625,8.54937890625,5.02771875,0.903964843750002,-0.745617187499999,7.463140625,-0.0874453125000016,0.196953125,0.894187499999999,0.552445312500002,4.66651953125,5.116765625,2.11590625,3.405296875,2.94171875,6.066109375,1.5114921875,3.4414140625,4.514734375,0.37711328125,5.59210546875,7.0353203125,4.3708515625,1.86791796875,5.00933203125,2.06902734375,6.130390625,0.75138671875
11.88636328125,6.42636328125,-0.585597656250001,9.40537890625,6.62571875,2.56296484375,-0.5826171875,8.011140625,2.1225546875,2.052953125,1.9211875,1.2404453125,4.63451953125,6.887765625,3.35990625,4.000296875,2.82971875,8.479109375,3.4184921875,4.4584140625,5.003734375,2.11311328125,7.02210546875,8.2933203125,4.8878515625,1.53791796875,7.10733203125,3.19802734375,7.521390625,1.87238671875
11.60336328125,7.15236328125,3.00540234375,10.22937890625,7.49771875,3.47596484375,-0.7076171875,8.645140625,3.6245546875,2.928953125,2.5981875,1.9414453125,5.08551953125,7.562765625,4.04890625,4.392296875,2.62471875,10.029109375,4.5404921875,5.1154140625,5.342734375,3.31411328125,7.43510546875,8.7583203125,5.1208515625,1.71091796875,8.26433203125,3.88502734375,8.555390625,3.02038671875
11.41036328125,7.38936328125,6.62640234375,11.10737890625,7.61871875,3.44696484375,-0.911617187499999,9.264140625,4.5445546875,2.703953125,2.7511875,2.4314453125,6.44251953125,7.135765625,3.94890625,4.404296875,2.49971875,10.424109375,4.6844921875,5.2534140625,5.508734375,3.92411328125,6.87810546875,8.3983203125,5.0988515625,2.39291796875,8.36833203125,3.96002734375,9.042390625,4.02338671875
11.55236328125,6.74836328125,8.85740234375,11.89637890625,7.07571875,2.60196484375,-0.9716171875,9.753140625,5.0835546875,1.622953125,2.4121875,2.6394453125,8.76151953125,5.967765625,3.11990625,3.979296875,2.61571875,9.728109375,3.9644921875,4.8574140625,5.476734375,4.00111328125,5.67210546875,7.3663203125,4.8508515625,3.27291796875,7.50833203125,3.39802734375,8.924390625,4.61438671875
12.17236328125,5.20736328125,9.20340234375,12.37537890625,6.06871875,1.32896484375,-0.777617187499999,10.016140625,5.3945546875,0.191953125,1.8041875,2.6434453125,11.63851953125,4.646765625,1.89290625,3.236296875,3.08971875,8.375109375,2.7564921875,4.0874140625,5.257734375,3.70011328125,4.29710546875,5.9683203125,4.4278515625,3.87291796875,5.95333203125,2.37302734375,8.290390625,4.54138671875
13.29836328125,3.22036328125,8.26440234375,12.42637890625,4.89871875,0.121964843750002,-0.3786171875,10.006140625,5.5285546875,-1.015046875,1.2301875,2.5924453125,14.34451953125,3.761765625,0.72190625,2.435296875,3.94271875,6.994109375,1.5464921875,3.2244140625,4.924734375,3.23211328125,3.21910546875,4.5763203125,3.9138515625,3.79191796875,4.08533203125,1.22802734375,7.355390625,3.71638671875
14.78236328125,1.52836328125,7.20540234375,12.10037890625,3.89771875,-0.62203515625,0.0613828124999998,9.726140625,5.4555546875,-1.575046875,0.928187499999998,2.6224453125,16.14651953125,3.649765625,-0.0100937500000011,1.866296875,5.04171875,6.104109375,0.733492187500001,2.5574140625,4.618734375,2.80711328125,2.71510546875,3.5113203125,3.4218515625,2.93291796875,2.32533203125,0.349027343749999,6.390390625,2.33038671875
16.22536328125,0.73636328125,6.95740234375,11.53437890625,3.31971875,-0.742035156249999,0.3273828125,9.181140625,5.0975546875,-1.379046875,0.974187499999999,2.8004453125,16.60251953125,4.276765625,-0.14909375,1.725296875,6.08571875,5.869109375,0.493492187500001,2.2664140625,4.502734375,2.55511328125,2.79810546875,2.9453203125,3.0558515625,1.57091796875,1.03933203125,0.0100273437499983,5.646390625,0.83438671875
16.98936328125,0.93336328125,7.66440234375,10.80137890625,3.22871875,-0.354035156249999,0.2403828125,8.339140625,4.3605546875,-0.658046875,1.2681875,3.1234453125,15.68151953125,5.256765625,0.17290625,2.024296875,6.69471875,6.063109375,0.7354921875,2.3514140625,4.671734375,2.47411328125,3.23510546875,2.8593203125,2.8588515625,0.23891796875,0.443332031250001,0.253027343749999,5.280390625,-0.224613281250001
16.38036328125,1.58436328125,8.65440234375,9.87037890625,3.44071875,0.205964843750001,-0.2476171875,7.183140625,3.1605546875,0.105953125000001,1.5761875,3.5174453125,13.68451953125,6.015765625,0.591906249999999,2.569296875,6.57671875,6.226109375,1.1534921875,2.6154140625,5.061734375,2.43511328125,3.64210546875,3.0543203125,2.7518515625,-0.53108203125,0.513332031250001,0.893027343749999,5.314390625,-0.44061328125
13.95336328125,1.81136328125,8.87940234375,8.68337890625,3.58771875,0.523964843750001,-1.0346171875,5.777140625,1.4895546875,0.400953125000001,1.6051875,3.8444453125,11.09651953125,6.016765625,0.66090625,3.040296875,5.67271875,5.904109375,1.3414921875,2.7264140625,5.441734375,2.26711328125,3.62010546875,3.2063203125,2.5398515625,-0.47008203125,0.98533203125,1.64502734375,5.648390625,0.24438671875
9.78636328125,0.89336328125,7.51440234375,7.27637890625,3.29871875,0.292964843750001,-1.9466171875,4.267140625,-0.502445312500003,-0.0830468749999991,1.1241875,3.9234453125,8.47051953125,4.990765625,0.0599062499999992,3.117296875,4.17371875,4.878109375,0.9724921875,2.3684140625,5.510734375,1.86111328125,2.92310546875,3.0063203125,2.0018515625,0.29091796875,1.46533203125,2.29302734375,6.126390625,1.50838671875
4.56636328125,-1.32963671875,4.40240234375,5.82337890625,2.41571875,-0.535035156249998,-2.8496171875,2.806140625,-2.4494453125,-1.281046875,0.103187499999999,3.5784453125,6.35651953125,3.091765625,-1.22009375,2.640296875,2.42371875,3.290109375,-0.025507812499999,1.4324140625,5.067734375,1.25611328125,1.60110546875,2.3233203125,1.0458515625,1.29491796875,1.63033203125,2.78102734375,6.610390625,2.80838671875
-0.55163671875,-4.35963671875,0.19240234375,4.61937890625,1.12971875,-1.68903515625,-3.6636171875,1.513140625,-3.8294453125,-2.761046875,-1.2238125,2.7174453125,5.22751953125,0.892765625000003,-2.82609375,1.688296875,0.782718750000001,1.626109375,-1.3875078125,0.117414062500002,4.136734375,0.63711328125,0.0371054687499992,1.3163203125,-0.194148437500001,1.99591796875,1.39733203125,3.18802734375,7.043390625,3.65638671875
-4.28163671875,-7.28663671875,-3.88059765625,3.99937890625,-0.0802812499999987,-2.69403515625,-4.3016171875,0.524140625000001,-4.1594453125,-3.917046875,-2.4348125,1.3914453125,5.35751953125,-0.835234374999999,-4.16809375,0.545296874999998,-0.463281249999998,0.524109375,-2.6085078125,-1.1245859375,2.980734375,0.24911328125,-1.18889453125,0.3973203125,-1.3791484375,2.02491796875,0.968332031250001,3.63602734375,7.454390625,3.85838671875
-5.64463671875,-9.18963671875,-6.48659765625,4.20237890625,-0.701281249999999,-3.10403515625,-4.6706171875,0.0301406250000014,-3.2534453125,-4.286046875,-3.1268125,-0.158554687499999,6.69051953125,-1.460234375,-4.70209375,-0.438703125000002,-1.11728125,0.495109375,-3.1765078125,-1.8035859375,1.993734375,0.26111328125,-1.54989453125,0.0513203124999997,-2.1021484375,1.35891796875,0.722332031250001,4.21002734375,7.940390625,3.58638671875
-4.36263671875,-9.51363671875,-6.77259765625,5.20437890625,-0.50428125,-2.76203515625,-4.7606171875,0.221140625,-1.3984453125,-3.821046875,-3.1298125,-1.5465546875,8.78751953125,-0.810234374999999,-4.22909375,-1.037703125,-1.10128125,1.662109375,-2.8405078125,-1.6425859375,1.511734375,0.650113281249999,-0.821894531250001,0.581320312499999,-2.0721484375,0.30591796875,0.99333203125,4.94002734375,8.612390625,3.26638671875
-0.983636718750001,-8.26463671875,-4.73259765625,6.64037890625,0.259718750000001,-1.92803515625,-4.7136171875,1.165140625,0.685554687499998,-2.961046875,-2.6458125,-2.3905546875,10.90951953125,0.703765625000003,-3.06009375,-1.292703125,-0.493281249999999,3.658109375,-1.7915078125,-0.764585937499998,1.631734375,1.17311328125,0.768105468749999,1.9113203125,-1.2801484375,-0.68408203125,1.85633203125,5.81502734375,9.541390625,3.34138671875
3.35136328125,-5.96663671875,-1.15659765625,7.93037890625,0.949718750000001,-1.20603515625,-4.7806171875,2.724140625,2.1035546875,-2.446046875,-2.1988125,-2.5265546875,12.25851953125,2.237765625,-1.92309375,-1.508703125,0.440718750000002,5.727109375,-0.631507812499999,0.301414062500001,2.137734375,1.45511328125,2.59010546875,3.5513203125,-0.0421484374999999,-1.25808203125,3.03133203125,6.78102734375,10.693390625,4.03838671875
7.36436328125,-3.42463671875,2.74540234375,8.56637890625,0.891718750000001,-1.26303515625,-5.1916171875,4.553140625,2.1665546875,-2.938046875,-2.4058125,-2.1455546875,12.25151953125,2.897765625,-1.61709375,-2.089703125,1.29771875,7.002109375,-0.1075078125,0.859414062500001,2.590734375,1.14711328125,3.86410546875,4.7963203125,1.1248515625,-1.33008203125,3.98833203125,7.72602734375,11.906390625,5.25938671875
10.04936328125,-1.42863671875,5.81540234375,8.36937890625,-0.211281249999999,-2.46103515625,-6.0436171875,6.164140625,0.705554687499998,-4.642046875,-3.6358125,-1.7035546875,10.71951953125,2.174765625,-2.58709375,-3.270703125,1.66871875,6.859109375,-0.724507812499999,0.415414062500002,2.577734375,0.0861132812499998,4.01110546875,5.0643203125,1.7488515625,-1.08908203125,4.21833203125,8.45702734375,12.922390625,6.62538671875
10.88836328125,-0.50163671875,7.31740234375,7.56237890625,-2.07428125,-4.63003515625,-7.2476171875,7.060140625,-1.8184453125,-7.152046875,-5.7718125,-1.6565546875,7.93851953125,0.193765625000003,-4.65509375,-4.937703125,1.30571875,5.169109375,-2.4585078125,-1.0395859375,1.934734375,-1.64788671875,2.90610546875,4.1953203125,1.6198515625,-0.852082031249999,3.49533203125,8.73602734375,13.462390625,7.65438671875
9.89536328125,-0.74663671875,7.15240234375,6.61937890625,-3.96428125,-7.10203515625,-8.5236171875,6.945140625,-4.5014453125,-9.606046875,-8.2268125,-2.1855546875,4.49551953125,-2.351234375,-7.07909375,-6.645703125,0.224718750000001,2.351109375,-4.7475078125,-3.0095859375,0.825734375,-3.76088671875,0.906105468750001,2.5203203125,0.841851562499999,-0.85608203125,1.98533203125,8.34402734375,13.311390625,7.95838671875
7.58336328125,-1.82763671875,5.88540234375,5.99137890625,-5.05728125,-8.99503515625,-9.4576171875,5.908140625,-6.3764453125,-11.067046875,-10.1878125,-3.1005546875,1.06151953125,-4.524234375,-8.89709375,-7.833703125,-1.29628125,-0.789890625,-6.7495078125,-4.7295859375,-0.377265625000001,-5.86588671875,-1.34989453125,0.6943203125,-0.261148437500001,-1.10208203125,0.15633203125,7.18102734375,12.401390625,7.40038671875
4.80236328125,-3.09763671875,4.49840234375,5.87437890625,-4.81928125,-9.58803515625,-9.6576171875,4.422140625,-6.8094453125,-10.903046875,-10.9438125,-3.9525546875,-1.81448046875,-5.536234375,-9.34509375,-8.093703125,-2.81728125,-3.375890625,-7.6995078125,-5.5165859375,-1.281265625,-7.60088671875,-3.21289453125,-0.598679687500001,-1.3121484375,-1.35108203125,-1.45566796875,5.32502734375,10.841390625,6.13538671875
2.50236328125,-3.87563671875,3.92440234375,6.15837890625,-3.23528125,-8.59403515625,-8.9086171875,3.129140625,-5.7034453125,-9.012046875,-10.1388125,-4.2665546875,-3.78448046875,-5.028234375,-8.14409375,-7.334703125,-3.87428125,-4.780890625,-7.1975078125,-5.0215859375,-1.637265625,-8.72788671875,-4.24089453125,-0.911679687500001,-2.0031484375,-1.27408203125,-2.45666796875,3.02902734375,8.897390625,4.53438671875
1.46236328125,-3.72163671875,4.60940234375,6.59137890625,-0.782281249999999,-6.23203515625,-7.2256171875,2.564140625,-3.4614453125,-5.816046875,-7.8598125,-3.7455546875,-4.67748046875,-3.163234375,-5.54209375,-5.762703125,-4.12328125,-4.844890625,-5.3205078125,-3.3225859375,-1.402265625,-9.18188671875,-4.30189453125,-0.1606796875,-2.1631484375,-0.65808203125,-2.71266796875,0.627027343749999,6.908390625,3.02338671875
2.06936328125,-2.58463671875,6.35940234375,6.99437890625,1.79071875,-3.09903515625,-4.7906171875,2.955140625,-0.754445312500001,-2.061046875,-4.5608125,-2.3615546875,-4.44648046875,-0.524234374999997,-2.14909375,-3.706703125,-3.43028125,-3.873890625,-2.5455078125,-0.833585937499999,-0.712265625000001,-9.06988671875,-3.55989453125,1.3963203125,-1.7621484375,0.43691796875,-2.34066796875,-1.60597265625,5.164390625,1.90338671875
4.15536328125,-0.77563671875,8.51540234375,7.34137890625,3.78971875,0.0939648437500011,-1.8946171875,4.124140625,1.7415546875,1.470953125,-0.866812500000002,-0.345554687499998,-3.16948046875,2.134765625,1.34290625,-1.440703125,-1.90728125,-2.434890625,0.4724921875,1.8984140625,0.224734374999999,-8.63388671875,-2.34989453125,3.3073203125,-0.876148437500001,1.66091796875,-1.60366796875,-3.56297265625,3.810390625,1.23538671875
6.98236328125,1.19636328125,10.30740234375,7.66137890625,4.82271875,2.75796484375,1.0853828125,5.533140625,3.5375546875,4.204953125,2.6361875,1.8934453125,-1.10448046875,4.166765625,4.38490625,0.887296874999999,0.113718750000002,-1.078890625,3.1504921875,4.3904140625,1.228734375,-8.17488671875,-1.02889453125,5.0973203125,0.354851562499999,2.49591796875,-0.79566796875,-5.31697265625,2.828390625,0.82838671875
9.49036328125,2.83536328125,11.16740234375,7.93137890625,4.88371875,4.56196484375,3.7343828125,6.500140625,4.4055546875,5.892953125,5.5151875,3.8634453125,1.29951953125,5.229765625,6.68290625,3.165296875,2.14471875,-0.146890625000001,5.1364921875,6.3184140625,2.197734375,-7.97088671875,0.12610546875,6.4013203125,1.7338515625,2.46391796875,-0.15966796875,-7.02797265625,2.087390625,0.359386718750001
10.77836328125,3.84636328125,10.91140234375,8.08137890625,4.24471875,5.42896484375,5.6763828125,6.530140625,4.3725546875,6.588953125,7.5001875,5.1154453125,3.45351953125,5.333765625,8.15790625,5.176296875,3.66671875,0.284109375,6.3144921875,7.4944140625,3.068734375,-8.20688671875,0.93710546875,7.0033203125,2.9918515625,1.36091796875,0.15033203125,-8.79197265625,1.449390625,-0.438613281249999
10.52936328125,4.20136328125,9.73640234375,8.05537890625,3.26971875,5.45996484375,6.6553828125,5.560140625,3.6645546875,6.530953125,8.4541875,5.3884453125,4.78551953125,4.745765625,8.84790625,6.548296875,4.29171875,0.327109374999999,6.7364921875,7.8374140625,3.755734375,-8.91888671875,1.29810546875,6.8403203125,3.8198515625,-0.59508203125,0.0713320312499999,-10.51197265625,0.854390624999999,-1.59161328125
9.10736328125,4.07936328125,8.11340234375,7.84837890625,2.25871875,4.84696484375,6.5603828125,3.962140625,2.6185546875,6.003953125,8.3771875,4.7344453125,4.92951953125,3.844765625,8.82690625,6.892296875,3.91071875,0.172109375,6.5264921875,7.3724140625,4.147734375,-9.96488671875,1.17910546875,5.9953203125,3.9718515625,-2.78108203125,-0.36966796875,-11.88197265625,0.350390624999999,-2.83461328125
7.31136328125,3.74136328125,6.66540234375,7.48237890625,1.40771875,3.82496484375,5.4623828125,2.366140625,1.5845546875,5.238953125,7.4291875,3.5274453125,3.84951953125,2.973765625,8.17890625,6.024296875,2.74871875,0.00110937500000041,5.8414921875,6.2704140625,4.165734375,-11.04088671875,0.64210546875,4.6833203125,3.4008515625,-4.39108203125,-1.05866796875,-12.51097265625,0.0543906249999981,-3.72961328125
5.98136328125,3.43736328125,6.02540234375,6.98737890625,0.837718750000001,2.63396484375,3.6463828125,1.410140625,0.826554687499996,4.379953125,5.9111875,2.3054453125,1.83051953125,2.339765625,7.03290625,4.138296875,1.26571875,-0.071890625,4.8404921875,4.8314140625,3.833734375,-11.76688671875,-0.144894531249999,3.2063203125,2.3148515625,-4.77608203125,-1.83266796875,-12.12397265625,0.0573906249999983,-3.89861328125
5.64936328125,3.36136328125,6.63540234375,6.40137890625,0.647718750000001,1.48596484375,1.5913828125,1.506140625,0.491554687499999,3.500953125,4.1851875,1.5074453125,-0.630480468750001,1.979765625,5.58890625,1.783296875,-0.0452812499999986,-0.0258906250000006,3.6824921875,3.4044140625,3.289734375,-11.82088671875,-0.955894531249999,1.8543203125,1.1098515625,-3.72908203125,-2.53166796875,-10.73997265625,0.354390624999999,-3.22061328125
6.38336328125,3.62636328125,8.49340234375,5.78637890625,0.910718750000001,0.548964843750001,-0.190617187499999,2.643140625,0.636554687499999,2.656953125,2.5841875,1.2624453125,-2.95648046875,1.818765625,4.11990625,-0.356703125000001,-0.861281249999998,0.0981093749999999,2.5344921875,2.2924140625,2.725734375,-11.05388671875,-1.55889453125,0.837320312499999,0.2048515625,-1.55308203125,-3.05166796875,-8.67497265625,0.853390624999999,-1.85161328125
7.88336328125,4.28036328125,11.06640234375,5.26637890625,1.64071875,-0.0460351562499994,-1.3406171875,4.404140625,1.2795546875,1.941953125,1.3601875,1.3934453125,-4.58348046875,1.775765625,2.92790625,-1.731703125,-1.12028125,0.268109375,1.5804921875,1.6914140625,2.309734375,-9.53288671875,-1.77189453125,0.2563203125,-0.113148437500001,1.11791796875,-3.35066796875,-6.38697265625,1.447390625,-0.0846132812500002
9.74436328125,5.34636328125,13.52440234375,5.06837890625,2.72671875,-0.189035156249998,-1.7346171875,6.230140625,2.4115546875,1.501953125,0.667187499999999,1.6044453125,-5.02848046875,1.848765625,2.26790625,-2.110703125,-0.992281249999998,0.522109374999999,1.0164921875,1.6824140625,2.122734375,-7.50388671875,-1.49689453125,0.1343203125,0.2368515625,3.63191796875,-3.41366796875,-4.25797265625,2.088390625,1.81938671875
11.66436328125,6.84236328125,15.18240234375,5.48237890625,3.92771875,0.214964843750002,-1.4556171875,7.749140625,3.9435546875,1.501953125,0.570187499999999,1.7014453125,-4.00448046875,2.130765625,2.27490625,-1.605703125,-0.744281249999998,0.984109374999999,0.996492187500001,2.2454140625,2.173734375,-5.28688671875,-0.734894531249999,0.4483203125,1.1488515625,5.59091796875,-3.19866796875,-2.44897265625,2.813390625,3.73138671875
13.40636328125,8.72636328125,15.81140234375,6.69037890625,4.95171875,1.19796484375,-0.719617187499999,8.907140625,5.6655546875,2.040953125,1.0461875,1.6794453125,-1.57948046875,2.753765625,2.91690625,-0.562703125000001,-0.582281249999998,1.802109375,1.5854921875,3.2854140625,2.441734375,-3.17788671875,0.42710546875,1.1673203125,2.4218515625,6.92591796875,-2.63966796875,-0.904972656250001,3.697390625,5.63138671875
14.65536328125,10.78836328125,15.61440234375,8.55037890625,5.59471875,2.66696484375,0.187382812500001,9.817140625,7.2675546875,3.081953125,1.9841875,1.6584453125,1.70951953125,3.795765625,3.99790625,0.599296874999999,-0.566281249999998,3.060109375,2.7104921875,4.6384140625,2.925734375,-1.38588671875,1.83110546875,2.2363203125,3.8338515625,7.78091796875,-1.70666796875,0.532027343749998,4.776390625,7.51438671875
15.01136328125,12.59736328125,14.92940234375,10.55537890625,5.81771875,4.35396484375,1.0203828125,10.547140625,8.4515546875,4.415953125,3.1711875,1.7364453125,4.95051953125,5.192765625,5.20090625,1.515296875,-0.618281249999999,4.696109375,4.1324921875,6.0574140625,3.618734375,-0.0208867187500004,3.25210546875,3.5243203125,5.1548515625,8.30091796875,-0.49466796875,1.92902734375,5.971390625,9.29038671875
14.15736328125,13.56436328125,13.89740234375,12.01237890625,5.70271875,5.84196484375,1.6403828125,10.977140625,9.0325546875,5.701953125,4.3001875,1.8644453125,7.16951953125,6.688765625,6.16890625,1.930296875,-0.623281249999998,6.462109375,5.4744921875,7.1954140625,4.428734375,0.868113281249999,4.40510546875,4.7663203125,6.1308515625,8.47291796875,0.73033203125,3.14602734375,7.061390625,10.75238671875
12.00736328125,13.12636328125,12.29840234375,12.36237890625,5.32171875,6.67196484375,1.9873828125,10.790140625,8.9775546875,6.560953125,5.0351875,1.8194453125,7.74451953125,7.884765625,6.57990625,1.697296875,-0.529281249999999,7.960109375,6.3214921875,7.6704140625,5.138734375,1.25011328125,4.98510546875,5.5893203125,6.4918515625,8.13091796875,1.59533203125,3.86002734375,7.729390625,11.63238671875
8.70236328125,10.96936328125,9.67340234375,11.40337890625,4.65871875,6.50696484375,1.9713828125,9.573140625,8.3855546875,6.712953125,5.1221875,1.3064453125,6.65151953125,8.372765625,6.23690625,0.776296875,-0.374281249999999,8.758109375,6.3674921875,7.1974140625,5.460734375,1.11911328125,4.77010546875,5.6413203125,6.0338515625,7.09491796875,1.77433203125,3.75102734375,7.697390625,11.72938671875
4.54236328125,7.19336328125,5.68340234375,9.34737890625,3.64471875,5.29096484375,1.4233828125,7.054140625,7.4795546875,6.084953125,4.4911875,0.143445312500001,4.41851953125,7.913765625,5.13890625,-0.756703125000001,-0.243281249999999,8.549109375,5.5454921875,5.7414140625,5.179734375,0.52911328125,3.72410546875,4.7553203125,4.7258515625,5.38591796875,1.14433203125,2.74902734375,6.875390625,11.02638671875
-0.0456367187500009,2.35536328125,0.478402343749999,6.69237890625,2.29471875,3.29996484375,0.200382812500001,3.364140625,6.5655546875,4.862953125,3.2781875,-1.5785546875,1.83051953125,6.556765625,3.50390625,-2.704703125,-0.213281249999998,7.271109375,4.0494921875,3.5644140625,4.264734375,-0.36188671875,2.03710546875,3.0713203125,2.7488515625,3.33191796875,-0.13466796875,1.16602734375,5.440390625,9.73038671875
-4.50663671875,-2.65063671875,-5.18059765625,4.01737890625,0.827718750000001,1.06396484375,-1.6566171875,-0.870859374999998,5.9475546875,3.447953125,1.7871875,-3.4695546875,-0.42648046875,4.643765625,1.71690625,-4.769703125,-0.322281249999998,5.166109375,2.2674921875,1.1644140625,2.899734375,-1.30988671875,0.0851054687499992,1.0123203125,0.469851562499999,1.50091796875,-1.66266796875,-0.387972656250001,3.776390625,8.19838671875
-8.19463671875,-6.80963671875,-10.13159765625,1.80437890625,-0.332281249999999,-0.788035156249999,-3.8306171875,-4.699859375,5.8065546875,2.345953125,0.433187499999999,-4.9745546875,-1.94648046875,2.716765625,0.242906249999999,-6.571703125,-0.566281249999998,2.749109375,0.683492187500001,-0.8545859375,1.435734375,-2.07288671875,-1.65089453125,-0.829679687500001,-1.6441484375,0.46291796875,-2.93266796875,-1.28497265625,2.322390625,6.80138671875
-10.45363671875,-9.24763671875,-13.20959765625,0.359378906249999,-0.72228125,-1.72203515625,-5.7526171875,-7.166859375,6.1195546875,2.006953125,-0.349812500000001,-5.5975546875,-2.56148046875,1.334765625,-0.50609375,-7.694703125,-0.892281249999998,0.650109375,-0.252507812499999,-1.9415859375,0.301734374999999,-2.51688671875,-2.71489453125,-1.8766796875,-3.1181484375,0.50791796875,-3.49766796875,-1.19297265625,1.388390625,5.78638671875
-10.78063671875,-9.48563671875,-13.65059765625,-0.194621093750001,-0.0882812499999996,-1.47003515625,-6.7606171875,-7.622859375,6.6755546875,2.644953125,-0.229812500000001,-5.1165546875,-2.23648046875,0.866765625000003,-0.30009375,-7.781703125,-1.17528125,-0.614890625000001,-0.2585078125,-1.7595859375,-0.117265625000002,-2.66988671875,-2.82689453125,-1.7626796875,-3.5871484375,1.47391796875,-3.12466796875,-0.235972656250002,1.062390625,5.20538671875
-9.05563671875,-7.61463671875,-11.40059765625,0.093378906249999,1.42271875,-0.114035156249999,-6.3466171875,-5.948859375,7.1715546875,4.139953125,0.889187499999998,-3.6775546875,-1.05948046875,1.346765625,0.83090625,-6.679703125,-1.23028125,-0.854890624999999,0.6774921875,-0.298585937499999,0.379734374999998,-2.68688671875,-1.99489453125,-0.460679687500001,-2.9261484375,2.81391796875,-1.87066796875,1.10702734375,1.221390625,4.92838671875
-5.72463671875,-4.27863671875,-7.21959765625,0.99537890625,3.31371875,1.96296484375,-4.3906171875,-2.633859375,7.3725546875,6.083953125,2.8351875,-1.7055546875,0.670519531249999,2.494765625,2.61290625,-4.553703125,-0.885281249999998,-0.232890625,2.3144921875,2.1134140625,1.726734375,-2.73888671875,-0.491894531250001,1.7153203125,-1.3141484375,3.88491796875,-0.0436679687499995,2.28102734375,1.638390625,4.75138671875
-1.70263671875,-0.43363671875,-2.45359765625,2.16237890625,4.98771875,4.25796484375,-1.2166171875,1.358140625,7.2635546875,7.995953125,5.2451875,0.314445312500002,2.42051953125,3.881765625,4.65590625,-1.850703125,-0.0962812499999988,0.887109375,4.2764921875,4.9264140625,3.586734375,-2.89088671875,1.28110546875,4.2433203125,0.806851562499999,4.29891796875,1.92733203125,2.93002734375,2.099390625,4.53838671875
2.04136328125,3.03936328125,1.50040234375,3.28637890625,6.04371875,6.35096484375,2.5833828125,4.959140625,7.1125546875,9.543953125,7.7071875,2.0684453125,3.58951953125,5.143765625,6.60590625,0.868296874999999,0.991718750000002,2.161109375,6.2054921875,7.5614140625,5.478734375,-3.06088671875,2.97910546875,6.5823203125,2.8968515625,4.12091796875,3.65833203125,3.01302734375,2.485390625,4.29638671875
4.94036328125,5.65036328125,3.80240234375,4.24537890625,6.41471875,8.03696484375,6.4013828125,7.407140625,7.3555546875,10.652953125,9.8831875,3.4864453125,3.77451953125,6.114765625,8.24690625,3.156296875,2.09971875,3.404109375,7.8694921875,9.5874140625,6.947734375,-3.09188671875,4.41510546875,8.3383203125,4.5168515625,3.80191796875,4.92033203125,2.73502734375,2.766390625,4.13638671875
6.97336328125,7.37436328125,4.47940234375,5.10937890625,6.32071875,9.31096484375,9.7493828125,8.474140625,8.3385546875,11.445953125,11.5801875,4.6624453125,2.94951953125,6.852765625,9.50990625,4.815296875,2.95071875,4.604109375,9.1804921875,10.8374140625,7.741734375,-2.87788671875,5.56610546875,9.3533203125,5.4888515625,3.87191796875,5.66233203125,2.37002734375,2.953390625,4.15838671875
8.39936328125,8.48836328125,4.26740234375,5.98737890625,6.09671875,10.26896484375,12.2553828125,8.407140625,10.0835546875,12.091953125,12.7411875,5.6674453125,1.48451953125,7.546765625,10.41590625,5.882296875,3.38471875,5.816109375,10.1594921875,11.3944140625,7.872734375,-2.46088671875,6.49910546875,9.6823203125,5.9098515625,4.59891796875,5.94833203125,2.11602734375,3.042390625,4.33438671875
9.40536328125,9.30136328125,4.10640234375,6.86937890625,6.01371875,10.98396484375,13.6623828125,7.727140625,12.2265546875,12.665953125,13.3901875,6.4264453125,-0.00248046875000085,8.368765625,11.00990625,6.500296875,3.37371875,7.049109375,10.8594921875,11.4914140625,7.557734375,-2.03688671875,7.26410546875,9.4943203125,6.0158515625,5.80791796875,5.87133203125,2.02802734375,2.984390625,4.48538671875
9.93136328125,9.93836328125,4.60140234375,7.60537890625,6.19671875,11.44996484375,13.8943828125,7.005140625,14.1845546875,13.117953125,13.5731875,6.7224453125,-0.855480468750001,9.344765625,11.32290625,6.790296875,2.98871875,8.196109375,11.3084921875,11.3544140625,7.067734375,-1.86288671875,7.82810546875,8.9713203125,5.9998515625,6.97791796875,5.50633203125,2.03702734375,2.708390625,4.36838671875
9.77436328125,10.29436328125,5.71240234375,8.00437890625,6.64171875,11.61396484375,13.1233828125,6.681140625,15.4355546875,13.338953125,13.3481875,6.3464453125,-0.62948046875,10.329765625,11.39390625,6.819296875,2.35171875,9.060109375,11.5164921875,11.1274140625,6.614734375,-2.13388671875,8.09810546875,8.2693203125,5.9288515625,7.54791796875,4.92233203125,2.02402734375,2.185390625,3.81838671875
8.84436328125,10.13836328125,6.81240234375,7.96437890625,7.27471875,11.46096484375,11.7383828125,6.943140625,15.7475546875,13.267953125,12.8291875,5.2774453125,0.72951953125,11.093765625,11.30090625,6.660296875,1.64671875,9.453109375,11.5164921875,10.8864140625,6.324734375,-2.87388671875,8.02610546875,7.5513203125,5.7988515625,7.25991796875,4.21833203125,1.89802734375,1.491390625,2.87538671875
7.39436328125,9.33136328125,7.10240234375,7.54337890625,7.97871875,11.07196484375,10.2413828125,7.729140625,15.2285546875,12.950953125,12.2071875,3.7824453125,2.82651953125,11.433765625,11.16990625,6.446296875,1.10671875,9.279109375,11.3914921875,10.6984140625,6.284734375,-3.91788671875,7.66410546875,6.9993203125,5.6358515625,6.31391796875,3.51833203125,1.63902734375,0.791390624999998,1.79038671875
6.06736328125,7.99336328125,6.12840234375,6.94437890625,8.56771875,10.59896484375,9.1063828125,8.849140625,14.1925546875,12.495953125,11.6991875,2.3614453125,4.92551953125,11.239765625,11.11390625,6.363296875,0.982718750000002,8.565109375,11.2264921875,10.6244140625,6.561734375,-4.99788671875,7.13810546875,6.7623203125,5.5358515625,5.26291796875,2.91633203125,1.28402734375,0.257390624999999,0.920386718750001
5.61336328125,6.50836328125,4.08840234375,6.39437890625,8.77271875,10.17196484375,8.6313828125,10.114140625,12.9525546875,11.989953125,11.4551875,1.5844453125,6.18851953125,10.503765625,11.16290625,6.562296875,1.46271875,7.427109375,11.0384921875,10.6824140625,7.183734375,-5.89188671875,6.55110546875,6.8613203125,5.6048515625,4.69891796875,2.41833203125,0.866027343749998,-0.0476093750000004,0.54038671875
6.39636328125,5.31736328125,1.71340234375,5.98037890625,8.31671875,9.81396484375,8.8253828125,11.370140625,11.6705546875,11.450953125,11.4941875,1.8804453125,5.94951953125,9.297765625,11.22990625,7.078296875,2.61171875,6.020109375,10.7554921875,10.8084140625,8.086734375,-6.55788671875,5.91410546875,7.1343203125,5.8718515625,4.94091796875,1.93433203125,0.355027343749999,-0.230609375,0.69338671875
8.01336328125,4.63736328125,-0.196597656250001,5.55737890625,7.04271875,9.41996484375,9.4113828125,12.457140625,10.3695546875,10.827953125,11.6841875,3.3474453125,3.93351953125,7.754765625,11.14190625,7.778296875,4.31871875,4.495109375,10.2464921875,10.8394140625,9.081734375,-7.16688671875,5.14410546875,7.2743203125,6.2268515625,5.88491796875,1.30833203125,-0.352972656250001,-0.534609375,1.15638671875
9.36136328125,4.26936328125,-1.28759765625,4.82537890625,5.01971875,8.80496484375,9.9723828125,13.188140625,9.0535546875,10.044953125,11.7731875,5.6364453125,0.382519531249999,6.036765625,10.70190625,8.378296875,6.29371875,2.976109375,9.3824921875,10.5504140625,9.869734375,-8.01088671875,4.11410546875,6.9473203125,6.4428515625,7.08491796875,0.388332031250001,-1.39897265625,-1.228609375,1.54938671875
9.13736328125,3.66436328125,-1.88659765625,3.53037890625,2.54371875,7.78696484375,10.1323828125,13.370140625,7.8095546875,9.045953125,11.4601875,7.9904453125,-3.94648046875,4.279765625,9.75290625,8.502296875,8.09271875,1.517109375,8.0884921875,9.7164140625,10.115734375,-9.33588671875,2.71710546875,5.9393203125,6.2538515625,7.98191796875,-0.91966796875,-2.88397265625,-2.474609375,1.51338671875
6.49636328125,2.23536328125,-2.74759765625,1.64637890625,0.0247187499999999,6.27396484375,9.6363828125,12.835140625,6.7915546875,7.800953125,10.5081875,9.4954453125,-7.91748046875,2.562765625,8.23390625,7.805296875,9.20171875,0.0891093749999996,6.3804921875,8.2234140625,9.575734375,-11.18888671875,0.932105468750001,4.2663203125,5.4818515625,8.16091796875,-2.60066796875,-4.78497265625,-4.234609375,0.87638671875
1.53236328125,-0.25363671875,-4.44459765625,-0.549621093750002,-2.17728125,4.32896484375,8.3523828125,11.514140625,6.1245546875,6.332953125,8.8531875,9.4904453125,-10.35048046875,0.906765625000002,6.22090625,6.123296875,9.18871875,-1.401890625,4.3874921875,6.1584140625,8.218734375,-13.36688671875,-1.14389453125,2.1893203125,4.1318515625,7.49591796875,-4.51266796875,-6.89297265625,-6.261609375,-0.288613281250001
-4.65863671875,-3.47663671875,-6.86759765625,-2.54962109375,-3.85428125,2.17696484375,6.2733828125,9.548140625,5.8335546875,4.740953125,6.6571875,7.8824453125,-10.48548046875,-0.676234374999998,3.93590625,3.584296875,7.89171875,-3.014890625,2.3404921875,3.8084140625,6.252734375,-15.48788671875,-3.29989453125,0.1143203125,2.3978515625,6.14891796875,-6.40766796875,-8.84197265625,-8.176609375,-1.71261328125
-10.37663671875,-6.62563671875,-9.21459765625,-3.78762109375,-4.94728125,0.157964843750001,3.5953828125,7.348140625,5.8835546875,3.234953125,4.2721875,5.1794453125,-8.37048046875,-2.095234375,1.72990625,0.604296874999999,5.54971875,-4.640890625,0.5374921875,1.5714140625,4.049734375,-17.13888671875,-5.24589453125,-1.5616796875,0.578851562499999,4.44191796875,-7.99066796875,-10.22497265625,-9.600609375,-3.05861328125
-14.01163671875,-8.74863671875,-10.50659765625,-3.85962109375,-5.43128125,-1.35203515625,0.7533828125,5.503140625,6.2675546875,2.150953125,2.1591875,2.2144453125,-4.90748046875,-3.123234375,0.00990625000000023,-2.213703125,2.77671875,-5.937890625,-0.702507812499999,-0.156585937499999,2.012734375,-18.02088671875,-6.65689453125,-2.5686796875,-1.0241484375,2.70191796875,-8.99366796875,-10.75597265625,-10.255609375,-4.02861328125
-14.64363671875,-9.13463671875,-10.19659765625,-2.69362109375,-5.22628125,-2.03403515625,-1.6346171875,4.554140625,7.0495546875,1.881953125,0.782187499999999,-0.213554687499999,-1.45848046875,-3.424234375,-0.83909375,-4.248703125,0.346718750000001,-6.426890625,-1.1015078125,-1.0775859375,0.484734374999999,-18.03588671875,-7.23989453125,-2.8166796875,-2.1761484375,1.17491796875,-9.23166796875,-10.38997265625,-10.034609375,-4.42861328125
-12.27063671875,-7.58063671875,-8.43259765625,-0.59062109375,-4.23428125,-1.73203515625,-2.9506171875,4.792140625,8.3025546875,2.718953125,0.474187499999999,-1.5905546875,0.760519531249999,-2.733234375,-0.578093750000001,-5.029703125,-1.12628125,-5.761890625,-0.5175078125,-1.0655859375,-0.311265625000001,-17.30788671875,-6.85389453125,-2.3886796875,-2.7321484375,-0.00208203124999962,-8.64766796875,-9.32297265625,-9.016609375,-4.19961328125
-7.68363671875,-4.46063671875,-5.91459765625,1.89437890625,-2.47928125,-0.530035156249999,-2.8396171875,6.165140625,9.9685546875,4.666953125,1.2921875,-1.7705546875,1.15551953125,-1.063234375,0.78590625,-4.380703125,-1.43028125,-3.996890625,0.939492187500001,-0.209585937499998,-0.299265625,-16.15388671875,-5.61289453125,-1.5106796875,-2.6541484375,-0.77308203125,-7.34966796875,-7.90197265625,-7.456609375,-3.42361328125
-2.21863671875,-0.61363671875,-3.54259765625,4.13237890625,-0.22228125,1.24096484375,-1.4256171875,8.298140625,11.7975546875,7.354953125,2.9481875,-0.931554687499998,-0.127480468750001,1.199765625,2.94590625,-2.504703125,-0.808281249999999,-1.639890625,2.8954921875,1.1934140625,0.429734374999999,-14.98688671875,-3.89389453125,-0.482679687500001,-2.0241484375,-1.13608203125,-5.60366796875,-6.48497265625,-5.729609375,-2.31361328125
2.55136328125,2.91836328125,-2.09859765625,5.61437890625,2.07871875,3.11196484375,0.6793828125,10.587140625,13.4135546875,10.129953125,4.8961875,0.525445312500002,-2.38048046875,3.433765625,5.37290625,0.0462968749999995,0.206718750000002,0.577109374999999,4.8364921875,2.7324140625,1.619734375,-14.17088671875,-2.18889453125,0.4133203125,-1.0411484375,-1.12408203125,-3.77966796875,-5.34997265625,-4.249609375,-1.14061328125
5.24836328125,5.24136328125,-2.02359765625,6.10837890625,3.94071875,4.63596484375,2.6603828125,12.385140625,14.5075546875,12.302953125,6.5421875,2.0884453125,-4.65848046875,5.051765625,7.48990625,2.550296875,1.05071875,2.047109375,6.3034921875,4.0124140625,2.887734375,-13.87888671875,-0.90689453125,1.0083203125,0.00785156249999908,-0.79208203125,-2.24666796875,-4.67697265625,-3.352609375,-0.150613281250001
5.19936328125,5.93436328125,-3.26759765625,5.74637890625,5.03971875,5.54496484375,3.9203828125,13.238140625,15.0015546875,13.400953125,7.4611875,3.2664453125,-6.10448046875,5.737765625,8.86590625,4.374296875,1.37971875,2.543109375,7.0554921875,4.7654140625,3.834734375,-14.02888671875,-0.238894531250001,1.2593203125,0.821851562499999,-0.211082031249999,-1.27266796875,-4.56197265625,-3.205609375,0.49538671875
2.74436328125,5.19836328125,-5.27959765625,4.97537890625,5.30571875,5.81396484375,4.3613828125,13.034140625,15.0835546875,13.335953125,7.5351875,3.7314453125,-6.17948046875,5.540765625,9.34790625,5.209296875,1.19271875,2.254109375,7.1214921875,4.9144140625,4.190734375,-14.35088671875,-0.14089453125,1.2353203125,1.1888515625,0.52391796875,-0.963667968749999,-5.00597265625,-3.755609375,0.737386718750001
-0.90563671875,3.74836328125,-7.20759765625,4.33937890625,4.93271875,5.64496484375,4.3323828125,11.960140625,15.0925546875,12.416953125,6.9711875,3.4384453125,-4.79348046875,4.825765625,9.08290625,5.166296875,0.783718750000002,1.639109375,6.7634921875,4.5934140625,3.941734375,-14.50988671875,-0.39089453125,1.0623203125,1.0798515625,1.28591796875,-1.23866796875,-5.85197265625,-4.737609375,0.60038671875
-4.22963671875,2.44936328125,-8.25359765625,4.21337890625,4.32071875,5.37396484375,4.3683828125,10.352140625,15.3625546875,11.236953125,6.2051875,2.6514453125,-2.29548046875,4.130765625,8.45090625,4.670296875,0.535718750000001,1.214109375,6.3614921875,4.0904140625,3.333734375,-14.23088671875,-0.67889453125,0.886320312499999,0.6508515625,1.92391796875,-1.86666796875,-6.73497265625,-5.753609375,0.16438671875
-6.04563671875,1.91036328125,-8.00759765625,4.66137890625,3.94871875,5.33596484375,4.9003828125,8.549140625,16.0935546875,10.448953125,5.7051875,1.8404453125,0.67851953125,3.953765625,7.90890625,4.212296875,0.670718750000002,1.357109375,6.2504921875,3.7154140625,2.725734375,-13.37788671875,-0.722894531250001,0.8173203125,0.1478515625,2.29391796875,-2.54766796875,-7.16897265625,-6.411609375,-0.46061328125
-5.91163671875,2.24736328125,-6.54459765625,5.48637890625,4.18871875,5.72596484375,6.0523828125,6.812140625,17.2905546875,10.508953125,5.7631875,1.4694453125,3.43051953125,4.547765625,7.80390625,4.093296875,1.10571875,2.181109375,6.5654921875,3.6664140625,2.396734375,-11.97388671875,-0.375894531249999,0.895320312499999,-0.235148437500001,2.30791796875,-3.01966796875,-6.77197265625,-6.469609375,-1.16061328125
-4.16763671875,3.11636328125,-4.26659765625,6.38137890625,5.12371875,6.51396484375,7.5673828125,5.281140625,18.7645546875,11.477953125,6.3881875,1.7654453125,5.39551953125,5.811765625,8.22390625,4.324296875,1.51571875,3.499109375,7.1914921875,3.9554140625,2.426734375,-10.19888671875,0.30210546875,1.0673203125,-0.441148437500001,1.98991796875,-3.15966796875,-5.48797265625,-5.918609375,-1.82961328125
-1.64863671875,3.95436328125,-1.65859765625,7.06337890625,6.49571875,7.46396484375,8.9053828125,3.945140625,20.2065546875,12.991953125,7.3391875,2.6034453125,6.23051953125,7.350765625,8.96690625,4.701296875,1.55671875,4.908109375,7.8384921875,4.4444140625,2.729734375,-8.34588671875,1.06210546875,1.2253203125,-0.533148437500001,1.49791796875,-3.00366796875,-3.64697265625,-4.959609375,-2.35561328125
0.701363281249999,4.26136328125,0.838402343749999,7.35637890625,7.80971875,8.23596484375,9.5163828125,2.710140625,21.3175546875,14.418953125,8.2651875,3.5804453125,5.81751953125,8.658765625,9.65190625,4.989296875,1.08971875,5.962109375,8.1964921875,4.9474140625,3.168734375,-6.75288671875,1.56310546875,1.2603203125,-0.6121484375,1.09191796875,-2.70266796875,-1.79397265625,-3.893609375,-2.61661328125
2.14836328125,3.78636328125,2.78940234375,7.22237890625,8.56871875,8.53196484375,9.1503828125,1.520140625,21.9355546875,15.139953125,8.8711875,4.2584453125,4.28151953125,9.331765625,9.89890625,5.072296875,0.268718750000001,6.356109375,8.0614921875,5.3104140625,3.641734375,-5.70788671875,1.51610546875,1.1113203125,-0.7271484375,1.02891796875,-2.42766796875,-0.430972656250001,-2.987609375,-2.50461328125
2.34936328125,2.59136328125,3.75540234375,6.73237890625,8.47071875,8.21096484375,7.9933828125,0.457140625000001,22.0505546875,14.821953125,9.0241875,4.4034453125,2.01951953125,9.207765625,9.49990625,5.000296875,-0.518281249999998,6.036109375,7.4124921875,5.4524140625,4.089734375,-5.35188671875,0.83610546875,0.7873203125,-0.848148437500001,1.43491796875,-2.29266796875,0.144027343749999,-2.397609375,-2.00261328125
1.45336328125,1.00236328125,3.46040234375,6.01637890625,7.48471875,7.35396484375,6.5903828125,-0.214859375,21.7125546875,13.541953125,8.7601875,4.1054453125,-0.310480468750001,8.364765625,8.50290625,4.922296875,-0.804281249999999,5.201109375,6.3904921875,5.3474140625,4.451734375,-5.62688671875,-0.29389453125,0.3423203125,-0.9001484375,2.19791796875,-2.32966796875,-0.156972656250002,-2.170609375,-1.27061328125
0.164363281249999,-0.48863671875,2.04740234375,5.24237890625,5.77571875,6.22696484375,5.6653828125,-0.0638593749999998,20.9065546875,11.727953125,8.1921875,3.7084453125,-1.92848046875,7.025765625,7.18090625,4.984296875,-0.193281249999998,4.182109375,5.2214921875,4.9714140625,4.599734375,-6.29588671875,-1.49189453125,-0.1706796875,-0.8361484375,2.95991796875,-2.51466796875,-1.33397265625,-2.309609375,-0.676613281250001
-0.39463671875,-1.38463671875,0.120402343749999,4.62637890625,3.57171875,5.16496484375,5.9483828125,1.439140625,19.5405546875,9.942953125,7.4121875,3.6304453125,-2.19448046875,5.412765625,5.89790625,5.251296875,1.51871875,3.284109375,4.1074921875,4.2574140625,4.338734375,-7.04988671875,-2.34989453125,-0.7466796875,-0.6961484375,3.24491796875,-2.81066796875,-3.40597265625,-2.823609375,-0.69661328125
0.854363281249999,-1.37363671875,-1.56659765625,4.38437890625,1.06071875,4.42296484375,7.9453828125,4.700140625,17.5255546875,8.630953125,6.4481875,4.1634453125,-0.855480468750001,3.660765625,4.94690625,5.693296875,4.30571875,2.663109375,3.1474921875,3.1144140625,3.495734375,-7.63588671875,-2.62989453125,-1.4306796875,-0.585148437500001,2.68591796875,-3.19266796875,-6.40397265625,-3.723609375,-1.70061328125
4.28636328125,-0.47263671875,-2.57259765625,4.60537890625,-1.62728125,4.06496484375,11.6643828125,9.694140625,14.9005546875,7.927953125,5.3071875,5.3464453125,1.86151953125,1.824765625,4.42190625,6.229296875,7.92371875,2.308109375,2.3354921875,1.5284140625,2.047734375,-7.96288671875,-2.34489453125,-2.2546796875,-0.588148437500001,1.22691796875,-3.63966796875,-10.24097265625,-4.972609375,-3.73161328125
9.20836328125,0.96336328125,-3.03459765625,5.13937890625,-4.39428125,3.95996484375,16.4693828125,15.792140625,11.8925546875,7.644953125,4.0501875,6.9514453125,5.33551953125,-0.0602343749999985,4.19190625,6.795296875,11.97571875,2.101109375,1.6024921875,-0.347585937499998,0.211734374999999,-8.11088671875,-1.72089453125,-3.1856796875,-0.691148437500001,-0.81108203125,-4.11766796875,-14.58997265625,-6.431609375,-6.41361328125
9.20836328125,0.96336328125,-3.03459765625,5.13937890625,-4.39428125,3.95996484375,16.4693828125,15.792140625,11.8925546875,7.644953125,4.0501875,6.9514453125,5.33551953125,-0.0602343749999985,4.19190625,6.795296875,11.97571875,2.101109375,1.6024921875,-0.347585937499998,0.211734374999999,-8.11088671875,-1.72089453125,-3.1856796875,-0.691148437500001,-0.81108203125,-4.11766796875,-14.58997265625,-6.431609375,-6.41361328125
