"Fp1","Fpz","Fp2","F7","F3","Fz","F4","F8","FC5","FC1","FC2","FC6","T7","C3","Cz","C4","T8","CP5","CP1","CP2","CP6","P7","P3","Pz","P4","P8","POz","O1","Oz","O2"
-8.1952890625,-14.4428671875,-10.71889453125,-10.20691015625,-11.48466796875,-13.37330078125,-1.5356796875,-15.26995703125,-27.93435546875,-12.81946484375,-5.518484375,-5.42716796875,-7.361390625,-16.988578125,-8.186734375,-2.71425390625,-4.9262109375,-7.5679921875,-8.66874609375,-0.8926640625,-2.1234375,-8.00875390625,-5.71767578125,-5.07969921875,4.47023828125,2.6014140625,-7.17494140625,0.1411171875,-3.210578125,-0.705066406250001
-0.8452890625,-6.9208671875,-10.04589453125,-2.54891015625,-3.99766796875,-6.40830078125,2.7483203125,-12.43195703125,-13.46435546875,-5.26546484375,0.402515624999999,0.296832031249999,-1.762390625,-6.339578125,-0.515734375,4.75774609375,-2.4612109375,3.0880078125,2.01525390625,6.2953359375,0.0325625,3.22724609375,6.38632421875,4.95930078125,7.11723828125,-0.9905859375,1.89405859375,9.3401171875,-1.492578125,-7.20906640625
5.4667109375,-1.9318671875,-9.97189453125,2.99008984375,0.79033203125,-2.34630078125,5.3513203125,-10.64995703125,-3.79635546875,0.43253515625,3.626515625,2.80383203125,3.335609375,1.605421875,4.263265625,8.27774609375,-2.6832109375,11.4170078125,9.68125390625,10.2443359375,0.5325625,12.88524609375,15.60532421875,12.32830078125,7.93123828125,-5.9935859375,9.16205859375,17.0491171875,0.217421875,-12.99506640625
10.3847109375,0.0711328124999984,-10.60389453125,6.00308984375,2.76133203125,-1.25330078125,6.1293203125,-9.87395703125,0.574644531250001,3.84353515625,3.973515625,2.24383203125,7.387609375,6.238421875,5.977265625,7.77974609375,-5.0672109375,16.7430078125,14.01625390625,11.0313359375,-0.312437500000001,20.38524609375,21.47332421875,17.01930078125,7.34323828125,-11.4795859375,14.71005859375,23.0261171875,2.321421875,-16.88306640625
13.5897109375,-0.716867187500001,-11.90689453125,6.58408984375,2.53433203125,-2.39530078125,5.2803203125,-9.81495703125,0.491644531250001,4.98253515625,2.072515625,-0.181167968750001,9.783609375,7.617421875,5.316265625,4.46074609375,-8.1242109375,18.8860078125,15.50225390625,9.7623359375,-1.6484375,25.30024609375,24.19732421875,19.75030078125,6.43623828125,-15.7665859375,19.03705859375,27.2191171875,5.165421875,-17.67606640625
14.7637109375,-3.6448671875,-13.73689453125,5.20508984375,1.02233203125,-4.73430078125,3.1193203125,-10.20395703125,-2.42135546875,4.25553515625,-1.004484375,-2.94516796875,10.213609375,6.371421875,3.418265625,0.12274609375,-10.2992109375,18.1690078125,15.03625390625,7.8963359375,-2.6994375,27.37224609375,24.38532421875,21.38230078125,6.24323828125,-17.3575859375,22.56205859375,29.5251171875,8.642421875,-14.91006640625
13.6817109375,-7.8568671875,-15.84389453125,2.58108984375,-0.96066796875,-7.34230078125,0.0263203125000002,-10.94995703125,-6.38635546875,2.33653515625,-4.164484375,-4.95616796875,8.966609375,3.509421875,1.403265625,-3.57425390625,-10.7842109375,15.3600078125,13.52925390625,6.5353359375,-3.2394375,26.60724609375,22.75832421875,22.42730078125,7.15123828125,-15.7785859375,25.24305859375,29.7191171875,12.046421875,-9.27806640625
10.4267109375,-12.4478671875,-17.86789453125,-0.46891015625,-2.86166796875,-9.57830078125,-3.4716796875,-12.11195703125,-9.89935546875,0.00953515625000012,-6.586484375,-5.95116796875,6.881609375,0.200421875,0.0772656250000002,-5.60725390625,-9.8392109375,11.5210078125,11.69925390625,6.0773359375,-3.5994375,23.42124609375,20.01332421875,22.90430078125,8.77023828125,-11.7975859375,26.59605859375,27.6351171875,14.331421875,-2.42506640625
5.5427109375,-16.5168671875,-19.35789453125,-3.17691015625,-4.29866796875,-11.06130078125,-6.6366796875,-13.71895703125,-11.90535546875,-1.96346484375,-7.803484375,-6.36016796875,4.901609375,-2.452578125,-0.163734375,-5.71625390625,-8.4912109375,7.7960078125,10.04825390625,6.3193359375,-4.2304375,18.69624609375,16.79332421875,22.55930078125,10.30323828125,-6.9145859375,26.05205859375,23.4801171875,14.665421875,3.77893359375
-0.0552890625000002,-19.2558671875,-19.87189453125,-4.96791015625,-4.89266796875,-11.57230078125,-8.6136796875,-15.60695703125,-11.81435546875,-2.98346484375,-7.655484375,-6.81316796875,3.546609375,-3.628578125,0.726265625,-4.25325390625,-7.8882109375,5.1350078125,8.92125390625,6.8073359375,-5.2434375,13.64224609375,13.69832421875,21.22630078125,11.07123828125,-2.5395859375,23.41505859375,18.0361171875,12.936421875,8.03793359375
-5.4442890625,-20.1568671875,-19.13489453125,-5.56191015625,-4.20066796875,-10.99230078125,-8.6956796875,-17.41195703125,-9.50635546875,-2.75446484375,-6.241484375,-7.63716796875,2.691609375,-2.994578125,2.518265625,-1.92725390625,-8.6802109375,4.0140078125,8.48925390625,7.1423359375,-6.3064375,9.42924609375,11.19032421875,19.03130078125,10.83823828125,0.6024140625,19.09205859375,12.5371171875,9.887421875,10.06093359375
-10.0422890625,-19.2148671875,-17.21089453125,-5.02991015625,-1.91666796875,-9.36630078125,-6.6926796875,-18.74695703125,-5.41635546875,-1.38746484375,-3.919484375,-8.67516796875,1.829609375,-0.851578125,4.747265625,0.40374609375,-10.7702109375,4.2730078125,8.63825390625,7.0603359375,-6.9684375,6.74324609375,9.43732421875,16.31030078125,9.75923828125,2.5114140625,13.96305859375,8.2071171875,6.755421875,10.41693359375
-13.6262890625,-16.9138671875,-14.58789453125,-3.79691015625,1.75833203125,-7.04330078125,-3.1996796875,-19.44395703125,-0.593355468749999,0.57353515625,-1.352484375,-9.54316796875,0.559609375,1.871421875,6.695265625,1.86174609375,-13.5302109375,5.1520078125,8.84725390625,6.3063359375,-7.1274375,5.43324609375,8.16432421875,13.30630078125,8.05523828125,3.5004140625,8.94905859375,5.6541171875,4.593421875,9.96193359375
-15.9852890625,-13.9748671875,-12.09489453125,-2.51991015625,5.85333203125,-4.73330078125,0.4393203125,-19.71195703125,3.46064453125,2.25753515625,0.503515624999999,-10.08816796875,-1.127390625,3.837421875,7.458265625,1.68674609375,-16.2772109375,5.5190078125,8.19825390625,4.4983359375,-7.2564375,4.48224609375,6.63132421875,9.87030078125,5.70723828125,3.7024140625,4.53405859375,4.4431171875,3.650421875,9.21093359375
-16.6312890625,-11.0458671875,-10.62989453125,-1.83891015625,8.78233203125,-3.34030078125,2.5773203125,-20.07595703125,5.25564453125,2.72853515625,0.614515625,-10.63116796875,-2.966390625,3.737421875,6.186265625,-0.57225390625,-18.6312109375,4.2380078125,5.63225390625,1.1773359375,-8.1714375,2.34824609375,3.84832421875,5.44030078125,2.42523828125,2.8884140625,0.50505859375,3.1651171875,3.191421875,8.04993359375
-14.9752890625,-8.5438671875,-10.74389453125,-2.11491015625,8.98833203125,-3.57230078125,1.9783203125,-21.11795703125,3.94464453125,1.36253515625,-1.714484375,-11.74416796875,-4.782390625,0.826421875,2.487265625,-4.82525390625,-20.5162109375,0.5780078125,0.42825390625,-3.9036640625,-10.4534375,-2.38775390625,-1.02167578125,-0.61869921875,-2.07276171875,0.7434140625,-3.89394140625,0.0561171875000002,1.895421875,5.92593359375
-10.8602890625,-6.6538671875,-12.30989453125,-3.28891015625,5.76333203125,-5.56230078125,-1.5416796875,-23.11395703125,-0.234355468749999,-1.80046484375,-6.375484375,-13.71216796875,-6.670390625,-4.663578125,-3.197734375,-10.31525390625,-21.9192109375,-5.4479921875,-7.30574609375,-10.4186640625,-13.9104375,-10.30975390625,-8.19967578125,-8.48269921875,-7.63676171875,-2.6515859375,-9.45394140625,-6.0908828125,-1.366578125,2.37293359375
-4.9572890625,-5.3858671875,-14.47489453125,-4.92891015625,-0.19866796875,-8.69430078125,-6.9436796875,-25.78295703125,-5.94535546875,-5.93946484375,-12.239484375,-16.11416796875,-8.801390625,-11.464578125,-9.513734375,-15.69825390625,-22.6962109375,-12.9349921875,-16.39474609375,-17.2966640625,-17.4994375,-20.70275390625,-16.97867578125,-17.47669921875,-13.46976171875,-6.5805859375,-16.39894140625,-15.1528828125,-6.816578125,-2.52806640625
1.4167109375,-4.6098671875,-16.01989453125,-6.39591015625,-6.87166796875,-11.76430078125,-12.3486796875,-28.32195703125,-11.19735546875,-9.66346484375,-17.414484375,-17.89316796875,-11.033390625,-17.627578125,-14.546734375,-19.38025390625,-22.5982109375,-20.2239921875,-24.78974609375,-22.9266640625,-19.8344375,-31.53575390625,-25.73667578125,-26.05269921875,-18.30376171875,-9.9595859375,-24.03094140625,-25.4818828125,-13.524578125,-8.03106640625
6.9177109375,-4.1148671875,-15.93589453125,-7.06291015625,-11.60866796875,-13.42730078125,-15.7916796875,-29.70995703125,-14.07335546875,-11.50846484375,-19.927484375,-17.88516796875,-12.681390625,-21.174578125,-16.496734375,-20.02925390625,-21.4522109375,-25.3319921875,-30.18574609375,-25.6706640625,-19.9644375,-39.97975390625,-32.30567578125,-32.20169921875,-20.90176171875,-11.9645859375,-30.80794140625,-34.3758828125,-19.744578125,-13.03706640625
10.7157109375,-3.6798671875,-13.87589453125,-6.52191015625,-12.22866796875,-12.77030078125,-15.9576796875,-29.13495703125,-13.44335546875,-10.49746484375,-18.527484375,-15.43816796875,-12.701390625,-20.778578125,-14.388734375,-17.07525390625,-19.3372109375,-26.5509921875,-30.78574609375,-24.4766640625,-17.8604375,-43.29775390625,-34.61067578125,-34.08869921875,-20.56976171875,-12.5445859375,-34.82594140625,-39.0408828125,-23.636578125,-16.59506640625
12.6477109375,-3.1008671875,-10.21589453125,-4.69391015625,-8.00266796875,-9.71630078125,-12.5756796875,-26.29395703125,-9.34535546875,-6.51146484375,-13.200484375,-10.71016796875,-10.194390625,-16.202578125,-8.468734375,-10.95125390625,-16.6162109375,-23.0109921875,-25.93574609375,-19.2556640625,-14.2814375,-39.82175390625,-31.37267578125,-30.67969921875,-17.38376171875,-12.4325859375,-34.50994140625,-37.6158828125,-23.980578125,-18.30206640625
13.1187109375,-2.1428671875,-5.76789453125,-1.76791015625,-0.0326679687500002,-5.00530078125,-6.3456796875,-21.45295703125,-2.87035546875,-0.31746484375,-5.140484375,-4.50116796875,-4.922390625,-8.332578125,-0.103734375,-2.92525390625,-13.7902109375,-15.0089921875,-16.33774609375,-10.8886640625,-10.1564375,-29.59875390625,-22.59267578125,-22.11169921875,-12.02876171875,-12.6295859375,-29.21694140625,-29.8418828125,-20.584578125,-18.36306640625
12.9697109375,-0.529867187500001,-1.39389453125,1.94208984375,9.18433203125,0.20869921875,1.4533203125,-15.29595703125,4.36264453125,6.72653515625,3.791515625,2.17683203125,2.503609375,1.168421875,8.761265625,5.41374609375,-11.2232109375,-3.9539921875,-3.80374609375,-0.8776640625,-6.0094375,-14.44175390625,-9.62467578125,-9.68869921875,-5.43176171875,-13.6885859375,-19.49594140625,-17.1128828125,-14.224578125,-17.31506640625
13.2697109375,1.9141328125,2.23210546875,6.03508984375,16.76733203125,4.84669921875,9.3713203125,-8.70995703125,10.75264453125,13.10753515625,11.792515625,8.45183203125,10.845609375,10.381421875,16.296265625,12.72674609375,-8.9112109375,8.0350078125,9.29925390625,9.1143359375,-1.8584375,2.63824609375,5.18632421875,4.46430078125,1.55623828125,-15.2715859375,-6.94594140625,-1.9678828125,-6.250578125,-15.62406640625
14.7927109375,4.9711328125,4.65810546875,9.88708984375,20.52733203125,8.16869921875,15.9923203125,-2.63695703125,15.03464453125,17.54453515625,17.628515625,13.64683203125,18.658609375,17.575421875,21.262265625,18.24274609375,-6.5182109375,18.6780078125,20.64225390625,17.6283359375,2.4155625,18.32724609375,19.12632421875,17.91230078125,8.23123828125,-16.2915859375,6.21505859375,12.7221171875,1.874421875,-13.44406640625
17.2787109375,7.8211328125,5.59410546875,12.52608984375,19.60433203125,9.75269921875,20.0413203125,1.97904296875,16.36464453125,19.17953515625,20.743515625,17.12183203125,24.663609375,21.486421875,23.146265625,21.71874609375,-3.7172109375,26.0620078125,28.38625390625,23.5763359375,6.5965625,29.88724609375,29.74432421875,28.42230078125,13.93423828125,-15.5555859375,17.68205859375,24.4811171875,8.888421875,-10.69306640625
19.0427109375,9.1751328125,4.88310546875,12.78308984375,14.53433203125,9.40669921875,20.5893203125,4.26604296875,14.39964453125,17.67653515625,21.078515625,18.19483203125,27.909609375,21.485421875,22.023265625,23.17674609375,-0.5872109375,29.0170078125,31.47825390625,26.3053359375,9.9795625,35.76324609375,35.37432421875,34.41330078125,17.97323828125,-12.5005859375,25.57705859375,31.7271171875,13.866421875,-7.34006640625
17.5447109375,7.8241328125,2.53110546875,9.77808984375,6.85833203125,7.13869921875,17.3873203125,3.59604296875,9.42964453125,13.30553515625,18.860515625,16.31983203125,27.798609375,17.729421875,18.384265625,22.66774609375,2.2687890625,27.3640078125,29.84825390625,25.6743359375,11.6885625,35.85324609375,35.50832421875,35.31930078125,19.77523828125,-7.5205859375,28.89905859375,34.0101171875,16.299421875,-3.62806640625
10.8727109375,3.3141328125,-1.25189453125,3.47008984375,-1.43666796875,3.22969921875,11.1173203125,-0.145957031249999,2.45564453125,6.98553515625,14.554515625,11.45783203125,24.105609375,11.238421875,13.027265625,20.25074609375,4.0207890625,21.9850078125,24.48125390625,22.1673359375,11.2245625,31.43124609375,30.96332421875,31.78830078125,19.19723828125,-1.7125859375,27.84105859375,32.0421171875,16.213421875,-0.0200664062500007
-0.7222890625,-3.6608671875,-6.05289453125,-5.06791015625,-8.44866796875,-1.69930078125,3.3103203125,-6.34495703125,-4.95335546875,0.17753515625,8.913515625,4.35583203125,17.105609375,3.741421875,6.995265625,16.14374609375,4.1227890625,14.6460078125,17.24825390625,16.8893359375,8.8475625,24.73324609375,23.73632421875,25.58630078125,16.77123828125,3.7344140625,23.79005859375,27.5171171875,14.255421875,3.07793359375
-14.3522890625,-11.3958671875,-11.29689453125,-13.87491015625,-12.77566796875,-6.72530078125,-4.1256796875,-13.68195703125,-11.06335546875,-5.46946484375,2.981515625,-3.51216796875,7.768609375,-2.758578125,1.482265625,10.90774609375,2.6407890625,7.5270078125,10.43925390625,11.3583359375,5.5455625,18.30824609375,16.47832421875,19.12130078125,13.64223828125,8.0984140625,18.93005859375,22.6811171875,11.623421875,5.62293359375
-25.6272890625,-17.7958671875,-16.32089453125,-20.76391015625,-13.77366796875,-10.82230078125,-9.5866796875,-20.48895703125,-14.49735546875,-8.60746484375,-2.075484375,-10.40316796875,-2.155390625,-6.581578125,-2.370734375,5.46874609375,0.1887890625,2.5900078125,6.11225390625,7.0793359375,2.6225625,14.29224609375,11.69232421875,14.70830078125,11.19423828125,11.3134140625,15.52105859375,19.6921171875,9.757421875,8.02093359375
-30.8282890625,-21.2068671875,-20.45889453125,-24.16591015625,-11.67266796875,-13.20030078125,-12.3386796875,-25.33995703125,-14.68235546875,-8.61046484375,-5.282484375,-14.95616796875,-10.439390625,-6.864578125,-3.740734375,0.90974609375,-2.4822109375,0.9930078125,5.49625390625,5.0883359375,1.1375625,13.81624609375,10.93332421875,13.82130078125,10.51523828125,13.7674140625,15.11305859375,19.9431171875,9.878421875,10.93893359375
-28.7662890625,-21.0718671875,-23.16689453125,-23.69491015625,-7.46366796875,-13.60130078125,-12.6796796875,-27.58995703125,-12.01335546875,-5.72546484375,-6.188484375,-16.73016796875,-15.160390625,-3.764578125,-2.359734375,-1.91025390625,-4.8842109375,2.7740078125,8.66225390625,5.6363359375,1.4125625,16.71124609375,14.28632421875,16.63230078125,11.94623828125,15.8724140625,18.00405859375,23.5501171875,12.514421875,14.90393359375
-21.1282890625,-18.0778671875,-24.15089453125,-20.14791015625,-2.55066796875,-12.34430078125,-11.5976796875,-27.53195703125,-7.62135546875,-0.92246484375,-5.028484375,-16.27616796875,-15.563390625,1.690421875,1.397265625,-2.71625390625,-6.9042109375,6.9150078125,14.56225390625,8.1543359375,2.8595625,21.60324609375,20.34232421875,21.99430078125,14.92123828125,17.6944140625,23.13705859375,29.2351171875,17.246421875,19.92893359375
-11.1572890625,-13.6668671875,-23.40489453125,-14.94391015625,1.79933203125,-10.07230078125,-10.1586796875,-26.05595703125,-2.83735546875,4.52353515625,-2.576484375,-14.69316796875,-12.388390625,8.012421875,6.658265625,-1.90825390625,-8.5532109375,11.7510078125,21.41825390625,11.5333359375,4.2575625,26.33724609375,26.69232421875,27.90830078125,18.21423828125,18.9004140625,28.48805859375,34.6901171875,22.774421875,25.37493359375
-1.6882890625,-9.1938671875,-21.13689453125,-9.40291015625,4.95833203125,-7.37930078125,-8.9846796875,-24.03995703125,1.37864453125,9.51653515625,0.258515625,-12.93016796875,-7.358390625,13.736421875,12.352265625,-0.29725390625,-9.6242109375,15.5600078125,27.29625390625,14.5913359375,4.4585625,28.58124609375,30.75832421875,32.23730078125,20.51023828125,19.0454140625,31.79405859375,37.3071171875,27.319421875,30.11793359375
6.1087109375,-5.2818671875,-17.63489453125,-4.29691015625,7.07933203125,-4.59130078125,-8.1186796875,-21.89295703125,4.70964453125,13.41953515625,2.825515625,-11.30216796875,-2.237390625,17.770421875,17.485265625,1.35674609375,-9.6422109375,17.0460078125,30.62125390625,16.4793359375,3.1135625,26.38424609375,30.60032421875,33.37030078125,20.97623828125,17.9714140625,31.27305859375,34.9541171875,29.135421875,32.88493359375
12.5647109375,-1.8148671875,-13.19189453125,0.13708984375,8.73133203125,-1.83930078125,-7.2806796875,-19.54795703125,7.32864453125,15.99053515625,4.841515625,-9.52316796875,1.888609375,19.466421875,21.239265625,2.65774609375,-8.2252109375,15.5430078125,30.43825390625,16.7943359375,0.9035625,18.59224609375,25.37632421875,30.54030078125,19.46423828125,15.9394140625,26.06205859375,26.5451171875,26.942421875,32.55093359375
18.3187109375,1.5151328125,-8.14189453125,3.87008984375,10.25633203125,0.707699218749999,-6.2516796875,-16.81895703125,9.48064453125,17.09353515625,6.215515625,-7.18016796875,4.693609375,18.541421875,22.959265625,3.53774609375,-5.5532109375,10.9630078125,26.43325390625,15.4013359375,-0.937437500000001,5.12824609375,15.39232421875,23.79530078125,16.26723828125,13.3854140625,16.27305859375,12.2911171875,20.173421875,28.31393359375
23.1577109375,4.6351328125,-2.88989453125,6.74408984375,11.35133203125,2.67169921875,-5.0636796875,-13.77795703125,11.11664453125,16.52753515625,6.837515625,-4.21516796875,6.246609375,15.021421875,22.193265625,4.00074609375,-2.4682109375,3.7270078125,18.89525390625,12.2463359375,-1.4644375,-12.77075390625,1.92832421875,13.82230078125,11.72123828125,10.5334140625,2.87405859375,-6.2668828125,9.152421875,19.88493359375
25.8307109375,7.0191328125,2.12910546875,8.38708984375,11.22233203125,3.58169921875,-3.8546796875,-10.80495703125,11.84764453125,14.16253515625,6.602515625,-1.04916796875,6.596609375,9.341421875,18.915265625,3.95474609375,-0.0892109375000008,-5.1929921875,8.76125390625,7.3833359375,-0.602437500000001,-32.47575390625,-12.96467578125,1.84530078125,6.04323828125,7.2344140625,-12.41594140625,-26.3528828125,-4.752578125,7.77893359375
24.9097109375,8.1031328125,6.57410546875,8.47508984375,9.24433203125,3.22069921875,-2.5556796875,-8.31295703125,11.25964453125,10.28953515625,5.653515625,1.73983203125,5.639609375,2.468421875,13.791265625,3.32874609375,0.8327890625,-14.2359921875,-2.33374609375,1.2433359375,0.9055625,-50.24775390625,-26.70267578125,-10.41369921875,-0.45876171875,3.1844140625,-27.23294140625,-44.3178828125,-19.137578125,-6.44706640625
19.9927109375,7.8061328125,10.27710546875,7.09008984375,5.62633203125,1.94269921875,-0.7376796875,-6.39795703125,9.36164453125,5.82553515625,4.585515625,3.87283203125,3.309609375,-4.166578125,8.220265625,2.33974609375,0.3707890625,-21.4419921875,-12.25074609375,-5.1696640625,2.0365625,-62.08775390625,-36.59267578125,-20.87969921875,-7.08776171875,-1.6945859375,-38.87994140625,-56.3948828125,-30.981578125,-20.30006640625
12.2717109375,6.6761328125,13.19310546875,4.85308984375,1.55533203125,0.62669921875,2.1563203125,-4.76595703125,6.79464453125,2.11353515625,4.317515625,5.56283203125,-0.0913906249999999,-9.028578125,3.943265625,1.59874609375,-0.6362109375,-24.9949921875,-18.87274609375,-10.4186640625,2.1105625,-64.99775390625,-40.50967578125,-27.54769921875,-12.68776171875,-6.9835859375,-44.95794140625,-59.7938828125,-37.500578125,-30.97006640625
4.0967109375,5.5521328125,15.23610546875,2.64608984375,-1.35866796875,0.202699218749999,6.3143203125,-3.01995703125,4.59764453125,0.35653515625,5.628515625,7.24983203125,-3.711390625,-11.037578125,2.333265625,1.87474609375,-1.1352109375,-23.8999921875,-20.82274609375,-13.1356640625,1.1445625,-58.13775390625,-37.60667578125,-29.07969921875,-15.94476171875,-11.8195859375,-44.12294140625,-53.7058828125,-37.132578125,-36.24906640625
-2.1462890625,4.9971328125,16.12310546875,1.10408984375,-2.01166796875,1.04369921875,11.1553203125,-1.09195703125,3.61364453125,0.97853515625,8.582515625,9.06783203125,-6.322390625,-10.045578125,3.725265625,3.60174609375,-0.5512109375,-18.4609921875,-18.01974609375,-12.6236640625,-0.1994375,-43.24875390625,-28.71267578125,-25.32669921875,-15.91376171875,-15.1745859375,-36.61994140625,-39.6898828125,-30.162578125,-35.28806640625
-5.0892890625,4.8781328125,15.34110546875,0.25408984375,-0.53666796875,2.63669921875,15.3413203125,0.51904296875,3.91764453125,3.29653515625,12.232515625,10.48183203125,-6.870390625,-6.973578125,7.161265625,6.43674609375,0.8237890625,-10.2709921875,-11.76174609375,-9.2216640625,-1.0144375,-24.06875390625,-16.15267578125,-17.46369921875,-12.47576171875,-16.2435859375,-24.27894140625,-21.1958828125,-18.643578125,-28.83806640625
-4.8502890625,4.3851328125,12.30010546875,-0.50291015625,1.60533203125,3.73869921875,17.1923203125,0.869042968750001,4.65764453125,5.69453515625,14.812515625,10.38383203125,-5.130390625,-3.509578125,10.718265625,9.17174609375,2.0147890625,-1.6879921875,-4.28474609375,-4.2586640625,-0.7314375,-5.00475390625,-3.03967578125,-7.67169921875,-6.50876171875,-14.7705859375,-9.96894140625,-2.4208828125,-5.658578125,-18.89606640625
-2.8062890625,2.4581328125,6.60510546875,-2.09091015625,2.25433203125,2.86569921875,15.2933203125,-1.00095703125,4.39464453125,6.26053515625,14.367515625,7.62383203125,-2.012390625,-1.496578125,12.217265625,10.07574609375,1.9587890625,4.9620078125,1.99825390625,0.3803359375,0.4465625,10.29824609375,7.68232421875,1.51830078125,0.30323828125,-11.2145859375,3.26105859375,12.9811171875,5.719421875,-7.98906640625
-0.9082890625,-1.6328671875,-1.66589453125,-5.30291015625,-0.44266796875,-1.09830078125,9.0363203125,-5.61095703125,1.78464453125,3.56253515625,9.542515625,1.66083203125,0.760609375,-2.270578125,10.011265625,7.55674609375,0.1047890625,8.1220078125,5.23525390625,2.8693359375,1.5025625,19.88024609375,14.03732421875,7.94630078125,5.97023828125,-6.6725859375,12.99205859375,22.8021171875,13.325421875,1.57693359375
-0.8782890625,-7.8808671875,-11.83489453125,-10.36691015625,-7.10666796875,-8.40430078125,-1.0566796875,-12.74495703125,-3.71935546875,-2.77246484375,0.184515625,-7.04816796875,1.529609375,-6.203578125,3.524265625,0.88074609375,-3.3632109375,7.4060078125,4.60825390625,2.0313359375,1.0675625,23.63024609375,15.43332421875,10.37530078125,8.82423828125,-2.5165859375,17.96605859375,26.5741171875,16.367421875,8.27793359375
-3.5902890625,-15.4948671875,-22.69389453125,-16.69791015625,-16.75866796875,-18.22030078125,-13.3896796875,-21.45495703125,-11.46935546875,-11.91346484375,-12.496484375,-17.10216796875,-0.391390625,-12.615578125,-6.604734375,-9.37625390625,-7.7122109375,3.5880078125,0.41825390625,-2.3146640625,-1.8344375,22.85524609375,12.60732421875,8.72130078125,8.08023828125,0.1574140625,18.22605859375,25.3141171875,15.403421875,11.62993359375
-8.8512890625,-23.1898671875,-32.79189453125,-23.00691015625,-27.14366796875,-28.84130078125,-25.7546796875,-30.31895703125,-19.72935546875,-22.13746484375,-26.285484375,-26.64216796875,-4.354390625,-20.050578125,-18.824734375,-21.38625390625,-12.0832109375,-1.7779921875,-6.16374609375,-9.3386640625,-7.1504375,19.52324609375,7.20332421875,3.93730078125,4.08823828125,1.0014140625,14.89805859375,20.9431171875,11.938421875,12.12893359375
-15.6692890625,-29.6368671875,-40.82289453125,-27.76891015625,-35.58966796875,-38.26830078125,-36.0876796875,-37.85495703125,-26.29735546875,-31.44846484375,-38.680484375,-34.03916796875,-8.785390625,-26.833578125,-31.259734375,-32.68225390625,-15.8222109375,-6.9609921875,-13.57874609375,-17.5256640625,-13.6814375,15.51824609375,1.14832421875,-2.40469921875,-1.80676171875,0.5594140625,9.73105859375,15.6431171875,7.849421875,10.94093359375
-22.8352890625,-33.8998671875,-45.96589453125,-29.83391015625,-39.98466796875,-44.88030078125,-43.1086796875,-42.91195703125,-29.36735546875,-38.22446484375,-47.682484375,-38.44616796875,-12.051390625,-31.663578125,-42.288734375,-41.03825390625,-18.6092109375,-10.6699921875,-20.38674609375,-25.2106640625,-19.5574375,12.10724609375,-3.95967578125,-8.65569921875,-7.77876171875,-0.0355859375000005,4.53505859375,11.2911171875,4.816421875,9.46593359375
-29.4632890625,-35.6728671875,-48.01489453125,-28.89491015625,-39.44966796875,-47.88030078125,-46.5316796875,-44.92595703125,-28.23835546875,-41.65246484375,-52.284484375,-39.97416796875,-13.244390625,-34.008578125,-50.829734375,-45.18725390625,-20.3972109375,-12.4539921875,-25.62174609375,-31.0576640625,-23.0554375,9.74924609375,-7.25167578125,-13.54969921875,-12.15576171875,0.3464140625,0.68805859375,9.0861171875,3.903421875,8.91293359375
-35.1672890625,-35.2548671875,-47.29089453125,-25.64091015625,-34.55066796875,-47.37730078125,-46.8066796875,-43.98895703125,-23.57335546875,-41.79946484375,-52.530484375,-39.42716796875,-12.490390625,-34.147578125,-56.305734375,-45.05325390625,-21.3002109375,-12.7259921875,-28.90674609375,-34.3506640625,-23.3394375,8.24124609375,-8.66967578125,-16.46169921875,-13.95476171875,2.2684140625,-1.15594140625,9.3641171875,5.364421875,9.98593359375
-39.8362890625,-33.3078671875,-44.44289453125,-21.52691015625,-27.04066796875,-44.19330078125,-44.6756796875,-40.76695703125,-17.12735546875,-39.38246484375,-49.232484375,-37.78816796875,-10.742390625,-32.903578125,-58.471734375,-41.52025390625,-21.4702109375,-12.4269921875,-30.36674609375,-35.0276640625,-20.7904375,7.06124609375,-8.77667578125,-17.42569921875,-13.12576171875,5.4504140625,-1.12694140625,11.5941171875,8.652421875,12.73493359375
-43.2622890625,-30.5708671875,-40.26389453125,-18.21591015625,-19.26466796875,-39.52630078125,-40.8586796875,-36.31895703125,-11.07435546875,-35.42846484375,-43.610484375,-35.73016796875,-9.314390625,-31.245578125,-57.356734375,-35.99825390625,-21.0232109375,-12.5319921875,-30.45074609375,-33.5726640625,-16.8054375,5.70524609375,-8.44867578125,-17.00269921875,-10.46676171875,8.9214140625,0.0140585937500002,14.5301171875,12.603421875,16.59093359375
-44.9632890625,-27.6548671875,-35.56889453125,-16.88191015625,-13.40066796875,-34.60830078125,-35.9746796875,-31.80795703125,-7.23035546875,-30.97046484375,-36.998484375,-33.41116796875,-9.337390625,-29.939578125,-53.353734375,-30.00325390625,-20.0042109375,-13.6519921875,-29.75374609375,-30.8096640625,-13.1674375,3.86024609375,-8.56867578125,-16.02169921875,-7.23776171875,11.5314140625,1.18605859375,16.5361171875,15.777421875,20.60793359375
-44.3142890625,-24.9548671875,-31.08789453125,-17.66591015625,-10.74966796875,-30.41330078125,-30.6046796875,-28.16995703125,-6.45135546875,-26.82446484375,-30.639484375,-30.62716796875,-11.313390625,-29.336578125,-47.267734375,-24.84125390625,-18.4472109375,-15.8699921875,-28.82474609375,-27.6376640625,-11.2004375,1.35724609375,-9.78067578125,-15.25269921875,-4.59976171875,12.5824140625,1.39805859375,16.0421171875,16.907421875,23.84493359375
-40.8302890625,-22.5788671875,-27.30689453125,-19.58091015625,-11.34366796875,-27.44030078125,-25.3036796875,-25.81395703125,-8.41535546875,-23.41846484375,-25.453484375,-27.16916796875,-14.842390625,-29.308578125,-40.142734375,-21.32225390625,-16.4862109375,-18.7939921875,-27.96674609375,-24.7126640625,-11.1254375,-1.98275390625,-12.29367578125,-15.08469921875,-3.12176171875,12.2184140625,0.12705859375,12.0411171875,15.324421875,25.73193359375
-34.3652890625,-20.2378671875,-24.26989453125,-20.90591015625,-13.97366796875,-25.57130078125,-20.4736796875,-24.46995703125,-11.78935546875,-20.67846484375,-21.792484375,-23.06316796875,-18.695390625,-29.286578125,-32.873734375,-19.53825390625,-14.3652109375,-21.7239921875,-27.06574609375,-22.2076640625,-11.9624375,-6.46075390625,-15.78867578125,-15.35569921875,-2.58876171875,11.3324140625,-2.48594140625,4.4341171875,11.191421875,26.24993359375
-25.1572890625,-17.2148671875,-21.48289453125,-19.87691015625,-16.65166796875,-24.02930078125,-16.1906796875,-23.26095703125,-14.68135546875,-18.03446484375,-19.292484375,-18.53316796875,-21.265390625,-28.405578125,-25.821734375,-18.79725390625,-12.2972109375,-23.8659921875,-25.57174609375,-19.7556640625,-12.0444375,-12.41975390625,-19.45667578125,-15.42369921875,-2.21576171875,11.0464140625,-5.72294140625,-5.8868828125,5.424421875,25.79593359375
-13.8612890625,-12.6298671875,-18.05989453125,-15.37291015625,-17.33166796875,-21.62530078125,-12.1526796875,-21.02595703125,-15.29535546875,-14.64346484375,-17.006484375,-13.78416796875,-21.209390625,-25.784578125,-18.733734375,-17.87225390625,-10.2402109375,-24.5449921875,-22.71274609375,-16.6666640625,-9.9274375,-19.97475390625,-22.21467578125,-14.48169921875,-1.14876171875,12.0394140625,-8.62294140625,-17.2758828125,-0.668578125,24.85293359375
-1.6352890625,-5.9848671875,-13.15789453125,-7.37891015625,-14.67866796875,-17.29930078125,-7.8656796875,-16.83795703125,-12.59835546875,-9.80646484375,-13.860484375,-8.89316796875,-17.973390625,-20.910578125,-11.085734375,-15.55025390625,-7.8312109375,-23.4009921875,-17.90074609375,-12.3356640625,-5.2174375,-28.69675390625,-23.07567578125,-11.98469921875,1.00823828125,14.0824140625,-10.37794140625,-27.7818828125,-5.849578125,23.62693359375
9.8687109375,2.2951328125,-6.49089453125,2.94108984375,-8.58566796875,-10.77630078125,-2.9926796875,-10.50395703125,-6.75235546875,-3.44446484375,-9.240484375,-3.94416796875,-11.969390625,-13.999578125,-2.675734375,-11.22925390625,-4.6272109375,-20.5149921875,-11.17374609375,-6.6706640625,1.0805625,-37.46175390625,-21.56467578125,-7.98169921875,3.91623828125,15.9984140625,-10.63994140625,-35.6678828125,-9.316578125,21.89693359375
18.8227109375,10.7911328125,1.36510546875,13.60408984375,-0.21266796875,-2.87330078125,2.3883203125,-2.75495703125,0.949644531250001,3.67653515625,-3.385484375,0.762832031249999,-4.407390625,-6.089578125,5.938265625,-5.24525390625,-0.5292109375,-16.3939921875,-3.39574609375,-0.2716640625,6.9385625,-44.63975390625,-17.95767578125,-3.16969921875,6.62023828125,16.1104140625,-9.56994140625,-39.8188828125,-10.832578125,19.16593359375
23.8847109375,17.6651328125,9.11710546875,22.46808984375,8.46733203125,4.75769921875,7.7553203125,4.99904296875,8.64664453125,10.13853515625,2.686515625,4.69383203125,3.140609375,1.269421875,13.505265625,1.29974609375,3.9167890625,-11.8129921875,3.96225390625,5.7643359375,10.2855625,-48.57375390625,-13.20367578125,1.39730078125,8.04723828125,13.0244140625,-7.65594140625,-39.9218828125,-10.618578125,15.05693359375
24.8357109375,21.6021328125,15.27610546875,27.89308984375,15.39733203125,10.34069921875,12.3003203125,11.23704296875,14.63864453125,14.47053515625,7.696515625,7.32283203125,9.248609375,6.605421875,18.617265625,7.08074609375,7.6477890625,-7.5609921875,9.38525390625,10.3353359375,10.0765625,-48.17975390625,-8.53667578125,4.77830078125,7.61623828125,6.3984140625,-5.40294140625,-36.4168828125,-9.097578125,9.70193359375
22.6907109375,22.4671328125,18.74010546875,29.12208984375,19.10633203125,12.71069921875,15.1693203125,14.87504296875,17.89464453125,15.79753515625,10.716515625,8.42183203125,13.019609375,9.081421875,20.392265625,11.11974609375,9.5877890625,-4.2209921875,11.92625390625,12.8163359375,6.7895625,-43.38575390625,-4.97367578125,6.53030078125,5.57923828125,-2.7405859375,-3.11394140625,-30.2728828125,-6.687578125,3.86893359375
19.0997109375,21.2151328125,19.13410546875,26.31408984375,19.06933203125,11.70169921875,15.7113203125,15.52504296875,18.17164453125,14.17753515625,11.504515625,8.15283203125,14.218609375,8.718421875,18.862265625,13.04374609375,9.2287890625,-2.0769921875,11.51125390625,13.2443359375,2.0465625,-35.18375390625,-2.98267578125,6.78330078125,2.86623828125,-12.3625859375,-0.86694140625,-22.7008828125,-3.711578125,-1.29506640625
15.3677109375,19.1131328125,16.77610546875,20.32908984375,15.70233203125,8.04969921875,13.6963203125,13.41704296875,15.82864453125,10.45253515625,10.384515625,6.88683203125,13.141609375,6.216421875,14.880265625,12.95874609375,6.8687890625,-1.1299921875,8.85125390625,12.1403359375,-2.3354375,-25.24275390625,-2.41267578125,6.03030078125,0.55423828125,-20.2725859375,1.34705859375,-14.8518828125,-0.430578125,-4.75606640625
11.7387109375,16.8401328125,12.37810546875,12.40708984375,10.08033203125,2.90869921875,9.4003203125,9.13604296875,11.55964453125,5.77053515625,7.858515625,4.91083203125,10.365609375,2.567421875,9.669265625,11.14074609375,3.3937890625,-1.1519921875,5.06325390625,10.1373359375,-5.2424375,-15.26775390625,-2.66167578125,4.82530078125,-0.68176171875,-24.9695859375,3.49605859375,-7.5588828125,2.908421875,-6.03006640625
7.4267109375,14.1151328125,6.72110546875,3.85108984375,3.53233203125,-2.71330078125,3.5003203125,3.40104296875,6.19664453125,1.08553515625,4.264515625,2.25783203125,6.511609375,-1.319578125,4.312265625,7.81374609375,-0.2132109375,-1.7479921875,1.25025390625,7.6863359375,-6.6004375,-6.44675390625,-2.96167578125,3.56930078125,-0.81976171875,-26.0975859375,5.49005859375,-1.2218828125,6.056421875,-5.35406640625
1.3907109375,10.0851328125,0.50310546875,-4.17691015625,-2.74466796875,-8.26130078125,-3.1436796875,-3.01895703125,0.625644531250001,-3.08346484375,-0.270484375,-1.21216796875,2.128609375,-4.787578125,-0.517734375,3.16874609375,-3.2842109375,-2.4199921875,-1.78174609375,4.9813359375,-7.1114375,0.75424609375,-2.66167578125,2.46030078125,-0.36876171875,-24.3815859375,7.20605859375,4.1271171875,8.758421875,-3.55306640625
-6.6392890625,4.1681328125,-5.64189453125,-10.74191015625,-7.93166796875,-13.51930078125,-9.6686796875,-9.30195703125,-4.25135546875,-6.58646484375,-5.573484375,-5.51716796875,-2.298390625,-7.434578125,-4.519734375,-2.44325390625,-5.6102109375,-2.6899921875,-3.62874609375,2.0683359375,-7.6804375,6.42624609375,-1.44867578125,1.51730078125,-0.0527617187500001,-21.1725859375,8.48705859375,8.5911171875,10.730421875,-1.73706640625
-15.5412890625,-3.2568671875,-11.06689453125,-15.18591015625,-11.69166796875,-18.28930078125,-15.3316796875,-14.62995703125,-7.64535546875,-9.41846484375,-11.122484375,-10.29716796875,-6.271390625,-9.055578125,-7.561734375,-8.34525390625,-7.3222109375,-2.2529921875,-4.27274609375,-1.0106640625,-8.8954375,10.87124609375,0.55932421875,0.61130078125,-0.48976171875,-17.8715859375,9.06305859375,12.1431171875,11.604421875,-0.989066406250001
-23.0832890625,-10.8128671875,-15.15489453125,-17.26491015625,-14.14266796875,-22.18830078125,-19.5896796875,-18.35795703125,-9.13735546875,-11.55546484375,-15.990484375,-14.81916796875,-9.275390625,-9.645578125,-9.566734375,-13.61025390625,-8.6962109375,-1.1039921875,-4.02674609375,-4.1786640625,-10.8384375,14.30124609375,2.86632421875,-0.54369921875,-2.03176171875,-15.4755859375,8.48905859375,14.4941171875,10.942421875,-2.11306640625
-26.9932890625,-16.7788671875,-17.50789453125,-17.27391015625,-15.75066796875,-24.75730078125,-22.1786796875,-20.26295703125,-8.94935546875,-12.98346484375,-19.177484375,-18.29516796875,-10.881390625,-9.451578125,-10.587734375,-17.36925390625,-9.9982109375,0.4320078125,-3.45374609375,-7.3756640625,-13.2174375,16.73824609375,4.79632421875,-2.35169921875,-4.74176171875,-14.4025859375,6.23305859375,15.1911171875,8.359421875,-5.46306640625
-26.2102890625,-20.0018671875,-18.14989453125,-15.99991015625,-17.11666796875,-25.75430078125,-23.1176796875,-20.67795703125,-7.96035546875,-13.84646484375,-20.121484375,-20.30516796875,-10.907390625,-8.978578125,-10.952734375,-19.16525390625,-11.4242109375,1.8270078125,-3.21574609375,-10.5886640625,-15.6224375,18.11124609375,5.77532421875,-5.16469921875,-8.41876171875,-14.5505859375,1.97705859375,13.9081171875,3.783421875,-10.78706640625
-21.5192890625,-20.4448671875,-17.58389453125,-14.38991015625,-18.67566796875,-25.35530078125,-22.6596796875,-20.37895703125,-7.34435546875,-14.48946484375,-19.040484375,-21.00116796875,-9.484390625,-8.817578125,-11.247734375,-19.10425390625,-13.0402109375,2.6110078125,-3.78474609375,-13.7466640625,-17.6724375,18.46124609375,5.62732421875,-8.95969921875,-12.55976171875,-15.4535859375,-3.97194140625,10.8051171875,-2.264578125,-17.11906640625
-15.1602890625,-19.0298671875,-16.60689453125,-13.12291015625,-20.42566796875,-24.11030078125,-21.2056796875,-20.18995703125,-7.98235546875,-15.27946484375,-16.821484375,-20.93016796875,-6.965390625,-9.309578125,-12.033734375,-17.69625390625,-14.6652109375,2.6680078125,-5.14474609375,-16.5226640625,-18.9684375,18.11224609375,4.74932421875,-13.05669921875,-16.27676171875,-16.3635859375,-10.40094140625,6.7421171875,-8.524578125,-22.78806640625
-9.6422890625,-16.9448671875,-15.94389453125,-12.33191015625,-21.82366796875,-22.63130078125,-19.2236796875,-20.50195703125,-9.94635546875,-16.28446484375,-14.517484375,-20.56716796875,-3.785390625,-10.261578125,-13.452734375,-15.51725390625,-15.8192109375,2.3810078125,-6.63374609375,-18.2256640625,-18.9754375,17.68224609375,4.06732421875,-16.09969921875,-18.31976171875,-16.3085859375,-15.31194140625,3.1731171875,-13.179578125,-25.70506640625
-6.4852890625,-14.9328671875,-15.90789453125,-11.60791015625,-21.97066796875,-21.20830078125,-17.1146796875,-21.02195703125,-12.37735546875,-17.05246484375,-12.763484375,-19.89116796875,-0.340390625,-10.899578125,-14.968734375,-12.88825390625,-15.8432109375,2.5200078125,-7.11074609375,-17.9256640625,-17.0354375,17.91024609375,4.72732421875,-16.45269921875,-17.36276171875,-14.2455859375,-16.54494140625,1.7081171875,-14.385578125,-23.95306640625
-5.5992890625,-13.0248671875,-16.24189453125,-10.26991015625,-19.97566796875,-19.59030078125,-15.0256796875,-20.91395703125,-13.82235546875,-16.67846484375,-11.438484375,-18.31916796875,3.062609375,-10.131578125,-15.441734375,-9.72425390625,-14.2132109375,3.9200078125,-5.36674609375,-14.7886640625,-12.5834375,19.38624609375,7.65032421875,-12.84469921875,-12.47376171875,-9.3855859375,-12.64294140625,3.5041171875,-10.962578125,-16.52106640625
-5.6052890625,-10.7838671875,-16.23989453125,-7.72391015625,-15.36166796875,-17.09430078125,-12.7246796875,-19.27695703125,-12.89335546875,-14.14046484375,-9.731484375,-15.04916796875,6.288609375,-6.995578125,-13.529734375,-5.61425390625,-10.8452109375,7.1210078125,-0.60974609375,-8.4486640625,-5.4724375,22.30124609375,13.15632421875,-4.94069921875,-3.57876171875,-1.6045859375,-3.54994140625,8.7631171875,-2.941578125,-3.83906640625
-4.7952890625,-7.7578671875,-15.04289453125,-3.77791015625,-8.32566796875,-12.98730078125,-9.6586796875,-15.64895703125,-8.91535546875,-8.75346484375,-6.546484375,-9.60416796875,9.436609375,-1.106578125,-8.235734375,-0.0972539062500002,-6.1862109375,12.1260078125,7.18625390625,0.7593359375,3.7505625,26.33324609375,20.76332421875,6.40830078125,8.33723828125,8.2734140625,9.23005859375,16.5361171875,8.287421875,12.14493359375
-2.1372890625,-3.7838671875,-11.97989453125,1.24008984375,0.29133203125,-6.88830078125,-5.1766796875,-10.21095703125,-2.20635546875,-0.52246484375,-1.039484375,-2.20216796875,12.806609375,7.123421875,0.637265625,6.98374609375,-1.0312109375,18.3460078125,17.19525390625,11.8043359375,13.8265625,30.69424609375,29.25932421875,19.35230078125,21.40423828125,18.5024140625,23.05905859375,24.9241171875,20.322421875,28.44393359375
2.2217109375,1.0311328125,-6.75989453125,6.62608984375,9.35033203125,1.08569921875,1.2153203125,-3.59695703125,6.13164453125,9.82053515625,7.006515625,6.30183203125,16.653609375,16.597421875,12.369265625,15.27174609375,3.8207890625,24.7520078125,27.94425390625,23.2273359375,23.1075625,34.36524609375,37.02032421875,31.60230078125,33.39223828125,26.8524140625,35.02205859375,31.6501171875,30.489421875,41.90193359375
7.0867109375,6.5241328125,0.50410546875,11.61908984375,17.96433203125,10.45269921875,9.6813203125,3.50704296875,14.76564453125,21.11753515625,17.127515625,14.85483203125,20.820609375,25.958421875,25.580265625,24.01574609375,7.8567890625,30.1870078125,37.78825390625,33.5903359375,30.1715625,36.41624609375,42.50932421875,41.17630078125,42.42823828125,31.3654140625,42.88005859375,34.8101171875,36.712421875,50.15393359375
10.7977109375,12.6201328125,9.40210546875,15.71708984375,25.92233203125,20.60769921875,19.9373203125,10.67104296875,22.70364453125,32.25253515625,28.421515625,22.71683203125,24.554609375,34.103421875,38.719265625,32.44674609375,10.9477890625,33.7270078125,45.44925390625,41.9233359375,34.3835625,36.23524609375,44.77332421875,47.00630078125,47.59223828125,31.0904140625,45.74405859375,33.5111171875,38.169421875,52.29793359375
11.9997109375,19.2561328125,19.33010546875,18.87708984375,33.71033203125,30.98069921875,31.2253203125,17.74404296875,29.58364453125,42.50053515625,39.867515625,29.68083203125,26.756609375,40.502421875,50.501265625,40.11374609375,13.2907890625,34.9350078125,50.37425390625,47.9293359375,36.0455625,33.54924609375,43.69932421875,49.13830078125,49.08623828125,26.4244140625,44.18505859375,28.1031171875,35.445421875,49.01093359375
10.3567109375,26.1841328125,29.52310546875,21.50708984375,42.00133203125,41.02569921875,42.4043203125,24.65904296875,35.55464453125,51.54353515625,50.519515625,35.91483203125,26.603609375,45.177421875,60.096265625,46.91374609375,15.2857890625,33.8860078125,52.72425390625,51.8323359375,36.0195625,28.27924609375,39.92032421875,48.46230078125,47.88923828125,18.8914140625,39.79105859375,19.9261171875,30.141421875,42.09693359375
7.0007109375,32.8961328125,39.05710546875,24.23208984375,50.87333203125,50.09669921875,52.1553203125,31.20504296875,40.82164453125,59.17653515625,59.505515625,41.57083203125,24.114609375,48.356421875,67.032265625,52.77374609375,17.3917890625,30.9890078125,53.03625390625,53.9873359375,35.1065625,20.43324609375,34.43832421875,46.12630078125,45.11623828125,10.4894140625,34.40305859375,10.7281171875,24.144421875,33.69293359375
4.3647109375,38.7541328125,46.87810546875,27.43908984375,59.22033203125,57.28469921875,59.2073203125,36.92204296875,45.09064453125,64.91953515625,65.939515625,46.42383203125,20.203609375,50.025421875,70.927265625,57.26574609375,19.8837890625,26.6880078125,51.74225390625,54.4853359375,33.6085625,10.16224609375,28.15332421875,42.95530078125,41.46723828125,2.9404140625,29.40205859375,2.0511171875,18.914421875,25.49593359375
5.2387109375,43.1791328125,51.94110546875,30.83308984375,64.82033203125,61.42369921875,62.5373203125,41.15004296875,47.32164453125,67.82353515625,68.885515625,49.75383203125,16.119609375,49.680421875,71.277265625,59.50074609375,22.5777890625,21.2520078125,48.82925390625,52.9913359375,31.3325625,-2.03875390625,21.54332421875,39.13430078125,37.02123828125,-2.8375859375,25.31405859375,-5.1428828125,15.078421875,18.30293359375
11.3397109375,45.7331328125,53.43810546875,33.32408984375,65.18033203125,61.37469921875,61.5603203125,43.17604296875,46.05864453125,66.66553515625,67.526515625,50.54483203125,12.694609375,46.454421875,67.510265625,58.44374609375,24.7397890625,14.7500078125,43.85225390625,48.9453359375,27.9555625,-15.12075390625,14.64332421875,34.29830078125,31.44523828125,-6.8235859375,21.86305859375,-10.5138828125,12.447421875,12.01493359375
22.1607109375,46.0681328125,51.03410546875,33.43008984375,58.74633203125,56.53769921875,56.3283203125,42.46204296875,40.20564453125,60.52253515625,61.520515625,47.96683203125,9.918609375,39.622421875,59.336265625,53.50774609375,25.4147890625,7.2600078125,36.31725390625,41.9953359375,23.4145625,-27.45475390625,7.33432421875,27.96430078125,24.46023828125,-9.5465859375,18.39605859375,-14.0778828125,10.400421875,6.05593359375
34.8797109375,43.9211328125,45.03610546875,30.00108984375,45.82733203125,47.29469921875,47.6413203125,38.88804296875,29.80564453125,49.44253515625,51.371515625,41.93283203125,7.105609375,29.216421875,47.206265625,45.04274609375,24.0497890625,-0.8429921875,26.22925390625,32.4373359375,18.0745625,-37.06475390625,-0.24267578125,20.06830078125,16.26523828125,-11.5445859375,14.43705859375,-15.8658828125,8.389421875,-0.0300664062500005
45.4857109375,39.2531328125,36.40410546875,22.91308984375,28.74333203125,35.11069921875,36.9733203125,32.91704296875,16.34764453125,34.81953515625,38.558515625,33.40683203125,3.489609375,16.385421875,32.546265625,34.40374609375,20.9667890625,-8.6959921875,14.45125390625,21.3773359375,12.6265625,-42.10675390625,-7.41567578125,11.27330078125,7.69023828125,-12.9195859375,10.06305859375,-15.7178828125,6.310421875,-6.13906640625
50.5307109375,32.4781328125,26.59210546875,13.34208984375,11.14733203125,22.23669921875,26.2183203125,25.57704296875,2.45164453125,19.22053515625,25.274515625,24.21183203125,-1.144390625,3.259421875,17.574265625,23.54874609375,17.2737890625,-15.0309921875,2.65425390625,10.4963359375,7.8425625,-41.42175390625,-13.05967578125,2.86830078125,-0.0247617187500001,-13.2535859375,5.88605859375,-13.3568828125,4.540421875,-11.52706640625
48.5357109375,24.5731328125,17.24010546875,3.45708984375,-3.16066796875,11.08969921875,17.2853203125,18.20504296875,-8.90535546875,5.64853515625,13.827515625,16.38283203125,-6.168390625,-7.657578125,4.710265625,14.36074609375,14.2427890625,-18.5449921875,-7.18574609375,1.4903359375,4.3245625,-34.95675390625,-16.02367578125,-3.71169921875,-5.70876171875,-11.8945859375,2.66505859375,-8.6918828125,3.667421875,-15.13806640625
40.2807109375,16.8631328125,9.75710546875,-4.42591015625,-11.46066796875,3.49669921875,11.5593203125,11.98104296875,-15.35635546875,-3.46446484375,5.906515625,11.32583203125,-10.350390625,-14.346578125,-4.214734375,7.99474609375,12.5507890625,-18.4329921875,-13.50674609375,-4.5566640625,2.3075625,-23.91175390625,-15.69867578125,-7.52269921875,-8.75876171875,-8.4375859375,0.79905859375,-2.1598828125,4.064421875,-16.12406640625
27.9517109375,10.5301328125,4.90910546875,-8.84291015625,-12.94766796875,0.0506992187499993,9.3703203125,7.47304296875,-15.95435546875,-7.11146484375,1.991515625,9.21983203125,-12.503390625,-16.013578125,-8.589734375,4.53074609375,11.9037890625,-14.8239921875,-15.75874609375,-7.5686640625,1.5975625,-10.49975390625,-12.40267578125,-8.56169921875,-9.39076171875,-3.0795859375,0.0360585937500002,5.1331171875,5.566421875,-14.26706640625
13.8487109375,6.0871328125,2.60210546875,-9.77691015625,-8.85766796875,-0.0823007812500007,9.7703203125,4.42604296875,-11.51335546875,-6.02046484375,1.228515625,8.97283203125,-12.133390625,-13.365578125,-9.167734375,3.08874609375,11.2977890625,-8.8389921875,-14.56974609375,-8.4156640625,1.6745625,2.64624609375,-7.33667578125,-7.73869921875,-8.47976171875,3.3754140625,-0.40994140625,11.6531171875,7.473421875,-10.05906640625
-0.4302890625,3.1751328125,1.96710546875,-8.51791015625,-1.88866796875,1.26469921875,10.8523203125,1.97104296875,-4.32535546875,-2.24846484375,1.848515625,8.76683203125,-9.695390625,-8.264578125,-7.607734375,2.34474609375,9.6847890625,-2.1769921875,-11.37274609375,-8.3896640625,1.9415625,13.28624609375,-2.06967578125,-6.37469921875,-7.08576171875,9.8654140625,-1.36194140625,16.0061171875,8.887421875,-4.42106640625
-13.9182890625,0.849132812499999,1.73510546875,-6.93091015625,4.78733203125,2.08669921875,10.5413203125,-0.88795703125,2.64064453125,1.70653515625,1.971515625,6.90783203125,-6.354390625,-2.956578125,-5.686734375,1.17274609375,6.6237890625,3.5500078125,-7.70774609375,-8.5376640625,1.9695625,20.27524609375,2.17232421875,-5.50069921875,-5.94276171875,15.5094140625,-3.14494140625,17.5431171875,9.190421875,1.70193359375
-25.6402890625,-1.8178671875,0.74010546875,-6.58391015625,8.52333203125,0.99869921875,7.4753203125,-4.72895703125,6.72664453125,3.85053515625,0.372515625,2.54883203125,-3.417390625,0.765421875,-4.593734375,-0.93625390625,2.5057890625,7.3860078125,-4.60574609375,-9.2166640625,1.6095625,23.79324609375,4.98432421875,-5.38969921875,-5.21776171875,19.8684140625,-5.34894140625,16.6411171875,8.347421875,7.63493359375
-34.1872890625,-5.2048671875,-1.63889453125,-8.14991015625,7.89733203125,-2.34430078125,1.5593203125,-9.40595703125,6.44464453125,3.29153515625,-3.123484375,-3.97616796875,-1.727390625,2.080421875,-4.629734375,-3.82525390625,-1.6982109375,9.2280078125,-2.32974609375,-10.0776640625,0.943562500000001,25.00924609375,6.80032421875,-5.55369921875,-4.60776171875,22.9104140625,-7.03094140625,14.5001171875,6.904421875,13.02193359375
-38.0392890625,-8.9958671875,-5.27089453125,-11.22491015625,2.99433203125,-7.26930078125,-6.0536796875,-14.10995703125,1.91464453125,0.29853515625,-7.745484375,-11.31816796875,-1.305390625,1.206421875,-5.351734375,-6.90925390625,-4.9862109375,9.6330078125,-0.55574609375,-10.4206640625,0.1675625,25.37724609375,8.44732421875,-5.15269921875,-3.66576171875,24.7994140625,-7.22994140625,12.5721171875,5.698421875,17.71993359375
-36.5082890625,-12.4638671875,-9.38889453125,-14.61191015625,-4.77266796875,-12.49930078125,-13.5246796875,-17.80095703125,-5.27335546875,-4.07246484375,-12.257484375,-17.68916796875,-1.439390625,-0.955578125,-6.023734375,-9.52125390625,-6.8642109375,9.3730078125,1.18425390625,-9.6856640625,-0.5334375,25.91724609375,10.53332421875,-3.55369921875,-2.13576171875,25.6574140625,-5.48094140625,11.8961171875,5.438421875,21.63293359375
-30.4702890625,-14.8818671875,-12.98689453125,-16.90291015625,-13.22666796875,-16.72730078125,-19.1576796875,-19.74495703125,-12.72735546875,-8.54846484375,-15.520484375,-21.61516796875,-1.193390625,-3.363578125,-6.101734375,-11.19825390625,-7.5822109375,8.9940078125,3.07025390625,-7.8046640625,-1.0784375,26.79124609375,13.01032421875,-0.75069921875,-0.12576171875,25.4324140625,-2.09094140625,12.6291171875,6.353421875,24.57993359375
-22.1372890625,-15.7628671875,-15.24789453125,-17.06191015625,-20.13966796875,-19.06830078125,-22.0016796875,-19.82295703125,-18.15735546875,-12.07146484375,-16.872484375,-22.49016796875,-0.039390625,-5.260578125,-5.469734375,-11.77925390625,-7.9422109375,8.6010078125,4.84725390625,-5.2326640625,-1.5034375,27.33624609375,15.14832421875,2.59730078125,1.95223828125,23.9394140625,1.96405859375,13.9871171875,8.074421875,26.29293359375
-13.8722890625,-14.8438671875,-15.77389453125,-14.71491015625,-23.81566796875,-19.16330078125,-21.9256796875,-18.41695703125,-20.04835546875,-13.95446484375,-16.162484375,-20.65216796875,1.795609375,-6.282578125,-4.302734375,-11.29725390625,-8.7592109375,7.9460078125,6.05525390625,-2.6476640625,-1.8914375,26.46524609375,15.94132421875,5.51130078125,3.62523828125,21.0474140625,5.46605859375,14.6371171875,9.816421875,26.52093359375
-6.9262890625,-11.9918671875,-14.52989453125,-10.08291015625,-23.38366796875,-17.00230078125,-19.2596796875,-16.03095703125,-17.87335546875,-13.77446484375,-13.537484375,-16.98316796875,3.499609375,-6.273578125,-2.713734375,-9.78225390625,-10.2912109375,6.7340078125,6.44525390625,-0.5176640625,-2.2384375,23.20124609375,14.68032421875,7.22430078125,4.61823828125,16.9004140625,7.44405859375,13.3131171875,10.740421875,25.17893359375
-1.0442890625,-7.1998671875,-11.62589453125,-3.74891015625,-18.81166796875,-12.70330078125,-14.3856796875,-12.95195703125,-11.91135546875,-11.22146484375,-9.189484375,-12.35616796875,4.237609375,-5.016578125,-0.459734375,-7.13425390625,-11.9982109375,4.9280078125,6.27725390625,1.1803359375,-2.3574375,17.06624609375,11.35932421875,7.56230078125,4.99023828125,12.0114140625,7.49605859375,9.3471171875,10.273421875,22.38993359375
4.8337109375,-0.681867187500001,-7.10589453125,3.56708984375,-10.71166796875,-6.44030078125,-7.5806796875,-9.14995703125,-2.94535546875,-6.05446484375,-3.235484375,-7.26116796875,3.746609375,-2.149578125,3.063265625,-3.14225390625,-12.7442109375,2.8710078125,6.29925390625,2.9603359375,-1.8574375,8.23424609375,6.71332421875,6.99930078125,5.09923828125,7.1524140625,5.82105859375,2.9021171875,8.268421875,18.40393359375
11.4457109375,7.0891328125,-0.90989453125,11.17308984375,-0.0786679687500002,1.53569921875,0.9083203125,-4.37595703125,7.94964453125,1.77953515625,4.231515625,-1.74716796875,2.605609375,2.695421875,8.546265625,2.38774609375,-11.3052109375,1.2050078125,7.44025390625,5.5763359375,-0.219437500000001,-2.47475390625,1.95832421875,6.41530078125,5.45623828125,3.1014140625,3.06305859375,-5.1098828125,5.002421875,13.47893359375
18.5657109375,15.4731328125,6.98910546875,18.49708984375,11.91533203125,10.82769921875,10.7133203125,1.65304296875,19.49264453125,11.92753515625,12.974515625,4.38583203125,1.962609375,9.593421875,16.359265625,9.48574609375,-6.9142109375,0.6570078125,10.41125390625,9.6693359375,3.0465625,-13.69675390625,-1.61167578125,6.74030078125,6.57723828125,0.4034140625,0.0950585937500003,-13.2968828125,1.082421875,7.84793359375
25.2177109375,23.7961328125,16.32710546875,25.07808984375,23.94733203125,20.81269921875,21.2213203125,9.05004296875,30.23564453125,23.45253515625,22.433515625,11.28283203125,2.859609375,18.076421875,26.193265625,17.88274609375,0.372789062499999,1.7950078125,15.39525390625,15.4673359375,8.1435625,-23.72475390625,-2.97667578125,8.62730078125,8.82523828125,-0.7845859375,-2.16894140625,-20.1358828125,-2.691578125,1.78993359375
30.3547109375,31.4061328125,26.32410546875,30.48608984375,34.51133203125,30.55469921875,31.4973203125,17.54804296875,38.67364453125,34.82053515625,31.642515625,18.77283203125,5.593609375,27.070421875,36.902265625,26.90474609375,9.5687890625,4.8320078125,21.92625390625,22.5993359375,14.7315625,-30.86575390625,-1.63467578125,12.23530078125,12.25223828125,-0.7325859375,-2.94594140625,-24.3148828125,-5.505578125,-4.27406640625
33.4047109375,37.6121328125,35.65710546875,34.26608984375,42.00933203125,38.81069921875,40.3033203125,26.34904296875,43.50864453125,44.12453515625,39.324515625,26.22883203125,9.566609375,35.082421875,46.655265625,35.43974609375,18.9387890625,9.5110078125,28.97925390625,30.0923359375,21.8255625,-33.85175390625,2.29832421875,17.14930078125,16.46023828125,-0.0585859375000002,-1.75194140625,-25.0098828125,-6.740578125,-9.75306640625
34.3577109375,41.6551328125,42.70110546875,35.98908984375,45.10633203125,44.23069921875,46.2933203125,34.14104296875,44.00864453125,49.53953515625,44.160515625,32.61683203125,13.680609375,40.598421875,53.423265625,42.05574609375,26.4707890625,15.1220078125,35.22725390625,36.5423359375,27.9665625,-32.17875390625,8.13432421875,22.46830078125,20.59123828125,0.4724140625,1.45305859375,-22.0348828125,-6.124578125,-13.96506640625
33.5657109375,42.8521328125,45.98710546875,35.37408984375,43.18533203125,45.71669921875,48.3593203125,39.40404296875,40.29564453125,49.86953515625,45.169515625,36.72783203125,16.958609375,42.546421875,55.616265625,45.32474609375,30.5597890625,20.6500078125,39.40825390625,40.4803359375,31.6415625,-26.21775390625,14.79732421875,27.05330078125,23.51623828125,0.2254140625,6.21405859375,-15.8308828125,-3.794578125,-16.30706640625
31.5017109375,40.9011328125,44.71210546875,32.39808984375,36.64133203125,42.79869921875,46.0203203125,40.93204296875,33.37264453125,44.98053515625,42.069515625,37.57083203125,18.977609375,40.643421875,52.653265625,44.30574609375,30.6187890625,25.0500078125,40.68225390625,40.8243359375,31.7755625,-17.08875390625,21.09832421875,29.86930078125,24.22023828125,-1.0375859375,11.67705859375,-7.3308828125,-0.222578125,-16.41606640625
28.5857109375,36.1341328125,39.10010546875,27.37208984375,26.83733203125,35.91369921875,39.7143203125,38.36704296875,24.85964453125,35.94353515625,35.466515625,34.80083203125,19.889609375,35.490421875,45.211265625,39.00474609375,27.2677890625,27.5300078125,38.86425390625,37.2953359375,28.1675625,-6.36875390625,26.03132421875,30.33330078125,22.24823828125,-3.0025859375,16.82205859375,2.2421171875,3.940421875,-14.27306640625
25.0327109375,29.5191328125,30.46710546875,20.98408984375,15.77033203125,26.46069921875,30.8643203125,32.45004296875,16.53064453125,24.79153515625,26.778515625,29.00483203125,20.100609375,28.377421875,35.041265625,30.58174609375,22.0057890625,27.7670078125,34.47525390625,30.6243359375,21.7285625,4.28424609375,29.00632421875,28.51430078125,18.01323828125,-4.8385859375,20.76905859375,11.6171171875,8.061421875,-10.18606640625
20.7337109375,22.3861328125,20.88810546875,14.22808984375,5.55033203125,16.53569921875,21.5803203125,24.83104296875,9.81464453125,13.95953515625,17.891515625,21.66983203125,19.824609375,20.871421875,24.428265625,21.09574609375,16.5807890625,25.9690078125,28.58025390625,22.3963359375,14.3195625,13.48524609375,29.94432421875,25.09530078125,12.75923828125,-5.4655859375,23.03705859375,19.7121171875,11.692421875,-4.69006640625
15.3167109375,15.9881328125,12.54210546875,8.14808984375,-2.12966796875,8.29869921875,13.9803203125,17.48704296875,5.43764453125,5.55653515625,10.597515625,14.75683203125,18.822609375,14.338421875,15.447265625,12.80474609375,12.4387890625,22.7410078125,22.44325390625,14.5353359375,8.0995625,20.36324609375,29.18032421875,21.08530078125,8.10123828125,-4.0145859375,23.62805859375,25.7891171875,14.612421875,1.55893359375
8.4517109375,11.0941328125,6.94410546875,3.46008984375,-6.41766796875,3.18469921875,9.3623203125,11.97004296875,3.31264453125,0.73653515625,6.016515625,9.97683203125,16.500609375,9.532421875,9.289265625,7.29074609375,10.3527890625,18.7990078125,17.08325390625,8.6003359375,4.6175625,24.58124609375,27.19732421875,17.37530078125,5.31523828125,-0.2945859375,22.86905859375,29.4571171875,16.726421875,7.83393359375
0.2997109375,7.7661328125,4.39910546875,0.26208984375,-7.47866796875,1.34669921875,7.7013203125,8.83504296875,2.69864453125,-0.65046484375,4.194515625,8.08683203125,12.351609375,6.413421875,5.921265625,4.87274609375,10.2307890625,14.6470078125,12.90425390625,5.2073359375,4.1405625,26.17324609375,24.31632421875,14.35230078125,4.75623828125,5.0094140625,21.11305859375,30.5441171875,17.886421875,13.34693359375
-8.2022890625,5.4171328125,3.97210546875,-1.94691015625,-6.37566796875,1.65369921875,7.7433203125,7.49804296875,2.52964453125,0.0765351562500003,4.113515625,8.57983203125,6.461609375,4.255421875,4.227265625,4.59974609375,11.1497890625,10.4050078125,9.59125390625,3.8733359375,5.6595625,25.34024609375,20.53732421875,11.78430078125,5.73423828125,10.5634140625,18.49305859375,28.9891171875,17.800421875,17.33493359375
-15.4712890625,3.1531328125,4.01410546875,-3.97191015625,-4.69666796875,2.23569921875,7.6463203125,6.64704296875,1.77664453125,0.98053515625,4.109515625,9.96383203125,-0.307390625,2.021421875,2.560265625,4.81774609375,11.7437890625,5.9020078125,6.34625390625,3.3463359375,7.5295625,22.36724609375,15.64432421875,9.02530078125,6.92323828125,14.9664140625,14.89905859375,24.8621171875,16.134421875,19.24793359375
-19.8382890625,0.250132812499999,2.98910546875,-6.49491015625,-4.04666796875,1.30669921875,5.7663203125,4.98804296875,-0.280355468749999,0.28753515625,2.542515625,10.47583203125,-6.675390625,-1.157578125,-0.552734375,3.93474609375,10.8397890625,0.9470078125,2.33625390625,2.2163359375,8.3485625,17.67724609375,9.47932421875,5.39830078125,7.02223828125,17.3474140625,10.14505859375,18.4831171875,12.721421875,18.94693359375
-20.3342890625,-3.4748671875,0.166105468750001,-9.75291015625,-5.55866796875,-2.12630078125,1.2693203125,1.91904296875,-3.88735546875,-2.98846484375,-1.606484375,8.81183203125,-11.615390625,-5.629578125,-5.852734375,0.99974609375,8.0017890625,-4.4139921875,-2.88174609375,-0.5166640625,7.5005625,11.90824609375,2.19932421875,0.51930078125,5.27723828125,17.6324140625,4.17105859375,10.5041171875,7.723421875,16.75593359375
-17.2482890625,-7.5988671875,-4.14889453125,-13.45091015625,-9.56366796875,-7.93630078125,-5.5996796875,-2.23495703125,-8.75035546875,-8.77546484375,-8.411484375,4.54483203125,-14.846390625,-11.120578125,-13.138734375,-4.08625390625,3.7037890625,-9.8029921875,-9.16574609375,-5.1376640625,5.1645625,5.88224609375,-5.66167578125,-5.55469921875,1.64123828125,16.3734140625,-2.85194140625,1.8481171875,1.620421875,13.29193359375
-12.1172890625,-11.3018671875,-8.88089453125,-16.91991015625,-15.48866796875,-14.99530078125,-13.6076796875,-6.48595703125,-14.10435546875,-16.04546484375,-16.984484375,-1.82916796875,-16.756390625,-16.869578125,-21.377734375,-10.67625390625,-0.958210937500001,-14.6089921875,-15.84174609375,-11.2106640625,1.9275625,0.44324609375,-13.29667578125,-12.34069921875,-3.36976171875,14.3194140625,-10.48394140625,-6.4688828125,-4.915578125,9.19893359375
-7.0692890625,-13.7338671875,-12.71989453125,-19.43291015625,-22.02966796875,-21.62730078125,-20.9426796875,-9.72995703125,-18.94235546875,-23.18046484375,-25.702484375,-9.10816796875,-17.875390625,-21.903578125,-29.057734375,-17.61425390625,-4.7992109375,-18.1749921875,-21.92574609375,-17.7576640625,-1.6134375,-3.74175390625,-19.81467578125,-19.03569921875,-8.93176171875,11.9974140625,-18.02194140625,-13.5448828125,-11.155578125,4.94593359375
-3.9112890625,-14.3458671875,-14.63189453125,-20.50291015625,-27.54666796875,-26.16830078125,-25.7896796875,-11.23395703125,-22.36635546875,-28.48046484375,-32.620484375,-15.71616796875,-18.342390625,-25.342578125,-34.622734375,-23.51525390625,-7.0572109375,-20.0229921875,-26.43974609375,-23.5356640625,-5.0234375,-6.32075390625,-24.44167578125,-24.67969921875,-14.15076171875,9.5454140625,-24.55994140625,-18.7358828125,-16.396578125,0.781933593749999
-3.4622890625,-13.0608671875,-14.14089453125,-20.02591015625,-30.55566796875,-27.43630078125,-26.8926796875,-10.82395703125,-23.87535546875,-30.68846484375,-35.977484375,-20.09516796875,-17.772390625,-26.651578125,-36.895734375,-27.04025390625,-7.6252109375,-20.0149921875,-28.69674609375,-27.3546640625,-7.9444375,-7.29075390625,-26.69067578125,-28.37369921875,-18.23276171875,6.8254140625,-29.13394140625,-21.6908828125,-20.008578125,-3.15606640625
-5.4302890625,-10.2108671875,-11.32889453125,-18.22591015625,-30.17666796875,-25.00930078125,-23.8816796875,-8.76495703125,-23.41735546875,-29.34846484375,-34.696484375,-21.09816796875,-15.602390625,-25.752578125,-35.370734375,-27.19625390625,-6.9052109375,-18.4109921875,-28.49774609375,-28.3856640625,-9.9694375,-6.92275390625,-26.48467578125,-29.51969921875,-20.59576171875,3.6894140625,-30.96094140625,-22.3108828125,-21.515578125,-6.73006640625
-8.7562890625,-6.3148671875,-6.67389453125,-15.51591015625,-26.35466796875,-19.29830078125,-17.2976796875,-5.46695703125,-21.21635546875,-24.88146484375,-28.699484375,-18.29316796875,-11.633390625,-22.990578125,-30.334734375,-23.60725390625,-5.4272109375,-15.7859921875,-26.14974609375,-26.3826640625,-10.6784375,-5.64275390625,-24.20167578125,-28.01169921875,-20.97876171875,0.1994140625,-29.71394140625,-20.7038828125,-20.728578125,-9.76506640625
-12.1102890625,-1.8478671875,-0.849894531249999,-12.32691015625,-19.81066796875,-11.38430078125,-8.3256796875,-1.23995703125,-17.57135546875,-18.34346484375,-18.924484375,-12.07316796875,-6.386390625,-18.978578125,-22.771734375,-16.66925390625,-3.4952109375,-12.8309921875,-22.32374609375,-21.7396640625,-9.8284375,-3.92275390625,-20.58567578125,-24.26469921875,-19.48776171875,-3.3375859375,-25.67394140625,-17.1828828125,-17.865578125,-12.13306640625
-14.2942890625,2.8811328125,5.43210546875,-8.97591015625,-11.74866796875,-2.64330078125,1.6193203125,3.75804296875,-12.80635546875,-11.00946484375,-7.052484375,-3.54416796875,-1.015390625,-14.386578125,-14.052734375,-7.49025390625,-1.0972109375,-10.1239921875,-17.79774609375,-15.3296640625,-7.4904375,-2.18375390625,-16.52267578125,-19.05469921875,-16.53876171875,-6.4775859375,-19.66394140625,-12.2738828125,-13.550578125,-13.81906640625
-14.4562890625,7.7051328125,11.51310546875,-5.62191015625,-3.50866796875,5.66169921875,11.2343203125,9.36504296875,-7.38835546875,-3.97446484375,4.948515625,5.76983203125,3.160609375,-9.780578125,-5.568734375,2.38574609375,1.8607890625,-7.9719921875,-13.22174609375,-8.2096640625,-4.0064375,-0.74175390625,-12.76467578125,-13.24169921875,-12.69976171875,-8.8265859375,-12.77994140625,-6.7028828125,-8.646578125,-14.92006640625
-12.1832890625,12.4861328125,16.81010546875,-2.33291015625,3.71133203125,12.60969921875,19.4393203125,15.16904296875,-2.02635546875,2.05253515625,15.249515625,14.26583203125,5.235609375,-5.556578125,1.569265625,11.35774609375,5.2217890625,-6.4249921875,-9.00774609375,-1.3736640625,0.131562499999999,0.13024609375,-9.76667578125,-7.57669921875,-8.55676171875,-10.2255859375,-6.09394140625,-1.3548828125,-4.039578125,-15.58606640625
-7.5142890625,16.9811328125,20.81310546875,0.79008984375,9.03333203125,17.64069921875,25.3073203125,20.39104296875,2.45364453125,6.76353515625,22.468515625,20.58483203125,5.112609375,-1.956578125,6.663265625,18.11074609375,8.4167890625,-5.4169921875,-5.38974609375,4.3703359375,4.3135625,0.0592460937500001,-7.72267578125,-2.64969921875,-4.69076171875,-10.9005859375,-0.49294140625,2.7571171875,-0.493578125,-15.98506640625
-0.9272890625,20.7841328125,23.15310546875,3.58508984375,12.07633203125,20.51969921875,28.0753203125,24.06604296875,5.44464453125,10.14453515625,25.860515625,23.88983203125,3.526609375,0.905421875,9.457265625,21.90074609375,10.6617890625,-4.9379921875,-2.51974609375,8.4543359375,7.8195625,-1.49375390625,-6.71067578125,1.07030078125,-1.67576171875,-11.4095859375,3.36005859375,4.5941171875,1.397421875,-16.29106640625
6.6737109375,23.4031328125,23.73410546875,5.91108984375,13.10033203125,21.34669921875,27.3793203125,25.46904296875,6.91264453125,12.39153515625,25.430515625,24.10183203125,1.668609375,3.076421875,10.165265625,22.72874609375,11.4087890625,-5.0349921875,-0.46674609375,10.6513359375,10.0035625,-5.06975390625,-6.74367578125,3.30430078125,0.0542382812499999,-12.3285859375,5.08605859375,3.3661171875,1.293421875,-16.61006640625
13.9557109375,24.4601328125,22.85310546875,7.75608984375,13.00733203125,20.59169921875,23.6173203125,24.55104296875,7.46864453125,13.87153515625,21.962515625,21.99583203125,0.606609375,4.823421875,9.478265625,21.32674609375,10.7517890625,-5.6619921875,0.90125390625,11.2113359375,10.6435625,-10.79675390625,-7.63167578125,4.13630078125,0.47823828125,-13.7575859375,4.77205859375,-1.0438828125,-0.716578125,-16.81906640625
19.2577109375,23.9161328125,21.16610546875,9.22808984375,13.09733203125,19.00569921875,18.0853203125,22.07704296875,8.06464453125,15.08553515625,16.887515625,19.02383203125,0.802609375,6.615421875,8.451265625,18.91574609375,9.4777890625,-6.4929921875,2.02625390625,10.8883359375,10.1965625,-17.99275390625,-8.79767578125,4.15430078125,0.18823828125,-14.9865859375,3.12305859375,-7.7318828125,-3.952578125,-16.42806640625
20.9827109375,22.1471328125,19.44510546875,10.42108984375,14.54933203125,17.41269921875,12.6453203125,19.32904296875,9.47064453125,16.51453515625,11.915515625,16.77983203125,1.959609375,8.949421875,8.187265625,16.76874609375,8.6997890625,-6.9179921875,3.56525390625,10.7153359375,9.6495625,-25.10675390625,-9.27967578125,4.33130078125,0.24423828125,-14.6875859375,1.36205859375,-14.8208828125,-7.207578125,-14.67406640625
18.2577109375,19.8291328125,18.23410546875,11.25308984375,17.81333203125,16.44069921875,8.9923203125,17.49704296875,11.85164453125,18.38453515625,8.511515625,16.27783203125,3.275609375,12.072421875,9.405265625,15.74474609375,9.2837890625,-6.2899921875,6.08825390625,11.5533359375,9.9785625,-30.15775390625,-8.05567578125,5.62230078125,1.66923828125,-11.5935859375,0.79505859375,-20.0248828125,-9.125578125,-10.87006640625
11.6147109375,17.6661328125,17.60510546875,11.38308984375,22.19433203125,16.28569921875,7.9043203125,17.11904296875,14.65564453125,20.46953515625,7.435515625,17.46183203125,3.920609375,15.766421875,12.118265625,16.02174609375,11.4067890625,-4.2529921875,9.73325390625,13.6793359375,11.6005625,-31.50575390625,-4.52767578125,8.50430078125,4.89323828125,-5.2755859375,2.25005859375,-21.5048828125,-8.730578125,-4.83106640625
3.2217109375,16.1091328125,17.17810546875,10.32508984375,25.95233203125,16.64869921875,8.9663203125,17.88204296875,16.85364453125,22.11153515625,8.598515625,19.32583203125,3.441609375,19.358421875,15.625265625,17.14774609375,14.5017890625,-0.9469921875,14.06125390625,16.6803359375,14.1905625,-28.53475390625,1.14432421875,12.74130078125,9.52123828125,3.5354140625,5.72905859375,-18.5648828125,-5.812578125,2.91193359375
-3.7022890625,15.1941328125,16.38810546875,7.73408984375,27.01233203125,16.91769921875,10.9933203125,18.90504296875,17.41864453125,22.51853515625,11.276515625,20.63083203125,1.865609375,21.976421875,18.856265625,18.37974609375,17.5657890625,3.0350078125,18.21925390625,19.7103359375,16.9575625,-21.89175390625,8.05232421875,17.51030078125,14.56123828125,13.2434140625,10.45405859375,-11.8478828125,-0.969578125,11.23893359375
-6.2732890625,14.5521328125,14.84710546875,3.72308984375,24.00733203125,16.53069921875,12.8523203125,19.27304296875,15.79964453125,21.15053515625,14.520515625,20.71783203125,-0.503390625,22.897421875,20.849265625,19.08374609375,19.6247890625,6.8550078125,21.26625390625,21.9183359375,19.1205625,-13.18275390625,14.85732421875,21.76630078125,18.90123828125,22.0794140625,15.22205859375,-2.9948828125,4.663421875,18.80393359375
-3.4792890625,13.6151328125,12.56510546875,-1.04691015625,17.02633203125,15.26369921875,14.0843203125,18.47304296875,12.11764453125,17.96453515625,17.483515625,19.83283203125,-3.384390625,21.785421875,21.086265625,18.98074609375,20.1057890625,9.6870078125,22.47725390625,22.7703359375,20.2565625,-4.34075390625,20.21732421875,24.58930078125,21.72023828125,28.7244140625,18.83505859375,5.9881171875,9.820421875,24.42693359375
3.1227109375,11.8971328125,9.90310546875,-5.62991015625,7.57133203125,13.25269921875,14.8673203125,16.49204296875,6.99664453125,13.37353515625,19.536515625,18.73483203125,-6.687390625,18.711421875,19.521265625,18.11874609375,18.9697890625,10.9020078125,21.47825390625,22.1003359375,20.3675625,3.03024609375,23.12132421875,25.37930078125,22.65823828125,32.6074140625,20.43805859375,13.3651171875,13.489421875,27.39893359375
10.1407109375,9.2351328125,7.29410546875,-9.25791015625,-2.22166796875,10.75169921875,15.4603203125,13.60304296875,1.18164453125,7.97353515625,20.184515625,17.92283203125,-10.411390625,14.015421875,16.385265625,16.64874609375,16.6017890625,10.1920078125,18.24125390625,19.9773359375,19.6965625,8.07824609375,23.05432421875,23.89330078125,21.76223828125,33.8414140625,19.68305859375,18.0801171875,15.162421875,27.64293359375
14.1147109375,5.8371328125,4.91110546875,-11.68591015625,-10.57166796875,7.88669921875,15.6263203125,10.06204296875,-4.74735546875,2.24753515625,18.964515625,17.07383203125,-14.379390625,8.155421875,11.957265625,14.59974609375,13.5497890625,7.6000078125,13.01725390625,16.5343359375,18.4485625,10.75124609375,20.01432421875,20.20030078125,19.32123828125,32.9564140625,16.74005859375,19.8641171875,14.901421875,25.69593359375
13.1937109375,2.1201328125,2.54010546875,-13.20891015625,-16.64366796875,4.58569921875,14.5173203125,5.95404296875,-10.39735546875,-3.53946484375,15.465515625,15.11783203125,-18.002390625,1.657421875,6.474265625,11.79174609375,10.2657890625,3.4900078125,6.29325390625,11.9113359375,16.6155625,11.53424609375,14.43732421875,14.63730078125,15.71023828125,30.5844140625,12.17905859375,19.0601171875,13.205421875,22.49893359375
7.8197109375,-1.5018671875,-0.25589453125,-14.37091015625,-20.51366796875,0.710699218749999,11.0833203125,1.27104296875,-15.38735546875,-9.20246484375,9.552515625,10.93683203125,-20.356390625,-4.844578125,0.210265625,7.96374609375,7.0327890625,-1.5149921875,-1.21274609375,6.3393359375,14.0025625,11.04724609375,7.10732421875,7.79230078125,11.32423828125,27.2644140625,6.78305859375,16.3141171875,10.755421875,19.05693359375
0.2047109375,-4.7438671875,-3.74789453125,-15.56091015625,-22.70066796875,-3.71830078125,4.7443203125,-3.82895703125,-19.21935546875,-14.39946484375,1.630515625,4.24183203125,-20.594390625,-10.566578125,-6.364734375,3.03474609375,4.0577890625,-6.6219921875,-8.56774609375,0.2743359375,10.4615625,9.74224609375,-0.94867578125,0.47630078125,6.58623828125,23.4064140625,1.37405859375,12.2981171875,8.156421875,16.11293359375
-6.9122890625,-7.4398671875,-7.70189453125,-16.72091015625,-23.66566796875,-8.35930078125,-4.1126796875,-8.82195703125,-21.32035546875,-18.53146484375,-7.245484375,-3.96216796875,-18.425390625,-14.670578125,-12.503734375,-2.67425390625,1.5937890625,-10.9849921875,-14.74074609375,-5.5676640625,6.1605625,7.83224609375,-8.60167578125,-6.37669921875,1.96723828125,19.3644140625,-3.35794140625,7.5621171875,5.774421875,13.94593359375
-11.5112890625,-9.4618671875,-11.34289453125,-17.34991015625,-23.53166796875,-12.56130078125,-14.0856796875,-12.85795703125,-21.23535546875,-20.90446484375,-15.595484375,-11.68616796875,-14.277390625,-16.495578125,-17.307734375,-8.40525390625,-0.0912109374999996,-13.8819921875,-18.83974609375,-10.3556640625,1.6825625,5.41924609375,-14.81867578125,-11.90069921875,-2.07976171875,15.4914140625,-6.98394140625,2.5251171875,3.686421875,12.35393359375
-12.9462890625,-10.6308671875,-13.66189453125,-16.81291015625,-22.10366796875,-15.56230078125,-23.1916796875,-15.06595703125,-18.79735546875,-21.02746484375,-21.944484375,-16.89616796875,-9.044390625,-15.785578125,-19.986734375,-13.17025390625,-0.871210937500001,-14.8689921875,-20.37574609375,-13.4326640625,-2.1634375,2.68024609375,-18.87367578125,-15.53169921875,-5.25476171875,12.0564140625,-9.42494140625,-2.4618828125,1.739421875,10.78493359375
-11.8452890625,-10.7008671875,-13.86789453125,-14.76291015625,-19.05966796875,-16.75230078125,-29.5276796875,-14.95395703125,-14.21535546875,-18.84046484375,-25.238484375,-18.49416796875,-3.649390625,-12.778578125,-20.129734375,-16.07025390625,-0.916210937500001,-13.8599921875,-19.39874609375,-14.5566640625,-4.7254375,-0.0237539062499998,-20.46767578125,-17.15769921875,-7.53776171875,9.0864140625,-10.90694140625,-7.0578828125,-0.306578125,8.57393359375
-9.4942890625,-9.4468671875,-11.72789453125,-11.38491015625,-14.19766796875,-15.82130078125,-31.8076796875,-12.67295703125,-8.02335546875,-14.70646484375,-25.054484375,-16.71816796875,1.270609375,-8.074578125,-17.805734375,-16.58525390625,-0.6872109375,-11.0779921875,-16.41474609375,-13.9456640625,-5.7984375,-2.19875390625,-19.68967578125,-17.06469921875,-9.15176171875,6.2954140625,-11.76494140625,-10.8818828125,-2.585578125,5.27293359375
-7.1412890625,-6.8298671875,-7.63389453125,-7.27591015625,-7.63266796875,-12.75030078125,-29.5936796875,-8.97895703125,-0.971355468749999,-9.24146484375,-21.571484375,-12.76216796875,5.413609375,-2.402578125,-13.462734375,-14.69425390625,-0.7252109375,-6.9409921875,-12.11874609375,-12.0816640625,-5.6194375,-3.37675390625,-16.85467578125,-15.67969921875,-10.34976171875,3.2664140625,-12.17194140625,-13.5178828125,-4.942578125,0.952933593749999
-5.5192890625,-3.1058671875,-2.39389453125,-3.08791015625,0.0983320312499998,-7.74230078125,-23.2596796875,-4.89295703125,6.09564453125,-3.07846484375,-15.388484375,-7.95916796875,8.684609375,3.591421875,-7.712734375,-10.81225390625,-1.3052109375,-1.9569921875,-7.10574609375,-9.3966640625,-4.5944375,-3.31875390625,-12.33167578125,-13.26869921875,-11.14376171875,-0.1725859375,-11.94994140625,-14.5758828125,-6.891578125,-3.66906640625
-4.6462890625,1.2591328125,3.08310546875,0.77208984375,8.07233203125,-1.18730078125,-13.8286796875,-1.22895703125,12.31764453125,3.25353515625,-7.336484375,-3.13816796875,11.022609375,9.392421875,-1.171734375,-5.58925390625,-2.1732109375,3.2940078125,-1.74074609375,-6.0596640625,-3.0154375,-2.19075390625,-6.52467578125,-9.81469921875,-11.19276171875,-3.6815859375,-10.65294140625,-13.8428828125,-7.809578125,-7.47306640625
-3.9172890625,5.7751328125,8.03710546875,4.20208984375,15.18633203125,6.32369921875,-2.7586796875,1.71404296875,16.90264453125,9.32753515625,1.654515625,1.46183203125,12.254609375,14.534421875,5.585265625,0.25774609375,-2.6062109375,8.0950078125,3.73325390625,-2.0276640625,-1.0204375,-0.66075390625,-0.0136757812499999,-5.22869921875,-10.01476171875,-6.5315859375,-7.94994140625,-11.5158828125,-7.360578125,-9.53806640625
-2.4422890625,10.0841328125,11.93410546875,7.26208984375,20.45533203125,14.03069921875,8.3133203125,4.10704296875,19.25364453125,14.72453515625,10.603515625,5.82683203125,12.048609375,18.492421875,11.978265625,6.02074609375,-1.8332109375,11.5550078125,8.95925390625,2.6713359375,1.1875625,0.19124609375,6.26732421875,0.27030078125,-7.42976171875,-8.1195859375,-4.09894140625,-8.3818828125,-5.917578125,-9.81206640625
0.4747109375,13.9301328125,14.43610546875,9.98508984375,23.29733203125,21.08969921875,17.8363203125,6.25504296875,19.12464453125,18.98453515625,18.522515625,9.74583203125,10.057609375,20.712421875,17.396265625,10.97274609375,0.397789062499999,12.7450078125,13.31025390625,7.6553359375,3.1315625,-0.80975390625,11.06832421875,5.89930078125,-3.90776171875,-8.5015859375,-0.13094140625,-5.7298828125,-4.647578125,-9.39606640625
4.9197109375,17.0141328125,15.36010546875,12.25108984375,23.66433203125,26.68569921875,24.5473203125,8.22704296875,16.75064453125,21.68453515625,24.516515625,12.69883203125,6.245609375,20.793421875,21.250265625,14.38174609375,3.5047890625,11.0640078125,15.99525390625,12.1253359375,4.1175625,-4.38975390625,13.19632421875,10.45430078125,-0.52976171875,-8.5165859375,2.48805859375,-4.8988828125,-5.037578125,-10.11206640625
10.2207109375,18.8711328125,14.66310546875,13.76308984375,21.98133203125,30.12769921875,27.5963203125,9.70604296875,12.83064453125,22.57253515625,27.929515625,14.07283203125,1.209609375,18.730421875,23.095265625,15.64274609375,6.2407890625,6.6440078125,16.38625390625,15.1123359375,3.5615625,-10.28775390625,12.05332421875,12.79830078125,1.48523828125,-9.3685859375,2.60805859375,-6.6028828125,-8.062578125,-13.50606640625
15.0827109375,18.8941328125,12.44810546875,14.11608984375,18.91233203125,30.93669921875,26.6413203125,10.13204296875,8.34564453125,21.65253515625,28.451515625,13.46283203125,-3.830390625,15.011421875,22.735265625,14.49174609375,7.2667890625,0.5090078125,14.35325390625,15.8673359375,1.3475625,-17.05075390625,8.03132421875,12.42630078125,1.40023828125,-11.9005859375,0.10905859375,-10.3928828125,-13.449578125,-19.81106640625
17.9417109375,16.5591328125,8.96110546875,12.94308984375,15.07433203125,28.94369921875,21.9373203125,9.01204296875,4.26064453125,19.16053515625,26.150515625,10.78983203125,-7.443390625,10.487421875,20.259265625,11.16274609375,5.7517890625,-5.6949921875,10.39225390625,14.1793359375,-2.0144375,-22.39575390625,2.47832421875,9.74230078125,-0.62676171875,-15.9745859375,-3.85794140625,-14.6308828125,-19.510578125,-27.49006640625
17.4697109375,11.7471328125,4.56210546875,10.09008984375,10.86833203125,24.35569921875,14.3613203125,6.23004296875,1.22164453125,15.47553515625,21.434515625,6.21183203125,-8.583390625,6.077421875,16.012265625,6.37274609375,1.6937890625,-10.2899921875,5.46625390625,10.4803359375,-5.5224375,-24.07275390625,-2.76967578125,5.92230078125,-3.57376171875,-20.3335859375,-7.29094140625,-17.0688828125,-23.711578125,-33.67806640625
13.1447109375,5.0021328125,-0.29189453125,5.77008984375,6.52533203125,17.78969921875,5.3133203125,2.19804296875,-0.600355468749999,11.05553515625,15.010515625,0.0338320312499993,-7.073390625,2.478421875,10.556265625,1.14174609375,-4.1242109375,-12.1629921875,0.69325390625,5.7113359375,-8.0144375,-20.81375390625,-6.05267578125,2.43330078125,-5.98376171875,-23.0325859375,-8.18694140625,-15.7808828125,-23.710578125,-35.34806640625
5.6707109375,-2.4938671875,-5.08289453125,0.62508984375,2.29633203125,10.23769921875,-3.5496796875,-2.24895703125,-1.45835546875,6.40653515625,7.809515625,-7.21616796875,-3.762390625,-0.00157812499999999,4.613265625,-3.50925390625,-10.4312109375,-11.1039921875,-3.01274609375,1.0013359375,-8.6194375,-12.89275390625,-6.48067578125,0.44430078125,-6.61476171875,-22.3195859375,-5.44494140625,-10.0448828125,-18.404578125,-30.65306640625
-3.0602890625,-9.2548671875,-9.29389453125,-4.40391015625,-1.44966796875,2.92069921875,-10.6986796875,-6.16795703125,-1.84935546875,2.02153515625,0.834515625,-14.59416796875,-0.301390625,-1.469578125,-1.052734375,-6.89825390625,-15.8392109375,-7.7999921875,-5.20274609375,-2.7366640625,-7.1664375,-2.07075390625,-4.22167578125,0.37430078125,-5.01976171875,-17.5295859375,0.57605859375,-0.7588828125,-8.504578125,-19.83106640625
-10.5942890625,-14.0208671875,-12.50789453125,-8.42891015625,-4.37266796875,-3.04630078125,-15.1516796875,-8.90595703125,-2.34635546875,-1.75346484375,-5.092484375,-20.74416796875,1.481609375,-2.358578125,-5.834734375,-8.94925390625,-19.2092109375,-3.5319921875,-6.03674609375,-5.1716640625,-4.3694375,9.02324609375,-0.42667578125,1.71530078125,-1.81776171875,-9.5415859375,8.07305859375,9.7811171875,3.611421875,-5.24206640625
-14.9212890625,-16.2098671875,-14.51589453125,-10.99291015625,-6.43566796875,-7.04430078125,-16.7446796875,-10.36395703125,-3.49335546875,-4.85846484375,-9.558484375,-24.30916796875,0.404609375,-3.277578125,-9.492734375,-10.24925390625,-19.9632109375,0.2580078125,-6.22274609375,-6.6796640625,-1.6474375,17.77324609375,3.19832421875,3.22230078125,1.51923828125,-0.5205859375,14.41805859375,18.6801171875,14.725421875,9.47793359375
-15.3652890625,-16.0688671875,-15.33389453125,-12.21191015625,-8.00866796875,-9.13530078125,-16.0686796875,-10.93695703125,-5.67835546875,-7.53146484375,-12.624484375,-24.58716796875,-3.423390625,-4.801578125,-12.206734375,-11.75525390625,-18.2722109375,2.4300078125,-6.72774609375,-8.1196640625,-0.5724375,22.41224609375,5.03132421875,3.42330078125,3.26923828125,6.9364140625,17.15905859375,23.5051171875,21.950421875,20.75293359375
-12.8152890625,-14.4388671875,-15.13089453125,-12.52791015625,-9.59966796875,-9.89330078125,-14.0966796875,-11.16595703125,-8.90335546875,-10.13346484375,-14.653484375,-21.97716796875,-8.566390625,-7.214578125,-14.400734375,-14.24425390625,-14.9802109375,2.4790078125,-8.34074609375,-10.3426640625,-2.1584375,22.53224609375,4.14232421875,1.28130078125,2.22323828125,10.8544140625,14.99205859375,23.1761171875,23.748421875,26.32793359375
-9.1232890625,-12.2518671875,-14.09289453125,-12.28691015625,-11.41666796875,-9.97430078125,-11.7366796875,-11.31095703125,-12.61035546875,-12.84746484375,-15.998484375,-17.81716796875,-12.944390625,-10.318578125,-16.424734375,-17.80225390625,-11.2152109375,0.6470078125,-11.27374609375,-13.6836640625,-6.3174375,19.10124609375,0.62232421875,-3.30069921875,-1.77276171875,10.6554140625,8.29805859375,18.2861171875,20.379421875,25.93293359375
-6.0462890625,-10.0998671875,-12.34689453125,-11.47291015625,-13.11166796875,-9.74830078125,-9.6036796875,-11.16195703125,-15.75735546875,-15.44246484375,-16.768484375,-13.67716796875,-14.866390625,-13.428578125,-18.307734375,-21.69825390625,-7.8642109375,-2.2479921875,-15.02174609375,-17.7356640625,-11.8014375,13.97424609375,-4.51567578125,-9.38869921875,-7.73576171875,7.3044140625,-1.03794140625,10.7151171875,13.590421875,21.10893359375
-4.3792890625,-8.1138671875,-9.98389453125,-9.79691015625,-13.92166796875,-9.19130078125,-8.0476796875,-10.20495703125,-17.20135546875,-17.28746484375,-16.789484375,-10.55216796875,-13.818390625,-15.610578125,-19.721734375,-24.71925390625,-5.2442109375,-5.1819921875,-18.57474609375,-21.5176640625,-16.6994375,9.11324609375,-9.80467578125,-15.40469921875,-13.96676171875,2.7784140625,-10.39994140625,2.7681171875,5.765421875,14.37993359375
-3.7922890625,-6.1718671875,-7.14189453125,-7.01791015625,-13.09666796875,-8.01130078125,-7.2416796875,-8.00395703125,-16.21835546875,-17.63746484375,-15.769484375,-8.48916796875,-10.567390625,-16.062578125,-20.152734375,-25.74225390625,-3.1482109375,-7.3149921875,-20.84874609375,-23.9126640625,-19.2604375,5.86624609375,-13.90467578125,-19.76869921875,-18.73876171875,-0.8515859375,-17.45494140625,-3.7018828125,-1.028578125,8.17893359375
-3.3542890625,-4.1898671875,-4.03689453125,-3.25091015625,-10.33066796875,-5.89230078125,-7.1326796875,-4.51295703125,-12.87035546875,-16.00846484375,-13.501484375,-6.79316796875,-6.599390625,-14.448578125,-19.142734375,-24.18425390625,-1.1692109375,-8.2219921875,-21.09874609375,-24.1026640625,-18.5904375,4.61624609375,-15.99967578125,-21.44869921875,-20.89076171875,-2.2355859375,-20.89394140625,-7.7688828125,-5.637578125,4.04093359375
-2.2982890625,-2.2538671875,-0.90589453125,0.93808984375,-5.98966796875,-2.73030078125,-7.3036796875,-0.136957031249999,-8.03435546875,-12.43946484375,-9.995484375,-4.61716796875,-3.268390625,-11.013578125,-16.496734375,-20.12225390625,0.984789062499999,-7.8779921875,-19.13774609375,-21.7966640625,-14.8604375,4.90024609375,-15.89767578125,-20.21269921875,-20.07876171875,-1.0915859375,-20.64894140625,-9.3938828125,-7.905578125,2.30093359375
-0.4922890625,-0.5448671875,2.09510546875,4.69808984375,-1.03466796875,1.23369921875,-6.9786796875,4.50704296875,-3.07135546875,-7.51446484375,-5.495484375,-1.49416796875,-1.137390625,-6.450578125,-12.387734375,-14.13825390625,3.3637890625,-6.4929921875,-15.30674609375,-17.2366640625,-9.0394375,5.84724609375,-13.87767578125,-16.53569921875,-16.69676171875,1.9504140625,-17.61794140625,-9.0848828125,-8.398578125,2.25793359375
1.5617109375,0.7931328125,4.94110546875,7.22708984375,3.30833203125,5.45769921875,-5.3026796875,8.90304296875,0.725644531250001,-2.16646484375,-0.428484375,2.45083203125,0.148609375,-1.617578125,-7.321734375,-7.07225390625,5.8497890625,-4.3359921875,-10.29674609375,-11.0586640625,-2.3984375,6.66924609375,-10.47167578125,-11.33269921875,-11.60676171875,5.7724140625,-13.17294140625,-7.5438828125,-8.030578125,2.60593359375
3.0807109375,1.7241328125,7.69210546875,8.13108984375,6.05833203125,9.31269921875,-1.8086796875,12.85304296875,2.66264453125,2.65053515625,4.688515625,6.70283203125,1.433609375,2.778421875,-1.970734375,0.20774609375,8.3177890625,-1.6509921875,-4.90574609375,-4.0946640625,3.9385625,6.98824609375,-6.27867578125,-5.61869921875,-5.84776171875,9.2034140625,-8.66894140625,-5.4738828125,-7.742578125,1.93693359375
3.4237109375,2.3391328125,10.39610546875,7.62508984375,6.98533203125,12.35769921875,3.2583203125,16.45804296875,2.94264453125,6.31653515625,9.384515625,10.75683203125,3.369609375,6.394421875,3.066265625,6.95174609375,10.7617890625,1.3340078125,0.20025390625,2.8393359375,9.2385625,6.86424609375,-1.85467578125,-0.22369921875,-0.37476171875,11.3464140625,-5.05994140625,-3.4918828125,-8.250578125,-0.78506640625
2.3997109375,2.8381328125,12.99510546875,6.47108984375,6.80933203125,14.51969921875,8.9953203125,19.92304296875,2.55964453125,8.75853515625,13.345515625,14.41683203125,5.929609375,9.295421875,7.453265625,12.60274609375,13.2637890625,4.3660078125,4.62725390625,9.1063359375,13.2065625,6.57224609375,2.33232421875,4.37230078125,4.12223828125,11.7364140625,-2.71394140625,-2.0968828125,-9.850578125,-5.87806640625
0.4317109375,3.4701328125,15.31510546875,5.67208984375,6.87733203125,16.06169921875,14.2333203125,23.31904296875,2.81164453125,10.37853515625,16.422515625,17.75383203125,8.418609375,11.768421875,11.115265625,16.78874609375,15.8197890625,7.1150078125,8.22725390625,14.2753359375,15.8595625,6.23724609375,5.86432421875,7.99830078125,7.27323828125,10.3324140625,-1.46494140625,-1.6558828125,-12.366578125,-12.83106640625
-1.4652890625,4.4191328125,17.09910546875,6.04308984375,8.35933203125,17.34369921875,18.0123203125,26.43504296875,4.62164453125,11.69953515625,18.505515625,20.78383203125,9.949609375,14.000421875,14.031265625,19.26374609375,18.1207890625,9.1340078125,10.90925390625,18.0183359375,17.3145625,5.53624609375,8.28932421875,10.59130078125,8.92823828125,7.3644140625,-0.90894140625,-2.4388828125,-15.298578125,-20.50706640625
-1.9582890625,5.6781328125,18.09110546875,7.84408984375,11.43333203125,18.49269921875,19.8343203125,28.79904296875,7.97364453125,12.91753515625,19.387515625,23.16083203125,9.994609375,15.797421875,15.994265625,19.84174609375,19.5227890625,9.8780078125,12.43125390625,19.9823359375,17.5805625,3.66024609375,9.08432421875,11.98130078125,9.01323828125,3.1574140625,-0.74694140625,-4.6398828125,-18.086578125,-27.54306640625
0.0247109374999999,6.9921328125,18.12310546875,10.63408984375,14.99933203125,19.20669921875,19.6623203125,29.87704296875,11.80664453125,13.68453515625,18.771515625,24.21583203125,8.647609375,16.562421875,16.537265625,18.41174609375,19.3047890625,8.8360078125,12.37125390625,19.7833359375,16.4685625,-0.35875390625,7.77932421875,11.84130078125,7.46423828125,-1.9585859375,-0.95594140625,-8.3028828125,-20.321578125,-32.78406640625
4.6267109375,7.9471328125,17.20610546875,13.46508984375,17.20133203125,18.89269921875,17.7843203125,29.37004296875,14.48664453125,13.28753515625,16.479515625,23.37883203125,6.435609375,15.591421875,15.155265625,15.05574609375,17.1117890625,5.7880078125,10.33225390625,17.1933359375,13.7015625,-7.02875390625,4.24032421875,9.88430078125,4.31723828125,-7.5975859375,-1.66994140625,-13.1148828125,-21.755578125,-35.52706640625
10.7197109375,8.1671328125,15.58110546875,15.30408984375,16.45733203125,17.08669921875,14.7123203125,27.43604296875,14.63764453125,11.12753515625,12.732515625,20.65583203125,3.914609375,12.558421875,11.695265625,10.21074609375,13.2707890625,1.0740078125,6.30825390625,12.4083359375,9.2135625,-15.79675390625,-1.04967578125,6.16930078125,-0.0997617187500001,-13.1965859375,-2.88594140625,-18.2088828125,-22.175578125,-35.54806640625
16.1957109375,7.4771328125,13.68010546875,15.45308984375,12.38433203125,13.86769921875,11.0863203125,24.67504296875,11.85264453125,7.21853515625,8.270515625,16.75483203125,1.390609375,7.864421875,6.641265625,4.73674609375,8.7197890625,-4.3049921875,0.92125390625,6.2263359375,3.4635625,-24.83175390625,-6.92367578125,1.29930078125,-5.03376171875,-17.9505859375,-4.26294140625,-22.2108828125,-21.310578125,-32.97906640625
18.8027109375,5.8981328125,11.97110546875,13.76508984375,6.06333203125,9.94169921875,7.5293203125,21.82504296875,6.91264453125,2.37053515625,4.157515625,12.74183203125,-1.057390625,2.628421875,1.059265625,-0.24225390625,4.5817890625,-8.8979921875,-4.64674609375,-0.0896640625,-2.4694375,-31.49275390625,-11.83067578125,-3.69469921875,-9.40276171875,-20.9535859375,-5.21394140625,-23.6658828125,-18.916578125,-28.19606640625
17.0637109375,3.5231328125,10.75910546875,10.61808984375,-0.44566796875,6.32769921875,4.4813203125,19.35604296875,1.45664453125,-2.09846484375,1.330515625,9.46683203125,-3.305390625,-1.723578125,-3.822734375,-3.71325390625,1.6517890625,-11.2839921875,-9.08974609375,-5.2366640625,-7.2204375,-33.34475390625,-14.42867578125,-7.77969921875,-12.19376171875,-21.5245859375,-5.27694140625,-21.7078828125,-15.033578125,-21.80206640625
10.7877109375,0.4081328125,10.04110546875,6.74308984375,-5.04066796875,3.84669921875,2.0683203125,17.22604296875,-2.67835546875,-4.97246484375,0.106515625,7.13483203125,-4.920390625,-4.063578125,-7.186734375,-5.22925390625,0.0937890624999991,-10.6539921875,-11.55474609375,-8.4496640625,-9.7914375,-29.25375390625,-14.19267578125,-10.42969921875,-12.96576171875,-19.5485859375,-4.53294140625,-16.6068828125,-10.218578125,-14.67206640625
1.0397109375,-3.3908671875,9.50010546875,2.96408984375,-6.51166796875,2.70369921875,0.0883203125000001,14.97104296875,-4.22435546875,-5.77946484375,-0.0434843750000002,5.28383203125,-5.160390625,-4.063578125,-9.002734375,-5.16225390625,-0.5072109375,-7.1869921875,-12.04174609375,-9.8576640625,-10.0824375,-19.97675390625,-11.68967578125,-11.90469921875,-12.15276171875,-15.5935859375,-3.73394140625,-9.8058828125,-5.523578125,-7.89606640625
-10.2802890625,-7.6758671875,8.66610546875,-0.0989101562500001,-5.07766796875,2.35469921875,-1.9206796875,12.05904296875,-3.06435546875,-5.07146484375,-0.310484375,3.12783203125,-3.356390625,-2.374578125,-10.016734375,-4.61125390625,-0.8442109375,-2.0469921875,-11.38474609375,-10.4146640625,-8.9084375,-7.91175390625,-8.33767578125,-13.09669921875,-10.89976171875,-10.6555859375,-3.98094140625,-3.3708828125,-2.155578125,-2.53906640625
-21.0022890625,-12.0188671875,7.14010546875,-2.28191015625,-2.31366796875,1.71969921875,-4.5246796875,8.29604296875,-0.385355468749999,-4.21346484375,-2.020484375,0.0418320312499993,0.474609375,-0.395578125,-11.367734375,-4.96525390625,-1.5002109375,3.0260078125,-10.84774609375,-11.4046640625,-7.4934375,3.83124609375,-5.79267578125,-15.04369921875,-10.50276171875,-5.7275859375,-6.13894140625,0.8641171875,-0.967578125,0.717933593749999
-29.2842890625,-15.8828671875,4.77110546875,-3.92991015625,-0.48166796875,-0.327300781250001,-8.1446796875,4.01204296875,1.78764453125,-4.77646484375,-6.036484375,-4.11516796875,5.179609375,0.271421875,-14.042734375,-7.33225390625,-2.6802109375,6.3020078125,-11.56974609375,-13.8256640625,-6.8764375,12.54224609375,-5.29967578125,-18.37869921875,-11.78576171875,-1.4545859375,-10.32894140625,1.9901171875,-2.087578125,1.85293359375
-34.1722890625,-18.8828671875,1.69110546875,-5.68691015625,-1.51266796875,-4.40730078125,-12.8106796875,-0.0599570312500006,1.53764453125,-7.81446484375,-12.351484375,-8.98416796875,8.645609375,-1.535578125,-18.415734375,-12.05125390625,-4.1342109375,6.6060078125,-14.11374609375,-17.9366640625,-7.5714375,16.71324609375,-7.28467578125,-23.01569921875,-14.75376171875,1.9414140625,-15.80094140625,0.2231171875,-4.868578125,1.52793359375
-35.8572890625,-20.9538671875,-1.72089453125,-8.10491015625,-6.06966796875,-10.25430078125,-18.0336796875,-3.11695703125,-1.95935546875,-13.30846484375,-19.989484375,-13.88016796875,8.728609375,-5.992578125,-24.026734375,-18.46025390625,-5.2872109375,3.6860078125,-18.25274609375,-23.1086640625,-9.4884375,16.28924609375,-11.29367578125,-28.14569921875,-18.59676171875,4.5704140625,-21.18694140625,-3.3608828125,-8.154578125,0.877933593749999
-35.3552890625,-22.2428671875,-4.88589453125,-11.27191015625,-13.14066796875,-16.65330078125,-22.8676796875,-4.55595703125,-7.91435546875,-20.02646484375,-27.206484375,-17.93616796875,4.487609375,-12.091578125,-29.642734375,-24.96325390625,-5.4982109375,-1.6709921875,-23.01474609375,-27.9846640625,-11.9554375,12.42324609375,-16.18667578125,-32.49869921875,-21.95976171875,6.7734140625,-24.99594140625,-7.3308828125,-10.693578125,1.10993359375
-33.7052890625,-22.8048671875,-7.04689453125,-14.62291015625,-20.38366796875,-21.72430078125,-26.0836796875,-4.04095703125,-14.16835546875,-25.87946484375,-31.940484375,-20.16416796875,-3.089390625,-17.914578125,-33.604734375,-29.45325390625,-4.3192109375,-7.8379921875,-26.95174609375,-30.8936640625,-13.8044375,6.96024609375,-20.50767578125,-34.76069921875,-23.38876171875,9.0284140625,-26.13094140625,-10.3768828125,-11.545578125,3.02893359375
-31.2622890625,-22.4088671875,-7.37989453125,-17.06891015625,-25.10466796875,-23.51830078125,-26.4296796875,-1.41695703125,-18.10135546875,-28.70546484375,-32.438484375,-19.60616796875,-11.416390625,-21.343578125,-34.367734375,-30.00925390625,-1.6432109375,-12.8549921875,-28.61174609375,-30.4386640625,-13.7174375,1.82624609375,-22.92667578125,-34.01269921875,-21.86876171875,11.7384140625,-24.26594140625,-11.6468828125,-10.394578125,6.59893359375
-27.6482890625,-20.6758671875,-5.27589453125,-17.45191015625,-25.41266796875,-20.77930078125,-23.0176796875,3.28404296875,-17.84735546875,-27.15346484375,-27.889484375,-15.69916796875,-17.480390625,-20.930578125,-31.110734375,-25.68725390625,2.2967890625,-15.1219921875,-27.06974609375,-26.0736640625,-10.8334375,-1.51275390625,-22.64267578125,-30.08869921875,-17.30176171875,14.9034140625,-19.96094140625,-10.9068828125,-7.679578125,10.73393359375
-22.4352890625,-17.4908671875,-0.71089453125,-15.14891015625,-21.01266796875,-13.59830078125,-15.7826796875,9.67104296875,-13.20035546875,-21.28846484375,-18.855484375,-8.70516796875,-19.141390625,-16.536578125,-24.149734375,-17.04925390625,7.0037890625,-13.9749921875,-22.31674609375,-18.4296640625,-5.3204375,-2.40075390625,-19.62267578125,-23.68669921875,-10.69476171875,17.8774140625,-14.45294140625,-8.5338828125,-4.481578125,13.52093359375
-15.9852890625,-13.3428671875,5.53010546875,-10.46291015625,-13.27166796875,-3.56730078125,-5.7806796875,16.82104296875,-5.74335546875,-12.61446484375,-7.241484375,0.141832031249999,-15.868390625,-9.397578125,-14.933734375,-6.12625390625,11.7747890625,-9.8659921875,-15.30974609375,-9.1646640625,1.5165625,-1.03975390625,-14.56667578125,-16.15669921875,-3.83776171875,19.4734140625,-9.17194140625,-5.3318828125,-2.117578125,12.93793359375
-9.7212890625,-9.2508671875,11.99910546875,-4.54491015625,-4.56866796875,6.76269921875,4.9893203125,23.36504296875,1.91364453125,-3.48246484375,4.271515625,8.96883203125,-8.693390625,-1.566578125,-5.533734375,4.28674609375,15.7987890625,-4.0619921875,-7.59274609375,-0.3476640625,7.7405625,1.77424609375,-8.59367578125,-8.99369921875,1.44023828125,18.4964140625,-5.16794140625,-2.2008828125,-1.556578125,7.84693359375
-5.5312890625,-6.2388671875,17.11010546875,1.15908984375,2.72633203125,14.90869921875,14.2533203125,27.93504296875,7.39964453125,3.85953515625,13.164515625,15.96783203125,0.452609375,4.993421875,2.153265625,11.72274609375,18.3337890625,1.9670078125,-0.67074609375,6.3503359375,11.6655625,5.08424609375,-2.79767578125,-3.27469921875,4.09223828125,14.4224140625,-2.70094140625,0.2401171875,-2.930578125,-1.25106640625
-4.6332890625,-4.7158671875,19.81010546875,5.55508984375,7.15233203125,19.43169921875,20.3133203125,29.76104296875,9.63164453125,8.14953515625,17.981515625,20.09483203125,9.568609375,9.199421875,7.113265625,14.98374609375,18.9767890625,7.1220078125,4.55625390625,10.2423359375,12.5945625,8.14524609375,2.10832421875,0.66630078125,4.26423828125,7.8114140625,-1.24794140625,1.8571171875,-5.419578125,-12.18306640625
-6.6492890625,-4.1938671875,20.00910546875,8.30408984375,8.56133203125,20.38269921875,22.6453203125,29.07604296875,9.15164453125,9.48553515625,18.765515625,21.36983203125,17.163609375,11.119421875,9.448265625,14.46374609375,17.8547890625,10.9240078125,7.98825390625,11.6893359375,10.9895625,10.56224609375,5.87632421875,3.14530078125,3.06623828125,0.1494140625,0.0770585937500002,2.9331171875,-7.654578125,-21.91406640625
-9.5542890625,-3.5808671875,18.53010546875,9.79908984375,7.94233203125,19.04869921875,21.9503203125,27.03304296875,7.61664453125,9.02053515625,16.818515625,20.63483203125,22.376609375,11.647421875,10.059265625,11.71774609375,15.5737890625,13.3790078125,10.07025390625,11.6483359375,8.0505625,12.19024609375,8.53032421875,4.69530078125,1.82623828125,-6.8045859375,1.89705859375,3.8381171875,-8.449578125,-27.83406640625
-10.5782890625,-1.8688671875,16.59010546875,10.76608984375,6.76133203125,17.14769921875,19.5843203125,25.11704296875,6.76164453125,8.16153515625,13.879515625,18.89583203125,24.769609375,11.788421875,9.958265625,8.52974609375,12.9027890625,14.6090078125,11.27225390625,10.9593359375,4.9795625,12.90524609375,10.06232421875,5.57130078125,1.28223828125,-11.8035859375,4.09605859375,4.6401171875,-7.467578125,-28.87106640625
-7.6202890625,1.1941328125,15.10810546875,11.72708984375,6.12233203125,15.86269921875,16.6683203125,24.35104296875,7.40764453125,7.70453515625,11.169515625,16.67783203125,24.134609375,11.986421875,9.567265625,5.96074609375,10.3237890625,14.5460078125,11.62525390625,9.7983359375,2.3785625,12.41124609375,10.21532421875,5.47230078125,1.14723828125,-14.5945859375,5.74905859375,4.8741171875,-5.471578125,-25.88306640625
-0.3702890625,4.8361328125,14.23410546875,12.65108984375,6.16433203125,15.22169921875,13.3993203125,24.73404296875,9.05264453125,7.39553515625,8.784515625,13.78083203125,20.534609375,11.876421875,8.428265625,3.86574609375,7.7797890625,12.8960078125,10.60725390625,7.5853359375,0.0715624999999998,10.22624609375,8.51732421875,3.64930078125,0.28523828125,-15.8575859375,5.50905859375,3.6641171875,-3.996578125,-21.16806640625
9.4097109375,7.5581328125,13.36910546875,13.02408984375,6.05733203125,14.21069921875,9.0903203125,25.24104296875,10.26364453125,6.16953515625,5.801515625,9.59683203125,14.505609375,10.569421875,5.504265625,1.13474609375,4.8107890625,9.3860078125,7.46725390625,3.4203359375,-2.6074375,5.89924609375,4.56332421875,-0.65469921875,-2.59876171875,-16.6615859375,2.28205859375,0.1691171875,-4.567578125,-17.31506640625
18.6127109375,7.8341328125,11.59510546875,12.26608984375,4.61133203125,11.49669921875,2.8893203125,24.37404296875,9.56564453125,2.87753515625,0.985515625,3.72383203125,7.119609375,7.265421875,-0.0957343749999998,-3.48925390625,1.0377890625,4.0960078125,1.78125390625,-3.2266640625,-6.3114375,-0.61575390625,-1.60667578125,-7.66069921875,-8.16176171875,-17.7905859375,-4.14194140625,-5.8338828125,-7.870578125,-16.01506640625
24.0967109375,4.8291328125,8.21210546875,10.13608984375,1.06533203125,6.27169921875,-5.3906796875,20.92204296875,6.22464453125,-2.95246484375,-6.348484375,-3.57216796875,-0.265390625,1.785421875,-8.435734375,-10.57125390625,-3.3832109375,-2.3669921875,-6.11174609375,-12.0026640625,-11.2854375,-8.65275390625,-9.28667578125,-16.71469921875,-15.96276171875,-19.3615859375,-12.83694140625,-13.5868828125,-13.327578125,-17.39706640625
23.9607109375,-1.2108671875,3.07510546875,6.86308984375,-4.41466796875,-1.27230078125,-14.9286796875,14.54704296875,0.507644531250001,-10.79446484375,-15.823484375,-11.37616796875,-6.477390625,-5.282578125,-18.541734375,-19.59825390625,-7.7122109375,-8.9749921875,-15.08774609375,-21.6626640625,-17.2654375,-16.81775390625,-17.20067578125,-26.37469921875,-24.57576171875,-20.9095859375,-21.99494140625,-21.4368828125,-19.304578125,-20.19706640625
18.1887109375,-9.0458671875,-3.35889453125,3.02408984375,-10.79466796875,-10.00230078125,-24.1966796875,5.96404296875,-6.57435546875,-19.33446484375,-26.065484375,-18.53416796875,-10.915390625,-12.843578125,-28.736734375,-29.18225390625,-11.0522109375,-14.5919921875,-23.61774609375,-30.5216640625,-23.5594375,-23.29875390625,-23.89467578125,-34.84969921875,-32.15376171875,-21.7525859375,-29.53894140625,-27.3478828125,-23.798578125,-22.52306640625
8.4607109375,-16.8908671875,-10.20789453125,-0.65891015625,-16.65466796875,-18.26630078125,-31.6086796875,-3.29595703125,-13.74235546875,-27.03846484375,-35.228484375,-24.16616796875,-13.577390625,-19.726578125,-37.282734375,-37.62725390625,-12.9242109375,-18.3399921875,-30.33774609375,-37.0826640625,-29.1764375,-26.43875390625,-28.23267578125,-40.58369921875,-37.08076171875,-21.3355859375,-33.81994140625,-29.6428828125,-25.243578125,-22.76306640625
-2.6482890625,-23.0218671875,-16.46389453125,-3.53091015625,-20.81766796875,-24.49630078125,-36.1306796875,-11.44195703125,-19.86535546875,-32.74046484375,-41.686484375,-27.94716796875,-14.795390625,-25.076578125,-42.976734375,-43.52125390625,-13.5402109375,-19.8739921875,-34.51174609375,-40.5266640625,-33.0104375,-25.37475390625,-29.78567578125,-42.73869921875,-38.46176171875,-19.3995859375,-34.10494140625,-27.6538828125,-23.086578125,-20.19706640625
-12.6052890625,-26.3188671875,-21.28689453125,-5.23291015625,-22.82366796875,-27.75330078125,-37.5806796875,-17.04395703125,-24.19735546875,-35.97446484375,-44.566484375,-30.05416796875,-14.927390625,-28.522578125,-45.458734375,-46.11225390625,-13.5762109375,-19.4599921875,-36.17374609375,-40.8666640625,-34.1514375,-20.45475390625,-28.93367578125,-41.41469921875,-36.29576171875,-16.0075859375,-30.73894140625,-22.0288828125,-17.940578125,-15.14206640625
-19.5422890625,-26.5578671875,-24.20289453125,-5.85291015625,-23.01866796875,-27.99530078125,-36.5026796875,-19.45095703125,-26.43235546875,-36.96346484375,-43.912484375,-30.86416796875,-14.217390625,-30.122578125,-45.109734375,-45.35825390625,-13.6632109375,-17.8209921875,-35.92174609375,-38.7516640625,-32.2264375,-13.21475390625,-26.62967578125,-37.52869921875,-31.36076171875,-11.4925859375,-24.93694140625,-14.5168828125,-11.313578125,-8.70406640625
-22.3902890625,-24.3438671875,-25.10689453125,-5.86691015625,-22.25866796875,-25.93930078125,-33.7326796875,-18.84695703125,-26.63835546875,-36.34846484375,-40.468484375,-30.61116796875,-12.810390625,-30.161578125,-42.672734375,-41.72125390625,-13.9462109375,-15.8319921875,-34.50874609375,-35.0626640625,-27.5384375,-5.84675390625,-23.96667578125,-32.40869921875,-24.88476171875,-6.3935859375,-18.33494140625,-7.2948828125,-5.029578125,-2.30706640625
-20.6992890625,-20.7008671875,-24.14489453125,-5.87891015625,-21.43066796875,-22.65430078125,-29.9346796875,-15.98195703125,-25.17235546875,-34.84246484375,-35.249484375,-29.21116796875,-10.836390625,-28.961578125,-38.857734375,-35.87725390625,-14.0072109375,-14.2009921875,-32.49574609375,-30.5446640625,-20.9514375,-0.38375390625,-21.75567578125,-27.31669921875,-18.16676171875,-1.3905859375,-12.47594140625,-2.1478828125,-0.603578125,2.75693359375
-14.5062890625,-16.5608671875,-21.57289453125,-6.29791015625,-21.05766796875,-19.14230078125,-25.4296796875,-11.77795703125,-22.61435546875,-32.96846484375,-29.173484375,-26.33116796875,-8.499390625,-26.812578125,-34.159734375,-28.55325390625,-13.1102109375,-13.2809921875,-30.13974609375,-25.6686640625,-13.6324375,2.01724609375,-20.33067578125,-23.11869921875,-12.29376171875,2.7354140625,-8.42294140625,0.1041171875,1.186421875,5.59693359375
-4.4992890625,-12.4228671875,-17.69289453125,-7.10391015625,-21.11866796875,-16.04630078125,-20.3326796875,-6.99195703125,-19.64735546875,-30.96446484375,-22.893484375,-21.65816796875,-6.105390625,-23.983578125,-28.916734375,-20.51925390625,-10.6322109375,-13.0409921875,-27.50474609375,-20.7246640625,-6.8134375,1.41124609375,-19.60267578125,-20.19869921875,-8.00876171875,5.1744140625,-6.59894140625,-0.2818828125,0.383421875,5.79593359375
7.6847109375,-8.3508671875,-12.86789453125,-7.78291015625,-21.08266796875,-13.52630078125,-14.8256796875,-2.07395703125,-16.81335546875,-28.81746484375,-16.855484375,-15.27616796875,-4.001390625,-20.739578125,-23.445734375,-12.66325390625,-6.4732109375,-13.1729921875,-24.63474609375,-16.0006640625,-1.5654375,-1.07975390625,-19.25267578125,-18.54769921875,-5.67176171875,5.2614140625,-6.83294140625,-2.2818828125,-2.333578125,3.38793359375
19.4937109375,-4.2148671875,-7.58889453125,-7.46991015625,-20.15266796875,-11.30330078125,-9.3426796875,2.75404296875,-14.26235546875,-26.37746484375,-11.435484375,-7.95316796875,-2.435390625,-17.314578125,-18.100734375,-5.94925390625,-1.2772109375,-13.2419921875,-21.61774609375,-11.8566640625,1.4415625,-3.78775390625,-18.90667578125,-17.87869921875,-5.23676171875,2.7494140625,-8.51494140625,-4.5938828125,-5.967578125,-1.15306640625
28.1397109375,0.00913281249999898,-2.49789453125,-5.32091015625,-17.65666796875,-8.90530078125,-4.5666796875,7.26704296875,-11.72535546875,-23.49246484375,-7.026484375,-1.11616796875,-1.416390625,-13.857578125,-13.224734375,-1.23325390625,3.6797890625,-12.8459921875,-18.53474609375,-8.6366640625,2.1415625,-5.16975390625,-18.21567578125,-17.71669921875,-6.25176171875,-1.9615859375,-10.77394140625,-6.0918828125,-9.488578125,-6.93106640625
31.6747109375,4.0741328125,1.67310546875,-0.94991015625,-13.42866796875,-5.99730078125,-1.2466796875,11.06604296875,-8.76935546875,-20.11146484375,-3.993484375,3.61083203125,-0.683390625,-10.419578125,-9.060734375,1.00974609375,6.9567890625,-11.7069921875,-15.37874609375,-6.5026640625,1.0815625,-4.37375390625,-16.86467578125,-17.48769921875,-7.94576171875,-7.8255859375,-12.66994140625,-6.1188828125,-12.057578125,-12.74006640625
29.8547109375,7.5011328125,4.30510546875,5.28708984375,-7.90266796875,-2.59830078125,0.1223203125,13.63204296875,-5.13435546875,-16.29746484375,-2.501484375,5.16483203125,0.167609375,-6.962578125,-5.681734375,0.88574609375,7.6087890625,-9.6879921875,-12.03274609375,-5.3146640625,-0.8304375,-1.46175390625,-14.57867578125,-16.63069921875,-9.46076171875,-13.4275859375,-13.39294140625,-4.5738828125,-13.168578125,-17.30906640625
24.2807109375,9.7951328125,5.12510546875,12.29308984375,-1.85166796875,0.915699218749999,-0.4416796875,14.60104296875,-0.891355468749999,-12.15746484375,-2.345484375,3.68083203125,1.384609375,-3.369578125,-2.988734375,-0.91325390625,5.7247890625,-6.7399921875,-8.34574609375,-4.6486640625,-2.7254375,2.75024609375,-11.16167578125,-14.73669921875,-10.13376171875,-17.4065859375,-12.44994140625,-1.8308828125,-12.695578125,-19.62106640625
17.7297109375,10.7101328125,4.33510546875,18.51908984375,4.03933203125,3.96869921875,-2.3986796875,14.02504296875,3.60364453125,-7.73946484375,-2.918484375,0.56383203125,2.765609375,0.504421875,-0.760734375,-3.31325390625,2.5017890625,-2.8559921875,-4.23874609375,-3.9246640625,-4.0684375,7.09624609375,-6.57767578125,-11.64569921875,-9.68076171875,-18.8075859375,-9.77094140625,1.4511171875,-10.853578125,-19.17506640625
13.0207109375,10.3791328125,2.50910546875,22.43108984375,9.44433203125,5.97269921875,-5.0006796875,12.36804296875,7.84564453125,-3.01546484375,-3.409484375,-2.12616796875,3.631609375,4.748421875,1.218265625,-5.21825390625,-0.2772109375,1.9090078125,0.21925390625,-2.6116640625,-4.7184375,10.49324609375,-1.00167578125,-7.47769921875,-8.20276171875,-17.2425859375,-5.67094140625,4.5781171875,-8.068578125,-16.04706640625
11.9257109375,9.2211328125,0.297105468750001,23.06408984375,14.37933203125,6.52769921875,-7.6846796875,10.24304296875,11.36364453125,2.05053515625,-3.155484375,-2.68216796875,3.203609375,9.328421875,3.067265625,-5.90925390625,-1.1312109375,7.4130078125,4.83425390625,-0.4236640625,-4.7894375,12.28724609375,5.22332421875,-2.54769921875,-6.02076171875,-12.8885859375,-0.67394140625,7.0461171875,-4.805578125,-10.76806640625
14.5677109375,7.6851328125,-1.86989453125,20.49208984375,19.02333203125,5.63069921875,-10.2336796875,8.09104296875,13.95964453125,7.42453515625,-1.953484375,-0.583167968750001,1.163609375,14.112421875,4.808265625,-5.29325390625,0.385789062499999,13.4340078125,9.41625390625,2.5923359375,-4.4974375,12.46724609375,11.74732421875,2.78130078125,-3.48576171875,-6.3965859375,4.72805859375,8.7251171875,-1.398578125,-4.07806640625
19.5017109375,6.0451328125,-3.90089453125,15.95608984375,23.56533203125,3.80069921875,-12.6806796875,6.02604296875,15.88464453125,12.97953515625,-0.130484375,3.30783203125,-2.012390625,18.967421875,6.457265625,-3.89025390625,3.4987890625,19.7200078125,13.90925390625,6.0873359375,-4.0904375,11.66524609375,18.35532421875,8.23830078125,-0.86076171875,1.2054140625,10.22905859375,9.8961171875,2.015421875,3.26193359375
19.5017109375,6.0451328125,-3.90089453125,15.95608984375,23.56533203125,3.80069921875,-12.6806796875,6.02604296875,15.88464453125,12.97953515625,-0.130484375,3.30783203125,-2.012390625,18.967421875,6.457265625,-3.89025390625,3.4987890625,19.7200078125,13.90925390625,6.0873359375,-4.0904375,11.66524609375,18.35532421875,8.23830078125,-0.86076171875,1.2054140625,10.22905859375,9.8961171875,2.015421875,3.26193359375
