"Fp1","Fpz","Fp2","F7","F3","Fz","F4","F8","FC5","FC1","FC2","FC6","T7","C3","Cz","C4","T8","CP5","CP1","CP2","CP6","P7","P3","Pz","P4","P8","POz","O1","Oz","O2"
-1.27485546875,-1.69321484375,0.703742187500001,-3.44397265625,-2.1453671875,-2.11687890625,2.55158984375,3.375671875,5.997734375,-3.23349609375,-2.71937109375,3.92529296875,-4.41184765625,0.6894765625,-10.19035546875,3.53298046875,-4.92465625,-1.84669140625,-0.53352734375,3.04559765625,0.52180078125,-0.989441406249999,-0.64483203125,3.7584609375,1.14933203125,-6.730078125,-0.81030078125,3.0223515625,0.6960390625,-1.92576171875
-1.01385546875,-2.82821484375,-0.7142578125,-0.24497265625,-2.0603671875,-1.07687890625,2.81658984375,3.538671875,7.208734375,-1.27249609375,-1.76237109375,4.26429296875,-2.92184765625,0.8554765625,-9.58635546875,3.33998046875,-2.79665625,-1.84469140625,-0.74552734375,3.22959765625,0.81180078125,-4.65644140625,-0.92483203125,2.4314609375,0.66833203125,-5.766078125,-1.87030078125,-0.9416484375,-2.1829609375,-4.91576171875
-1.80185546875,-3.82121484375,-2.0202578125,-0.13897265625,-1.9513671875,-0.40787890625,3.01658984375,3.304671875,7.740734375,-0.0864960937500001,-1.10137109375,4.17929296875,-2.74484765625,0.7444765625,-9.37035546875,3.05598046875,-1.72865625,-2.68569140625,-1.19252734375,3.23459765625,1.09780078125,-8.38544140625,-1.74583203125,1.1304609375,0.25833203125,-5.133078125,-2.91830078125,-4.1486484375,-4.3739609375,-6.74376171875
-3.50285546875,-4.44921484375,-3.0012578125,-2.74497265625,-1.8423671875,-0.0518789062499998,3.11358984375,2.691671875,7.730734375,0.40750390625,-0.72737109375,3.76229296875,-3.90884765625,0.5294765625,-9.40635546875,2.83398046875,-1.63165625,-4.06969140625,-1.66452734375,3.21559765625,1.44980078125,-11.75544140625,-2.85683203125,0.0384609375,0.0763320312500002,-4.872078125,-3.75430078125,-6.3446484375,-5.6179609375,-7.20176171875
-5.49885546875,-4.46221484375,-3.4212578125,-6.46197265625,-1.6573671875,0.21912109375,3.16758984375,1.917671875,7.640734375,0.57750390625,-0.49337109375,3.30629296875,-5.95384765625,0.5404765625,-9.37235546875,2.91898046875,-2.04665625,-5.33169140625,-1.80952734375,3.44459765625,1.96680078125,-14.23544140625,-3.77783203125,-0.5925390625,0.29833203125,-4.891078125,-4.11130078125,-7.4236484375,-5.7839609375,-6.37076171875
-6.98385546875,-3.75221484375,-3.1692578125,-9.26397265625,-1.2383671875,0.66712109375,3.32958984375,1.308671875,8.015734375,0.85650390625,-0.18337109375,3.14329296875,-8.04984765625,1.0574765625,-8.94035546875,3.49998046875,-2.40765625,-5.84469140625,-1.34652734375,4.13359765625,2.69880078125,-15.49944140625,-4.09383203125,-0.5685390625,1.00033203125,-5.008078125,-3.81630078125,-7.4726484375,-4.9519609375,-4.58876171875
-7.40585546875,-2.51621484375,-2.3972578125,-9.61997265625,-0.5003671875,1.43912109375,3.74258984375,1.131671875,9.181734375,1.50850390625,0.36162890625,3.47529296875,-9.24384765625,2.0984765625,-7.97735546875,4.56898046875,-2.34365625,-5.38669140625,-0.26852734375,5.27559765625,3.56580078125,-15.59644140625,-3.68283203125,0.1164609375,2.05333203125,-5.048078125,-2.91430078125,-6.7806484375,-3.4589609375,-2.39876171875
-6.78085546875,-1.25021484375,-1.5152578125,-7.09197265625,0.4546328125,2.48812109375,4.45358984375,1.486671875,11.081734375,2.52650390625,1.15762890625,4.27529296875,-8.72684765625,3.3844765625,-6.62135546875,5.87998046875,-1.82065625,-4.22469140625,1.13147265625,6.60459765625,4.33780078125,-14.84744140625,-2.74083203125,1.2534609375,3.13933203125,-4.963078125,-1.67130078125,-5.7286484375,-1.8069609375,-0.41476171875
-5.67985546875,-0.565214843750001,-1.0172578125,-2.37797265625,1.3946328125,3.60612109375,5.41258984375,2.289671875,13.331734375,3.66950390625,2.07462890625,5.32429296875,-6.10984765625,4.4894765625,-5.21835546875,7.03798046875,-1.10165625,-2.86569140625,2.40747265625,7.70759765625,4.69880078125,-13.59744140625,-1.63783203125,2.4884609375,3.87433203125,-4.879078125,-0.47430078125,-4.6396484375,-0.4599609375,0.86423828125
-4.96185546875,-0.91121484375,-1.2712578125,3.05602734375,2.0916328125,4.50912109375,6.48358984375,3.300671875,15.403734375,4.60050390625,2.87762890625,6.29729296875,-1.66684765625,5.0494765625,-4.18435546875,7.62698046875,-0.60365625,-1.75369140625,3.16247265625,8.17259765625,4.34180078125,-12.05444140625,-0.740832031250001,3.4144609375,3.94433203125,-5.075078125,0.31169921875,-3.6976484375,0.3180390625,1.18923828125
-5.40785546875,-2.41521484375,-2.4002578125,7.50402734375,2.3836328125,4.90712109375,7.39858984375,4.121671875,16.806734375,5.01150390625,3.26562890625,6.82629296875,3.60215234375,4.9014765625,-3.89235546875,7.30798046875,-0.75065625,-1.10369140625,3.16447265625,7.69459765625,3.03580078125,-10.34644140625,-0.302832031250001,3.6574609375,3.18533203125,-5.890078125,0.41969921875,-2.9796484375,0.4790390625,0.56423828125
-7.41885546875,-4.87021484375,-4.2882578125,9.57402734375,2.1716328125,4.57012109375,7.75858984375,4.280671875,17.227734375,4.72150390625,2.93262890625,6.57229296875,8.26415234375,4.0974765625,-4.57235546875,5.89198046875,-1.84865625,-0.91769140625,2.39047265625,6.14459765625,0.69880078125,-8.62444140625,-0.429832031250001,2.9664609375,1.59833203125,-7.579078125,-0.28130078125,-2.5256484375,0.1160390625,-0.82976171875
-10.80485546875,-7.80821484375,-6.6312578125,8.67302734375,1.4576328125,3.41512109375,7.17558984375,3.414671875,16.618734375,3.72750390625,1.70362890625,5.32829296875,11.05715234375,2.8674765625,-6.22235546875,3.42598046875,-3.95065625,-1.06569140625,1.01847265625,3.61059765625,-2.51719921875,-7.06744140625,-1.06383203125,1.3204609375,-0.65566796875,-10.146078125,-1.74930078125,-2.3226484375,-0.5959609375,-2.69776171875
-14.73985546875,-10.60421484375,-8.9952578125,5.25002734375,0.3816328125,1.57512109375,5.47958984375,1.492671875,15.218734375,2.22650390625,-0.35237109375,3.13729296875,11.42915234375,1.5414765625,-8.56435546875,0.25198046875,-6.76465625,-1.34669140625,-0.61252734375,0.43059765625,-6.17719921875,-5.77144140625,-1.98983203125,-0.9985390625,-3.25466796875,-13.256078125,-3.74830078125,-2.2396484375,-1.4139609375,-4.66376171875
-17.97685546875,-12.63421484375,-10.9102578125,0.64202734375,-0.8203671875,-0.62687890625,2.83958984375,-1.122328125,13.456734375,0.54850390625,-2.90537109375,0.34229296875,9.65715234375,0.4494765625,-11.09935546875,-3.02801953125,-9.68565625,-1.54769140625,-2.10152734375,-2.85540234375,-9.64219921875,-4.68444140625,-2.88483203125,-3.4625390625,-5.76066796875,-16.292078125,-5.86130078125,-2.0176484375,-2.0659609375,-6.32476171875
-19.33985546875,-13.47021484375,-11.9972578125,-3.46297265625,-1.9273671875,-2.80287890625,-0.27941015625,-3.799328125,11.767734375,-0.98049609375,-5.49537109375,-2.50470703125,6.56915234375,-0.2015234375,-13.28735546875,-5.73801953125,-11.98565625,-1.51269140625,-3.13852734375,-5.64240234375,-12.25819921875,-3.68444140625,-3.42883203125,-5.4865390625,-7.72266796875,-18.553078125,-7.59230078125,-1.3816484375,-2.3369609375,-7.35476171875
-18.24985546875,-13.04321484375,-12.0722578125,-5.70697265625,-2.8253671875,-4.65187890625,-3.26941015625,-5.884328125,10.430734375,-2.19749609375,-7.71137109375,-4.81270703125,3.12515234375,-0.4285234375,-14.75035546875,-7.38101953125,-13.09665625,-1.22169140625,-3.61752734375,-7.45140234375,-13.56519921875,-2.71944140625,-3.45083203125,-6.6615390625,-8.80066796875,-19.499078125,-8.53030078125,-0.2066484375,-2.1619609375,-7.59176171875
-14.97785546875,-11.63421484375,-11.1662578125,-5.58997265625,-3.5213671875,-6.05987890625,-5.56541015625,-6.920328125,9.469734375,-3.17149609375,-9.31637109375,-6.14370703125,0.13215234375,-0.4695234375,-15.41335546875,-7.83101953125,-12.83365625,-0.80369140625,-3.65452734375,-8.09040234375,-13.44119921875,-1.88144140625,-2.99983203125,-6.8975390625,-8.86866796875,-18.946078125,-8.48030078125,1.3693515625,-1.6639609375,-7.07776171875
-10.49685546875,-9.71421484375,-9.4782578125,-3.65897265625,-4.1213671875,-7.07887890625,-6.81741015625,-6.787328125,8.668734375,-4.12149609375,-10.26037109375,-6.35270703125,-1.88784765625,-0.6805234375,-15.48935546875,-7.33301953125,-11.46165625,-0.49369140625,-3.49952734375,-7.70040234375,-12.11519921875,-1.37444140625,-2.31883203125,-6.4265390625,-8.04166796875,-17.129078125,-7.53130078125,2.9543515625,-1.0969609375,-6.03076171875
-6.05185546875,-7.73321484375,-7.3182578125,-1.26697265625,-4.7833671875,-7.82587890625,-6.98541015625,-5.704328125,7.682734375,-5.24149609375,-10.61337109375,-5.60870703125,-2.75584765625,-1.3675234375,-15.33835546875,-6.33501953125,-9.56465625,-0.53569140625,-3.40952734375,-6.67040234375,-10.07519921875,-1.41044140625,-1.72383203125,-5.6715390625,-6.62166796875,-14.609078125,-6.00130078125,4.0273515625,-0.7459609375,-4.77476171875
-2.67985546875,-5.98121484375,-5.0242578125,0.0460273437500001,-5.6153671875,-8.36487890625,-6.29141015625,-4.072328125,6.234734375,-6.54449609375,-10.46637109375,-4.28770703125,-2.65684765625,-2.6215234375,-15.26335546875,-5.23401953125,-7.78165625,-1.07269140625,-3.53252734375,-5.45740234375,-7.87819921875,-2.13744140625,-1.47583203125,-5.0555390625,-4.96966796875,-12.061078125,-4.32730078125,4.1523515625,-0.7999609375,-3.63076171875
-0.87085546875,-4.54321484375,-2.8592578125,-0.69697265625,-6.5273671875,-8.63387890625,-5.05341015625,-2.262328125,4.322734375,-7.79949609375,-9.85137109375,-2.78670703125,-2.08684765625,-4.2335234375,-15.35035546875,-4.19601953125,-6.54365625,-2.07869140625,-3.83752734375,-4.39240234375,-5.95119921875,-3.59344140625,-1.68083203125,-4.8255390625,-3.38066796875,-10.034078125,-2.89730078125,3.1833515625,-1.2679609375,-2.81176171875
-0.45785546875,-3.33621484375,-0.9432578125,-3.39397265625,-7.1903671875,-8.45887890625,-3.52341015625,-0.470328125,2.312734375,-8.59449609375,-8.73537109375,-1.35670703125,-1.64084765625,-5.7275234375,-15.43235546875,-3.13901953125,-5.92365625,-3.34269140625,-4.13452734375,-3.55540234375,-4.46719921875,-5.65444140625,-2.24983203125,-4.9595390625,-1.98266796875,-8.788078125,-1.91930078125,1.3623515625,-1.9659609375,-2.36376171875
-0.76985546875,-2.20421484375,0.7487421875,-6.85697265625,-7.1683671875,-7.65387890625,-1.83641015625,1.259671875,0.820734375000001,-8.50549609375,-7.08037109375,-0.0497070312500001,-1.72184765625,-6.5255234375,-15.18735546875,-1.87801953125,-5.65565625,-4.53269140625,-4.15452734375,-2.78840234375,-3.33019921875,-8.00844140625,-2.90383203125,-5.1935390625,-0.73266796875,-8.245078125,-1.35430078125,-0.7356484375,-2.5909609375,-2.17776171875
-0.96085546875,-1.01521484375,2.3007421875,-9.32197265625,-6.1533671875,-6.14687890625,-0.0654101562499998,2.916671875,0.448734375000001,-7.29049609375,-4.92937109375,1.21429296875,-2.35684765625,-6.1835234375,-14.32135546875,-0.30901953125,-5.30465625,-5.31969140625,-3.65452734375,-1.82440234375,-2.28319921875,-10.19044140625,-3.27783203125,-5.1415390625,0.53133203125,-8.065078125,-0.97030078125,-2.4216484375,-2.8469609375,-2.06476171875
-0.40785546875,0.27778515625,3.7797421875,-9.27097265625,-4.1363671875,-4.06187890625,1.72158984375,4.430671875,1.515734375,-5.02749609375,-2.46437109375,2.52929296875,-3.23684765625,-4.5795234375,-12.72935546875,1.47998046875,-4.51365625,-5.50169140625,-2.51652734375,-0.45940234375,-1.06019921875,-11.75344140625,-3.07883203125,-4.4715390625,1.97233203125,-7.805078125,-0.49030078125,-3.1646484375,-2.5499609375,-1.83776171875
0.99914453125,1.62878515625,5.1927421875,-6.20397265625,-1.4523671875,-1.70287890625,3.40858984375,5.646671875,3.902734375,-2.12649609375,0.00662890625000001,3.89529296875,-3.95384765625,-1.9915234375,-10.57135546875,3.23198046875,-3.20265625,-5.09069140625,-0.79652734375,1.32159765625,0.44780078125,-12.47544140625,-2.22483203125,-3.0515390625,3.65933203125,-7.127078125,0.26969921875,-2.7796484375,-1.6879609375,-1.37476171875
2.83014453125,2.90878515625,6.4727421875,-0.97097265625,1.3116328125,0.51912109375,4.80258984375,6.365671875,7.060734375,0.80350390625,2.09962890625,5.18029296875,-4.23884765625,0.9764765625,-8.24235546875,4.63198046875,-1.64265625,-4.30769140625,1.25847265625,3.30159765625,2.09280078125,-12.46744140625,-0.89483203125,-1.0375390625,5.48233203125,-5.995078125,1.31269921875,-1.4656484375,-0.4209609375,-0.66676171875
4.33714453125,3.89278515625,7.4537421875,4.57502734375,3.4786328125,2.18312109375,5.63058984375,6.411671875,10.169734375,3.12050390625,3.42862890625,6.13129296875,-4.05284765625,3.5724765625,-6.25735546875,5.40898046875,-0.35265625,-3.49569140625,3.23847265625,5.07559765625,3.46380078125,-12.09144140625,0.53516796875,1.1344609375,7.13833203125,-4.755078125,2.43969921875,0.2903515625,0.9590390625,0.14823828125
4.83514453125,4.25978515625,7.8677421875,8.45702734375,4.4956328125,2.92012109375,5.60358984375,5.708671875,12.393734375,4.29350390625,3.68062890625,6.43429296875,-3.54884765625,5.0994765625,-5.12735546875,5.36398046875,0.12034375,-2.98969140625,4.63847265625,6.14159765625,4.01880078125,-11.74344140625,1.60716796875,2.8564609375,8.17433203125,-4.038078125,3.29569921875,1.8873515625,2.0780390625,0.77823828125
4.00014453125,3.67278515625,7.3957421875,9.45502734375,4.0896328125,2.47612109375,4.50658984375,4.319671875,13.144734375,4.00750390625,2.68162890625,5.80529296875,-2.96184765625,5.1024765625,-5.25335546875,4.34898046875,-0.56765625,-3.01569140625,4.98947265625,6.02759765625,3.29280078125,-11.64244140625,1.92116796875,3.5194609375,8.12833203125,-4.485078125,3.47269921875,2.7893515625,2.5730390625,0.867238281250001
1.96714453125,1.94978515625,5.8037421875,7.50302734375,2.3176328125,0.77212109375,2.28958984375,2.428671875,12.232734375,2.23350390625,0.46062890625,4.09529296875,-2.50484765625,3.4904765625,-6.82735546875,2.28298046875,-2.42365625,-3.64069140625,4.01547265625,4.44359765625,1.11580078125,-11.74144140625,1.27116796875,2.7234609375,6.71733203125,-6.406078125,2.67869921875,2.6943515625,2.2040390625,0.15523828125
-0.79485546875,-0.78721484375,3.1057421875,3.50802734375,-0.4753671875,-2.01487890625,-0.86841015625,0.284671875,9.900734375,-0.72349609375,-2.70637109375,1.38829296875,-2.25784765625,0.5814765625,-9.74235546875,-0.75201953125,-5.10065625,-4.77969140625,1.77047265625,1.43059765625,-2.26619921875,-11.78844140625,-0.26783203125,0.4454609375,4.01633203125,-9.549078125,0.89269921875,1.6313515625,0.9730390625,-1.35676171875
-3.73785546875,-4.09021484375,-0.3652578125,-1.19897265625,-3.7333671875,-5.42387890625,-4.52341015625,-1.844328125,6.735734375,-4.26749609375,-6.29637109375,-1.94370703125,-2.12884765625,-2.9755234375,-13.54835546875,-4.40801953125,-7.99765625,-6.22569140625,-1.32052734375,-2.57540234375,-6.21419921875,-11.52444140625,-2.35683203125,-2.9035390625,0.49733203125,-13.125078125,-1.58930078125,-0.0586484375,-0.8319609375,-3.34276171875
-6.49485546875,-7.35121484375,-4.0562578125,-5.43597265625,-6.8203671875,-8.79387890625,-8.04041015625,-3.721328125,3.481734375,-7.67149609375,-9.65537109375,-5.31370703125,-1.91684765625,-6.3925234375,-17.52335546875,-8.07301953125,-10.42165625,-7.73069140625,-4.58252734375,-6.83040234375,-9.88819921875,-10.89544140625,-4.52083203125,-6.6155390625,-3.10766796875,-16.117078125,-4.26330078125,-1.8616484375,-2.7179609375,-5.25376171875
-9.00485546875,-10.07821484375,-7.4452578125,-8.52997265625,-9.2193671875,-11.48287890625,-10.82441015625,-5.212328125,0.778734375000001,-10.31849609375,-12.21337109375,-8.11470703125,-1.50184765625,-9.0185234375,-20.89235546875,-11.04801953125,-11.82465625,-9.08169140625,-7.33252734375,-10.52640234375,-12.55819921875,-10.15044140625,-6.33083203125,-9.9455390625,-6.07666796875,-17.716078125,-6.61830078125,-3.2766484375,-4.1669609375,-6.56276171875
-11.41585546875,-12.07321484375,-10.2532578125,-10.34597265625,-10.7233671875,-13.11687890625,-12.58441015625,-6.356328125,-1.058265625,-11.90549609375,-13.70937109375,-9.97770703125,-1.02184765625,-10.5445234375,-23.10235546875,-12.83301953125,-12.02765625,-10.17869140625,-9.14352734375,-13.08540234375,-13.88719921875,-9.73944140625,-7.54883203125,-12.4005390625,-7.96466796875,-17.676078125,-8.32530078125,-3.9906484375,-4.8499609375,-7.00876171875
-13.83285546875,-13.43921484375,-12.4702578125,-11.06297265625,-11.4623671875,-13.72687890625,-13.44041015625,-7.324328125,-2.081265625,-12.51549609375,-14.26137109375,-10.90370703125,-0.88284765625,-11.0715234375,-24.00835546875,-13.34301953125,-11.30565625,-11.03869140625,-9.97552734375,-14.34840234375,-14.03119921875,-10.07044140625,-8.17983203125,-13.8835390625,-8.73866796875,-16.407078125,-9.33630078125,-3.9946484375,-4.7799609375,-6.72676171875
-16.13185546875,-14.40221484375,-14.1852578125,-10.92997265625,-11.7683671875,-13.69187890625,-13.79341015625,-8.282328125,-2.580265625,-12.52749609375,-14.26937109375,-11.19970703125,-1.54984765625,-10.9905234375,-23.89335546875,-12.94501953125,-10.25765625,-11.77169140625,-10.13052734375,-14.58640234375,-13.50819921875,-11.30544140625,-8.44383203125,-14.6475390625,-8.73066796875,-14.767078125,-9.86030078125,-3.6076484375,-4.3409609375,-6.19576171875
-18.00085546875,-15.16121484375,-15.4392578125,-10.18497265625,-12.0143671875,-13.54387890625,-14.09641015625,-9.279328125,-2.886265625,-12.42749609375,-14.21037109375,-11.28970703125,-3.26784765625,-10.7975234375,-23.32635546875,-12.28601953125,-9.51965625,-12.52869140625,-10.08252734375,-14.34940234375,-12.94919921875,-13.33744140625,-8.68983203125,-15.1165390625,-8.46366796875,-13.686078125,-10.25230078125,-3.3866484375,-4.1439609375,-6.03776171875
-19.19485546875,-15.84121484375,-16.2342578125,-9.08297265625,-12.5173671875,-13.72787890625,-14.67541015625,-10.259328125,-3.249265625,-12.60749609375,-14.45637109375,-11.52270703125,-5.88484765625,-10.9055234375,-22.92835546875,-12.01801953125,-9.49765625,-13.43969140625,-10.26452734375,-14.21340234375,-12.84019921875,-15.89944140625,-9.25883203125,-15.6765390625,-8.45266796875,-13.804078125,-10.85730078125,-3.9236484375,-4.7649609375,-6.75976171875
-19.71885546875,-16.51821484375,-16.6272578125,-7.86497265625,-13.4433671875,-14.40987890625,-15.63441015625,-11.145328125,-3.763265625,-13.21249609375,-15.12837109375,-12.04670703125,-8.87384765625,-11.4795234375,-23.10235546875,-12.50501953125,-10.22765625,-14.50369140625,-10.87152734375,-14.52840234375,-13.37719921875,-18.64844140625,-10.30883203125,-16.4915390625,-9.00766796875,-15.261078125,-11.84030078125,-5.5456484375,-6.4549609375,-8.52976171875
-19.76885546875,-17.18421484375,-16.7392578125,-6.63997265625,-14.6573671875,-15.37387890625,-16.78841015625,-11.862328125,-4.313265625,-14.06049609375,-16.00737109375,-12.75370703125,-11.48584765625,-12.3325234375,-23.82235546875,-13.64801953125,-11.41865625,-15.48669140625,-11.73252734375,-15.23640234375,-14.40519921875,-21.14844140625,-11.66583203125,-17.3945390625,-10.11166796875,-17.678078125,-13.06930078125,-8.0686484375,-8.9559609375,-11.05976171875
-19.46785546875,-17.64921484375,-16.6112578125,-5.33297265625,-15.6463671875,-16.05287890625,-17.68341015625,-12.293328125,-4.592265625,-14.66749609375,-16.56437109375,-13.30770703125,-12.93684765625,-12.9325234375,-24.57435546875,-14.89501953125,-12.60665625,-15.90169140625,-12.31952734375,-15.86140234375,-15.48219921875,-22.83044140625,-12.78183203125,-17.9005390625,-11.38466796875,-20.298078125,-14.09730078125,-10.7586484375,-11.5379609375,-13.66376171875
-18.67985546875,-17.50221484375,-16.0742578125,-3.79297265625,-15.6603671875,-15.73687890625,-17.74041015625,-12.239328125,-4.220265625,-14.37749609375,-16.13937109375,-13.25670703125,-12.58384765625,-12.5805234375,-24.54435546875,-15.47201953125,-13.36065625,-15.18269140625,-11.93952734375,-15.69140234375,-16.03919921875,-23.07544140625,-12.89483203125,-17.3785390625,-12.20166796875,-22.240078125,-14.28230078125,-12.5486484375,-13.2369609375,-15.47076171875
-17.07985546875,-16.25521484375,-14.7742578125,-1.98397265625,-14.0613671875,-13.87187890625,-16.49041015625,-11.461328125,-2.937265625,-12.61949609375,-14.23237109375,-12.22070703125,-10.12684765625,-10.7235234375,-22.97835546875,-14.71701953125,-13.41565625,-12.97269140625,-10.04852734375,-14.10640234375,-15.59719921875,-21.43844140625,-11.34283203125,-15.3255390625,-11.92666796875,-22.788078125,-13.02130078125,-12.4446484375,-13.1899609375,-15.71376171875
-14.42785546875,-13.62621484375,-12.3932578125,-0.0719726562499998,-10.6743671875,-10.34087890625,-13.77441015625,-9.789328125,-0.752265625,-9.18649609375,-10.75437109375,-10.07670703125,-5.82584765625,-7.2515234375,-19.56735546875,-12.37201953125,-12.72365625,-9.37069140625,-6.52052734375,-10.87640234375,-13.94919921875,-17.93044140625,-7.90383203125,-11.6205390625,-10.16966796875,-21.620078125,-10.01730078125,-9.9236484375,-10.9299609375,-13.99076171875
-10.83385546875,-9.79021484375,-8.9212578125,1.62702734375,-5.9633671875,-5.59287890625,-9.85241015625,-7.257328125,2.013734375,-4.43249609375,-6.14037109375,-7.05870703125,-0.58384765625,-2.6385234375,-14.66435546875,-8.70301953125,-11.40765625,-4.99269140625,-1.78352734375,-6.31640234375,-11.24919921875,-13.16644140625,-2.98683203125,-6.6665390625,-6.97966796875,-18.916078125,-5.47430078125,-5.1826484375,-6.5669609375,-10.41276171875
-6.82985546875,-5.43121484375,-4.8182578125,2.77902734375,-0.9643671875,-0.56387890625,-5.41641015625,-4.202328125,4.798734375,0.75350390625,-1.27137109375,-3.73970703125,4.26415234375,2.1414765625,-9.24735546875,-4.43001953125,-9.70365625,-0.81169140625,3.25447265625,-1.24940234375,-8.00219921875,-8.26244140625,2.42016796875,-1.3535390625,-2.88966796875,-15.320078125,-0.13130078125,0.8563515625,-0.8379609375,-5.64576171875
-3.21685546875,-1.56521484375,-0.9452578125,3.14402734375,3.0296328125,3.58712109375,-1.47241015625,-1.238328125,6.946734375,5.17850390625,2.76162890625,-0.88670703125,7.43915234375,5.9244765625,-4.63235546875,-0.51101953125,-7.94065625,2.15930859375,7.44047265625,3.21359765625,-4.93319921875,-4.49844140625,7.04416796875,3.1634609375,1.20233203125,-11.761078125,4.88669921875,6.7613515625,5.0040390625,-0.79776171875
-0.79085546875,0.801785156249999,1.7257421875,2.66102734375,4.9496328125,5.84212109375,0.94558984375,0.928671875,7.912734375,7.73150390625,4.98362890625,0.77329296875,8.23615234375,7.7594765625,-2.04735546875,2.15398046875,-6.48865625,3.21930859375,9.73747265625,6.01659765625,-2.76319921875,-2.85444140625,9.73716796875,5.8134609375,4.30933203125,-9.160078125,8.39269921875,11.0093515625,9.5170390625,2.89523828125
-0.0688554687499998,1.03278515625,2.4987421875,1.52502734375,4.3626328125,5.65712109375,1.14458984375,1.760671875,7.450734375,7.75050390625,4.85262890625,0.80829296875,6.78415234375,7.2444765625,-2.21535546875,2.99298046875,-5.67565625,2.23130859375,9.57847265625,6.51759765625,-1.95419921875,-3.65544140625,9.87516796875,5.9884609375,5.69133203125,-8.105078125,9.53369921875,12.5093515625,11.5430390625,4.51223828125
-1.13085546875,-0.89421484375,1.2247421875,0.18202734375,1.5906328125,3.11512109375,-0.97441015625,1.064671875,5.664734375,5.24250390625,2.42562890625,-0.77070703125,3.90815234375,4.6474765625,-5.11635546875,1.91198046875,-5.64865625,-0.363691406250001,7.06347265625,4.70159765625,-2.56219921875,-6.46144140625,7.56216796875,3.7724609375,5.11833203125,-8.658078125,8.11869921875,11.0123515625,10.6540390625,3.83023828125
-3.59385546875,-4.36521484375,-1.6582578125,-0.82497265625,-2.5073671875,-1.12587890625,-4.89341015625,-0.959328125,2.932734375,0.87250390625,-1.67937109375,-3.52270703125,0.71115234375,0.7714765625,-10.01335546875,-0.71501953125,-6.29465625,-3.74269140625,2.91947265625,1.16959765625,-4.23819921875,-10.24544140625,3.59116796875,-0.0875390625000001,2.92833203125,-10.361078125,4.69569921875,7.2133515625,7.3270390625,1.40523828125
-6.72185546875,-8.35721484375,-5.3122578125,-1.11297265625,-6.8853671875,-6.04887890625,-9.66441015625,-3.781328125,-0.212265624999999,-4.26149609375,-6.48237109375,-6.73870703125,-1.90884765625,-3.3385234375,-15.69935546875,-4.18301953125,-7.28665625,-6.98269140625,-1.75152734375,-3.08640234375,-6.37319921875,-13.76844140625,-0.851832031250001,-4.4595390625,-0.12966796875,-12.433078125,0.34569921875,2.4553515625,2.7370390625,-1.69376171875
-9.64285546875,-11.81321484375,-8.7832578125,-0.70697265625,-10.6083671875,-10.56187890625,-14.17541015625,-6.674328125,-3.187265625,-8.96149609375,-10.91337109375,-9.65970703125,-3.55484765625,-6.7045234375,-20.86435546875,-7.65801953125,-8.23265625,-9.31269140625,-5.82552734375,-7.01640234375,-8.31119921875,-15.99944140625,-4.60083203125,-8.2225390625,-3.17966796875,-14.057078125,-3.72530078125,-1.8326484375,-1.7359609375,-4.37576171875
-11.60185546875,-13.99621484375,-11.2852578125,-0.0819726562499996,-13.0353671875,-13.78087890625,-17.47141015625,-8.927328125,-5.454265625,-12.26849609375,-14.08737109375,-11.69270703125,-4.35684765625,-8.6775234375,-24.46935546875,-10.39701953125,-8.85365625,-10.28969140625,-8.49052734375,-9.83140234375,-9.54119921875,-16.46044140625,-6.88483203125,-10.6345390625,-5.51766796875,-14.655078125,-6.60130078125,-4.7056484375,-5.0509609375,-5.95176171875
-12.21685546875,-14.71321484375,-12.4162578125,0.0500273437500001,-13.9393671875,-15.25387890625,-19.04241015625,-10.115328125,-6.665265625,-13.70749609375,-15.53637109375,-12.57170703125,-4.74184765625,-9.0845234375,-26.02735546875,-11.94001953125,-9.08665625,-9.90969140625,-9.46952734375,-11.20240234375,-9.85919921875,-15.37244140625,-7.53083203125,-11.5345390625,-6.80266796875,-14.084078125,-7.91830078125,-5.9726484375,-6.8229609375,-6.32076171875
-11.61185546875,-14.31121484375,-12.2522578125,-0.84697265625,-13.5223671875,-15.07087890625,-18.97241015625,-10.273328125,-6.802265625,-13.38249609375,-15.32437109375,-12.42170703125,-5.13084765625,-8.2505234375,-25.70135546875,-12.22101953125,-9.08865625,-8.60669140625,-9.05852734375,-11.29040234375,-9.40719921875,-13.51644140625,-6.93783203125,-11.3265390625,-7.11066796875,-12.677078125,-7.88830078125,-6.0896484375,-7.2979609375,-5.86276171875
-10.36985546875,-13.47521484375,-11.2752578125,-2.77497265625,-12.2983671875,-13.79887890625,-17.84341015625,-9.832328125,-6.192265625,-11.90449609375,-13.98937109375,-11.67270703125,-5.69684765625,-6.8685234375,-24.18635546875,-11.54401953125,-9.15565625,-7.12669140625,-7.96052734375,-10.62140234375,-8.58919921875,-11.90144140625,-5.85783203125,-10.7275390625,-6.83966796875,-11.106078125,-7.11630078125,-5.7796484375,-7.0819609375,-5.16676171875
-9.30085546875,-12.89721484375,-10.1542578125,-5.13997265625,-10.9003671875,-12.24987890625,-16.43741015625,-9.368328125,-5.391265625,-10.15749609375,-12.31537109375,-10.87270703125,-6.32584765625,-5.7335234375,-22.41435546875,-10.43001953125,-9.58165625,-6.26969140625,-6.98852734375,-9.85440234375,-7.88619921875,-11.36144140625,-5.08083203125,-10.4345390625,-6.49766796875,-10.078078125,-6.31530078125,-5.6406484375,-6.7869609375,-4.76676171875
-9.12585546875,-12.99621484375,-9.4842578125,-7.04397265625,-9.9063671875,-11.17687890625,-15.44141015625,-9.303328125,-4.980265625,-8.97349609375,-11.05737109375,-10.48870703125,-6.78084765625,-5.4665234375,-21.21235546875,-9.40701953125,-10.51965625,-6.60469140625,-6.75752734375,-9.52640234375,-7.63919921875,-12.26744140625,-5.14083203125,-10.8355390625,-6.47866796875,-9.995078125,-6.02730078125,-5.9346484375,-6.7879609375,-4.95576171875
-10.19385546875,-13.80521484375,-9.5982578125,-7.76097265625,-9.7273671875,-11.03787890625,-15.24241015625,-9.766328125,-5.365265625,-8.86449609375,-10.70437109375,-10.78170703125,-6.94084765625,-6.3035234375,-21.03635546875,-8.84601953125,-11.89265625,-8.24669140625,-7.48252734375,-9.88840234375,-7.92519921875,-14.42344140625,-6.15283203125,-11.9105390625,-6.92966796875,-10.781078125,-6.45230078125,-6.5946484375,-7.1449609375,-5.73776171875
-12.33285546875,-15.05521484375,-10.5182578125,-7.08997265625,-10.4953671875,-11.88187890625,-15.88341015625,-10.630328125,-6.617265625,-9.88249609375,-11.36437109375,-11.77070703125,-6.92784765625,-8.0375234375,-21.87635546875,-8.89201953125,-13.39865625,-10.79369140625,-8.94752734375,-10.86340234375,-8.56619921875,-17.18344140625,-7.82283203125,-13.3215390625,-7.74566796875,-11.984078125,-7.44630078125,-7.3816484375,-7.6909609375,-6.89376171875
-14.89285546875,-16.35021484375,-12.0062578125,-5.42897265625,-11.9813671875,-13.37887890625,-17.11141015625,-11.655328125,-8.423265625,-11.64649609375,-12.76737109375,-13.26070703125,-6.99984765625,-10.1125234375,-23.34135546875,-9.48301953125,-14.60265625,-13.44069140625,-10.63052734375,-12.13240234375,-9.26319921875,-19.71344140625,-9.60083203125,-14.6085390625,-8.66866796875,-13.086078125,-8.64330078125,-8.0446484375,-8.1979609375,-8.12676171875
-16.97885546875,-17.32121484375,-13.6662578125,-3.54197265625,-13.6323671875,-14.95487890625,-18.50441015625,-12.636328125,-10.185265625,-13.49349609375,-14.38037109375,-14.90070703125,-7.27984765625,-11.8245234375,-24.84235546875,-10.38901953125,-15.09565625,-15.26769140625,-11.91952734375,-13.28340234375,-9.75019921875,-21.28744140625,-10.88583203125,-15.3955390625,-9.42366796875,-13.788078125,-9.62330078125,-8.4166484375,-8.5139609375,-9.20176171875
-17.81385546875,-17.70221484375,-15.0522578125,-2.17197265625,-14.7373671875,-15.98387890625,-19.61241015625,-13.419328125,-11.246265625,-14.69449609375,-15.58437109375,-16.24670703125,-7.57484765625,-12.5495234375,-25.79635546875,-11.27501953125,-14.65565625,-15.57069140625,-12.34052734375,-13.95440234375,-9.89419921875,-21.51144140625,-11.21883203125,-15.5095390625,-9.81166796875,-14.093078125,-10.05330078125,-8.4256484375,-8.6159609375,-9.99876171875
-17.03985546875,-17.34721484375,-15.7562578125,-1.66597265625,-14.6423671875,-15.97087890625,-20.02741015625,-13.836328125,-11.122265625,-14.68649609375,-15.85437109375,-16.85370703125,-7.44484765625,-11.9385234375,-25.76935546875,-11.75701953125,-13.33165625,-14.09869140625,-11.69252734375,-13.91540234375,-9.66819921875,-20.42444140625,-10.41583203125,-14.9745390625,-9.74666796875,-14.177078125,-9.76830078125,-8.0876484375,-8.5599609375,-10.47676171875
-14.82285546875,-16.21521484375,-15.5032578125,-1.83897265625,-12.9703671875,-14.68387890625,-19.43741015625,-13.640328125,-9.654265625,-13.25149609375,-14.89637109375,-16.36670703125,-6.51184765625,-10.0055234375,-24.55735546875,-11.46401953125,-11.40265625,-11.13069140625,-10.06052734375,-13.08240234375,-9.06919921875,-18.48044140625,-8.61883203125,-13.9375390625,-9.22366796875,-14.179078125,-8.80030078125,-7.5136484375,-8.4259609375,-10.61376171875
-11.77285546875,-14.40821484375,-14.2602578125,-2.14297265625,-9.7913671875,-12.21787890625,-17.70741015625,-12.592328125,-7.080265625,-10.58249609375,-12.71837109375,-14.64370703125,-4.77084765625,-7.1265234375,-22.21135546875,-10.15001953125,-9.23665625,-7.36669140625,-7.75152734375,-11.50040234375,-8.06319921875,-16.41544140625,-6.24983203125,-12.5645390625,-8.26966796875,-14.070078125,-7.35730078125,-6.9116484375,-8.2889609375,-10.38476171875
-8.72885546875,-12.18521484375,-12.2972578125,-2.03297265625,-5.6783671875,-8.96487890625,-14.97941015625,-10.632328125,-3.989265625,-7.20849609375,-9.63437109375,-11.84170703125,-2.67684765625,-3.9295234375,-19.03135546875,-7.80001953125,-7.12265625,-3.70069140625,-5.17952734375,-9.31640234375,-6.60819921875,-14.99144140625,-3.86483203125,-10.9835390625,-6.91066796875,-13.656078125,-5.74030078125,-6.5156484375,-8.2029609375,-9.77576171875
-6.43285546875,-9.89621484375,-10.0912578125,-1.26097265625,-1.5113671875,-5.47587890625,-11.65741015625,-7.977328125,-1.120265625,-3.78149609375,-6.15437109375,-8.39770703125,-0.91384765625,-1.0745234375,-15.46635546875,-4.66101953125,-5.18765625,-0.91269140625,-2.73252734375,-6.73740234375,-4.70819921875,-14.66144140625,-1.93883203125,-9.2475390625,-5.16166796875,-12.692078125,-4.21130078125,-6.4246484375,-8.1459609375,-8.78576171875
-5.19485546875,-7.81521484375,-8.0902578125,0.0280273437500003,1.9146328125,-2.25187890625,-8.23341015625,-5.043328125,0.968734375,-0.82149609375,-2.78937109375,-4.88670703125,0.000152343750000061,1.0104765625,-11.96435546875,-1.17101953125,-3.43665625,0.62730859375,-0.63152734375,-3.97140234375,-2.45219921875,-15.30544140625,-0.661832031250001,-7.3125390625,-3.04566796875,-11.015078125,-2.86830078125,-6.4606484375,-7.9459609375,-7.39676171875
-4.74285546875,-6.00721484375,-6.4892578125,1.40702734375,4.2386328125,0.41812109375,-5.10641015625,-2.300328125,2.146734375,1.46650390625,0.11462890625,-1.83670703125,-0.00584765624999994,2.2934765625,-8.84235546875,2.17898046875,-1.86365625,1.08830859375,1.12547265625,-1.21040234375,-0.0201992187500002,-16.22444140625,0.138167968749999,-5.0715390625,-0.63066796875,-8.652078125,-1.61230078125,-6.1646484375,-7.2989609375,-5.57276171875
-4.40085546875,-4.36121484375,-5.2122578125,2.41502734375,5.5916328125,2.46512109375,-2.53441015625,-0.181328125,2.717734375,3.17750390625,2.41562890625,0.37929296875,-0.55784765625,3.0884765625,-6.26735546875,4.96098046875,-0.56365625,1.03030859375,2.68047265625,1.34359765625,2.31080078125,-16.47544140625,0.877167968749999,-2.4755390625,1.90333203125,-5.863078125,-0.25530078125,-5.0236484375,-5.9229609375,-3.32376171875
-3.53285546875,-2.77221484375,-4.0972578125,2.83402734375,6.3626328125,3.92412109375,-0.69141015625,0.970671875,3.164734375,4.52950390625,4.07462890625,1.55029296875,-1.07784765625,3.8134765625,-4.33635546875,6.85098046875,0.260343750000001,1.08330859375,4.14447265625,3.43959765625,4.19080078125,-15.36344140625,1.94416796875,0.3224609375,4.23433203125,-3.115078125,1.29169921875,-2.7876484375,-3.7719609375,-0.80676171875
-1.97185546875,-1.32421484375,-3.1292578125,2.84502734375,6.8866328125,4.79212109375,0.26158984375,0.964671875,3.815734375,5.63350390625,5.04362890625,1.59629296875,-1.07084765625,4.7024765625,-3.16735546875,7.64398046875,0.40334375,1.63030859375,5.46247265625,4.78159765625,5.25980078125,-12.81844140625,3.43916796875,2.9074609375,5.94933203125,-0.957078125000002,2.88069921875,0.3093515625,-1.1609609375,1.62223828125
-0.19085546875,-0.36121484375,-2.5582578125,2.89502734375,7.2126328125,4.97012109375,0.19658984375,-0.171328125,4.619734375,6.37950390625,5.20362890625,0.57329296875,-0.32484765625,5.6544765625,-2.91735546875,7.25498046875,-0.19065625,2.63830859375,6.38747265625,5.10059765625,5.26780078125,-9.44944140625,5.06916796875,4.6944609375,6.66833203125,0.175921874999997,4.14169921875,3.5673515625,1.2940390625,3.47323828125
0.89414453125,-0.36221484375,-2.8042578125,3.30602734375,7.0556328125,4.32112109375,-0.92341015625,-2.173328125,5.135734375,6.48750390625,4.42062890625,-1.29870703125,1.01015234375,6.2684765625,-3.71835546875,5.74998046875,-1.34265625,3.71030859375,6.59547265625,4.27759765625,4.19280078125,-6.28644140625,6.27816796875,5.1664609375,6.19633203125,0.158921874999997,4.64769921875,6.0913515625,2.9140390625,4.31723828125
0.41314453125,-1.67221484375,-4.1862578125,3.94302734375,5.9796328125,2.80712109375,-2.95541015625,-4.592328125,4.763734375,5.69450390625,2.68262890625,-3.60470703125,2.49515234375,6.0664765625,-5.54535546875,3.39398046875,-2.68065625,4.27830859375,5.86747265625,2.45159765625,2.31680078125,-4.32744140625,6.54116796875,4.1394609375,4.64733203125,-0.721078125000002,4.17169921875,7.1863515625,3.2730390625,3.99923828125
-1.91085546875,-4.21821484375,-6.6152578125,4.28202734375,3.7646328125,0.62512109375,-5.49241015625,-6.868328125,3.144734375,3.97450390625,0.23962890625,-5.77870703125,3.60715234375,4.7834765625,-8.09735546875,0.68098046875,-3.79565625,3.89930859375,4.26447265625,0.0675976562499999,0.19780078125,-4.09344140625,5.67216796875,1.9464609375,2.46933203125,-1.840078125,2.86269921875,6.7013515625,2.4330390625,2.78623828125
-5.46585546875,-7.36421484375,-9.4462578125,3.83202734375,0.7076328125,-1.75087890625,-7.88941015625,-8.441328125,0.475734375,1.65550390625,-2.34737109375,-7.24370703125,3.98915234375,2.5674765625,-10.78635546875,-1.73201953125,-4.40465625,2.49330859375,2.19447265625,-2.20340234375,-1.47819921875,-5.37444140625,3.96516796875,-0.6075390625,0.36033203125,-2.474078125,1.25869921875,5.1343515625,0.9850390625,1.31423828125
-8.91985546875,-10.09421484375,-11.6762578125,2.55202734375,-2.4203671875,-3.71687890625,-9.47841015625,-8.935328125,-2.482265625,-0.66549609375,-4.37637109375,-7.62770703125,3.62015234375,-0.0405234375,-12.91935546875,-3.22001953125,-4.42765625,0.398308593749999,0.28347265625,-3.68840234375,-2.14119921875,-7.33944140625,2.08816796875,-2.5455390625,-0.96266796875,-2.102078125,0.0696992187500003,3.3913515625,-0.2089609375,0.34223828125
-10.84285546875,-11.46321484375,-12.4302578125,0.89502734375,-4.7733671875,-4.81587890625,-9.90541015625,-8.353328125,-4.771265625,-2.38249609375,-5.33037109375,-6.96170703125,2.82915234375,-2.3655234375,-14.00835546875,-3.47001953125,-3.98165625,-1.80969140625,-0.92152734375,-4.01340234375,-1.60419921875,-8.97844140625,0.73816796875,-3.1745390625,-1.05366796875,-0.647078125000002,-0.17230078125,2.3093515625,-0.4419609375,0.38823828125
-10.43685546875,-11.09221484375,-11.4472578125,-0.52797265625,-5.8883671875,-4.97887890625,-9.33741015625,-7.148328125,-5.738265625,-3.19649609375,-5.15537109375,-5.70870703125,2.13015234375,-3.9305234375,-14.03035546875,-2.67701953125,-3.30865625,-3.60869140625,-1.23852734375,-3.30640234375,-0.17219921875,-9.63244140625,0.27316796875,-2.4405390625,0.0173320312500003,1.450921875,0.57669921875,2.2133515625,0.4420390625,1.44123828125
-7.95285546875,-9.38121484375,-9.2432578125,-1.34297265625,-5.8773671875,-4.56187890625,-8.37441015625,-6.043328125,-5.329265625,-3.24649609375,-4.29137109375,-4.57970703125,1.95515234375,-4.6555234375,-13.44835546875,-1.47901953125,-2.70065625,-4.75869140625,-0.93352734375,-2.15540234375,1.46180078125,-9.28744140625,0.54316796875,-0.9485390625,1.66833203125,3.389921875,1.81969921875,2.7763515625,1.9450390625,2.92623828125
-4.54885546875,-7.30921484375,-6.8432578125,-1.57597265625,-5.2753671875,-4.12687890625,-7.71141015625,-5.697328125,-4.040265625,-2.97849609375,-3.42837109375,-4.19570703125,2.45215234375,-4.8095234375,-12.94735546875,-0.63701953125,-2.40265625,-5.31469140625,-0.53752734375,-1.32240234375,2.53180078125,-8.44644140625,1.03416796875,0.3874609375,3.06133203125,4.334921875,2.77669921875,3.2793515625,3.1780390625,3.97523828125
-1.72685546875,-5.95121484375,-5.2752578125,-1.48597265625,-4.6853671875,-4.11387890625,-7.76041015625,-6.394328125,-2.598265625,-2.84549609375,-3.12137109375,-4.77970703125,3.44315234375,-4.7725234375,-13.04735546875,-0.64001953125,-2.54365625,-5.47669140625,-0.51652734375,-1.35140234375,2.54180078125,-7.72944140625,1.21116796875,0.8344609375,3.51733203125,3.802921875,2.82269921875,3.0773515625,3.3610390625,3.89523828125
-0.67085546875,-6.01721484375,-5.1362578125,-1.27697265625,-4.4413671875,-4.60887890625,-8.43741015625,-7.930328125,-1.569265625,-3.03549609375,-3.50437109375,-6.04470703125,4.54915234375,-4.7745234375,-13.81935546875,-1.46901953125,-3.09465625,-5.40369140625,-1.01052734375,-2.31540234375,1.47180078125,-7.48944140625,0.844167968749999,0.1934609375,2.83233203125,1.886921875,1.82169921875,1.9963515625,2.2630390625,2.57023828125
-1.82085546875,-7.61121484375,-6.4342578125,-0.92197265625,-4.4603671875,-5.32087890625,-9.21941015625,-9.735328125,-1.103265625,-3.41249609375,-4.26337109375,-7.36270703125,5.37815234375,-4.7805234375,-14.87735546875,-2.67101953125,-3.90565625,-5.13169140625,-1.80052734375,-3.80240234375,-0.25319921875,-7.69144140625,0.0881679687499997,-1.1765390625,1.32133203125,-0.796078125000003,0.16669921875,0.4163515625,0.3270390625,0.53023828125
-4.82185546875,-10.26521484375,-8.6952578125,-0.26697265625,-4.3543671875,-5.77887890625,-9.45441015625,-11.163328125,-0.957265625,-3.64149609375,-4.85237109375,-8.09670703125,5.67815234375,-4.5675234375,-15.62535546875,-3.64901953125,-4.76365625,-4.61869140625,-2.47952734375,-5.16640234375,-2.00519921875,-8.07144140625,-0.665832031250001,-2.6175390625,-0.38466796875,-3.390078125,-1.47330078125,-0.9696484375,-1.5849609375,-1.34076171875
-8.79685546875,-13.18121484375,-11.2342578125,0.75402734375,-3.7393671875,-5.60287890625,-8.75041015625,-11.800328125,-0.739265625,-3.40549609375,-4.81437109375,-7.93570703125,5.43915234375,-3.9195234375,-15.60535546875,-3.98601953125,-5.46265625,-3.84569140625,-2.71052734375,-5.84840234375,-3.26619921875,-8.36944140625,-1.02683203125,-3.5345390625,-1.66266796875,-5.167078125,-2.49930078125,-1.5506484375,-2.6539609375,-2.28076171875
-12.73385546875,-15.55821484375,-13.4222578125,1.97402734375,-2.5223671875,-4.69887890625,-7.20141015625,-11.644328125,-0.211265624999999,-2.57949609375,-4.01237109375,-7.03570703125,4.87915234375,-2.8065234375,-14.73235546875,-3.63101953125,-5.84965625,-2.87069140625,-2.39252734375,-5.62240234375,-3.82819921875,-8.44644140625,-0.79983203125,-3.6395390625,-2.15666796875,-5.766078125,-2.63230078125,-1.0776484375,-2.4969609375,-2.02376171875
-15.81585546875,-16.88921484375,-14.8792578125,3.05402734375,-0.9643671875,-3.30487890625,-5.33341015625,-11.056328125,0.562734375,-1.31849609375,-2.67937109375,-5.92670703125,4.34915234375,-1.4335234375,-13.33135546875,-2.87101953125,-5.88065625,-1.82069140625,-1.67652734375,-4.65040234375,-3.83419921875,-8.25744140625,-0.0418320312500007,-3.0025390625,-1.87266796875,-5.249078125,-1.96630078125,0.2943515625,-1.2709609375,-0.85776171875
-17.58385546875,-17.11321484375,-15.5382578125,3.65802734375,0.4646328125,-1.88287890625,-3.82441015625,-10.551328125,1.273734375,0.000503906249999853,-1.28037109375,-5.24370703125,4.17815234375,-0.1565234375,-11.97835546875,-2.15901953125,-5.66365625,-0.84269140625,-0.85352734375,-3.37340234375,-3.64819921875,-7.76144140625,1.00716796875,-1.9535390625,-1.10566796875,-3.989078125,-0.83130078125,2.1783515625,0.5050390625,0.60623828125
-17.97585546875,-16.56421484375,-15.6002578125,3.61702734375,1.2926328125,-0.92587890625,-3.18841015625,-10.546328125,1.562734375,0.93050390625,-0.30837109375,-5.41870703125,4.51615234375,0.6704765625,-11.25335546875,-1.90301953125,-5.43965625,-0.0716914062500003,-0.21052734375,-2.29440234375,-3.65319921875,-6.90744140625,2.05116796875,-0.8935390625,-0.27166796875,-2.493078125,0.40869921875,4.1843515625,2.2650390625,1.80023828125
-17.27685546875,-15.77721484375,-15.3892578125,3.04102734375,1.2206328125,-0.76087890625,-3.58241015625,-11.187328125,1.216734375,1.15150390625,-0.0933710937500001,-6.50270703125,5.23715234375,0.8454765625,-11.50335546875,-2.30301953125,-5.47965625,0.394308593749999,0.0754726562500003,-1.77340234375,-4.07419921875,-5.68444140625,2.85716796875,-0.1475390625,0.28733203125,-1.244078125,1.50669921875,6.0553515625,3.6540390625,2.45823828125
-15.99985546875,-15.23421484375,-15.1882578125,2.30002734375,0.2146328125,-1.45887890625,-4.78141015625,-12.297328125,0.281734375000001,0.57850390625,-0.70137109375,-8.16670703125,5.92915234375,0.3764765625,-12.73235546875,-3.29901953125,-5.93965625,0.503308593749999,-0.0435273437499997,-1.92640234375,-4.89219921875,-4.23644140625,3.28416796875,0.1154609375,0.40133203125,-0.603078125000003,2.34569921875,7.6173515625,4.5780390625,2.63423828125
-14.71585546875,-15.18721484375,-15.1232578125,1.83102734375,-1.5153671875,-2.85587890625,-6.33541015625,-13.478328125,-0.983265625,-0.66649609375,-1.96737109375,-9.88270703125,5.97215234375,-0.5845234375,-14.65135546875,-4.62201953125,-6.77365625,0.221308593749999,-0.53852734375,-2.65640234375,-5.88519921875,-2.93244140625,3.22816796875,-0.1595390625,0.0773320312500003,-0.750078125000003,2.84169921875,8.6343515625,5.0600390625,2.53023828125
-13.89585546875,-15.62621484375,-15.1612578125,1.82002734375,-3.6573671875,-4.67987890625,-7.82841015625,-14.317328125,-2.288265625,-2.36449609375,-3.61837109375,-11.18570703125,4.71915234375,-1.8675234375,-16.86335546875,-5.93601953125,-7.76965625,-0.50669140625,-1.39552734375,-3.77640234375,-6.77119921875,-2.34144140625,2.56316796875,-0.9855390625,-0.59166796875,-1.642078125,2.84569921875,8.7233515625,5.0470390625,2.26823828125
-13.82685546875,-16.39521484375,-15.2252578125,1.98602734375,-5.9643671875,-6.68387890625,-9.10341015625,-14.616328125,-3.514265625,-4.32949609375,-5.41737109375,-11.87870703125,1.75815234375,-3.3905234375,-19.05435546875,-6.98401953125,-8.67865625,-1.78169140625,-2.65952734375,-5.12540234375,-7.36219921875,-3.07144140625,1.15316796875,-2.3815390625,-1.52166796875,-3.025078125,2.14969921875,7.4493515625,4.3400390625,1.78023828125
-14.60985546875,-17.34321484375,-15.3232578125,1.71402734375,-8.3123671875,-8.71387890625,-10.28041015625,-14.506328125,-4.801265625,-6.44749609375,-7.23137109375,-12.08670703125,-2.80084765625,-5.1575234375,-21.07835546875,-7.68301953125,-9.34265625,-3.70069140625,-4.38552734375,-6.61740234375,-7.64419921875,-5.49244140625,-1.05383203125,-4.3215390625,-2.67366796875,-4.504078125,0.59969921875,4.5763515625,2.6960390625,0.84623828125
-16.14885546875,-18.38921484375,-15.5692578125,0.46402734375,-10.6223671875,-10.67287890625,-11.57941015625,-14.382328125,-6.432265625,-8.64149609375,-8.99537109375,-12.13770703125,-8.18584765625,-7.1625234375,-22.90035546875,-8.11101953125,-9.73565625,-6.24069140625,-6.53252734375,-8.18940234375,-7.73719921875,-9.48244140625,-3.92683203125,-6.6405390625,-4.03266796875,-5.703078125,-1.77230078125,0.2913515625,0.0260390625000002,-0.75376171875
-18.12985546875,-19.46021484375,-16.0972578125,-1.83997265625,-12.7593671875,-12.44187890625,-13.08341015625,-14.682328125,-8.596265625,-10.76949609375,-10.62337109375,-12.32870703125,-13.12184765625,-9.2745234375,-24.46335546875,-8.41501953125,-9.91865625,-9.14569140625,-8.87452734375,-9.72640234375,-7.79119921875,-14.30944140625,-7.09183203125,-9.0005390625,-5.53966796875,-6.401078125,-4.67430078125,-4.7546484375,-3.4759609375,-3.09376171875
-20.05785546875,-20.42121484375,-16.9162578125,-4.69397265625,-14.5303671875,-13.83187890625,-14.64141015625,-15.632328125,-11.160265625,-12.56749609375,-11.96037109375,-12.74770703125,-16.29384765625,-11.1855234375,-25.60535546875,-8.70001953125,-9.95165625,-11.90069140625,-11.00852734375,-11.01840234375,-7.88719921875,-18.77644140625,-9.98083203125,-10.9735390625,-7.05966796875,-6.594078125,-7.60230078125,-9.6076484375,-7.3139609375,-5.99476171875
-21.41985546875,-21.08821484375,-17.8712578125,-7.20697265625,-15.7463671875,-14.62087890625,-15.93641015625,-17.078328125,-13.614265625,-13.70849609375,-12.81637109375,-13.23170703125,-16.90584765625,-12.5015234375,-26.08835546875,-8.97801953125,-9.82665625,-13.85869140625,-12.48752734375,-11.80240234375,-8.01119921875,-21.61344140625,-12.00083203125,-12.2165390625,-8.39166796875,-6.420078125,-9.99830078125,-13.3196484375,-10.8069609375,-9.01676171875
-21.92385546875,-21.34621484375,-18.7032578125,-8.50797265625,-16.3003671875,-14.66887890625,-16.64541015625,-18.504328125,-15.251265625,-13.96649609375,-13.06437109375,-13.49870703125,-15.04984765625,-12.9155234375,-25.74435546875,-9.17701953125,-9.45665625,-14.45669140625,-13.01552734375,-11.88940234375,-8.08219921875,-21.95344140625,-12.76883203125,-12.6245390625,-9.33566796875,-6.012078125,-11.44330078125,-15.2436484375,-13.2709609375,-11.53776171875
-21.62585546875,-21.23321484375,-19.1892578125,-8.18097265625,-16.2233671875,-14.02187890625,-16.61041015625,-19.272328125,-15.529265625,-13.36949609375,-12.73137109375,-13.33170703125,-11.66784765625,-12.3725234375,-24.62935546875,-9.20901953125,-8.73665625,-13.46269140625,-12.59952734375,-11.28140234375,-8.01319921875,-19.63244140625,-12.27683203125,-12.3665390625,-9.76166796875,-5.369078125,-11.79130078125,-15.2026484375,-14.2039609375,-12.91276171875
-20.86185546875,-20.90721484375,-19.2242578125,-6.51597265625,-15.6943671875,-12.93187890625,-15.92941015625,-18.936328125,-14.395265625,-12.20749609375,-12.01537109375,-12.70070703125,-8.14184765625,-11.1195234375,-23.06935546875,-9.02101953125,-7.64065625,-11.09369140625,-11.55052734375,-10.20440234375,-7.76019921875,-15.18544140625,-10.88983203125,-11.7665390625,-9.65366796875,-4.340078125,-11.17730078125,-13.4906484375,-13.4179609375,-12.67676171875
-20.01885546875,-20.50321484375,-18.8142578125,-4.35797265625,-14.9683671875,-11.76387890625,-14.91041015625,-17.452328125,-12.338265625,-10.90049609375,-11.20837109375,-11.75570703125,-5.71484765625,-9.5905234375,-21.55135546875,-8.61901953125,-6.30865625,-7.96769140625,-10.34752734375,-9.02540234375,-7.33919921875,-9.60044140625,-9.17783203125,-11.1255390625,-9.11666796875,-2.760078125,-9.93030078125,-10.7376484375,-11.1249609375,-10.75276171875
-19.31585546875,-20.00721484375,-17.9802578125,-2.61597265625,-14.2203671875,-10.82387890625,-13.88641015625,-15.147328125,-10.107265625,-9.80449609375,-10.54737109375,-10.72870703125,-5.02584765625,-8.1865234375,-20.49535546875,-8.05201953125,-5.04465625,-4.86069140625,-9.39852734375,-8.09240234375,-6.82919921875,-3.96144140625,-7.68183203125,-10.5695390625,-8.34366796875,-0.661078125000003,-8.45230078125,-7.7106484375,-7.9229609375,-7.58376171875
-18.70585546875,-19.22821484375,-16.6892578125,-1.74597265625,-13.4403671875,-10.22887890625,-13.03641015625,-12.530328125,-8.312265625,-9.07149609375,-10.11437109375,-9.81770703125,-5.93384765625,-7.0985234375,-20.06435546875,-7.38501953125,-4.19365625,-2.41969140625,-8.86552734375,-7.58340234375,-6.32919921875,0.85055859375,-6.72383203125,-10.0345390625,-7.55066796875,1.638921875,-7.10230078125,-5.0896484375,-4.6599609375,-4.06676171875
-17.91985546875,-17.89321484375,-14.8702578125,-1.55097265625,-12.4853671875,-9.88187890625,-12.33341015625,-10.087328125,-7.157265625,-8.62349609375,-9.82037109375,-9.13270703125,-7.63984765625,-6.2675234375,-20.10635546875,-6.66901953125,-3.96165625,-0.94769140625,-8.61652734375,-7.42140234375,-5.91819921875,4.34455859375,-6.32483203125,-9.3435390625,-6.88766796875,3.649921875,-6.09530078125,-3.2856484375,-2.1569609375,-1.24976171875
-16.56385546875,-15.79221484375,-12.5062578125,-1.36197265625,-11.2033671875,-9.54087890625,-11.62041015625,-8.143328125,-6.435265625,-8.21149609375,-9.47937109375,-8.68270703125,-9.01384765625,-5.4535234375,-20.22235546875,-5.92001953125,-4.27465625,-0.326691406250001,-8.31952734375,-7.30340234375,-5.59319921875,6.48655859375,-6.22683203125,-8.3235390625,-6.35266796875,5.004921875,-5.41430078125,-2.3266484375,-0.8719609375,0.14823828125
-14.25685546875,-12.90921484375,-9.7062578125,-0.44697265625,-9.5053671875,-8.91787890625,-10.70241015625,-6.794328125,-5.704265625,-7.52549609375,-8.87337109375,-8.37270703125,-9.01384765625,-4.3575234375,-19.93835546875,-5.09801953125,-4.79565625,-0.0736914062500005,-7.58552734375,-6.80740234375,-5.22319921875,7.67255859375,-5.97883203125,-6.8595390625,-5.75566796875,5.698921875,-4.79830078125,-1.8506484375,-0.6489609375,0.13023828125
-10.81485546875,-9.47721484375,-6.7232578125,1.54402734375,-7.3983671875,-7.80187890625,-9.42441015625,-5.926328125,-4.553265625,-6.32049609375,-7.83237109375,-8.02170703125,-7.11484765625,-2.7515234375,-18.89635546875,-4.13301953125,-5.08865625,0.47630859375,-6.13152734375,-5.58640234375,-4.58619921875,8.56255859375,-5.10383203125,-4.9195390625,-4.79566796875,6.110921875,-3.84230078125,-1.2606484375,-0.7799609375,-0.55376171875
-6.47285546875,-5.96121484375,-3.9222578125,4.25602734375,-5.0573671875,-6.18187890625,-7.74841015625,-5.336328125,-2.863265625,-4.56349609375,-6.32137109375,-7.44470703125,-3.61284765625,-0.6215234375,-17.04535546875,-3.01301953125,-4.86865625,1.84730859375,-3.94352734375,-3.57940234375,-3.51319921875,9.75555859375,-3.32283203125,-2.6015390625,-3.26966796875,6.738921875,-2.25630078125,-0.0626484375,-0.4289609375,-0.87376171875
-1.98585546875,-2.95021484375,-1.7232578125,6.62702734375,-2.8933671875,-4.30987890625,-5.83541015625,-4.898328125,-0.945265624999999,-2.51949609375,-4.52737109375,-6.56070703125,0.42215234375,1.7274765625,-14.74635546875,-1.87501953125,-4.16565625,4.11130859375,-1.37952734375,-1.13640234375,-2.07019921875,11.44555859375,-0.762832031250001,-0.2015390625,-1.28866796875,7.840921875,-0.12330078125,1.7983515625,0.8080390625,-0.18976171875
1.53714453125,-0.98221484375,-0.4912578125,7.36402734375,-1.4553671875,-2.65087890625,-4.02341015625,-4.614328125,0.588734375000001,-0.70249609375,-2.83837109375,-5.47870703125,3.62715234375,3.7294765625,-12.67035546875,-1.00801953125,-3.31265625,6.78530859375,0.90447265625,1.05359765625,-0.60919921875,13.28455859375,1.99016796875,1.7854609375,0.65833203125,9.211921875,2.02269921875,3.8203515625,2.6060390625,1.30923828125
3.10914453125,-0.34821484375,-0.4102578125,5.72902734375,-1.1623671875,-1.69587890625,-2.69841015625,-4.543328125,1.172734375,0.31050390625,-1.71437109375,-4.46570703125,5.03715234375,4.7804765625,-11.53035546875,-0.75101953125,-2.75065625,9.05930859375,2.20347265625,2.24459765625,0.34980078125,14.60655859375,4.10616796875,2.8134609375,1.87333203125,10.254921875,3.39869921875,5.1793515625,4.0790390625,2.71023828125
2.39314453125,-0.98121484375,-1.3672578125,2.14902734375,-2.0513671875,-1.75187890625,-2.13041015625,-4.684328125,0.610734375,0.13650390625,-1.48837109375,-3.83870703125,4.59415234375,4.5224765625,-11.74735546875,-1.32601953125,-2.77665625,10.22030859375,2.08847265625,1.97059765625,0.36180078125,14.87755859375,4.88916796875,2.5314609375,1.76833203125,10.295921875,3.36969921875,5.1993515625,4.3200390625,2.94223828125
-0.0558554687499999,-2.48321484375,-2.9682578125,-1.84997265625,-3.7713671875,-2.81787890625,-2.39641015625,-4.931328125,-0.833265624999999,-1.23549609375,-2.23537109375,-3.81170703125,3.15715234375,3.0214765625,-13.25635546875,-2.73201953125,-3.38765625,10.00530859375,0.59647265625,0.27359765625,-0.71919921875,14.06955859375,4.12116796875,0.9854609375,0.16533203125,8.990921875,1.80169921875,3.7503515625,2.9530390625,1.43323828125
-3.04385546875,-4.30521484375,-4.6732578125,-4.43097265625,-5.7863671875,-4.60787890625,-3.38841015625,-5.121328125,-2.619265625,-3.44849609375,-3.75737109375,-4.40370703125,1.99815234375,0.7204765625,-15.54835546875,-4.72901953125,-4.29165625,8.66030859375,-1.80652734375,-2.31940234375,-2.65219921875,12.64555859375,2.13216796875,-1.3695390625,-2.59566796875,6.554921875,-0.85130078125,1.3153515625,0.3560390625,-1.53376171875
-5.36085546875,-5.97521484375,-6.0202578125,-4.47497265625,-7.6293671875,-6.68887890625,-4.85941015625,-5.121328125,-4.222265625,-5.95649609375,-5.68637109375,-5.44770703125,2.03715234375,-1.7855234375,-17.92935546875,-6.93301953125,-5.09265625,6.70130859375,-4.45852734375,-5.04840234375,-4.90419921875,11.19755859375,-0.43683203125,-3.8765390625,-5.79466796875,3.694921875,-3.79230078125,-1.3156484375,-2.5689609375,-4.95876171875
-6.36685546875,-7.24721484375,-6.7832578125,-2.20397265625,-9.0513671875,-8.65187890625,-6.49041015625,-4.915328125,-5.361265625,-8.25049609375,-7.61837109375,-6.68670703125,3.29415234375,-3.9915234375,-19.83635546875,-8.94201953125,-5.51065625,4.60230859375,-6.77352734375,-7.24340234375,-6.89019921875,10.03555859375,-2.97783203125,-5.9675390625,-8.63666796875,1.270921875,-6.26530078125,-3.4826484375,-4.8909609375,-7.65376171875
-6.17885546875,-8.08021484375,-6.9762578125,1.01902734375,-10.0123671875,-10.19187890625,-7.96441015625,-4.642328125,-6.041265625,-9.96649609375,-9.20637109375,-7.86970703125,4.91715234375,-5.6035234375,-21.01235546875,-10.42901953125,-5.49665625,2.62430859375,-8.39752734375,-8.53640234375,-8.20519921875,9.08155859375,-5.11983203125,-7.3305390625,-10.52666796875,-0.0920781250000022,-7.82230078125,-4.9166484375,-6.0709609375,-8.81276171875
-5.38585546875,-8.48521484375,-6.7172578125,3.53602734375,-10.5403671875,-11.09887890625,-9.00441015625,-4.518328125,-6.423265625,-10.87649609375,-10.17037109375,-8.79870703125,5.80615234375,-6.4905234375,-21.46335546875,-11.17501953125,-5.18865625,0.88930859375,-9.19452734375,-8.85840234375,-8.72219921875,8.12555859375,-6.69383203125,-7.8965390625,-11.21266796875,-0.215078125000003,-8.36230078125,-5.6796484375,-6.0879609375,-8.32076171875
-4.57085546875,-8.41221484375,-6.0752578125,4.28602734375,-10.5823671875,-11.22287890625,-9.38541015625,-4.681328125,-6.623265625,-10.84749609375,-10.29737109375,-9.32270703125,5.33615234375,-6.5995234375,-21.30135546875,-11.07701953125,-4.78765625,-0.480691406250001,-9.15452734375,-8.31940234375,-8.54119921875,7.12455859375,-7.61583203125,-7.7165390625,-10.75766796875,0.654921874999998,-8.00830078125,-5.9596484375,-5.3039609375,-6.68576171875
-4.02085546875,-7.78921484375,-5.0722578125,3.18902734375,-10.0143671875,-10.49487890625,-8.98241015625,-5.089328125,-6.628265625,-9.87549609375,-9.49637109375,-9.34470703125,3.66315234375,-5.9285234375,-20.62035546875,-10.16501953125,-4.43265625,-1.32469140625,-8.34952734375,-7.09340234375,-7.85119921875,6.25355859375,-7.83483203125,-6.8875390625,-9.42766796875,2.038921875,-6.99530078125,-5.9246484375,-4.2159609375,-4.70576171875
-3.74085546875,-6.67621484375,-3.8062578125,0.88502734375,-8.8103671875,-9.01187890625,-7.84741015625,-5.544328125,-6.363265625,-8.14849609375,-7.88637109375,-8.83770703125,1.46115234375,-4.6045234375,-19.48035546875,-8.62101953125,-4.15365625,-1.55869140625,-6.96152734375,-5.38140234375,-6.81519921875,5.70255859375,-7.38283203125,-5.5555390625,-7.56766796875,3.478921875,-5.59930078125,-5.6826484375,-3.2379609375,-3.06676171875
-3.65185546875,-5.34921484375,-2.5372578125,-1.81297265625,-7.2113671875,-7.07187890625,-6.26341015625,-5.830328125,-5.837265625,-6.06549609375,-5.82937109375,-7.85870703125,-0.62284765625,-2.9405234375,-17.95435546875,-6.76001953125,-3.88865625,-1.30569140625,-5.29952734375,-3.42240234375,-5.53419921875,5.47255859375,-6.42583203125,-3.9405390625,-5.50066796875,4.725921875,-4.08730078125,-5.2996484375,-2.5489609375,-2.04676171875
-3.71885546875,-4.22921484375,-1.6452578125,-4.31797265625,-5.6883671875,-5.12887890625,-4.65941015625,-5.835328125,-5.207265625,-4.15649609375,-3.84337109375,-6.55570703125,-2.32884765625,-1.3875234375,-16.15735546875,-4.94801953125,-3.54565625,-0.88869140625,-3.75452734375,-1.49540234375,-4.07419921875,5.38155859375,-5.23883203125,-2.3225390625,-3.49966796875,5.778921875,-2.67130078125,-4.7786484375,-2.0549609375,-1.47776171875
-3.95085546875,-3.67821484375,-1.4492578125,-6.32797265625,-4.7153671875,-3.64287890625,-3.45541015625,-5.585328125,-4.714265625,-2.92349609375,-2.43537109375,-5.15270703125,-3.76584765625,-0.3885234375,-14.24235546875,-3.53601953125,-3.06965625,-0.66969140625,-2.67052734375,0.0975976562499999,-2.54619921875,5.24155859375,-4.12383203125,-0.9725390625,-1.80666796875,6.756921875,-1.50230078125,-4.0716484375,-1.4929609375,-0.96076171875
-4.30685546875,-3.81521484375,-2.0212578125,-7.66197265625,-4.5373671875,-2.93587890625,-2.92541015625,-5.207328125,-4.557265625,-2.64849609375,-1.93937109375,-3.91370703125,-5.12484765625,-0.2035234375,-12.38635546875,-2.78901953125,-2.47765625,-0.86969140625,-2.23552734375,1.09159765625,-1.16319921875,5.02555859375,-3.31883203125,-0.0885390625,-0.64466796875,7.712921875,-0.67830078125,-3.1396484375,-0.6519609375,-0.20876171875
-4.63085546875,-4.43321484375,-3.1022578125,-8.13697265625,-5.0833671875,-3.07187890625,-3.13541015625,-4.846328125,-4.789265625,-3.27949609375,-2.41437109375,-3.06570703125,-6.38584765625,-0.7945234375,-10.74435546875,-2.82701953125,-1.83365625,-1.47069140625,-2.42052734375,1.33659765625,-0.20819921875,4.89855859375,-2.92483203125,0.2494609375,-0.18766796875,8.523921875,-0.25730078125,-2.0466484375,0.4330390625,0.71323828125
-4.66185546875,-5.06021484375,-4.1462578125,-7.61197265625,-6.0193671875,-3.83687890625,-3.93041015625,-4.573328125,-5.273265625,-4.43549609375,-3.61937109375,-2.69470703125,-7.25584765625,-1.8405234375,-9.39335546875,-3.56601953125,-1.19965625,-2.22769140625,-3.00552734375,0.87259765625,0.10280078125,5.10355859375,-2.90083203125,0.1044609375,-0.48766796875,8.956921875,-0.26030078125,-1.0046484375,1.4480390625,1.39623828125
-4.13085546875,-5.14121484375,-4.5122578125,-6.14997265625,-6.8863671875,-4.82087890625,-4.95541015625,-4.331328125,-5.747265625,-5.58049609375,-5.09237109375,-2.70670703125,-7.35284765625,-2.8715234375,-8.30735546875,-4.69801953125,-0.59265625,-2.79469140625,-3.68152734375,-0.0714023437500001,-0.24519921875,5.75455859375,-3.11383203125,-0.3475390625,-1.41266796875,8.830921875,-0.66830078125,-0.3396484375,1.9340390625,1.33523828125
-2.92785546875,-4.28121484375,-3.7372578125,-4.15597265625,-7.3133671875,-5.59087890625,-5.76441015625,-3.987328125,-5.977265625,-6.26949609375,-6.30837109375,-2.86570703125,-6.48884765625,-3.4945234375,-7.38335546875,-5.77201953125,0.0163437499999999,-2.88469140625,-4.17952734375,-1.15240234375,-1.01319921875,6.70355859375,-3.41783203125,-0.8845390625,-2.66266796875,8.183921875,-1.40430078125,-0.3546484375,1.5530390625,0.26323828125
-1.23585546875,-2.46021484375,-1.7972578125,-2.32797265625,-7.1903671875,-5.85687890625,-6.01041015625,-3.443328125,-5.903265625,-6.32449609375,-6.87237109375,-2.91770703125,-4.81584765625,-3.5495234375,-6.51835546875,-6.35401953125,0.68934375,-2.39269140625,-4.36952734375,-2.03240234375,-1.80319921875,7.60955859375,-3.69583203125,-1.3135390625,-3.84466796875,7.303921875,-2.31130078125,-1.1296484375,0.3290390625,-1.61276171875
0.48014453125,-0.10321484375,0.8027421875,-1.37897265625,-6.6983671875,-5.55787890625,-5.58141015625,-2.744328125,-5.631265625,-5.85149609375,-6.65437109375,-2.71270703125,-2.75384765625,-3.1185234375,-5.64835546875,-6.19101953125,1.47334375,-1.40469140625,-4.25252734375,-2.48040234375,-2.23819921875,8.20355859375,-3.83483203125,-1.5135390625,-4.58866796875,6.615921875,-3.13630078125,-2.3526484375,-1.2639609375,-3.62076171875
1.66914453125,2.05978515625,3.1867421875,-1.67097265625,-6.1343671875,-4.82787890625,-4.62341015625,-2.090328125,-5.280265625,-5.12749609375,-5.79937109375,-2.26670703125,-0.76884765625,-2.4065234375,-4.75535546875,-5.32201953125,2.33834375,-0.11869140625,-3.90752734375,-2.42540234375,-2.12519921875,8.54555859375,-3.71583203125,-1.4445390625,-4.66766796875,6.469921875,-3.58730078125,-3.3756484375,-2.4619609375,-4.89876171875
1.96414453125,3.28078515625,4.4467421875,-3.00097265625,-5.7273671875,-3.92187890625,-3.44841015625,-1.787328125,-4.869265625,-4.45349609375,-4.64637109375,-1.76170703125,0.82215234375,-1.6235234375,-3.84935546875,-4.06401953125,3.12534375,1.20630859375,-3.44552734375,-1.97340234375,-1.52619921875,8.97155859375,-3.26783203125,-1.1635390625,-4.08766796875,6.957921875,-3.47930078125,-3.5256484375,-2.5999609375,-4.82276171875
1.33214453125,3.09578515625,4.0037421875,-4.68797265625,-5.5873671875,-3.14287890625,-2.43541015625,-2.155328125,-4.356265625,-4.06649609375,-3.60437109375,-1.48370703125,1.88915234375,-0.9715234375,-2.98735546875,-2.90401953125,3.55334375,2.23830859375,-3.03052734375,-1.39140234375,-0.72719921875,9.74055859375,-2.58883203125,-0.8465390625,-3.10566796875,7.852921875,-2.89330078125,-2.5576484375,-1.5339609375,-3.37576171875
0.0321445312500002,1.47178515625,1.8317421875,-5.94097265625,-5.7603671875,-2.78087890625,-1.94141015625,-3.388328125,-3.787265625,-4.11449609375,-3.02937109375,-1.70970703125,2.41715234375,-0.6725234375,-2.28835546875,-2.30401953125,3.31034375,2.57930859375,-2.90152734375,-1.04140234375,-0.11419921875,10.66355859375,-2.01183203125,-0.7805390625,-2.16166796875,8.674921875,-2.21930078125,-0.9076484375,0.1940390625,-1.21776171875
-1.57385546875,-1.22121484375,-1.5302578125,-6.27997265625,-6.2633671875,-3.02787890625,-2.18641015625,-5.372328125,-3.373265625,-4.65849609375,-3.12637109375,-2.57570703125,2.42715234375,-0.9525234375,-1.90635546875,-2.51501953125,2.23034375,1.87730859375,-3.31452734375,-1.25140234375,-0.0121992187500002,11.10055859375,-2.00983203125,-1.2595390625,-1.71466796875,8.883921875,-2.01630078125,0.4663515625,1.6090390625,0.60823828125
-3.20285546875,-4.35821484375,-5.1682578125,-5.79397265625,-7.0323671875,-3.87887890625,-3.15041015625,-7.602328125,-3.389265625,-5.64149609375,-3.87537109375,-3.96670703125,1.95315234375,-1.9305234375,-1.93735546875,-3.46801953125,0.45534375,0.0463085937499996,-4.39052734375,-2.15040234375,-0.54319921875,10.38355859375,-2.94383203125,-2.4145390625,-2.04166796875,8.134921875,-2.71530078125,0.5993515625,1.8370390625,1.21123828125
-4.71885546875,-7.25921484375,-8.1192578125,-5.06797265625,-7.8973671875,-5.08887890625,-4.54841015625,-9.322328125,-3.992265625,-6.84849609375,-5.02737109375,-5.50170703125,1.05615234375,-3.4735234375,-2.31835546875,-4.78601953125,-1.50865625,-2.58069140625,-5.97252734375,-3.56040234375,-1.55019921875,8.33955859375,-4.78083203125,-4.0665390625,-3.08166796875,6.499921875,-4.33630078125,-0.8976484375,0.6150390625,0.32823828125
-6.06885546875,-9.35621484375,-9.7002578125,-4.81297265625,-8.6203671875,-6.22587890625,-5.91941015625,-9.869328125,-5.085265625,-7.90649609375,-6.17837109375,-6.64270703125,-0.13584765625,-5.1645234375,-2.80135546875,-5.92401953125,-2.96265625,-5.31069140625,-7.60852734375,-5.02740234375,-2.64119921875,5.51155859375,-6.98983203125,-5.7225390625,-4.42266796875,4.529921875,-6.39130078125,-3.5646484375,-1.5489609375,-1.51976171875
-7.14485546875,-10.30021484375,-9.6812578125,-5.39897265625,-8.9623671875,-6.82687890625,-6.78541015625,-8.982328125,-6.306265625,-8.39949609375,-6.88837109375,-6.89570703125,-1.38784765625,-6.4085234375,-3.02535546875,-6.38001953125,-3.32365625,-7.33269140625,-8.70052734375,-5.99440234375,-3.33019921875,2.90555859375,-8.72683203125,-6.7465390625,-5.46166796875,3.050921875,-8.07430078125,-6.2746484375,-3.6389609375,-3.30476171875
-7.70085546875,-9.98321484375,-8.2472578125,-6.62197265625,-8.7403671875,-6.56987890625,-6.77941015625,-6.884328125,-7.152265625,-8.03549609375,-6.80437109375,-6.00870703125,-2.36384765625,-6.6605234375,-2.67335546875,-5.87001953125,-2.40565625,-8.01369140625,-8.75052734375,-6.04540234375,-3.23719921875,1.48155859375,-9.21483203125,-6.6245390625,-5.67366796875,2.771921875,-8.63630078125,-7.7936484375,-4.6479609375,-4.01676171875
-7.38385546875,-8.48921484375,-5.8202578125,-7.83697265625,-7.8673671875,-5.37587890625,-5.74541015625,-4.124328125,-7.193265625,-6.77149609375,-5.75137109375,-4.07670703125,-2.69984765625,-5.6325234375,-1.59735546875,-4.39601953125,-0.48365625,-7.08869140625,-7.55052734375,-5.05840234375,-2.22819921875,1.74755859375,-8.06783203125,-5.1735390625,-4.83866796875,3.928921875,-7.71330078125,-7.3656484375,-4.0399609375,-3.14876171875
-5.89985546875,-6.03521484375,-2.8572578125,-8.36297265625,-6.3883671875,-3.40087890625,-3.77841015625,-1.315328125,-6.270265625,-4.79349609375,-3.76337109375,-1.50570703125,-2.15484765625,-3.3925234375,0.146644531249999,-2.20201953125,1.86634375,-4.69169140625,-5.23952734375,-3.20240234375,-0.45219921875,3.65955859375,-5.40583203125,-2.5845390625,-3.08366796875,6.181921875,-5.43030078125,-5.0176484375,-1.9209609375,-0.88476171875
-3.21085546875,-2.92521484375,0.259742187500001,-7.86597265625,-4.4773671875,-0.95587890625,-1.19241015625,1.070671875,-4.570265625,-2.43249609375,-1.08337109375,1.14829296875,-0.76984765625,-0.3305234375,2.35264453125,0.33298046875,4.04134375,-1.27469140625,-2.22252734375,-0.82340234375,1.73680078125,6.74055859375,-1.76283203125,0.6754609375,-0.79666796875,8.804921875,-2.29430078125,-1.4896484375,1.0780390625,2.06023828125
0.36214453125,0.46278515625,3.2537421875,-6.52397265625,-2.3883671875,1.57512109375,1.57058984375,2.794671875,-2.557265625,-0.0654960937500002,1.87462890625,3.37329296875,1.08115234375,2.9504765625,4.74264453125,2.79098046875,5.62634375,2.51230859375,0.95947265625,1.67959765625,3.91180078125,10.24355859375,2.09116796875,4.0154609375,1.52933203125,11.026921875,0.99969921875,2.1083515625,4.0860390625,4.79623828125
4.19214453125,3.71978515625,5.9447421875,-4.89797265625,-0.4073671875,3.80312109375,4.06158984375,3.827671875,-0.797265625,1.95050390625,4.61062890625,4.87029296875,2.83615234375,5.7894765625,7.02464453125,4.80498046875,6.48734375,5.94730859375,3.76247265625,3.92859765625,5.70680078125,13.29255859375,5.35816796875,6.8684609375,3.44133203125,12.337921875,3.78169921875,4.7323515625,6.3200390625,6.62823828125
7.54114453125,6.47378515625,8.2167421875,-3.60997265625,1.1816328125,5.41612109375,5.92958984375,4.289671875,0.246734375000001,3.34750390625,6.67262890625,5.63629296875,4.03015234375,7.6474765625,8.92664453125,6.15198046875,6.75234375,8.38930859375,5.76147265625,5.63159765625,6.93080078125,15.08255859375,7.43116796875,8.8144609375,4.65433203125,12.641921875,5.59969921875,5.7773515625,7.3300390625,7.28823828125
9.80414453125,8.46278515625,9.9907421875,-2.97497265625,2.1546328125,6.25612109375,7.00558984375,4.411671875,0.397734375000001,4.00750390625,7.79662890625,5.91929296875,4.51715234375,8.2694765625,10.23964453125,6.80298046875,6.71934375,9.45830859375,6.74847265625,6.62259765625,7.60580078125,15.15255859375,8.06616796875,9.6634609375,5.10833203125,12.214921875,6.32669921875,5.2493515625,7.1180390625,6.95823828125
10.72314453125,9.57678515625,11.1947421875,-2.80597265625,2.4436328125,6.34612109375,7.33658984375,4.506671875,-0.160265624999999,3.96250390625,7.98062890625,6.08229296875,4.45515234375,7.7574765625,10.83764453125,6.89398046875,6.72934375,9.15730859375,6.75847265625,6.86759765625,7.91580078125,13.60555859375,7.41816796875,9.4484609375,4.93933203125,11.496921875,6.13369921875,3.6863515625,6.0600390625,6.09423828125
10.45214453125,9.86878515625,11.7567421875,-2.55797265625,2.1746328125,5.83212109375,7.11758984375,4.903671875,-0.972265624999999,3.33350390625,7.42662890625,6.40129296875,4.07815234375,6.4844765625,10.68164453125,6.59898046875,7.03034375,7.82930859375,5.99347265625,6.42159765625,8.05480078125,11.06155859375,5.90316796875,8.3404609375,4.35333203125,10.842921875,5.32469921875,1.8573515625,4.6900390625,5.15823828125
9.47314453125,9.50978515625,11.6237421875,-1.76797265625,1.5776328125,4.87512109375,6.55058984375,5.798671875,-1.574265625,2.24050390625,6.38762890625,6.91329296875,3.45615234375,4.8824765625,9.79664453125,5.99398046875,7.65734375,5.96130859375,4.67447265625,5.35959765625,8.07180078125,8.33955859375,3.95416796875,6.5154609375,3.48533203125,10.339921875,4.14069921875,0.3833515625,3.4250390625,4.37623828125
8.36814453125,8.72278515625,10.7817421875,-0.47597265625,0.8436328125,3.56912109375,5.71158984375,7.113671875,-1.780265625,0.76450390625,5.02362890625,7.38629296875,2.48815234375,3.2424765625,8.26864453125,4.99598046875,8.38434375,3.94130859375,2.91747265625,3.73759765625,7.80880078125,6.04155859375,1.81616796875,4.0824609375,2.31733203125,9.780921875,2.62969921875,-0.5396484375,2.3620390625,3.64123828125
7.56914453125,7.69878515625,9.2847421875,0.70002734375,0.0546328125,1.95512109375,4.55558984375,8.474671875,-1.756265625,-1.02449609375,3.39162890625,7.43929296875,1.09415234375,1.6504765625,6.26664453125,3.44298046875,8.79934375,1.94330859375,0.74647265625,1.63659765625,7.00180078125,4.31855859375,-0.48983203125,1.1304609375,0.74333203125,8.813921875,0.68569921875,-1.1706484375,1.2830390625,2.61723828125
7.19314453125,6.55578515625,7.2877421875,0.92802734375,-0.7673671875,0.12112109375,3.04058984375,9.342671875,-1.869265625,-2.97749609375,1.53462890625,6.75129296875,-0.57984765625,0.0814765625,4.07264453125,1.25798046875,8.49434375,-0.0146914062500003,-1.77452734375,-0.77140234375,5.48280078125,2.94855859375,-3.02783203125,-2.1515390625,-1.27766796875,7.190921875,-1.76430078125,-2.0006484375,-0.1289609375,1.02123828125
7.01714453125,5.33378515625,5.0247421875,-0.31597265625,-1.6173671875,-1.74187890625,1.21158984375,9.219671875,-2.438265625,-4.83249609375,-0.42237109375,5.23329296875,-2.16184765625,-1.4735234375,2.06264453125,-1.40501953125,7.26434375,-1.92569140625,-4.42252734375,-3.18040234375,3.33480078125,1.64155859375,-5.73383203125,-5.3875390625,-3.57966796875,4.965921875,-4.55730078125,-3.3926484375,-1.9999609375,-1.10976171875
6.59314453125,4.00378515625,2.7597421875,-2.87497265625,-2.5193671875,-3.37587890625,-0.79541015625,7.841671875,-3.592265625,-6.28349609375,-2.27337109375,3.07329296875,-3.23784765625,-2.9385234375,0.607644531249997,-4.15301953125,5.22834375,-3.68269140625,-6.80752734375,-5.20840234375,0.90580078125,0.323558593750001,-8.30083203125,-8.0605390625,-5.78966796875,2.527921875,-7.22430078125,-5.2976484375,-4.0919609375,-3.36476171875
5.44514453125,2.50078515625,0.7147421875,-5.89297265625,-3.5293671875,-4.55487890625,-2.79841015625,5.312671875,-5.259265625,-7.11649609375,-3.80337109375,0.66029296875,-3.57484765625,-4.1815234375,-0.047355468750002,-6.48701953125,2.81334375,-5.05769140625,-8.49752734375,-6.52140234375,-1.31819921875,-0.75444140625,-10.24183203125,-9.6755390625,-7.45066796875,0.443921874999997,-9.14330078125,-7.2186484375,-5.8679609375,-5.13976171875
3.31414453125,0.77078515625,-0.9542578125,-8.17497265625,-4.6643671875,-5.17487890625,-4.59241015625,2.137671875,-7.211265625,-7.31449609375,-4.86537109375,-1.55870703125,-3.21184765625,-5.0665234375,0.141644531249998,-7.99601953125,0.63734375,-5.75769140625,-9.18752734375,-6.96840234375,-2.89819921875,-1.16144140625,-11.09783203125,-9.9535390625,-8.22866796875,-0.802078125000003,-9.82730078125,-8.4596484375,-6.7389609375,-5.95376171875
0.34614453125,-1.15221484375,-2.1652578125,-8.80897265625,-5.8343671875,-5.28287890625,-5.97541015625,-0.930328125,-9.135265625,-7.04749609375,-5.42237109375,-3.23070703125,-2.44384765625,-5.5145234375,1.01864453125,-8.52101953125,-0.71065625,-5.55669140625,-8.82752734375,-6.65740234375,-3.61219921875,-0.558441406249999,-10.65583203125,-8.9695390625,-8.06666796875,-1.052078125,-9.18030078125,-8.5216484375,-6.3809609375,-5.70476171875
-2.85485546875,-3.11221484375,-2.9052578125,-7.70397265625,-6.8493671875,-5.03787890625,-6.81341015625,-3.164328125,-10.702265625,-6.56049609375,-5.54437109375,-4.19570703125,-1.72684765625,-5.5325234375,2.29364453125,-8.21801953125,-0.90165625,-4.44669140625,-7.67352734375,-5.92740234375,-3.53519921875,1.03255859375,-9.07983203125,-7.1485390625,-7.23366796875,-0.551078125000002,-7.58430078125,-7.4256484375,-4.9469609375,-4.73876171875
-5.38285546875,-4.82621484375,-3.2042578125,-5.63697265625,-7.4873671875,-4.63487890625,-7.06241015625,-4.123328125,-11.641265625,-6.05049609375,-5.36937109375,-4.48870703125,-1.52584765625,-5.2085234375,3.64364453125,-7.47601953125,-0.00565624999999947,-2.69569140625,-6.18752734375,-5.20540234375,-2.97319921875,3.17855859375,-6.86583203125,-5.1245390625,-6.21066796875,0.199921874999998,-5.74930078125,-5.7166484375,-3.0109609375,-3.66976171875
-6.36385546875,-5.91521484375,-3.0562578125,-3.73097265625,-7.5493671875,-4.21187890625,-6.72641015625,-3.718328125,-11.775265625,-5.58249609375,-5.01337109375,-4.22570703125,-2.09784765625,-4.6545234375,4.83064453125,-6.71701953125,1.57634375,-0.75469140625,-4.83852734375,-4.79040234375,-2.26719921875,5.25355859375,-4.63983203125,-3.4815390625,-5.45366796875,0.741921874999997,-4.36930078125,-4.1196484375,-1.2649609375,-3.03776171875
-5.31485546875,-5.96421484375,-2.3432578125,-2.76397265625,-6.9183671875,-3.78787890625,-5.79941015625,-2.124328125,-11.071265625,-5.09349609375,-4.50737109375,-3.47970703125,-3.32084765625,-3.9325234375,5.79164453125,-6.18901953125,3.34434375,0.94130859375,-3.88652734375,-4.69240234375,-1.58219921875,6.79355859375,-2.87383203125,-2.5105390625,-5.15066796875,0.958921874999998,-3.76030078125,-3.0716484375,-0.1209609375,-2.96676171875
-2.34985546875,-4.63121484375,-0.8612578125,-2.84897265625,-5.6443671875,-3.27787890625,-4.29641015625,0.330671875,-9.702265625,-4.45949609375,-3.79637109375,-2.24470703125,-4.71184765625,-3.0605234375,6.62264453125,-5.88201953125,4.94134375,2.13630859375,-3.29552734375,-4.63340234375,-0.84719921875,7.72655859375,-1.69483203125,-2.1105390625,-5.11966796875,1.152921875,-3.69630078125,-2.4566484375,0.5050390625,-3.05776171875
1.85314453125,-1.82721484375,1.5237421875,-3.61097265625,-3.9863671875,-2.58287890625,-2.34641015625,3.226671875,-8.054265625,-3.60449609375,-2.83237109375,-0.52670703125,-5.65984765625,-2.0575234375,7.48264453125,-5.58401953125,6.25234375,2.80030859375,-2.82452734375,-4.22740234375,0.14580078125,8.32455859375,-0.907832031250001,-1.9005390625,-4.92666796875,1.841921875,-3.55830078125,-1.7366484375,1.0960390625,-2.59976171875
6.31114453125,2.13178515625,4.6767421875,-4.56597265625,-2.3193671875,-1.67087890625,-0.23441015625,6.084671875,-6.600265625,-2.56149609375,-1.63737109375,1.52729296875,-5.73284765625,-1.0025234375,8.47864453125,-5.03201953125,7.33934375,3.06730859375,-2.20552734375,-3.20640234375,1.55380078125,8.93655859375,-0.174832031250001,-1.4395390625,-4.14066796875,3.394921875,-2.69830078125,-0.3536484375,2.2050390625,-0.98076171875
10.08114453125,6.52078515625,8.1147421875,-5.34697265625,-0.9373671875,-0.59487890625,1.67858984375,8.433671875,-5.678265625,-1.46149609375,-0.32937109375,3.59729296875,-4.86484765625,-0.0235234375,9.60164453125,-4.04901953125,8.30134375,3.13230859375,-1.28852734375,-1.56540234375,3.34880078125,9.70155859375,0.740167968749999,-0.4595390625,-2.57566796875,5.760921875,-0.80730078125,1.8793515625,4.1100390625,1.93323828125
12.54414453125,10.38778515625,11.1077421875,-5.69897265625,0.0636328124999999,0.52612109375,3.06058984375,9.896671875,-5.326265625,-0.45749609375,0.919628906249999,5.26529296875,-3.34484765625,0.7534765625,10.72764453125,-2.64501953125,9.15034375,3.12330859375,-0.12752734375,0.41659765625,5.28280078125,10.43055859375,1.82516796875,1.0014609375,-0.41866796875,8.426921875,1.88069921875,4.5963515625,6.5950390625,5.62323828125
13.52514453125,12.84478515625,12.9067421875,-5.40397265625,0.7496328125,1.53212109375,3.69458984375,10.257671875,-5.287265625,0.32950390625,1.92162890625,6.15029296875,-1.63184765625,1.2344765625,11.64564453125,-1.04301953125,9.76634375,3.02330859375,1.02247265625,2.26559765625,6.95080078125,10.70155859375,2.79116796875,2.5824609375,1.80333203125,10.622921875,4.63669921875,6.9693515625,8.9590390625,9.03923828125
13.23914453125,13.35978515625,13.0087421875,-4.29997265625,1.2356328125,2.24912109375,3.53958984375,9.510671875,-5.197265625,0.81650390625,2.52462890625,6.04129296875,-0.12184765625,1.3744765625,12.12664453125,0.37598046875,9.95034375,2.70530859375,1.80147265625,3.46759765625,7.94280078125,10.15355859375,3.21816796875,3.7404609375,3.41933203125,11.663921875,6.51869921875,8.0523515625,10.2870390625,11.00923828125
12.12914453125,11.92978515625,11.3567421875,-2.44197265625,1.5946328125,2.54312109375,2.76658984375,7.870671875,-4.798265625,0.95050390625,2.67062890625,5.00229296875,0.99415234375,1.1954765625,12.01964453125,1.22798046875,9.56034375,2.06130859375,1.91547265625,3.67259765625,8.02680078125,8.77955859375,2.79116796875,4.0124609375,3.90333203125,11.288921875,6.79969921875,7.2623515625,9.9080390625,10.79423828125
10.64714453125,9.08078515625,8.3767421875,-0.21997265625,1.8276328125,2.39212109375,1.73058984375,5.741671875,-4.087265625,0.74150390625,2.43262890625,3.39529296875,1.69315234375,0.7904765625,11.35964453125,1.31798046875,8.66534375,1.13030859375,1.31047265625,2.85759765625,7.27580078125,7.01055859375,1.52416796875,3.2674609375,3.13433203125,9.809921875,5.33069921875,4.7363515625,7.7990390625,8.51123828125
9.06214453125,5.66378515625,4.8207421875,1.72502734375,1.8856328125,1.92812109375,0.86958984375,3.643671875,-3.297265625,0.30250390625,2.00662890625,1.80029296875,1.95215234375,0.3204765625,10.40364453125,0.74298046875,7.58634375,0.10230859375,0.21347265625,1.35859765625,6.05880078125,5.49755859375,-0.20783203125,1.7944609375,1.46833203125,7.963921875,2.64569921875,1.3253515625,4.6480390625,5.11623828125
7.38214453125,2.53778515625,1.4957421875,2.79902734375,1.7606328125,1.41012109375,0.56358984375,2.095671875,-2.740265625,-0.14349609375,1.63862890625,0.82829296875,1.63415234375,-0.0385234375,9.56264453125,-0.14801953125,6.78634375,-0.78469140625,-0.96352734375,-0.26640234375,4.87280078125,4.71055859375,-1.85183203125,0.1634609375,-0.42666796875,6.540921875,-0.29230078125,-1.8266484375,1.5180390625,1.92223828125
5.44614453125,0.31478515625,-0.9822578125,2.72602734375,1.5656328125,1.13912109375,1.01458984375,1.486671875,-2.608265625,-0.35249609375,1.54062890625,0.88129296875,0.53615234375,-0.1575234375,9.23564453125,-0.92401953125,6.65234375,-1.38269140625,-1.81052734375,-1.45840234375,4.12680078125,4.64955859375,-2.96783203125,-1.0385390625,-1.87366796875,5.989921875,-2.53330078125,-3.8516484375,-0.6819609375,-0.0477617187499999
3.15214453125,-0.74021484375,-2.3102578125,1.60402734375,1.5336328125,1.34212109375,2.17058984375,1.957671875,-2.884265625,-0.15749609375,1.82562890625,1.98229296875,-1.41884765625,-0.00652343750000004,9.65064453125,-1.24401953125,7.30134375,-1.70069140625,-2.08152734375,-1.85240234375,3.98080078125,4.85255859375,-3.39883203125,-1.4395390625,-2.44766796875,6.247921875,-3.51530078125,-4.5086484375,-1.5529609375,-0.46476171875
0.68814453125,-0.64521484375,-2.4722578125,-0.21497265625,1.8846328125,2.09312109375,3.74458984375,3.337671875,-3.387265625,0.46850390625,2.48962890625,3.77229296875,-3.98884765625,0.3424765625,10.79264453125,-0.95901953125,8.53034375,-1.87269140625,-1.74552734375,-1.35640234375,4.31580078125,4.71755859375,-3.25583203125,-0.9715390625,-2.08666796875,6.843921875,-3.19130078125,-4.1426484375,-1.2439609375,0.30923828125
-1.39085546875,0.461785156249999,-1.6102578125,-2.22297265625,2.7356328125,3.32112109375,5.35358984375,5.221671875,-3.886265625,1.45250390625,3.46162890625,5.70029296875,-6.55284765625,0.7814765625,12.46664453125,-0.0850195312500002,9.93234375,-2.03369140625,-0.92552734375,-0.0984023437500001,4.84980078125,3.92455859375,-2.73683203125,0.2094609375,-1.01966796875,7.203921875,-1.88330078125,-3.3246484375,-0.1889609375,1.56823828125
-2.26885546875,2.47778515625,0.1437421875,-3.78897265625,4.1226328125,4.90412109375,6.75258984375,7.182671875,-4.155265625,2.72250390625,4.70762890625,7.32329296875,-8.24484765625,1.2714765625,14.45664453125,1.31098046875,11.11234375,-2.16769140625,0.26547265625,1.70759765625,5.35080078125,2.69355859375,-1.92783203125,1.8854609375,0.43733203125,6.995921875,-0.000300781249999549,-2.4436484375,1.2310390625,2.71723828125
-1.18085546875,5.38578515625,2.7317421875,-4.23197265625,6.0906328125,6.78212109375,7.99058984375,8.985671875,-3.975265625,4.30750390625,6.29762890625,8.52229296875,-8.28384765625,1.9304765625,16.66764453125,3.20398046875,11.88634375,-2.02369140625,1.84947265625,3.89759765625,5.79380078125,1.73255859375,-0.71483203125,3.9364609375,2.07633203125,6.334921875,2.19969921875,-1.4836484375,2.9070390625,3.57623828125
2.18514453125,9.12978515625,6.0827421875,-3.04597265625,8.6846328125,8.98912109375,9.36258984375,10.629671875,-3.147265625,6.33850390625,8.37562890625,9.52029296875,-6.35784765625,3.0014765625,19.14764453125,5.61998046875,12.34434375,-1.20069140625,3.97247265625,6.41259765625,6.38280078125,1.89755859375,1.15516796875,6.3734609375,3.89933203125,5.756921875,4.68869921875,-0.1086484375,4.9830390625,4.41723828125
7.41414453125,13.43278515625,9.9517421875,-0.18397265625,11.8626328125,11.58312109375,11.18358984375,12.226671875,-1.546265625,8.94250390625,11.03062890625,10.67229296875,-2.80284765625,4.7314765625,21.97964453125,8.53398046875,12.74334375,0.65630859375,6.75647265625,9.23759765625,7.38680078125,3.76455859375,3.87616796875,9.2364609375,6.02933203125,5.929921875,7.54969921875,2.0483515625,7.6450390625,5.72223828125
13.41814453125,17.72678515625,13.8577421875,3.82702734375,15.4486328125,14.52312109375,13.56658984375,13.841671875,0.828734375,12.09750390625,14.16762890625,12.20529296875,1.56615234375,7.2084765625,25.12864453125,11.74498046875,13.30834375,3.63830859375,10.11447265625,12.26659765625,8.91680078125,7.34155859375,7.38416796875,12.4404609375,8.52433203125,7.272921875,10.76269921875,5.0663515625,10.8640390625,7.81723828125
18.82314453125,21.31278515625,17.2077421875,8.05602734375,19.1326328125,17.58612109375,16.30058984375,15.398671875,3.804734375,15.52050390625,17.45262890625,14.04029296875,5.84815234375,10.2554765625,28.33064453125,14.81698046875,14.05134375,7.46230859375,13.65747265625,15.19359765625,10.77680078125,12.02955859375,11.24816796875,15.6664609375,11.18933203125,9.654921875,14.03169921875,8.5723515625,14.2350390625,10.57423828125
22.48114453125,23.62178515625,19.4807421875,11.53502734375,22.4686328125,20.34112109375,18.86158984375,16.674671875,6.995734375,18.68350390625,20.35662890625,15.78429296875,9.37015234375,13.4164765625,31.08964453125,17.15398046875,14.74034375,11.48430859375,16.74847265625,17.50859765625,12.48480078125,16.81155859375,14.73516796875,18.3814609375,13.53133203125,12.368921875,16.77269921875,11.8053515625,17.0200390625,13.35623828125
23.82414453125,24.39778515625,20.3687421875,13.63802734375,24.8806328125,22.23612109375,20.55358984375,17.359671875,9.808734375,20.93450390625,22.28362890625,16.88229296875,11.74615234375,16.0614765625,32.81264453125,18.18998046875,15.03134375,14.86430859375,18.69547265625,18.64959765625,13.47080078125,20.56255859375,17.04216796875,19.9984609375,14.90733203125,14.436921875,18.30469921875,13.8903515625,18.4030390625,15.25423828125
22.99114453125,23.74178515625,19.8417421875,14.24502734375,25.7886328125,22.78312109375,20.78258984375,17.209671875,11.588734375,21.71350390625,22.76862890625,16.86929296875,12.76115234375,17.5814765625,33.04964453125,17.60298046875,14.70134375,16.83530859375,19.00647265625,18.24859765625,13.36380078125,22.37355859375,17.58616796875,20.1064609375,14.80833203125,15.077921875,18.13969921875,14.2043515625,17.8620390625,15.53523828125
20.70314453125,22.04678515625,18.1667421875,13.66702734375,24.8606328125,21.76712109375,19.36458984375,16.217671875,11.888734375,20.76950390625,21.67762890625,15.62129296875,12.29115234375,17.6234765625,31.71864453125,15.48598046875,13.80734375,16.99230859375,17.61047265625,16.33459765625,12.18480078125,21.82355859375,16.24216796875,18.6654609375,13.13833203125,14.088921875,16.22969921875,12.6583515625,15.4500390625,14.03123828125
17.99214453125,19.89578515625,15.8717421875,12.38702734375,22.2266328125,19.38912109375,16.66158984375,14.685671875,10.691734375,18.28950390625,19.30262890625,13.46229296875,10.37615234375,16.2194765625,29.18564453125,12.36698046875,12.67134375,15.45830859375,14.91047265625,13.38259765625,10.35480078125,19.12355859375,13.40716796875,16.0544609375,10.31533203125,11.915921875,13.02869921875,9.7483515625,11.8010390625,11.22223828125
15.82614453125,17.91578515625,13.6317421875,10.78702734375,18.4786328125,16.22312109375,13.46058984375,13.142671875,8.422734375,14.85550390625,16.27262890625,11.06529296875,7.38415234375,13.7624765625,26.12764453125,9.07298046875,11.70434375,12.82630859375,11.63947265625,10.14259765625,8.49780078125,15.06955859375,9.84716796875,12.9334609375,7.12333203125,9.389921875,9.32269921875,6.3153515625,7.8430390625,7.98123828125
14.76114453125,16.59678515625,12.0837421875,9.01902734375,14.4676328125,13.01712109375,10.65758984375,12.158671875,5.751734375,11.23450390625,13.33262890625,9.19429296875,4.06415234375,10.8214765625,23.26164453125,6.47498046875,11.20334375,9.90030859375,8.56647265625,7.36259765625,7.18680078125,10.78555859375,6.40416796875,9.9964609375,4.40033203125,7.329921875,5.92669921875,3.1863515625,4.4180390625,5.16023828125
14.78114453125,16.12678515625,11.6307421875,7.07902734375,11.0246328125,10.43112109375,8.93158984375,12.137671875,3.319734375,8.10650390625,11.08962890625,8.40529296875,1.36915234375,7.9274765625,21.09564453125,5.20298046875,11.26334375,7.37430859375,6.24247265625,5.54359765625,6.74680078125,7.33355859375,3.70216796875,7.7524609375,2.73533203125,6.226921875,3.41969921875,0.9083515625,2.0400390625,3.31323828125
15.37214453125,16.34078515625,12.2937421875,4.99302734375,8.7136328125,8.83412109375,8.52858984375,13.161671875,1.520734375,5.87450390625,9.84862890625,8.85129296875,0.02715234375,5.4294765625,19.80064453125,5.43498046875,11.77534375,5.59130859375,4.85847265625,4.82659765625,7.18480078125,5.35755859375,1.99716796875,6.4214609375,2.31133203125,6.157921875,2.04069921875,-0.3286484375,0.8630390625,2.63523828125
15.80414453125,16.79278515625,13.6677421875,2.93602734375,7.6846328125,8.22112109375,9.18258984375,14.883671875,0.409734375000001,4.60650390625,9.55362890625,10.22429296875,0.10215234375,3.4484765625,19.23564453125,6.82598046875,12.48234375,4.47730859375,4.26147265625,4.99959765625,8.21880078125,4.89255859375,1.18716796875,5.9404609375,2.90033203125,6.872921875,1.71369921875,-0.6246484375,0.7540390625,3.01523828125
15.44814453125,16.92378515625,15.0097421875,1.19502734375,7.6956328125,8.25712109375,10.23558984375,16.561671875,-0.242265625,4.09550390625,9.82262890625,11.84929296875,0.84915234375,1.9234765625,19.06864453125,8.61098046875,13.01334375,3.65230859375,4.07747265625,5.59359765625,9.35980078125,5.40855859375,0.937167968749999,6.0244609375,3.96333203125,7.941921875,2.12469921875,-0.2856484375,1.3410390625,4.07623828125
14.04014453125,16.28778515625,15.4947421875,0.0360273437500003,8.2936328125,8.43612109375,10.92358984375,17.291671875,-0.759265624999999,3.98550390625,10.10662890625,12.89829296875,1.06915234375,0.7144765625,18.94964453125,9.86598046875,12.94534375,2.68330859375,3.89047265625,6.04959765625,10.03980078125,6.07755859375,0.836167968749999,6.2704609375,4.82233203125,8.884921875,2.80869921875,0.2583515625,2.0710390625,5.21523828125
11.80714453125,14.76978515625,14.5647421875,-0.40597265625,9.0596328125,8.33412109375,10.72858984375,16.379671875,-1.319265625,3.95350390625,9.92062890625,12.70129296875,-0.18584765625,-0.2545234375,18.69664453125,9.87998046875,11.91434375,1.35930859375,3.46147265625,5.93959765625,9.81480078125,6.15955859375,0.586167968749999,6.3244609375,4.90533203125,9.303921875,3.32069921875,0.5923515625,2.3840390625,5.78323828125
9.43314453125,12.71878515625,12.2297421875,-0.14097265625,9.7906328125,7.83512109375,9.62558984375,13.704671875,-1.803265625,3.89450390625,9.09462890625,11.03829296875,-2.97984765625,-0.8865234375,18.41864453125,8.48298046875,9.79734375,-0.14269140625,2.86747265625,5.19959765625,8.56380078125,5.37555859375,0.17416796875,6.0624609375,4.02533203125,9.021921875,3.46169921875,0.5283515625,2.0070390625,5.42323828125
7.82914453125,10.85378515625,9.1317421875,0.71002734375,10.5096328125,7.19412109375,8.07358984375,9.850671875,-1.834265625,3.98650390625,7.86062890625,8.27229296875,-6.36084765625,-0.9185234375,18.46964453125,6.14598046875,6.83134375,-1.30169140625,2.48547265625,4.18859765625,6.59080078125,4.07755859375,-0.0988320312500006,5.6804609375,2.51033203125,8.153921875,3.41269921875,0.2603515625,1.1740390625,4.34023828125
7.73314453125,9.93078515625,6.2817421875,1.95102734375,11.3506328125,6.85412109375,6.76358984375,5.892671875,-1.037265625,4.52550390625,6.70762890625,5.19329296875,-8.81284765625,-0.1045234375,19.23064453125,3.74298046875,3.55834375,-1.52869140625,2.76147265625,3.49559765625,4.50780078125,3.09955859375,0.20216796875,5.5594609375,1.04933203125,7.036921875,3.60969921875,0.2933515625,0.5360390625,3.23623828125
9.28714453125,10.30778515625,4.5887421875,3.29002734375,12.3486328125,7.11212109375,6.23358984375,2.908671875,0.618734375000001,5.63150390625,6.06962890625,2.65629296875,-9.04884765625,1.5254765625,20.78764453125,2.10698046875,0.60034375,-0.50969140625,3.88047265625,3.55459765625,2.94280078125,3.34155859375,1.32016796875,5.9774609375,0.30433203125,6.008921875,4.39669921875,1.1273515625,0.7570390625,2.88923828125
11.86314453125,11.70278515625,4.4337421875,4.34202734375,13.2636328125,7.87012109375,6.58158984375,1.485671875,2.620734375,7.04850390625,6.05062890625,1.21429296875,-6.67784765625,3.5204765625,22.76764453125,1.63998046875,-1.59465625,1.57330859375,5.55547265625,4.35159765625,2.22580078125,5.29955859375,3.08516796875,6.8594609375,0.53133203125,5.194921875,5.72769921875,2.9123515625,2.0600390625,3.65823828125
14.32514453125,13.33478515625,5.5467421875,4.70102734375,13.6206328125,8.68412109375,7.46758984375,1.532671875,4.071734375,8.24150390625,6.41562890625,0.97429296875,-2.39684765625,5.1794765625,24.48064453125,2.22898046875,-2.83665625,4.12330859375,7.13147265625,5.44459765625,2.28880078125,8.81455859375,4.98916796875,7.7964609375,1.48633203125,4.487921875,7.14869921875,5.3143515625,4.0640390625,5.28023828125
15.63314453125,14.37378515625,7.2547421875,4.10802734375,13.0366328125,9.09712109375,8.41558984375,2.522671875,4.200734375,8.74150390625,6.83562890625,1.73929296875,2.39615234375,5.9524765625,25.32664453125,3.47198046875,-3.10165625,6.45230859375,7.98147265625,6.30359765625,2.82880078125,13.14155859375,6.48816796875,8.3314609375,2.66133203125,3.739921875,8.09669921875,7.6973515625,6.0140390625,7.07223828125
15.41014453125,14.43278515625,8.9167421875,2.64302734375,11.6246328125,9.01612109375,9.21458984375,3.944671875,2.901734375,8.50850390625,7.19562890625,3.25529296875,6.32915234375,5.8244765625,25.20464453125,5.00698046875,-2.38365625,8.15730859375,7.93047265625,6.70259765625,3.57980078125,17.26255859375,7.33716796875,8.2994609375,3.66133203125,3.001921875,8.27269921875,9.4793515625,7.2320390625,8.38223828125
14.07714453125,13.75378515625,10.2427421875,0.80302734375,10.1006328125,8.84112109375,10.06758984375,5.605671875,0.900734375000001,8.04450390625,7.71062890625,5.39429296875,8.70615234375,5.3674765625,24.62564453125,6.70098046875,-0.64865625,9.27930859375,7.40947265625,6.88859765625,4.49080078125,20.24055859375,7.71316796875,7.9734609375,4.44933203125,2.612921875,7.85069921875,10.4113515625,7.4720390625,8.94423828125
12.52414453125,13.02578515625,11.3267421875,-0.59197265625,9.4676328125,9.24912109375,11.41158984375,7.610671875,-0.582265625,8.14750390625,8.76862890625,8.12529296875,9.71715234375,5.4324765625,24.45264453125,8.60898046875,2.07434375,10.17930859375,7.21547265625,7.40859765625,5.68680078125,21.48755859375,8.07116796875,7.9054609375,5.31333203125,3.058921875,7.37969921875,10.6243515625,6.9940390625,8.96323828125
11.61414453125,12.98778515625,12.4687421875,-0.66397265625,10.4836328125,10.78312109375,13.56358984375,10.108671875,-0.447265625,9.47450390625,10.63962890625,11.37929296875,10.10515234375,6.6644765625,25.44364453125,10.81598046875,5.57534375,11.27130859375,8.05947265625,8.76059765625,7.32080078125,20.90555859375,8.85916796875,8.6084609375,6.63733203125,4.697921875,7.48969921875,10.4653515625,6.3650390625,8.93823828125
11.87414453125,14.09278515625,13.9697421875,1.17502734375,13.2616328125,13.51112109375,16.47758984375,13.052671875,1.759734375,12.15950390625,13.25762890625,14.91229296875,10.56515234375,9.1634765625,27.86264453125,13.28598046875,9.41634375,12.77730859375,10.18447265625,11.09259765625,9.42680078125,18.89055859375,10.27016796875,10.2804609375,8.64333203125,7.531921875,8.57169921875,10.2793515625,6.1700390625,9.37823828125
13.43114453125,16.35878515625,15.9777421875,4.82802734375,17.1816328125,16.92212109375,19.70458984375,16.110671875,5.613734375,15.68250390625,16.19262890625,18.26429296875,11.25715234375,12.4044765625,31.32464453125,15.79998046875,13.00734375,14.60730859375,13.21747265625,14.09759765625,11.85980078125,16.18255859375,12.14016796875,12.7064609375,11.24433203125,11.132921875,10.59869921875,10.2583515625,6.7340390625,10.53523828125
16.05414453125,19.37678515625,18.3807421875,9.30502734375,21.0696328125,20.09412109375,22.51958984375,18.724671875,9.934734375,19.03950390625,18.76162890625,20.83229296875,11.74415234375,15.4324765625,34.93464453125,17.97198046875,15.76334375,16.36030859375,16.30447265625,17.11859765625,14.29480078125,13.57855859375,14.01216796875,15.3244609375,14.04333203125,14.756921875,13.12469921875,10.3863515625,7.9770390625,12.26723828125
19.18914453125,22.43478515625,20.7737421875,12.95402734375,23.6216328125,22.04312109375,24.17758984375,20.290671875,13.224734375,21.13650390625,20.25562890625,22.04529296875,11.35715234375,17.2204765625,37.62764453125,19.33798046875,17.28434375,17.44830859375,18.44347265625,19.37159765625,16.29180078125,11.65055859375,15.31516796875,17.4364609375,16.46133203125,17.594921875,15.45869921875,10.4983515625,9.4500390625,14.08123828125
22.05214453125,24.74378515625,22.5947421875,14.20302734375,23.9356328125,22.13112109375,24.22658984375,20.428671875,14.291734375,21.24050390625,20.21962890625,21.61429296875,9.78315234375,17.0894765625,38.60264453125,19.54098046875,17.49234375,17.34530859375,18.90147265625,20.24659765625,17.44580078125,10.61555859375,15.60816796875,18.4844609375,17.96633203125,19.066921875,16.94169921875,10.4253515625,10.5740390625,15.36823828125
23.86214453125,25.73078515625,23.3807421875,12.44302734375,21.9236328125,20.34912109375,22.74258984375,19.209671875,12.795734375,19.29650390625,18.66262890625,19.72829296875,7.41215234375,15.0194765625,37.64864453125,18.52498046875,16.66834375,15.85230859375,17.55047265625,19.53759765625,17.56180078125,10.37955859375,14.79316796875,18.2804609375,18.29033203125,19.028921875,17.22169921875,10.1323515625,10.9310390625,15.70723828125
24.14214453125,25.27778515625,23.0057421875,8.44502734375,18.3276328125,17.33012109375,20.32058984375,17.164671875,9.408734375,15.97650390625,16.09762890625,17.05329296875,5.16715234375,11.6844765625,35.21464453125,16.62598046875,15.34634375,13.23030859375,14.91547265625,17.53659765625,16.74380078125,10.64455859375,13.17516796875,17.0784609375,17.53433203125,17.791921875,16.38569921875,9.7443515625,10.4450390625,15.06023828125
22.96014453125,23.77278515625,21.7297421875,4.04402734375,14.3596328125,14.08912109375,17.81358984375,15.052671875,5.498734375,12.41250390625,13.35562890625,14.49229296875,3.91515234375,8.1804765625,32.19364453125,14.46498046875,14.10534375,10.13330859375,11.94947265625,14.92159765625,15.34780078125,11.01155859375,11.33916796875,15.4454609375,16.10933203125,15.943921875,14.88669921875,9.4523515625,9.3680390625,13.75423828125
20.97114453125,21.94578515625,20.0757421875,1.25002734375,11.1986328125,11.62412109375,16.00258984375,13.518671875,2.525734375,9.75450390625,11.29962890625,12.81429296875,3.93815234375,5.5874765625,29.57464453125,12.70598046875,13.36134375,7.38830859375,9.63947265625,12.51259765625,13.83280078125,11.12455859375,9.90016796875,14.0374609375,14.55433203125,14.097921875,13.32569921875,9.3843515625,8.1290390625,12.32823828125
19.19014453125,20.58378515625,18.6437421875,1.27702734375,9.6106328125,10.58612109375,15.35658984375,12.855671875,1.449734375,8.75650390625,10.54562890625,12.38029296875,4.87615234375,4.5894765625,28.11864453125,11.82098046875,13.23934375,5.72430859375,8.65947265625,11.00159765625,12.61080078125,10.83155859375,9.27716796875,13.3874609375,13.36333203125,12.690921875,12.22669921875,9.5393515625,7.1660390625,11.32123828125
18.54514453125,20.24678515625,17.9517421875,3.97802734375,9.7816328125,11.12512109375,15.94258984375,12.953671875,2.415734375,9.56150390625,11.30262890625,13.06629296875,6.09315234375,5.2644765625,28.16664453125,11.95098046875,13.56034375,5.50630859375,9.17347265625,10.74659765625,11.93780078125,10.25155859375,9.55716796875,13.7644609375,12.83633203125,11.899921875,11.87569921875,9.7953515625,6.7580390625,11.05523828125
19.39114453125,21.05378515625,18.2817421875,7.93502734375,11.3226328125,12.89412109375,17.44458984375,13.408671875,4.762734375,11.71150390625,13.30962890625,14.37829296875,7.08615234375,7.1014765625,29.56564453125,12.89798046875,13.93534375,6.56430859375,10.79947265625,11.65359765625,11.84380078125,9.65255859375,10.46216796875,15.0774609375,12.97933203125,11.623921875,12.22369921875,9.9303515625,6.8700390625,11.44923828125
21.24414453125,22.59778515625,19.5177421875,11.13902734375,13.4256328125,15.17112109375,19.25458984375,13.700671875,7.332734375,14.31350390625,15.88262890625,15.64629296875,7.58815234375,9.1734765625,31.70164453125,14.18998046875,13.90834375,8.17930859375,12.70947265625,13.17259765625,12.08480078125,9.21055859375,11.39316796875,16.8214609375,13.44233203125,11.493921875,12.85469921875,9.6173515625,7.0740390625,11.92723828125
22.89014453125,24.01478515625,21.0557421875,11.89402734375,15.1026328125,17.02912109375,20.61058984375,13.341671875,8.903734375,16.28850390625,18.07162890625,16.19629296875,7.43915234375,10.4114765625,33.63164453125,15.18398046875,13.09834375,9.29330859375,13.85747265625,14.40559765625,12.16480078125,8.81555859375,11.56116796875,18.1384609375,13.55933203125,10.941921875,13.04269921875,8.4563515625,6.6320390625,11.56523828125
22.86614453125,24.24178515625,21.8847421875,9.51602734375,15.4676328125,17.58112109375,20.78958984375,11.970671875,8.595734375,16.68350390625,18.91962890625,15.51529296875,6.48315234375,9.9374765625,34.36264453125,15.21598046875,11.32734375,8.89530859375,13.30447265625,14.37659765625,11.48180078125,8.09655859375,10.24016796875,18.0544609375,12.56633203125,9.395921875,11.99169921875,6.1093515625,4.8070390625,9.50423828125
20.12514453125,22.42978515625,20.9427421875,4.60002734375,14.0126328125,16.29712109375,19.33558984375,9.460671875,6.146734375,15.00850390625,17.81862890625,13.41929296875,4.64515234375,7.3914765625,33.23964453125,13.84798046875,8.72234375,6.46030859375,10.60347265625,12.42959765625,9.61480078125,6.66855859375,7.11216796875,15.9014609375,9.98433203125,6.601921875,9.23669921875,2.5733515625,1.3260390625,5.49823828125
14.65014453125,18.41578515625,17.6777421875,-1.22497265625,10.8426328125,13.27812109375,16.31958984375,6.073671875,2.030734375,11.49750390625,14.82462890625,10.21529296875,2.10915234375,3.1664765625,30.30364453125,11.12098046875,5.76934375,2.27030859375,6.09947265625,8.61759765625,6.64480078125,4.46555859375,2.55616796875,11.7424609375,5.98533203125,2.902921875,5.01769921875,-1.5936484375,-3.2679609375,0.25623828125
7.71314453125,13.00978515625,12.5287421875,-5.94297265625,6.7546328125,9.34112109375,12.47358984375,2.570671875,-2.644265625,7.13150390625,10.77662890625,6.72429296875,-0.61984765625,-1.6185234375,26.41464453125,7.67998046875,3.23734375,-2.56269140625,0.95347265625,3.84359765625,3.27280078125,1.91855859375,-2.33283203125,6.5244609375,1.50733203125,-0.766078125000003,0.35369921875,-5.3096484375,-7.6619609375,-4.69076171875
1.56414453125,7.88578515625,7.0077421875,-8.00097265625,3.0096328125,5.78112109375,9.02258984375,0.0946718749999997,-6.480265625,3.32750390625,7.04462890625,4.07229296875,-2.84184765625,-5.4525234375,22.98164453125,4.61698046875,1.94834375,-6.45669140625,-3.20152734375,-0.39440234375,0.62080078125,-0.125441406249999,-6.05683203125,1.8044609375,-2.04666796875,-3.219078125,-3.29430078125,-7.3356484375,-10.2849609375,-7.61576171875
-1.44085546875,4.97778515625,3.1927421875,-6.98697265625,0.8276328125,3.86812109375,7.19158984375,-0.248328125,-8.297265625,1.40550390625,4.98762890625,3.25829296875,-3.92684765625,-7.0125234375,21.38764453125,3.04598046875,2.44834375,-7.97169140625,-4.89152734375,-2.60540234375,-0.26319921875,-0.72744140625,-7.28183203125,-0.8765390625,-3.40566796875,-3.557078125,-4.63930078125,-6.8126484375,-10.0329609375,-7.40676171875
0.0791445312499999,5.61178515625,2.7927421875,-3.74897265625,0.8556328125,4.30012109375,7.63158984375,2.042671875,-7.588265625,2.04650390625,5.34362890625,4.67429296875,-3.55184765625,-5.7145234375,22.35664453125,3.59598046875,4.74634375,-6.39969140625,-3.43152734375,-1.97040234375,1.07980078125,0.71255859375,-5.40483203125,-0.6605390625,-2.03766796875,-1.621078125,-3.16430078125,-3.6966484375,-6.8519609375,-4.13776171875
5.81514453125,9.81778515625,6.2567421875,0.13602734375,2.9516328125,6.89112109375,10.11958984375,6.511671875,-4.695265625,5.00150390625,7.90062890625,7.87729296875,-1.83484765625,-1.9575234375,25.61364453125,6.09598046875,8.25234375,-2.04569140625,0.76747265625,1.26659765625,4.25280078125,4.13555859375,-0.85283203125,2.2614609375,1.56633203125,1.893921875,0.60569921875,1.1393515625,-1.8309609375,0.920238281250001
13.83214453125,16.24378515625,12.4587421875,3.18302734375,6.3546328125,10.68712109375,13.69658984375,11.830671875,-0.628265624999999,9.24050390625,11.61962890625,11.74129296875,0.70415234375,3.0674765625,30.00964453125,9.62398046875,11.95934375,3.92530859375,6.36947265625,5.90259765625,8.14980078125,8.76955859375,5.05716796875,6.7654609375,6.11133203125,5.727921875,5.33169921875,6.2103515625,3.2450390625,5.85923828125
21.40214453125,22.73478515625,19.1567421875,4.65502734375,10.1036328125,14.43212109375,17.14258984375,16.322671875,3.385734375,13.45450390625,15.15662890625,14.96029296875,3.34615234375,7.9154765625,34.07864453125,12.93498046875,14.81034375,9.98630859375,11.69247265625,10.33259765625,11.44580078125,13.43155859375,10.67016796875,11.3224609375,10.08133203125,8.615921875,9.46369921875,10.0133515625,6.6880390625,8.99223828125
26.15014453125,27.25578515625,23.9837421875,4.72502734375,13.4366328125,17.14112109375,19.52358984375,18.645671875,6.402734375,16.65150390625,17.48262890625,16.60129296875,5.46815234375,11.4894765625,36.71264453125,15.01898046875,16.06734375,14.83230859375,15.39747265625,13.26259765625,13.14980078125,17.02055859375,14.66916796875,14.6484609375,12.39033203125,9.811921875,11.90769921875,11.6223515625,7.6180390625,9.54723828125
26.98214453125,28.67878515625,25.4437421875,4.19802734375,15.9956328125,18.46212109375,20.52958984375,18.332671875,8.084734375,18.48150390625,18.28562890625,16.42829296875,6.78915234375,13.3754765625,37.58164453125,15.49798046875,15.52934375,17.76730859375,16.93947265625,14.19459765625,12.96180078125,18.90655859375,16.50816796875,16.1474609375,12.75133203125,9.302921875,12.37869921875,10.9723515625,6.2220390625,7.85823828125
24.40614453125,27.10778515625,23.4447421875,4.01702734375,17.7766328125,18.64612109375,20.46258984375,15.907671875,8.699734375,19.17350390625,17.94062890625,14.85829296875,7.45115234375,13.7994765625,37.10864453125,14.64798046875,13.52234375,18.75930859375,16.60547265625,13.46659765625,11.25780078125,19.02655859375,16.42516796875,15.9604609375,11.61333203125,7.646921875,11.31769921875,8.7153515625,3.4760390625,5.00223828125
20.16814453125,23.68178515625,19.1627421875,4.82602734375,18.8776328125,18.22212109375,19.90258984375,12.534671875,8.818734375,19.19250390625,17.13162890625,12.62229296875,7.89915234375,13.2904765625,36.06964453125,13.11898046875,10.70634375,18.22730859375,15.16847265625,11.90559765625,8.80280078125,17.71455859375,15.12216796875,14.6874609375,9.79133203125,5.598921875,9.51369921875,5.7953515625,0.5720390625,2.19423828125
16.42114453125,20.01978515625,14.4187421875,6.75102734375,19.2786328125,17.61712109375,19.28458984375,9.426671875,8.946734375,18.91650390625,16.39762890625,10.38429296875,8.58415234375,12.3304765625,35.12564453125,11.55198046875,7.80734375,16.75030859375,13.42547265625,10.35259765625,6.36380078125,15.46555859375,13.36916796875,12.9924609375,8.03033203125,3.763921875,7.70669921875,3.0503515625,-1.5939609375,0.28423828125
14.82814453125,17.55478515625,10.8887421875,9.42402734375,18.8276328125,16.96112109375,18.67258984375,7.343671875,9.295734375,18.46950390625,15.87262890625,8.51329296875,9.66915234375,11.1764765625,34.54164453125,10.32598046875,5.38834375,14.85030859375,11.86847265625,9.31059765625,4.44580078125,12.77655859375,11.72816796875,11.3144609375,6.73633203125,2.416921875,6.34769921875,1.0033515625,-2.6409609375,-0.44476171875
15.95714453125,17.02178515625,9.5027421875,12.14002734375,17.4066328125,16.11912109375,17.84058984375,6.405671875,9.765734375,17.75850390625,15.31962890625,7.08029296875,10.92215234375,9.8724765625,34.17164453125,9.49298046875,3.71134375,12.87330859375,10.59047265625,8.83959765625,3.19680078125,10.08255859375,10.45116796875,9.7924609375,5.93633203125,1.520921875,5.54169921875,-0.1556484375,-2.6539609375,-0.19076171875
19.15014453125,18.21778515625,10.1967421875,14.11602734375,15.0886328125,14.85312109375,16.52458984375,6.220671875,10.046734375,16.58150390625,14.36462890625,5.98529296875,11.86415234375,8.3424765625,33.61864453125,8.86898046875,2.73934375,10.96430859375,9.38747265625,8.65559765625,2.48280078125,7.70655859375,9.49616796875,8.3334609375,5.40433203125,0.873921874999997,5.12269921875,-0.5026484375,-2.0029609375,0.585238281250001
22.79914453125,20.09478515625,12.0177421875,14.77602734375,12.1716328125,12.98612109375,14.65858984375,6.184671875,9.770734375,14.74050390625,12.73162890625,5.08329296875,12.02915234375,6.4784765625,32.44064453125,8.16498046875,2.24734375,9.10130859375,7.93147265625,8.31259765625,2.03280078125,5.81855859375,8.61916796875,6.7494609375,4.81733203125,0.291921874999998,4.77669921875,-0.3046484375,-1.1639609375,1.37623828125
24.89714453125,21.12278515625,13.5197421875,14.00302734375,9.1136328125,10.48312109375,12.46758984375,5.799671875,8.690734375,12.10450390625,10.37462890625,4.23929296875,11.14915234375,4.2024765625,30.31564453125,7.07898046875,1.97934375,7.19430859375,5.93647265625,7.37259765625,1.59080078125,4.44855859375,7.49516796875,4.8744609375,3.86533203125,-0.287078125000003,4.15869921875,0.0553515625000001,-0.5889609375,1.77723828125
23.71614453125,19.83478515625,13.3327421875,12.19602734375,6.4606328125,7.45412109375,10.41258984375,4.893671875,6.827734375,8.64650390625,7.46262890625,3.35229296875,9.18315234375,1.5194765625,27.13064453125,5.38198046875,1.77734375,5.21730859375,3.26147265625,5.53059765625,1.01580078125,3.54655859375,5.84316796875,2.6274609375,2.31533203125,-0.804078125000002,2.99169921875,0.1893515625,-0.6059609375,1.55623828125
18.41914453125,15.40778515625,10.6967421875,10.03102734375,4.6976328125,4.09512109375,8.98458984375,3.618671875,4.472734375,4.44850390625,4.27662890625,2.37029296875,6.26615234375,-1.4715234375,22.99964453125,2.98698046875,1.60334375,3.24230859375,-0.0465273437499996,2.69559765625,0.30780078125,3.03855859375,3.53416796875,0.0424609375,0.0743320312500002,-1.148078125,1.14469921875,-0.1596484375,-1.3439609375,0.673238281250001
9.41214453125,8.03578515625,5.7507421875,8.05602734375,3.9976328125,0.60412109375,8.41458984375,2.257671875,1.980734375,-0.29649609375,1.06062890625,1.31029296875,2.66115234375,-4.6255234375,18.20664453125,-0.00401953125000021,1.49134375,1.37130859375,-3.79352734375,-0.97440234375,-0.44819921875,2.83755859375,0.64916796875,-2.7675390625,-2.76466796875,-1.257078125,-1.30830078125,-1.0136484375,-2.6889609375,-0.72276171875
-1.73385546875,-1.08121484375,-0.5482578125,6.39302734375,4.0276328125,-2.89787890625,8.47858984375,0.982671875,-0.459265624999999,-5.32249609375,-2.08137109375,0.23129296875,-1.28984765625,-7.8255234375,13.10764453125,-3.31601953125,1.45534375,-0.391691406250001,-7.73652734375,-5.09440234375,-1.18019921875,2.81355859375,-2.55683203125,-5.6675390625,-5.92766796875,-1.175078125,-4.09730078125,-2.1566484375,-4.3389609375,-2.35476171875
-1.73385546875,-1.08121484375,-0.5482578125,6.39302734375,4.0276328125,-2.89787890625,8.47858984375,0.982671875,-0.459265624999999,-5.32249609375,-2.08137109375,0.23129296875,-1.28984765625,-7.8255234375,13.10764453125,-3.31601953125,1.45534375,-0.391691406250001,-7.73652734375,-5.09440234375,-1.18019921875,2.81355859375,-2.55683203125,-5.6675390625,-5.92766796875,-1.175078125,-4.09730078125,-2.1566484375,-4.3389609375,-2.35476171875
