"Fp1","Fpz","Fp2","F7","F3","Fz","F4","F8","FC5","FC1","FC2","FC6","T7","C3","Cz","C4","T8","CP5","CP1","CP2","CP6","P7","P3","Pz","P4","P8","POz","O1","Oz","O2"
2.2882734375,4.0437890625,12.497984375,2.04571875,-0.595609375,11.35563671875,9.22948046875,13.11606640625,8.262671875,0.486390625,14.783015625,28.18534765625,4.27875390625,15.248078125,2.27883203125,7.7299375,13.75787109375,10.4303671875,-4.834078125,6.276015625,26.30096875,10.473796875,-7.63773828125,6.9232265625,19.28057421875,19.02777734375,30.0233515625,18.96712109375,20.832203125,5.3554296875
-3.6237265625,-1.0542109375,5.997984375,-2.55228125,-7.841609375,5.88663671875,2.43148046875,8.53006640625,1.781671875,-6.234609375,8.576015625,24.26634765625,2.20275390625,6.288078125,-7.24116796875,0.7639375,11.90787109375,2.9123671875,-15.200078125,-2.527984375,21.20096875,3.474796875,-16.62573828125,-2.8327734375,10.56857421875,15.86477734375,20.5543515625,11.82812109375,14.594203125,-0.6345703125
-8.8657265625,-5.8842109375,0.520984375000001,-6.30628125,-13.817609375,0.47563671875,-3.33651953125,4.84406640625,-3.491328125,-12.868609375,2.342015625,20.13134765625,0.40875390625,-1.888921875,-16.04716796875,-5.9250625,9.91187109375,-3.9316328125,-24.665078125,-11.090984375,16.04296875,-3.228203125,-25.27773828125,-11.9927734375,2.42457421875,12.70577734375,11.2933515625,4.56312109375,8.111203125,-6.0545703125
-13.1527265625,-10.1262109375,-3.726015625,-8.88028125,-18.216609375,-4.48936328125,-7.78651953125,2.18806640625,-7.107328125,-18.868609375,-3.508984375,16.00834765625,-0.785246093750001,-8.573921875,-23.58016796875,-12.0420625,7.86887109375,-9.4516328125,-32.534078125,-19.079984375,10.94996875,-9.003203125,-32.90573828125,-20.1227734375,-4.89442578125,9.63677734375,2.8103515625,-2.17987890625,1.912203125,-10.5395703125
-16.2367265625,-13.3892109375,-6.697015625,-10.04828125,-20.876609375,-8.39536328125,-10.76451953125,0.50106640625,-8.767328125,-23.422609375,-8.363984375,12.30234765625,-1.02524609375,-12.952921875,-29.20116796875,-17.2440625,5.96287109375,-12.9226328125,-38.017078125,-25.969984375,6.18096875,-12.991203125,-38.52573828125,-26.6967734375,-11.10642578125,6.80177734375,-4.0796484375,-7.38187890625,-3.117796875,-13.7025703125
-17.9397265625,-15.3342109375,-8.431015625,-9.78028125,-21.734609375,-10.64736328125,-12.25151953125,-0.39893359375,-8.392328125,-25.762609375,-11.656984375,9.41534765625,-0.0942460937499998,-14.399921875,-32.38216796875,-21.2400625,4.35787109375,-13.8206328125,-40.464078125,-31.132984375,2.07796875,-14.439203125,-41.16873828125,-31.1847734375,-15.89242578125,4.38377734375,-8.5656484375,-10.04087890625,-6.066796875,-15.2305703125
-18.2287265625,-15.7962109375,-9.038015625,-8.32728125,-20.904609375,-10.96236328125,-12.42751953125,-0.77693359375,-6.214328125,-25.492609375,-13.099984375,7.56334765625,1.93575390625,-12.772921875,-32.91016796875,-23.8650625,3.10387109375,-12.0616328125,-39.613078125,-33.999984375,-1.02803125,-13.031203125,-40.25873828125,-33.1567734375,-18.91442578125,2.55877734375,-10.1196484375,-9.57387890625,-6.355796875,-14.9955703125
-17.2417265625,-14.8292109375,-8.667015625,-6.17428125,-18.717609375,-9.52536328125,-11.66551953125,-0.91693359375,-2.761328125,-22.766609375,-12.773984375,6.70634765625,4.67975390625,-8.526921875,-30.99016796875,-25.0710625,2.13487109375,-8.0556328125,-35.707078125,-34.210984375,-2.88003125,-9.039203125,-35.85073828125,-32.3787734375,-19.89042578125,1.46377734375,-8.6816484375,-6.05487890625,-3.984796875,-13.1195703125
-15.2377265625,-12.6842109375,-7.460015625,-3.84028125,-15.621609375,-6.88836328125,-10.37851953125,-0.99793359375,1.313671875,-18.222609375,-11.030984375,6.63134765625,7.56975390625,-2.558921875,-27.15216796875,-24.8560625,1.37287109375,-2.5676328125,-29.428078125,-31.677984375,-3.32603125,-3.251203125,-28.63873828125,-28.8677734375,-18.67442578125,1.17277734375,-4.6706484375,-0.203878906249997,0.456203125,-9.9645703125
-12.5077265625,-9.7102109375,-5.508015625,-1.67328125,-12.040609375,-3.70336328125,-8.85451953125,-0.99393359375,5.430671875,-12.740609375,-8.296984375,7.11234765625,10.05975390625,4.093078125,-22.05316796875,-23.2100625,0.85587109375,3.5083671875,-21.696078125,-26.596984375,-2.32903125,3.280796875,-19.74173828125,-22.9357734375,-15.32442578125,1.70577734375,1.1513515625,6.84012109375,5.984203125,-6.0465703125
-9.3267265625,-6.2492109375,-2.905015625,0.19771875,-8.313609375,-0.49436328125,-7.18051953125,-0.70593359375,9.195671875,-7.149609375,-4.913984375,8.04934765625,11.81075390625,10.531078125,-16.28516796875,-20.1260625,0.77887109375,9.3383671875,-13.453078125,-19.439984375,0.01096875,9.528796875,-10.39673828125,-15.1967734375,-10.15242578125,3.04577734375,7.8873515625,13.84312109375,11.538203125,-1.9215703125
-5.9237265625,-2.5672109375,0.195984375000001,1.81471875,-4.687609375,2.46263671875,-5.26551953125,0.12206640625,12.419671875,-2.012609375,-1.082984375,9.49334765625,12.75975390625,16.154078125,-10.27016796875,-15.6660625,1.40887109375,14.2953671875,-5.505078125,-10.923984375,3.44096875,14.711796875,-1.68073828125,-6.5007734375,-3.69442578125,5.13477734375,14.7333515625,19.80212109375,16.300203125,1.9414296875
-2.4597265625,1.1557890625,3.570984375,3.30471875,-1.291609375,5.13663671875,-2.93151953125,1.67606640625,15.107671875,2.450390625,3.088015625,11.56734765625,13.10675390625,20.707078125,-4.26116796875,-10.0390625,2.92187109375,18.0583671875,1.580921875,-1.910984375,7.57996875,18.436796875,5.69426171875,2.2302265625,3.38157421875,7.86377734375,21.1413515625,24.18012109375,19.894203125,5.2694296875
0.9592734375,4.7957890625,6.965984375,4.79871875,1.847390625,7.62963671875,-0.0635195312499994,3.96606640625,17.391671875,6.280390625,7.474015625,14.31734765625,13.22375390625,24.236078125,1.58983203125,-3.6360625,5.26187109375,20.6683671875,7.521921875,6.750015625,11.98596875,20.747796875,11.47426171875,10.2212265625,10.42757421875,11.04277734375,26.8763515625,26.98512109375,22.402203125,8.0164296875
4.2102734375,8.2347890625,10.135984375,6.33971875,4.694390625,10.02163671875,3.22648046875,6.74106640625,19.411671875,9.617390625,11.845015625,17.57934765625,13.54475390625,26.962078125,7.13683203125,2.9909375,8.07987109375,22.4643671875,12.296921875,14.382015625,16.22296875,22.047796875,15.82326171875,17.0022265625,16.92557421875,14.37677734375,31.9563515625,28.67112109375,24.195203125,10.2944296875
7.0922734375,11.3217890625,12.884984375,7.84171875,7.114390625,12.26663671875,6.54548046875,9.51706640625,21.210671875,12.542390625,15.867015625,20.95434765625,14.42875390625,29.131078125,12.18183203125,9.2089375,10.79687109375,23.9103671875,16.054921875,20.571015625,19.89696875,22.916796875,19.14726171875,22.4242265625,22.51357421875,17.46577734375,36.4673515625,29.86812109375,25.662203125,12.2224296875
9.3532734375,13.8567890625,15.104984375,9.16171875,8.923390625,14.22863671875,9.37548046875,11.75206640625,22.728671875,15.034390625,19.198015625,23.92634765625,16.03675390625,30.891078125,16.48483203125,14.4169375,12.79787109375,25.3663671875,18.983921875,25.168015625,22.67996875,23.844796875,21.83626171875,26.5402265625,26.92957421875,19.85477734375,40.3733515625,31.05412109375,26.981203125,13.7934296875
10.7792734375,15.6227890625,16.757984375,10.19571875,10.042390625,15.79263671875,11.34548046875,13.08306640625,23.867671875,17.023390625,21.632015625,26.05834765625,18.24375390625,32.227078125,19.81883203125,18.1889375,13.67287109375,26.9033671875,21.184921875,28.199015625,24.33796875,25.009796875,24.04426171875,29.4452265625,29.94357421875,21.14377734375,43.4183515625,32.33812109375,28.048203125,14.8574296875
11.2812734375,16.4577890625,17.787984375,10.90671875,10.561390625,16.94563671875,12.38648046875,13.45406640625,24.537671875,18.467390625,23.185015625,27.16834765625,20.61975390625,32.980078125,22.02483203125,20.3679375,13.38287109375,28.2473671875,22.590921875,29.755015625,24.77696875,26.194796875,25.60226171875,31.1482265625,31.33157421875,21.11977734375,45.1883515625,33.44112109375,28.571203125,15.1854296875
10.9102734375,16.3237890625,18.075984375,11.26771875,10.668390625,17.77163671875,12.69648046875,13.07006640625,24.662671875,19.367390625,24.042015625,27.37334765625,22.52275390625,32.918078125,23.04183203125,21.0769375,12.26087109375,28.8883671875,22.970921875,29.895015625,24.08096875,26.885796875,26.10326171875,31.5442265625,30.93957421875,19.85477734375,45.2913515625,33.85312109375,28.241203125,14.5854296875
9.8212734375,15.3077890625,17.510984375,11.22371875,10.541390625,18.37163671875,12.57148046875,12.26306640625,24.196671875,19.725390625,24.417015625,26.99534765625,23.30175390625,31.845078125,22.89383203125,20.6199375,10.83387109375,28.2893671875,22.033921875,28.640015625,22.51396875,26.508796875,25.07926171875,30.4812265625,28.78357421875,17.69577734375,43.5353515625,33.04512109375,26.851203125,12.9834296875
8.2112734375,13.5707890625,16.122984375,10.72371875,10.270390625,18.78363671875,12.23748046875,11.35006640625,23.142671875,19.492390625,24.396015625,26.37134765625,22.51675390625,29.694078125,21.66483203125,19.3319375,9.58387109375,26.1203671875,19.566921875,26.035015625,20.44896875,24.669796875,22.21526171875,27.8692265625,25.14157421875,15.16977734375,40.0263515625,30.64112109375,24.348203125,10.4884296875
6.2592734375,11.3077890625,14.123984375,9.75671875,9.807390625,18.91563671875,11.74548046875,10.52606640625,21.549671875,18.570390625,23.888015625,25.68734765625,20.11375390625,26.566078125,19.46583203125,17.4649375,8.75987109375,22.4003671875,15.568921875,22.252015625,18.27096875,21.334796875,17.50226171875,23.8032265625,20.57357421875,12.83777734375,35.1643515625,26.57412109375,20.864203125,7.4104296875
4.1112734375,8.7417890625,11.827984375,8.36371875,8.970390625,18.55563671875,10.97348046875,9.81106640625,19.489671875,16.879390625,22.718015625,24.92534765625,16.44975390625,22.717078125,16.42883203125,15.1809375,8.34087109375,17.5173671875,10.317921875,17.656015625,16.28596875,16.875796875,11.32326171875,18.6312265625,15.82857421875,11.16577734375,29.5783515625,21.19712109375,16.751203125,4.2334296875
1.8982734375,6.1267890625,9.526984375,6.64871875,7.553390625,17.48363671875,9.75648046875,9.11706640625,17.048671875,14.448390625,20.782015625,23.94634765625,12.15375390625,18.515078125,12.72283203125,12.6149375,8.13787109375,12.1293671875,4.339921875,12.781015625,14.68496875,11.972796875,4.41226171875,12.9242265625,11.65857421875,10.43977734375,23.9973515625,15.28412109375,12.566203125,1.5194296875
-0.2467265625,3.7077890625,7.422984375,4.76171875,5.498390625,15.60863671875,8.05448046875,8.36106640625,14.350671875,11.446390625,18.152015625,22.61834765625,7.87475390625,14.361078125,8.56183203125,9.9189375,7.93387109375,6.9753671875,-1.726078125,8.174015625,13.52896875,7.380796875,-2.31173828125,7.3162265625,8.57057421875,10.70077734375,19.0613515625,9.80512109375,8.921203125,-0.2735703125
-2.2427265625,1.6287890625,5.588984375,2.83171875,2.940390625,13.02863671875,5.98048046875,7.52406640625,11.538671875,8.106390625,15.047015625,20.89634765625,4.04375390625,10.568078125,4.14583203125,7.2139375,7.58387109375,2.6483671875,-7.338078125,4.168015625,12.71596875,3.672796875,-8.02673828125,2.2552265625,6.63057421875,11.71877734375,15.0983515625,5.56012109375,6.224203125,-0.9895703125
-4.1567265625,-0.1422109375,3.929984375,0.85671875,0.0793906250000003,9.95863671875,3.68548046875,6.59206640625,8.711671875,4.602390625,11.704015625,18.81834765625,0.78775390625,7.250078125,-0.42516796875,4.4729375,7.01487109375,-0.582632812500002,-12.238078125,0.704015625,11.94896875,1.072796875,-12.28173828125,-2.1857734375,5.40557421875,13.01577734375,12.0013515625,2.85612109375,4.492203125,-0.8755703125
-6.1967265625,-1.8112109375,2.222984375,-1.30828125,-2.942609375,6.63063671875,1.23048046875,5.47406640625,5.893671875,0.987390625,8.264015625,16.44834765625,-1.96424609375,4.308078125,-5.15816796875,1.4599375,6.15387109375,-2.7946328125,-16.493078125,-2.630984375,10.77096875,-0.519203124999999,-15.08573828125,-6.2857734375,4.14757421875,13.97077734375,9.2993515625,1.45912109375,3.374203125,-0.4975703125
-8.5567265625,-3.6462109375,0.253984375000001,-3.80828125,-6.022609375,3.24963671875,-1.39751953125,4.02206640625,3.105671875,-2.738609375,4.765015625,13.82234765625,-4.29824609375,1.567078125,-10.05716796875,-2.1860625,4.88287109375,-4.2676328125,-20.314078125,-6.323984375,8.72196875,-1.355203125,-16.76173828125,-10.4247734375,2.13757421875,13.98477734375,6.4613515625,0.831121093750003,2.396203125,-0.4785703125
-11.2287265625,-5.7962109375,-2.018015625,-6.62328125,-8.989609375,0.0176367187499995,-4.15451953125,2.14506640625,0.452671874999998,-6.474609375,1.249015625,10.96834765625,-6.18624609375,-1.031921875,-14.93516796875,-6.7080625,3.07687109375,-5.2476328125,-23.769078125,-10.556984375,5.57496875,-1.628203125,-17.62973828125,-14.7247734375,-0.93542578125,12.69677734375,3.2623515625,0.492121093750002,1.272203125,-1.2015703125
-13.9087265625,-8.1372109375,-4.377015625,-9.50428125,-11.583609375,-2.83836328125,-6.85451953125,-0.0899335937499997,-1.846328125,-9.902609375,-2.093984375,7.96034765625,-7.48224609375,-3.303921875,-19.30016796875,-11.9450625,0.71187109375,-5.7716328125,-26.575078125,-14.966984375,1.53496875,-1.362203125,-17.74373828125,-18.8057734375,-4.75042578125,10.15077734375,0.0183515625000013,0.289121093750001,0.0802031250000006,-2.6275703125
-16.0677265625,-10.2212109375,-6.373015625,-12.02928125,-13.492609375,-5.05336328125,-9.14851953125,-2.40993359375,-3.502328125,-12.479609375,-4.835984375,5.01934765625,-8.00624609375,-4.835921875,-22.39416796875,-17.1680625,-2.00312890625,-5.6206328125,-28.098078125,-18.656984375,-2.70403125,-0.419203124999999,-16.80973828125,-21.7897734375,-8.39842578125,6.85477734375,-2.4536484375,0.445121093750002,-0.769796874999999,-4.2965703125
-17.1117265625,-11.3942109375,-7.433015625,-13.69028125,-14.389609375,-6.31836328125,-10.56651953125,-4.33893359375,-4.191328125,-13.553609375,-6.359984375,2.55934765625,-7.62724609375,-5.103921875,-23.38116796875,-21.1730625,-4.59012890625,-4.4206328125,-27.564078125,-20.468984375,-6.09303125,1.397796875,-14.33073828125,-22.5687734375,-10.66942578125,3.66577734375,-3.1376484375,1.43312109375,-0.718796874999999,-5.4935703125
-16.5657265625,-11.0312109375,-7.016015625,-13.99728125,-13.951609375,-6.30536328125,-10.62051953125,-5.30893359375,-3.617328125,-12.572609375,-6.055984375,1.13834765625,-6.32824609375,-3.651921875,-21.62616796875,-22.6450625,-6.40012890625,-1.8346328125,-24.392078125,-19.396984375,-7.55803125,4.222796875,-9.87573828125,-20.2167734375,-10.46942578125,1.53077734375,-1.2286484375,3.76012109375,0.718203125,-5.4845703125
-14.2477265625,-8.7902109375,-4.846015625,-12.64228125,-11.972609375,-4.78336328125,-9.00251953125,-4.89193359375,-1.623328125,-9.330609375,-3.584984375,1.27534765625,-4.23224609375,-0.287921874999999,-16.97116796875,-20.6810625,-6.85712890625,2.2173671875,-18.495078125,-15.006984375,-6.40003125,8.020796875,-3.37073828125,-14.3887734375,-7.22342578125,1.15177734375,3.5163515625,7.73112109375,3.769203125,-3.7825703125
-10.3727265625,-4.8022109375,-1.102015625,-9.67728125,-8.531609375,-1.79036328125,-5.81051953125,-3.04693359375,1.661671875,-4.148609375,0.893015625000001,3.18934765625,-1.60524609375,4.752078125,-9.90816796875,-15.2380625,-5.74412890625,7.4273671875,-10.438078125,-7.682984375,-2.62703125,12.522796875,4.71826171875,-5.5667734375,-1.12642578125,2.70977734375,10.6153515625,13.21512109375,8.265203125,-0.3655703125
-5.5297265625,0.3057890625,3.559984375,-5.57228125,-4.043609375,2.27063671875,-1.60351953125,-0.22193359375,5.784671875,2.123390625,6.663015625,6.60634765625,1.19675390625,10.783078125,-1.51916796875,-7.2720625,-3.34812890625,13.1183671875,-1.353078125,1.417015625,2.99796875,17.229796875,13.40626171875,4.9862265625,6.85057421875,5.76877734375,18.9483515625,19.50812109375,13.589203125,4.2334296875
-0.5177265625,5.5777890625,8.222984375,-1.07728125,0.863390625,6.70063671875,2.77648046875,2.81906640625,10.091671875,8.366390625,12.646015625,10.77834765625,3.82375390625,16.844078125,6.82383203125,1.5429375,-0.35812890625,18.4503671875,7.386921875,10.716015625,9.22396875,21.520796875,21.43526171875,15.5572265625,15.23757421875,9.44077734375,27.0803515625,25.42912109375,18.782203125,9.0674296875
3.8872734375,10.0577890625,12.036984375,3.02971875,5.528390625,10.72263671875,6.50348046875,5.31206640625,13.948671875,13.575390625,17.764015625,14.74734765625,6.04575390625,21.994078125,13.89283203125,9.4279375,2.44487109375,22.6803671875,14.583921875,18.746015625,14.78396875,24.837796875,27.66726171875,24.5112265625,22.52657421875,12.75077734375,33.6913515625,29.70112109375,22.849203125,13.1084296875
7.1532734375,13.1167890625,14.494984375,6.18871875,9.406390625,13.73063671875,9.02648046875,6.77606640625,16.925671875,17.195390625,21.312015625,17.71634765625,7.81775390625,25.599078125,18.96783203125,15.1209375,4.51587109375,25.3643671875,19.541921875,24.580015625,18.80396875,26.870796875,31.43926171875,30.7632265625,27.62157421875,15.00677734375,37.9563515625,31.49212109375,25.138203125,15.6294296875
9.1032734375,14.6087890625,15.535984375,8.19471875,12.160390625,15.45763671875,10.19848046875,7.13606640625,18.865671875,19.220390625,23.144015625,19.32634765625,9.26675390625,27.460078125,21.96283203125,18.2169375,5.70787109375,26.4073671875,22.145921875,27.985015625,20.97996875,27.616796875,32.68526171875,34.0022265625,30.06957421875,15.97577734375,39.6743515625,30.76112109375,25.570203125,16.4104296875
9.8862734375,14.7837890625,15.464984375,9.19071875,13.716390625,16.00563671875,10.25348046875,6.65806640625,19.836671875,20.033390625,23.599015625,19.69734765625,10.58375390625,27.748078125,23.26883203125,19.0819375,6.19687109375,25.9693671875,22.689921875,29.273015625,21.49696875,27.305796875,31.81026171875,34.5792265625,30.02857421875,15.81477734375,39.1453515625,28.18812109375,24.569203125,15.6954296875
9.8362734375,14.0767890625,14.753984375,9.51371875,14.236390625,15.72263671875,9.64948046875,5.76706640625,20.005671875,20.124390625,23.237015625,19.25234765625,11.88075390625,26.826078125,23.44383203125,18.4949375,6.27587109375,24.3293671875,21.633921875,28.978015625,20.80896875,26.234796875,29.41526171875,33.1932265625,28.05957421875,14.88177734375,36.9113515625,24.76412109375,22.776203125,13.9784296875
9.2962734375,12.9157890625,13.828984375,9.48471875,13.998390625,15.02363671875,8.85248046875,4.85406640625,19.533671875,19.866390625,22.575015625,18.47734765625,13.11175390625,25.091078125,22.94183203125,17.2549375,6.17687109375,21.8073671875,19.422921875,27.594015625,19.44696875,24.651796875,26.08926171875,30.5682265625,24.91057421875,13.58877734375,33.5493515625,21.33112109375,20.766203125,11.7894296875
8.5242734375,11.6387890625,12.962984375,9.27971875,13.279390625,14.24463671875,8.19948046875,4.19506640625,18.557671875,19.442390625,21.924015625,17.74334765625,14.10475390625,22.905078125,21.99883203125,15.9409375,6.00687109375,18.7763671875,16.464921875,25.486015625,17.89796875,22.722796875,22.33926171875,27.2822265625,21.34857421875,12.33677734375,29.5903515625,18.36112109375,18.909203125,9.5644296875
7.6772734375,10.4647890625,12.293984375,8.93871875,12.323390625,13.57763671875,7.86748046875,3.95806640625,17.258671875,18.902390625,21.356015625,17.24234765625,14.65875390625,20.600078125,20.66483203125,14.8189375,5.79487109375,15.6683671875,13.165921875,22.925015625,16.52196875,20.578796875,18.59326171875,23.7312265625,18.02057421875,11.47577734375,25.4953515625,15.97012109375,17.357203125,7.5934296875
6.8122734375,9.4787890625,11.850984375,8.41871875,11.304390625,13.04063671875,7.87048046875,4.18106640625,15.858671875,18.198390625,20.731015625,16.96134765625,14.62775390625,18.446078125,18.87983203125,13.8409375,5.53387109375,12.9083671875,9.887921875,20.101015625,15.47996875,18.337796875,15.16626171875,20.1322265625,15.31057421875,11.21477734375,21.5923515625,14.04012109375,16.064203125,5.9884296875
5.8662734375,8.6157890625,11.518984375,7.59671875,10.241390625,12.43863671875,7.99248046875,4.70006640625,14.509671875,17.178390625,19.750015625,16.67434765625,13.92875390625,16.561078125,16.50283203125,12.6889375,5.18287109375,10.7463671875,6.825921875,17.075015625,14.65696875,16.073796875,12.16726171875,16.5092265625,13.22357421875,11.53677734375,17.9893515625,12.32912109375,14.818203125,4.6764296875
4.6602734375,7.6857890625,11.027984375,6.29171875,8.938390625,11.39863671875,7.77548046875,5.12406640625,13.175671875,15.576390625,18.047015625,15.99634765625,12.53875390625,14.836078125,13.34583203125,10.9029375,4.65187109375,9.1303671875,3.915921875,13.735015625,13.70096875,13.789796875,9.44226171875,12.6952265625,11.42157421875,12.19077734375,14.5563515625,10.57512109375,13.324203125,3.4604296875
3.0112734375,6.4667890625,10.081984375,4.37071875,7.110390625,9.51663671875,6.67548046875,5.00106640625,11.662671875,13.109390625,15.330015625,14.53334765625,10.51975390625,12.978078125,9.26983203125,8.0859375,3.81987109375,7.7363671875,0.904921875,9.876015625,12.18996875,11.436796875,6.65926171875,8.4352265625,9.42257421875,12.81477734375,11.0543515625,8.62312109375,11.368203125,2.1614296875
0.8732734375,4.8197890625,8.560984375,1.89571875,4.606390625,6.57363671875,4.34048046875,4.07406640625,9.781671875,9.657390625,11.529015625,12.08434765625,8.06475390625,10.675078125,4.31083203125,4.1249375,2.60287109375,6.1573671875,-2.441078125,5.395015625,9.87196875,8.998796875,3.52826171875,3.5972265625,6.88857421875,13.10977734375,7.3413515625,6.53112109375,8.993203125,0.7614296875
-1.5927265625,2.7687890625,6.620984375,-0.84828125,1.520390625,2.66363671875,0.81048046875,2.42806640625,7.498671875,5.390390625,6.861015625,8.77134765625,5.48475390625,7.774078125,-1.23416796875,-0.6960625,1.01287109375,4.1353671875,-6.133078125,0.463015625,6.80796875,6.576796875,0.0032617187499997,-1.6517734375,3.81957421875,12.95277734375,3.5283515625,4.57712109375,6.527203125,-0.5615703125
-4.0827265625,0.5037890625,4.615984375,-3.46228125,-1.859609375,-1.80336328125,-3.46151953125,0.42606640625,4.974671875,0.771390625,1.802015625,5.02834765625,3.13575390625,4.389078125,-6.83516796875,-5.7500625,-0.82712890625,1.7103671875,-9.885078125,-4.441984375,3.36196875,4.407796875,-3.63273828125,-6.7907734375,0.578574218750001,12.39577734375,-0.0226484374999991,3.15612109375,4.457203125,-1.5355703125
-6.2587265625,-1.6882109375,2.914984375,-5.58628125,-5.168609375,-6.21436328125,-7.73051953125,-1.45993359375,2.508671875,-3.595609375,-3.037984375,1.45234765625,1.30475390625,0.885078125000001,-11.84716796875,-10.2630625,-2.72812890625,-0.7836328125,-13.212078125,-8.673984375,0.0359687500000003,2.802796875,-6.85273828125,-11.0937734375,-2.27042578125,11.55177734375,-2.8516484375,2.59512109375,3.195203125,-1.9505703125
-7.8537265625,-3.5302109375,1.751984375,-7.01528125,-8.045609375,-9.90536328125,-11.17151953125,-2.84593359375,0.432671874999999,-7.166609375,-7.075984375,-1.40865234375,0.13775390625,-2.237921875,-15.67916796875,-13.5680625,-4.49012890625,-2.8606328125,-15.628078125,-11.653984375,-2.74003125,2.017796875,-9.09973828125,-13.9097734375,-4.19542578125,10.48277734375,-4.6036484375,3.00812109375,2.885203125,-1.7745703125
-8.7487265625,-4.8352109375,1.142984375,-7.75028125,-10.212609375,-12.35036328125,-13.14751953125,-3.57593359375,-1.023328125,-9.631609375,-9.895984375,-3.23665234375,-0.364246093749999,-4.521921875,-17.95516796875,-15.3020625,-5.96012890625,-4.0976328125,-16.831078125,-13.081984375,-4.76303125,2.144796875,-9.99673828125,-14.9257734375,-4.89742578125,9.16377734375,-5.1646484375,4.25412109375,3.363203125,-1.1725703125
-8.9677265625,-5.5312109375,0.918984375000001,-7.96928125,-11.545609375,-13.32836328125,-13.44551953125,-3.78093359375,-1.822328125,-10.958609375,-11.322984375,-4.01165234375,-0.287246093749999,-5.702921875,-18.60416796875,-15.4690625,-7.05412890625,-4.2856328125,-16.773078125,-13.001984375,-6.06703125,3.083796875,-9.47073828125,-14.2597734375,-4.39142578125,7.55477734375,-4.6426484375,6.04312109375,4.288203125,-0.4095703125
-8.5977265625,-5.6132109375,0.869984375,-7.88728125,-12.053609375,-12.94436328125,-12.30951953125,-3.75793359375,-2.072328125,-11.280609375,-11.395984375,-3.93765234375,0.29075390625,-5.731921875,-17.81516796875,-14.3490625,-7.75012890625,-3.4496328125,-15.578078125,-11.686984375,-6.79303125,4.622796875,-7.71073828125,-12.3247734375,-2.92242578125,5.72777734375,-3.2286484375,8.12312109375,5.363203125,0.3164296875
-7.6777265625,-5.0902109375,0.940984375000001,-7.57528125,-11.742609375,-11.49936328125,-10.22951953125,-3.72093359375,-1.855328125,-10.723609375,-10.266984375,-3.26965234375,1.36875390625,-4.679921875,-15.88316796875,-12.3080625,-8.04512890625,-1.7326328125,-13.373078125,-9.416984375,-7.00403125,6.547796875,-5.02973828125,-9.5377734375,-0.780425781249999,3.92877734375,-1.0546484375,10.39412109375,6.506203125,0.9924296875
-6.1767265625,-3.9572109375,1.315984375,-6.89328125,-10.514609375,-9.31536328125,-7.67651953125,-3.61693359375,-1.096328125,-9.285609375,-8.104984375,-2.15965234375,3.00975390625,-2.633921875,-13.05516796875,-9.6300625,-7.91412890625,0.711367187499999,-10.193078125,-6.330984375,-6.60203125,8.716796875,-1.72173828125,-6.1097734375,1.85257421875,2.53877734375,1.8493515625,12.87612109375,7.832203125,1.7894296875
-4.0877265625,-2.2202109375,2.306984375,-5.62128125,-8.248609375,-6.63036328125,-4.95651953125,-3.14893359375,0.392671875,-6.875609375,-5.061984375,-0.602652343750002,5.25775390625,0.311078125000002,-9.48416796875,-6.4510625,-7.30812890625,3.7363671875,-6.033078125,-2.446984375,-5.40603125,11.038796875,1.99226171875,-2.0177734375,4.94557421875,1.92277734375,5.4663515625,15.54812109375,9.492203125,2.9304296875
-1.5277265625,0.0527890625,4.126984375,-3.65328125,-4.965609375,-3.60436328125,-2.20551953125,-1.97193359375,2.740671875,-3.456609375,-1.308984375,1.49734765625,8.04075390625,3.974078125,-5.28116796875,-2.8250625,-6.18312890625,7.1493671875,-1.014078125,2.192015625,-3.32603125,13.408796875,5.95426171875,2.8062265625,8.52157421875,2.26477734375,9.6583515625,18.22212109375,11.491203125,4.5254296875
1.2382734375,2.6727890625,6.705984375,-1.10828125,-0.924609375,-0.35436328125,0.55648046875,0.0970664062499997,5.865671875,0.810390625,2.914015625,4.17034765625,11.11175390625,8.019078125,-0.62616796875,1.1449375,-4.56812890625,10.6643671875,4.491921875,7.352015625,-0.506031249999999,15.641796875,10.00726171875,8.2412265625,12.49957421875,3.46277734375,14.0993515625,20.54312109375,13.591203125,6.4684296875
3.8562734375,5.3267890625,9.657984375,1.69671875,3.401390625,2.99363671875,3.33548046875,2.96006640625,9.417671875,5.514390625,7.271015625,7.25534765625,14.05675390625,11.942078125,4.16183203125,5.1979375,-2.60612890625,13.8943671875,9.848921875,12.562015625,2.64996875,17.449796875,13.92626171875,13.8472265625,16.57257421875,5.14177734375,18.2973515625,22.13212109375,15.386203125,8.4364296875
5.9602734375,7.6247890625,12.388984375,4.33571875,7.410390625,6.25263671875,6.06548046875,6.20606640625,12.846671875,10.061390625,11.350015625,10.36034765625,16.38875390625,15.167078125,8.62983203125,8.9079375,-0.56112890625,16.4253671875,14.283921875,17.175015625,5.57996875,18.505796875,17.36326171875,18.9152265625,20.21057421875,6.76477734375,21.7133515625,22.77912109375,16.475203125,9.9984296875
7.2332734375,9.2117890625,14.308984375,6.40771875,10.515390625,9.16363671875,8.54248046875,9.22006640625,15.566671875,13.842390625,14.744015625,12.97834765625,17.72075390625,17.220078125,12.27083203125,11.7949375,1.25487109375,17.9323671875,17.135921875,20.553015625,7.75596875,18.559796875,19.87226171875,22.6772265625,22.79557421875,7.81877734375,23.9093515625,22.55412109375,16.657203125,10.7774296875
7.4952734375,9.8697890625,15.072984375,7.68271875,12.338390625,11.44863671875,10.49648046875,11.41106640625,17.176671875,16.407390625,17.146015625,14.67834765625,17.92075390625,17.896078125,14.66883203125,13.4929375,2.59487109375,18.3013671875,18.076921875,22.254015625,8.86496875,17.537796875,21.02526171875,24.5602265625,23.81757421875,7.98477734375,24.6533515625,21.72812109375,15.995203125,10.5984296875
6.7672734375,9.5687890625,14.701984375,8.17571875,12.853390625,12.89763671875,11.72548046875,12.44706640625,17.598671875,17.575390625,18.416015625,15.27734765625,17.15675390625,17.323078125,15.62183203125,13.8649375,3.36687109375,17.6623671875,17.214921875,22.161015625,8.89396875,15.564796875,20.56726171875,24.3482265625,23.04857421875,7.24177734375,23.9433515625,20.56412109375,14.713203125,9.5444296875
5.2752734375,8.4767890625,13.517984375,8.08671875,12.352390625,13.42663671875,12.18048046875,12.34706640625,17.043671875,17.443390625,18.604015625,14.89234765625,15.78075390625,15.869078125,15.18383203125,13.0289375,3.64087109375,16.3113671875,15.012921875,20.466015625,8.08896875,12.882796875,18.50126171875,22.2082265625,20.62757421875,5.86677734375,21.9463515625,19.12012109375,13.029203125,7.8834296875
3.3802734375,6.9097890625,11.946984375,7.65371875,11.255390625,13.07363671875,11.93448046875,11.38106640625,15.851671875,16.318390625,17.917015625,13.85734765625,14.13375390625,13.955078125,13.62883203125,11.2959375,3.58987109375,14.5693671875,12.088921875,17.574015625,6.82996875,9.745796875,15.10626171875,18.6052265625,17.04057421875,4.33277734375,18.9353515625,17.24112109375,11.052203125,5.9364296875
1.4812734375,5.2507890625,10.348984375,7.04671875,9.940390625,11.98363671875,11.12948046875,9.91506640625,14.339671875,14.615390625,16.645015625,12.56834765625,12.39075390625,11.919078125,11.36083203125,9.0619375,3.39087109375,12.6623671875,9.017921875,13.995015625,5.50396875,6.365796875,10.86526171875,14.1732265625,13.00157421875,3.14477734375,15.2403515625,14.73712109375,8.816203125,3.9724296875
-0.0687265625,3.8357890625,8.971984375,6.36571875,8.691390625,10.37563671875,9.94548046875,8.29606640625,12.734671875,12.752390625,15.071015625,11.33834765625,10.53575390625,9.968078125,8.81583203125,6.7229375,3.16487109375,10.6983671875,6.220921875,10.274015625,4.41396875,2.925796875,6.37326171875,9.5962265625,9.28157421875,2.66477734375,11.2393515625,11.60912109375,6.390203125,2.1874296875
-1.0427265625,2.8787890625,7.966984375,5.68071875,7.682390625,8.50563671875,8.57848046875,6.79106640625,11.183671875,11.055390625,13.419015625,10.33934765625,8.46875390625,8.225078125,6.38183203125,4.6169375,2.96887109375,8.7103671875,3.955921875,6.945015625,3.75096875,-0.367203125,2.24826171875,5.5082265625,6.52057421875,3.01277734375,7.3573515625,8.17612109375,3.980203125,0.7484296875
-1.3757265625,2.4577890625,7.403984375,5.04671875,6.956390625,6.60863671875,7.19748046875,5.56406640625,9.767671875,9.687390625,11.844015625,9.61234765625,6.18075390625,6.787078125,4.35083203125,3.0129375,2.84087109375,6.7553671875,2.358921875,4.467015625,3.60196875,-3.235203125,-0.96573828125,2.4022265625,5.10457421875,4.08477734375,4.0473515625,5.02812109375,1.950203125,-0.1495703125
-1.1527265625,2.5457890625,7.292984375,4.51571875,6.453390625,4.88363671875,5.93248046875,4.69106640625,8.544671875,8.652390625,10.462015625,9.12634765625,3.88475390625,5.763078125,2.89683203125,2.1009375,2.82587109375,4.9953671875,1.490921875,3.144015625,3.98496875,-5.327203125,-2.87973828125,0.563226562500001,5.10157421875,5.63577734375,1.7273515625,2.82412109375,0.714203125000001,-0.2955703125
-0.5407265625,3.0357890625,7.602984375,4.13471875,6.103390625,3.50163671875,4.91048046875,4.20506640625,7.587671875,7.851390625,9.367015625,8.81434765625,1.99475390625,5.265078125,2.09083203125,1.9629375,2.96987109375,3.7123671875,1.350921875,3.055015625,4.85996875,-6.298203125,-3.33373828125,0.0392265625000006,6.28557421875,7.36977734375,0.6713515625,2.03112109375,0.555203125,0.4534296875
0.2742734375,3.7807890625,8.272984375,3.93371875,5.884390625,2.61863671875,4.28148046875,4.12206640625,6.993671875,7.182390625,8.629015625,8.59534765625,0.96075390625,5.357078125,1.91383203125,2.5409375,3.26687109375,3.2433671875,1.878921875,4.029015625,6.11496875,-5.940203125,-2.42173828125,0.664226562500001,8.22257421875,9.00677734375,0.9123515625,2.73112109375,1.477203125,2.0474296875
1.1262734375,4.6257890625,9.186984375,3.89371875,5.803390625,2.33763671875,4.16248046875,4.39806640625,6.837671875,6.615390625,8.279015625,8.39434765625,1.05175390625,6.028078125,2.28483203125,3.6459375,3.61687109375,3.8223671875,2.971921875,5.708015625,7.55396875,-4.290203125,-0.44373828125,2.1382265625,10.40557421875,10.30877734375,2.2133515625,4.59712109375,3.174203125,4.1734296875
1.9042734375,5.4617890625,10.171984375,3.97571875,5.857390625,2.67563671875,4.57348046875,4.90606640625,7.141671875,6.241390625,8.304015625,8.18234765625,2.24875390625,7.192078125,3.08683203125,5.0349375,3.84887109375,5.4513671875,4.508921875,7.672015625,8.92096875,-1.660203125,2.21326171875,4.1222265625,12.39157421875,11.09877734375,4.1433515625,7.03912109375,5.137203125,6.2954296875
2.5882734375,6.2327890625,11.056984375,4.20571875,6.077390625,3.56463671875,5.43048046875,5.49906640625,7.884671875,6.242390625,8.661015625,8.01434765625,4.26175390625,8.737078125,4.20683203125,6.4939375,3.79487109375,7.8583671875,6.394921875,9.595015625,9.98096875,1.433796875,5.19026171875,6.3202265625,13.89457421875,11.29177734375,6.2183515625,9.42712109375,6.842203125,7.8344296875
3.2472734375,6.9257890625,11.756984375,4.72271875,6.580390625,4.87663671875,6.59448046875,6.09406640625,9.024671875,6.803390625,9.294015625,8.01434765625,6.63575390625,10.551078125,5.55383203125,7.8979375,3.39387109375,10.5713671875,8.552921875,11.338015625,10.59796875,4.398796875,8.21226171875,8.5202265625,14.82357421875,10.91477734375,8.0503515625,11.28012109375,7.923203125,8.3964296875
3.9612734375,7.5417890625,12.266984375,5.66871875,7.506390625,6.43463671875,7.88748046875,6.68906640625,10.469671875,7.973390625,10.136015625,8.29834765625,8.87475390625,12.511078125,7.04283203125,9.2019375,2.73887109375,13.0633671875,10.879921875,12.938015625,10.77596875,6.714796875,11.06826171875,10.5952265625,15.27657421875,10.11277734375,9.4563515625,12.38812109375,8.272203125,7.9594296875
4.7342734375,8.0727890625,12.610984375,7.02171875,8.870390625,8.01663671875,9.09248046875,7.27406640625,12.037671875,9.597390625,11.112015625,8.87734765625,10.55275390625,14.451078125,8.57083203125,10.3839375,2.03687109375,14.9033671875,13.199921875,14.512015625,10.61496875,8.053796875,13.55926171875,12.4722265625,15.47557421875,9.09777734375,10.4653515625,12.82412109375,8.040203125,6.8694296875
5.4542734375,8.4797890625,12.769984375,8.52971875,10.497390625,9.38863671875,9.99848046875,7.76806640625,13.472671875,11.340390625,12.124015625,9.60234765625,11.42375390625,16.146078125,9.99383203125,11.3769375,1.50187109375,15.8493671875,15.234921875,16.117015625,10.22696875,8.339796875,15.45426171875,14.0822265625,15.65157421875,8.04977734375,11.2253515625,12.85112109375,7.519203125,5.6524296875
5.9302734375,8.6567890625,12.670984375,9.81171875,12.084390625,10.37563671875,10.46148046875,8.02306640625,14.531671875,12.803390625,13.019015625,10.18734765625,11.47775390625,17.325078125,11.12483203125,12.0279375,1.21987109375,15.8463671875,16.634921875,17.639015625,9.63896875,7.709796875,16.50026171875,15.2952265625,15.89257421875,7.01177734375,11.8453515625,12.72612109375,6.955203125,4.7214296875
5.9392734375,8.4337890625,12.163984375,10.52371875,13.279390625,10.88363671875,10.41848046875,7.85706640625,15.050671875,13.637390625,13.587015625,10.29234765625,10.92475390625,17.684078125,11.73683203125,12.0989375,1.06987109375,14.9673671875,17.025921875,18.763015625,8.76596875,6.407796875,16.44726171875,15.8792265625,16.04257421875,5.85677734375,12.2473515625,12.49412109375,6.382203125,4.1484296875
5.3022734375,7.6227890625,11.050984375,10.48171875,13.762390625,10.90063671875,9.84648046875,7.10506640625,14.967671875,13.636390625,13.598015625,9.64634765625,10.10375390625,16.948078125,11.59283203125,11.3439375,0.763871093750001,13.3423671875,16.103921875,19.050015625,7.45596875,4.680796875,15.12026171875,15.5352265625,15.73257421875,4.35677734375,12.1433515625,11.93912109375,5.597203125,3.6454296875
3.9852734375,6.1327890625,9.185984375,9.73671875,13.369390625,10.49363671875,8.76948046875,5.70506640625,14.346671875,12.797390625,12.917015625,8.18534765625,9.37675390625,15.003078125,10.53983203125,9.6489375,0.00987109375000017,11.1573671875,13.781921875,18.135015625,5.61396875,2.737796875,12.54126171875,14.0372265625,14.56957421875,2.34877734375,11.1743515625,10.75412109375,4.310203125,2.7914296875
2.1842734375,4.0767890625,6.639984375,8.59271875,12.237390625,9.83363671875,7.34948046875,3.80106640625,13.401671875,11.343390625,11.616015625,6.14134765625,9.05175390625,12.037078125,8.63283203125,7.1499375,-1.28412890625,8.7013671875,10.326921875,15.929015625,3.31896875,0.794796875000001,9.02926171875,11.4012265625,12.38457421875,-0.11722265625,9.1303515625,8.84612109375,2.412203125,1.3554296875
0.3022734375,1.7967890625,3.778984375,7.49571875,10.798390625,9.17763671875,5.91248046875,1.77106640625,12.457671875,9.654390625,9.997015625,4.00034765625,9.28775390625,8.559078125,6.17683203125,4.2409375,-2.89412890625,6.3693671875,6.364921875,12.715015625,0.864968750000001,-0.888203125,5.20326171875,7.9572265625,9.36557421875,-2.72522265625,6.1243515625,6.53512109375,0.153203125000001,-0.5105703125
-1.2227265625,-0.2482109375,1.151984375,6.81771875,9.551390625,8.74463671875,4.81548046875,0.0810664062499997,11.794671875,8.102390625,8.464015625,2.31434765625,10.02075390625,5.243078125,3.62183203125,1.4319375,-4.34212890625,4.5643671875,2.694921875,9.024015625,-1.33103125,-2.049203125,1.79526171875,4.2462265625,6.00557421875,-5.00522265625,2.5763515625,4.45712109375,-1.921796875,-2.3515703125
-2.1337265625,-1.6792109375,-0.758015625,6.66771875,8.755390625,8.58163671875,4.23748046875,-0.92593359375,11.495671875,6.864390625,7.299015625,1.44034765625,10.94575390625,2.650078125,1.35383203125,-0.8790625,-5.11112890625,3.5183671875,-0.0310781250000001,5.396015625,-2.90603125,-2.547203125,-0.65473828125,0.7822265625,2.86357421875,-6.54522265625,-0.9826484375,3.19712109375,-3.280796875,-3.7045703125
-2.4737265625,-2.3872109375,-1.740015625,6.85071875,8.298390625,8.49163671875,4.05148046875,-1.17393359375,11.395671875,5.824390625,6.478015625,1.35534765625,11.61275390625,1.008078125,-0.49616796875,-2.5930625,-4.90612890625,3.1693671875,-1.586078125,2.157015625,-3.71103125,-2.471203125,-2.05573828125,-2.1717734375,0.303574218750001,-7.19222265625,-4.1746484375,2.88312109375,-3.743796875,-4.4075703125
-2.5487265625,-2.5872109375,-1.946015625,6.95871875,7.768390625,8.10063671875,3.85848046875,-0.85493359375,11.147671875,4.613390625,5.643015625,1.65834765625,11.58375390625,0.136078125000001,-2.10116796875,-3.9410625,-3.80812890625,3.1523671875,-2.252078125,-0.651984375,-3.87703125,-2.148203125,-2.80173828125,-4.6707734375,-1.62542578125,-7.10522265625,-6.9206484375,3.04812109375,-3.627796875,-4.6855703125
-2.7847265625,-2.6952109375,-1.812015625,6.52971875,6.646390625,6.99263671875,3.14248046875,-0.34593359375,10.364671875,2.803390625,4.274015625,1.76234765625,10.57375390625,-0.428921874999999,-3.81616796875,-5.3230625,-2.26912890625,2.9623671875,-2.649078125,-3.171984375,-3.72703125,-2.006203125,-3.53573828125,-6.9717734375,-3.12042578125,-6.63522265625,-9.3766484375,2.87712109375,-3.551796875,-4.9735703125
-3.5247265625,-3.0902109375,-1.849015625,5.22771875,4.548390625,4.89963671875,1.51748046875,-0.07493359375,8.788671875,0.142390625,1.982015625,1.16534765625,8.53775390625,-1.177921875,-5.95116796875,-7.0550625,-0.92512890625,2.2213671875,-3.399078125,-5.521984375,-3.59803125,-2.347203125,-4.75573828125,-9.2807734375,-4.41742578125,-6.12322265625,-11.6996484375,1.73012109375,-4.015796875,-5.5755703125
-4.8397265625,-3.9222109375,-2.370015625,3.02071875,1.461390625,1.86163671875,-1.03851953125,-0.34493359375,6.443671875,-3.281609375,-1.231984375,-0.318652343750003,5.69375390625,-2.363921875,-8.55216796875,-9.1560625,-0.33612890625,0.912367187499999,-4.784078125,-7.632984375,-3.66603125,-3.149203125,-6.48273828125,-11.5427734375,-5.60442578125,-5.73422265625,-13.8236484375,-0.379878906249999,-5.027796875,-6.4225703125
-6.4837265625,-5.0442109375,-3.321015625,0.23671875,-2.180609375,-1.73136328125,-4.10651953125,-1.20493359375,3.676671875,-7.048609375,-4.922984375,-2.49465234375,2.47075390625,-3.880921875,-11.33816796875,-11.3110625,-0.76212890625,-0.584632812500001,-6.632078125,-9.239984375,-3.87103125,-4.052203125,-8.23073828125,-13.4087734375,-6.57442578125,-5.43122265625,-15.4216484375,-2.71087890625,-6.055796875,-7.0785703125
-8.0307265625,-6.1172109375,-4.353015625,-2.58128125,-5.694609375,-5.30136328125,-7.01651953125,-2.46593359375,1.005671875,-10.620609375,-8.391984375,-4.88965234375,-0.60024609375,-5.370921875,-13.84716796875,-13.0210625,-2.08012890625,-1.7016328125,-8.467078125,-10.057984375,-3.99603125,-4.553203125,-9.28073828125,-14.4387734375,-7.11842578125,-5.05922265625,-16.0886484375,-4.18887890625,-6.354796875,-7.0265703125
-9.1127265625,-6.7992109375,-5.056015625,-4.94328125,-8.502609375,-8.32336328125,-9.18451953125,-3.83093359375,-1.131328125,-13.583609375,-11.005984375,-6.98365234375,-3.02124609375,-6.474921875,-15.68016796875,-13.8520625,-3.87012890625,-2.0056328125,-9.814078125,-9.982984375,-3.83203125,-4.305203125,-9.10473828125,-14.3657734375,-7.07942578125,-4.47722265625,-15.5876484375,-4.02387890625,-5.440796875,-6.0015703125
-9.5767265625,-6.9072109375,-5.178015625,-6.60128125,-10.364609375,-10.51036328125,-10.35451953125,-5.02393359375,-2.539328125,-15.787609375,-12.464984375,-8.40865234375,-4.43624609375,-7.050921875,-16.67116796875,-13.6390625,-5.61112890625,-1.4246328125,-10.423078125,-9.163984375,-3.30503125,-3.311203125,-7.64673828125,-13.2527734375,-6.43942578125,-3.64722265625,-13.9926484375,-2.14287890625,-3.385796875,-4.1625703125
-9.4927265625,-6.4832109375,-4.687015625,-7.55928125,-11.360609375,-11.81936328125,-10.60751953125,-5.82993359375,-3.273328125,-17.307609375,-12.864984375,-9.05365234375,-4.71624609375,-7.214921875,-16.90016796875,-12.5200625,-6.87612890625,-0.240632812500001,-10.296078125,-7.885984375,-2.49503125,-1.923203125,-5.32373828125,-11.4227734375,-5.30042578125,-2.64522265625,-11.6336484375,0.812121093750003,-0.756796874999999,-1.9845703125
-9.0467265625,-5.7252109375,-3.734015625,-7.97828125,-11.739609375,-12.37036328125,-10.22751953125,-6.10993359375,-3.541328125,-18.304609375,-12.569984375,-9.01165234375,-4.00724609375,-7.233921875,-16.55616796875,-10.8260625,-7.45512890625,1.0803671875,-9.567078125,-6.383984375,-1.56503125,-0.644203124999999,-2.80273828125,-9.2487734375,-3.80442578125,-1.61122265625,-8.9176484375,3.84512109375,1.711203125,0.0184296874999998
-8.4377265625,-4.8562109375,-2.568015625,-8.06328125,-11.769609375,-12.34236328125,-9.52751953125,-5.83193359375,-3.593328125,-18.888609375,-11.961984375,-8.46365234375,-2.73824609375,-7.353921875,-15.78016796875,-8.8820625,-7.35912890625,2.1103671875,-8.350078125,-4.721984375,-0.661031249999999,0.116796875,-0.68073828125,-6.9497734375,-2.05842578125,-0.67522265625,-6.1656484375,6.08012109375,3.465203125,1.5314296875
-7.7907265625,-4.0142109375,-1.434015625,-7.95528125,-11.614609375,-11.88436328125,-8.70451953125,-5.07793359375,-3.602328125,-19.056609375,-11.238984375,-7.56065234375,-1.50724609375,-7.657921875,-14.57416796875,-6.8740625,-6.75912890625,2.6233671875,-6.678078125,-2.792984375,0.139968750000001,0.219796875,0.73626171875,-4.5247734375,-0.110425781249999,0.0737773437500007,-3.5406484375,7.08612109375,4.318203125,2.5264296875
-7.1357265625,-3.2342109375,-0.485015624999999,-7.66628125,-11.256609375,-11.05636328125,-7.74751953125,-4.01093359375,-3.596328125,-18.702609375,-10.341984375,-6.38465234375,-0.87324609375,-8.037921875,-12.82616796875,-4.8290625,-5.88612890625,2.6483671875,-4.539078125,-0.444984375,0.828968750000001,-0.192203124999999,1.48726171875,-1.8427734375,2.00257421875,0.572777343749999,-1.0966484375,6.93312109375,4.412203125,3.1464296875
-6.4497265625,-2.4962109375,0.241984375,-7.11128125,-10.544609375,-9.83236328125,-6.50451953125,-2.82393359375,-3.483328125,-17.687609375,-9.063984375,-4.98865234375,-1.11124609375,-8.283921875,-10.45116796875,-2.7100625,-4.96512890625,2.3953671875,-2.003078125,2.360015625,1.43296875,-0.809203125,1.82426171875,1.1832265625,4.19157421875,0.76477734375,1.1163515625,6.01312109375,4.039203125,3.5424296875
-5.7387265625,-1.7942109375,0.765984375,-6.22928125,-9.368609375,-8.17236328125,-4.86151953125,-1.70793359375,-3.165328125,-15.938609375,-7.231984375,-3.47465234375,-2.07624609375,-8.243921875,-7.53416796875,-0.5370625,-4.18012890625,2.1093671875,0.673921875,5.416015625,1.98296875,-1.341203125,1.99426171875,4.4312265625,6.26557421875,0.61077734375,2.9923515625,4.79512109375,3.473203125,3.7614296875
-5.0697265625,-1.1692109375,1.088984375,-5.06728125,-7.790609375,-6.10436328125,-2.89751953125,-0.84093359375,-2.627328125,-13.516609375,-4.865984375,-2.03165234375,-3.25724609375,-7.924921875,-4.38916796875,1.5319375,-3.67112890625,1.9313671875,3.047921875,8.260015625,2.48996875,-1.651203125,2.08126171875,7.5312265625,7.94557421875,0.120777343749999,4.3793515625,3.61812109375,2.872203125,3.7484296875
-4.5507265625,-0.7212109375,1.184984375,-3.75128125,-6.018609375,-3.75836328125,-0.881519531249999,-0.35493359375,-1.930328125,-10.634609375,-2.223984375,-0.90965234375,-3.99424609375,-7.469921875,-1.48416796875,3.2109375,-3.53412890625,1.8293671875,4.613921875,10.302015625,2.91896875,-1.807203125,1.97026171875,9.9502265625,8.91357421875,-0.651222656249999,5.1173515625,2.57812109375,2.253203125,3.4054296875
-4.2757265625,-0.5842109375,1.004984375,-2.43328125,-4.276609375,-1.34736328125,0.84648046875,-0.30793359375,-1.151328125,-7.634609375,0.274015625000002,-0.344652343750003,-3.79524609375,-7.061921875,0.70083203125,4.1529375,-3.81012890625,1.6233671875,4.979921875,11.009015625,3.15496875,-2.033203125,1.42126171875,11.1482265625,8.89757421875,-1.64622265625,5.0763515625,1.50712109375,1.480203125,2.6324296875
-4.3047265625,-0.8702109375,0.487984375000001,-1.26128125,-2.739609375,0.86663671875,1.99648046875,-0.69293359375,-0.362328125000001,-4.931609375,2.193015625,-0.46765234375,-2.57924609375,-6.831921875,1.83583203125,4.0879375,-4.44912890625,1.0963671875,4.022921875,10.097015625,3.00596875,-2.580203125,0.21026171875,10.7572265625,7.75057421875,-2.84622265625,4.1833515625,0.0681210937500012,0.320203125000001,1.3354296875
-4.6327265625,-1.6052109375,-0.421015624999999,-0.38928125,-1.524609375,2.63663671875,2.41048046875,-1.44993359375,0.364671874999999,-2.910609375,3.260015625,-1.23665234375,-0.72224609375,-6.816921875,1.85183203125,2.9599375,-5.30912890625,0.133367187499999,1.955921875,7.652015625,2.26896875,-3.565203125,-1.74073828125,8.7222265625,5.52357421875,-4.26022265625,2.4463515625,-2.02587890625,-1.439796875,-0.5315703125
-5.1557265625,-2.6812109375,-1.703015625,0.0737187499999998,-0.664609375,3.82463671875,2.13048046875,-2.43993359375,0.975671874999998,-1.790609375,3.467015625,-2.43465234375,1.14575390625,-6.959921875,0.97283203125,0.9939375,-6.18112890625,-1.1636328125,-0.703078125,4.128015625,0.842968750000001,-4.861203125,-4.27673828125,5.3452265625,2.47857421875,-5.88222265625,-0.0216484375000014,-4.78587890625,-3.822796875,-2.9065703125
-5.6827265625,-3.8922109375,-3.211015625,0.12371875,-0.0836093749999998,4.44763671875,1.39648046875,-3.42693359375,1.456671875,-1.543609375,3.054015625,-3.73865234375,2.44975390625,-7.139921875,-0.36716796875,-1.3710625,-6.86612890625,-2.4836328125,-3.291078125,0.219015625,-1.18503125,-6.111203125,-7.03073828125,1.2042265625,-0.96742578125,-7.65922265625,-3.0046484375,-7.85687890625,-6.580796875,-5.5695703125
-6.0347265625,-5.0082109375,-4.704015625,-0.16128125,0.337390625,4.64463671875,0.54448046875,-4.14093359375,1.809671875,-1.921609375,2.373015625,-4.84665234375,2.93075390625,-7.223921875,-1.71116796875,-3.6520625,-7.24712890625,-3.4456328125,-5.242078125,-3.371984375,-3.55103125,-6.889203125,-9.54573828125,-3.0237734375,-4.36042578125,-9.47322265625,-6.2016484375,-10.62187890625,-9.238796875,-8.1605703125
-6.1877265625,-5.8662109375,-5.932015625,-0.68728125,0.643390625,4.57963671875,-0.16151953125,-4.37893359375,1.997671875,-2.573609375,1.712015625,-5.58965234375,2.72075390625,-7.114921875,-2.76116796875,-5.4960625,-7.29812890625,-3.7796328125,-6.285078125,-6.126984375,-5.90003125,-6.893203125,-11.43273828125,-6.7577734375,-7.31642578125,-11.15122265625,-9.2636484375,-12.46087890625,-11.257796875,-10.2625703125
-6.2867265625,-6.4142109375,-6.729015625,-1.38728125,0.767390625,4.35663671875,-0.62551953125,-4.07593359375,1.935671875,-3.186609375,1.187015625,-5.97465234375,2.20375390625,-6.778921875,-3.44816796875,-6.7780625,-7.04312890625,-3.4406328125,-6.496078125,-7.802984375,-7.89003125,-6.084203125,-12.49473828125,-9.6307734375,-9.59342578125,-12.47722265625,-11.8586484375,-13.01387890625,-12.247796875,-11.5325703125
-6.5417265625,-6.7012109375,-7.052015625,-2.20128125,0.601390625,4.00363671875,-0.92151953125,-3.31793359375,1.549671875,-3.583609375,0.724015625000002,-6.15865234375,1.73875390625,-6.267921875,-3.88916796875,-7.5800625,-6.52912890625,-2.6226328125,-6.186078125,-8.402984375,-9.29503125,-4.711203125,-12.76073828125,-11.5117734375,-11.11042578125,-13.24822265625,-13.7576484375,-12.34487890625,-12.151796875,-11.8365703125
-7.0787265625,-6.8162109375,-6.989015625,-3.07428125,0.0703906250000002,3.46963671875,-1.23751953125,-2.33893359375,0.805671874999998,-3.754609375,0.130015625000002,-6.38365234375,1.42275390625,-5.716921875,-4.26316796875,-8.0800625,-5.83712890625,-1.6626328125,-5.705078125,-8.097984375,-10.04803125,-3.219203125,-12.43273828125,-12.4447734375,-11.90842578125,-13.34022265625,-14.9096484375,-10.90387890625,-11.272796875,-11.3125703125
-7.8417265625,-6.8042109375,-6.713015625,-3.98728125,-0.841609375,2.65963671875,-1.79551953125,-1.51193359375,-0.274328125000002,-3.801609375,-0.759984374999998,-6.86865234375,1.07175390625,-5.297921875,-4.69516796875,-8.4110625,-5.11412890625,-0.885632812500001,-5.258078125,-7.142984375,-10.21403125,-2.062203125,-11.72873828125,-12.5417734375,-12.06342578125,-12.74522265625,-15.4066484375,-9.29487890625,-10.110796875,-10.3025703125
-8.5557265625,-6.5982109375,-6.349015625,-4.93028125,-2.046609375,1.53263671875,-2.70151953125,-1.23093359375,-1.590328125,-3.823609375,-1.937984375,-7.69465234375,0.43575390625,-5.097921875,-5.16216796875,-8.5400625,-4.53612890625,-0.425632812500002,-4.800078125,-5.782984375,-9.90603125,-1.495203125,-10.71473828125,-11.8767734375,-11.58942578125,-11.55622265625,-15.3446484375,-7.93687890625,-9.062796875,-9.1505703125
-8.7827265625,-6.0292109375,-5.858015625,-5.82928125,-3.280609375,0.213636718749999,-3.80951953125,-1.69993359375,-2.915328125,-3.820609375,-3.150984375,-8.72565234375,-0.528246093749999,-5.009921875,-5.46416796875,-8.2690625,-4.21912890625,-0.144632812500001,-4.066078125,-4.183984375,-9.18503125,-1.466203125,-9.24773828125,-10.4537734375,-10.41342578125,-9.90522265625,-14.6886484375,-6.84987890625,-8.199796875,-8.0145703125
-8.1017265625,-4.9242109375,-5.055015625,-6.51328125,-4.155609375,-1.00336328125,-4.73451953125,-2.78093359375,-3.929328125,-3.692609375,-3.991984375,-9.62965234375,-1.54924609375,-4.762921875,-5.32616796875,-7.3600625,-4.14012890625,0.281367187499999,-2.747078125,-2.429984375,-8.05203125,-1.678203125,-7.09273828125,-8.2787734375,-8.46042578125,-7.90622265625,-13.2836484375,-5.71487890625,-7.286796875,-6.8205703125
-6.3557265625,-3.2352109375,-3.800015625,-6.81028125,-4.378609375,-1.81236328125,-5.08051953125,-4.03493359375,-4.382328125,-3.365609375,-4.135984375,-10.02865234375,-2.20024609375,-4.110921875,-4.58216796875,-5.7070625,-4.14312890625,1.1273671875,-0.733078125,-0.596984375,-6.50503125,-1.790203125,-4.17973828125,-5.4897734375,-5.79942578125,-5.64622265625,-11.0226484375,-4.17387890625,-6.020796875,-5.3925703125
-3.8037265625,-1.1272109375,-2.170015625,-6.67128125,-3.985609375,-2.10336328125,-4.69451953125,-4.90593359375,-4.249328125,-2.919609375,-3.547984375,-9.66965234375,-2.16624609375,-3.047921875,-3.33416796875,-3.4550625,-4.01812890625,2.3933671875,1.729921875,1.197015625,-4.62103125,-1.623203125,-0.79173828125,-2.4267734375,-2.71342578125,-3.20122265625,-8.0296484375,-2.12887890625,-4.298796875,-3.6285703125
-1.0407265625,1.0447890625,-0.445015624999999,-6.20428125,-3.334609375,-2.01236328125,-3.73751953125,-4.93593359375,-3.752328125,-2.587609375,-2.523984375,-8.53265234375,-1.45924609375,-1.869921875,-1.94216796875,-0.9670625,-3.59312890625,3.7583671875,4.107921875,2.805015625,-2.57403125,-1.243203125,2.45226171875,0.442226562500001,0.36857421875,-0.66822265625,-4.7186484375,0.153121093750002,-2.316796875,-1.5915703125
1.2862734375,2.8667890625,1.066984375,-5.58928125,-2.869609375,-1.79136328125,-2.52851953125,-3.91293359375,-3.220328125,-2.609609375,-1.517984375,-6.82965234375,-0.41724609375,-1.014921875,-0.82416796875,1.3319375,-2.80112890625,4.7483671875,5.834921875,4.126015625,-0.583031249999999,-0.880203125,4.85226171875,2.7222265625,3.04357421875,1.83377734375,-1.6316484375,2.19312109375,-0.450796875,0.5294296875
2.7762734375,4.0637890625,2.195984375,-4.97628125,-2.850609375,-1.60136328125,-1.34451953125,-1.95693359375,-2.906328125,-3.037609375,-0.872984374999998,-4.90265234375,0.47975390625,-0.809921874999999,-0.21716796875,3.1449375,-1.69912890625,5.0273671875,6.604921875,5.172015625,1.17296875,-0.747203125,5.96526171875,4.2772265625,5.09757421875,4.19077734375,0.815351562499998,3.60412109375,0.992203125000001,2.5264296875
3.4082734375,4.6197890625,2.953984375,-4.41828125,-3.226609375,-1.40336328125,-0.30051953125,0.50306640625,-2.889328125,-3.658609375,-0.652984374999999,-3.09865234375,0.87075390625,-1.272921875,-0.0561679687500001,4.4019375,-0.45812890625,4.5963671875,6.501921875,6.051015625,2.60096875,-0.899203125,5.82826171875,5.2722265625,6.56257421875,6.32577734375,2.5273515625,4.33912109375,1.966203125,4.2544296875
3.4762734375,4.7337890625,3.465984375,-3.87428125,-3.693609375,-1.00536328125,0.64348046875,2.90006640625,-3.071328125,-4.106609375,-0.672984374999999,-1.67765234375,0.68775390625,-2.129921875,-0.06916796875,5.1959375,0.675871093750001,3.7703671875,5.889921875,6.858015625,3.67396875,-1.232203125,4.89626171875,6.0122265625,7.60857421875,8.16177734375,3.6793515625,4.67112109375,2.675203125,5.6194296875
3.3492734375,4.6347890625,3.842984375,-3.27328125,-3.883609375,-0.251363281250001,1.56148046875,4.75506640625,-3.274328125,-4.113609375,-0.713984374999999,-0.79565234375,0.134753906249999,-3.018921875,-0.02416796875,5.6149375,1.42787109375,2.9273671875,5.117921875,7.531015625,4.33796875,-1.631203125,3.73626171875,6.6572265625,8.34857421875,9.55177734375,4.4753515625,4.92912109375,3.347203125,6.4954296875
3.2242734375,4.3927890625,4.049984375,-2.62328125,-3.636609375,0.790636718749999,2.39848046875,5.79806640625,-3.388328125,-3.727609375,-0.726984374999999,-0.541652343750002,-0.48224609375,-3.751921875,0.0388320312499999,5.6059375,1.55787109375,2.2223671875,4.243921875,7.776015625,4.45096875,-2.125203125,2.65026171875,7.0332265625,8.69157421875,10.24577734375,4.8823515625,5.16012109375,3.966203125,6.6704296875
3.0142734375,3.8717890625,3.877984375,-2.06928125,-3.147609375,1.77263671875,2.90348046875,5.94406640625,-3.454328125,-3.334609375,-0.891984374999998,-0.963652343750002,-0.942246093750001,-4.433921875,-0.22316796875,4.9839375,0.93487109375,1.4683671875,2.970921875,7.150015625,3.81196875,-2.928203125,1.49726171875,6.6742265625,8.34957421875,9.96477734375,4.5533515625,4.99212109375,4.179203125,5.8944296875
2.4602734375,2.8497890625,3.061984375,-1.82028125,-2.848609375,2.22663671875,2.76348046875,5.24006640625,-3.622328125,-3.446609375,-1.480984375,-2.03565234375,-1.17124609375,-5.372921875,-1.25016796875,3.5939375,-0.389128906249999,0.275367187499999,0.848921875,5.289015625,2.31096875,-4.322203125,-0.171738281250001,5.0902265625,7.02057421875,8.56977734375,3.0123515625,3.79612109375,3.462203125,4.0444296875
1.3612734375,1.2087890625,1.474984375,-2.00328125,-3.093609375,1.83763671875,1.86848046875,3.84606640625,-4.005328125,-4.377609375,-2.637984375,-3.60065234375,-1.19924609375,-6.835921875,-3.26316796875,1.4919375,-2.15512890625,-1.6516328125,-2.389078125,2.164015625,0.0779687500000001,-6.457203125,-2.78873828125,2.1012265625,4.61657421875,6.21577734375,-0.0126484375000011,1.06912109375,1.450203125,1.2874296875
-0.2627265625,-0.9302109375,-0.763015625,-2.58728125,-3.927609375,0.62963671875,0.45048046875,2.03706640625,-4.603328125,-6.048609375,-4.242984375,-5.34665234375,-1.08524609375,-8.853921875,-6.07516796875,-1.0050625,-3.97012890625,-4.2726328125,-6.576078125,-1.819984375,-2.49003125,-9.198203125,-6.44873828125,-1.9947734375,1.39157421875,3.35377734375,-4.3386484375,-3.20087890625,-1.781796875,-1.9065703125
-2.1717265625,-3.2202109375,-3.341015625,-3.44528125,-5.108609375,-1.05036328125,-1.02551953125,0.13506640625,-5.344328125,-8.026609375,-5.949984375,-6.89065234375,-0.89924609375,-11.180921875,-9.13116796875,-3.4430625,-5.44412890625,-7.1796328125,-11.096078125,-5.948984375,-4.89803125,-12.114203125,-10.79273828125,-6.4977734375,-2.12542578125,0.56777734375,-9.3076484375,-8.41087890625,-5.686796875,-4.9355703125
-4.0207265625,-5.2412109375,-5.903015625,-4.43428125,-6.277609375,-2.71536328125,-2.12251953125,-1.56793359375,-6.161328125,-9.747609375,-7.365984375,-7.91565234375,-0.75424609375,-13.393921875,-11.75916796875,-5.4570625,-6.34512890625,-9.7596328125,-15.098078125,-9.481984375,-6.79403125,-14.607203125,-15.10673828125,-10.5767734375,-5.35742578125,-1.68622265625,-14.0326484375,-13.51187890625,-9.451796875,-7.3235703125
-5.4747265625,-6.6662109375,-8.143015625,-5.42028125,-7.090609375,-3.92236328125,-2.61851953125,-2.85193359375,-6.989328125,-10.766609375,-8.236984375,-8.30165234375,-0.79024609375,-15.041921875,-13.43516796875,-6.9320625,-6.67412890625,-11.4206328125,-17.781078125,-11.925984375,-8.11603125,-16.109203125,-18.56173828125,-13.5637734375,-7.90342578125,-3.26722265625,-17.7286484375,-17.38787890625,-12.299796875,-8.8785703125
-6.2877265625,-7.3622109375,-9.828015625,-6.23928125,-7.281609375,-4.39736328125,-2.54351953125,-3.57893359375,-7.722328125,-10.879609375,-8.531984375,-8.16465234375,-1.08224609375,-15.781921875,-13.94716796875,-7.9890625,-6.61412890625,-11.7866328125,-18.633078125,-13.163984375,-9.04503125,-16.249203125,-20.47073828125,-15.1187734375,-9.63842578125,-4.33122265625,-19.9646484375,-19.23187890625,-13.725796875,-9.6655703125
-6.3467265625,-7.3612109375,-10.781015625,-6.70228125,-6.734609375,-4.06436328125,-2.09951953125,-3.70893359375,-8.206328125,-10.117609375,-8.395984375,-7.77165234375,-1.54224609375,-15.451921875,-13.39016796875,-8.8210625,-6.38512890625,-10.7826328125,-17.534078125,-13.392984375,-9.81203125,-14.929203125,-20.46373828125,-15.2237734375,-10.64342578125,-5.14022265625,-20.6986484375,-18.76187890625,-13.574796875,-9.8515703125
-5.6737265625,-6.7762109375,-10.854015625,-6.65128125,-5.512609375,-3.03136328125,-1.52151953125,-3.30593359375,-8.292328125,-8.641609375,-8.005984375,-7.37165234375,-1.92424609375,-14.075921875,-12.03316796875,-9.4860625,-6.08712890625,-8.6236328125,-14.729078125,-12.929984375,-10.50103125,-12.310203125,-18.54973828125,-14.0687734375,-11.05842578125,-5.84422265625,-20.1516484375,-16.22187890625,-11.997796875,-9.5445703125
-4.3817265625,-5.7322109375,-9.939015625,-6.01728125,-3.816609375,-1.51936328125,-0.938519531249999,-2.48093359375,-7.916328125,-6.650609375,-7.461984375,-7.05265234375,-1.96424609375,-11.825921875,-10.14416796875,-9.8140625,-5.64412890625,-5.7146328125,-10.719078125,-12.008984375,-10.97303125,-8.752203125,-15.06073828125,-11.9187734375,-10.95342578125,-6.38722265625,-18.6436484375,-12.22887890625,-9.364796875,-8.7495703125
-2.6357265625,-4.3502109375,-8.030015625,-4.90528125,-1.922609375,0.189636718749999,-0.32251953125,-1.31993359375,-7.161328125,-4.354609375,-6.771984375,-6.72065234375,-1.59924609375,-8.994921875,-7.89516796875,-9.5000625,-4.87912890625,-2.5506328125,-6.135078125,-10.687984375,-10.95003125,-4.746203125,-10.54773828125,-9.0437734375,-10.30742578125,-6.57522265625,-16.4886484375,-7.56687890625,-6.163796875,-7.4315703125
-0.6387265625,-2.7562109375,-5.323015625,-3.63928125,-0.146609375,1.77763671875,0.42348046875,0.12006640625,-6.289328125,-2.015609375,-5.929984375,-6.18565234375,-1.08624609375,-5.975921875,-5.38316796875,-8.2940625,-3.66412890625,0.381367187499999,-1.618078125,-8.919984375,-10.16203125,-0.833203124999999,-5.63973828125,-5.7257734375,-9.06942578125,-6.21922265625,-13.9776484375,-2.99087890625,-2.899796875,-5.6135703125
1.3732734375,-1.0702109375,-2.238015625,-2.70428125,1.178390625,2.93663671875,1.33248046875,1.76506640625,-5.672328125,0.0483906249999999,-4.986984375,-5.30565234375,-0.928246093749999,-3.217921875,-2.71516796875,-6.1730625,-2.02812890625,2.6863671875,2.300921875,-6.677984375,-8.47703125,2.509796875,-0.89973828125,-2.2737734375,-7.21942578125,-5.22922265625,-11.3646484375,0.942121093750002,0.0212031250000013,-3.4105703125
3.1902734375,0.5997890625,0.707984375000001,-2.53728125,1.831390625,3.47063671875,2.33148046875,3.47806640625,-5.604328125,1.534390625,-4.051984375,-4.07365234375,-1.60924609375,-1.084921875,-0.0621679687500001,-3.3750625,-0.187128906249999,4.1583671875,5.329921875,-4.040984375,-5.95903125,4.987796875,3.29026171875,1.0142265625,-4.80842578125,-3.64822265625,-8.8346484375,3.97112109375,2.377203125,-0.9875703125
4.6982734375,2.1797890625,3.114984375,-3.27528125,1.855390625,3.40863671875,3.30348046875,5.05206640625,-6.118328125,2.292390625,-3.209984375,-2.60065234375,-3.30024609375,0.293078125000001,2.38183203125,-0.2980625,1.53487109375,4.8503671875,7.479921875,-1.167984375,-2.86003125,6.557796875,6.77326171875,3.9382265625,-1.95042578125,-1.63322265625,-6.4576484375,6.12212109375,4.139203125,1.4874296875
5.9152734375,3.6377890625,4.806984375,-4.67328125,1.570390625,3.01563671875,4.15648046875,6.24606640625,-6.933328125,2.429390625,-2.443984375,-1.04265234375,-5.73724609375,1.073078125,4.48083203125,2.6749375,2.84487109375,5.0423671875,9.009921875,1.762015625,0.447968750000001,7.379796875,9.55926171875,6.4732265625,1.19357421875,0.598777343750001,-4.1866484375,7.57412109375,5.402203125,3.8694296875
6.9562734375,4.9867890625,5.806984375,-6.21728125,1.402390625,2.69163671875,4.83248046875,6.83906640625,-7.597328125,2.305390625,-1.623984375,0.479347656249999,-8.32824609375,1.595078125,6.22183203125,5.3049375,3.62387109375,5.0973671875,10.258921875,4.587015625,3.57996875,7.672796875,11.71226171875,8.7512265625,4.43357421875,2.84077734375,-1.9166484375,8.49112109375,6.280203125,6.0274296875
7.9842734375,6.2647890625,6.266984375,-7.32228125,1.689390625,2.80663671875,5.32548046875,6.74206640625,-7.689328125,2.386390625,-0.588984374999999,1.89134765625,-10.42324609375,2.187078125,7.72283203125,7.5299375,3.99287109375,5.2773671875,11.461921875,7.171015625,6.24596875,7.577796875,13.26426171875,10.9562265625,7.56357421875,4.94477734375,0.420351562499999,8.93412109375,6.845203125,7.8474296875
9.1362734375,7.4897890625,6.415984375,-7.51928125,2.582390625,3.56563671875,5.68848046875,6.09306640625,-6.981328125,3.031390625,0.735015625000002,3.13134765625,-11.59924609375,2.995078125,9.15683203125,9.3929375,4.23887109375,5.6253671875,12.635921875,9.387015625,8.30996875,7.110796875,14.21126171875,13.2062265625,10.38557421875,6.84277734375,2.8043515625,8.90912109375,7.155203125,9.2614296875
10.4452734375,8.6167890625,6.488984375,-6.60728125,4.008390625,4.92563671875,6.00748046875,5.21806640625,-5.517328125,4.307390625,2.246015625,4.08934765625,-11.80024609375,3.904078125,10.63183203125,10.9109375,4.62287109375,5.9563671875,13.593921875,11.098015625,9.75096875,6.222796875,14.54026171875,15.4602265625,12.71057421875,8.49677734375,5.1063515625,8.46412109375,7.293203125,10.2644296875
11.7622734375,9.5237890625,6.604984375,-4.75428125,5.665390625,6.57763671875,6.29648046875,4.43406640625,-3.621328125,5.934390625,3.660015625,4.58434765625,-11.30824609375,4.582078125,12.07583203125,11.9899375,5.19887109375,5.9563671875,14.024921875,12.140015625,10.55396875,4.876796875,14.24826171875,17.5032265625,14.35957421875,9.83277734375,7.1043515625,7.71412109375,7.348203125,10.8734296875
12.7732734375,10.0227890625,6.682984375,-2.47528125,7.109390625,8.04563671875,6.44548046875,3.86206640625,-1.796328125,7.393390625,4.609015625,4.40834765625,-10.56624609375,4.622078125,13.20983203125,12.4299375,5.74687109375,5.3163671875,13.611921875,12.320015625,10.63196875,3.096796875,13.30626171875,18.9702265625,15.14357421875,10.68877734375,8.4883515625,6.75212109375,7.326203125,11.0624296875
13.1192734375,9.9217890625,6.479984375,-0.43728125,7.951390625,8.86863671875,6.26948046875,3.39906640625,-0.536328125000001,8.149390625,4.785015625,3.41534765625,-9.97624609375,3.731078125,13.63883203125,12.0049375,5.88787109375,3.8633671875,12.154921875,11.474015625,9.82196875,0.950796875,11.65126171875,19.4492265625,14.87857421875,10.83077734375,8.8973515625,5.55812109375,7.075203125,10.7124296875
12.5512734375,9.0857890625,5.714984375,0.79771875,8.024390625,8.77063671875,5.62248046875,2.81906640625,-0.137328125000002,7.867390625,4.065015625,1.59734765625,-9.73924609375,1.861078125,13.01483203125,10.5739375,5.28087109375,1.6343671875,9.640921875,9.540015625,7.97196875,-1.465203125,9.22526171875,18.6002265625,13.42757421875,10.02177734375,8.0013515625,4.00812109375,6.321203125,9.6514296875
11.0172734375,7.4987890625,4.195984375,0.96371875,7.371390625,7.71363671875,4.43848046875,1.88906640625,-0.633328125000002,6.505390625,2.540015625,-0.910652343750002,-9.81124609375,-0.770921874999999,11.16583203125,8.1479375,3.79087109375,-1.1236328125,6.251921875,6.591015625,5.04696875,-4.033203125,6.07126171875,16.2682265625,10.76157421875,8.12877734375,5.6403515625,1.98312109375,4.800203125,7.7324296875
8.6722734375,5.2797890625,1.883984375,0.16171875,6.120390625,5.84463671875,2.72348046875,0.450066406249999,-1.835328125,4.289390625,0.440015625000001,-3.87065234375,-9.94324609375,-3.773921875,8.16183203125,4.9009375,1.54587109375,-4.0336328125,2.308921875,2.817015625,1.19396875,-6.603203125,2.40126171875,12.5432265625,7.00457421875,5.19477734375,1.9293515625,-0.520878906249997,2.401203125,4.9444296875
5.8352734375,2.6447890625,-1.067015625,-1.18828125,4.414390625,3.41263671875,0.55048046875,-1.51293359375,-3.414328125,1.609390625,-1.968984375,-7.00665234375,-9.81724609375,-6.713921875,4.29283203125,1.1319375,-1.10912890625,-6.7006328125,-1.811078125,-1.517984375,-3.25003125,-9.014203125,-1.41073828125,7.7432265625,2.43857421875,1.45277734375,-2.7176484375,-3.38187890625,-0.769796874999999,1.4614296875
2.9022734375,-0.1622109375,-4.322015625,-2.51628125,2.402390625,0.69963671875,-1.93151953125,-3.83193359375,-5.016328125,-1.114609375,-4.482984375,-10.05765234375,-9.20524609375,-9.236921875,-0.0191679687499999,-2.8080625,-3.72412890625,-8.8366328125,-5.756078125,-6.125984375,-7.82703125,-11.139203125,-4.92873828125,2.3472265625,-2.53442578125,-2.72122265625,-7.6946484375,-6.42387890625,-4.446796875,-2.3805703125
0.2202734375,-2.9272109375,-7.475015625,-3.38628125,0.203390625,-2.06036328125,-4.53551953125,-6.23593359375,-6.399328125,-3.572609375,-6.989984375,-12.81265234375,-8.11024609375,-11.169921875,-4.34416796875,-6.5960625,-5.87812890625,-10.3506328125,-9.268078125,-10.712984375,-12.08703125,-12.936203125,-7.81273828125,-3.1177734375,-7.47642578125,-6.88922265625,-12.3976484375,-9.50087890625,-8.310796875,-6.1835703125
-2.0087265625,-5.4992109375,-10.199015625,-3.71328125,-2.148609375,-4.74336328125,-7.11251953125,-8.48493359375,-7.525328125,-5.646609375,-9.460984375,-15.12465234375,-6.81824609375,-12.563921875,-8.34716796875,-9.9920625,-7.31612890625,-11.3656328125,-12.217078125,-14.990984375,-15.70703125,-14.439203125,-9.94973828125,-8.1797734375,-12.01342578125,-10.65922265625,-16.3896484375,-12.50387890625,-12.064796875,-9.6055703125
-3.7337265625,-7.7802109375,-12.343015625,-3.75528125,-4.654609375,-7.32736328125,-9.55351953125,-10.44293359375,-8.530328125,-7.396609375,-11.891984375,-16.90265234375,-5.82224609375,-13.621921875,-11.81016796875,-12.8320625,-8.01912890625,-12.1356328125,-14.564078125,-18.671984375,-18.54503125,-15.687203125,-11.46373828125,-12.4817734375,-15.89342578125,-13.75622265625,-19.4696484375,-15.27487890625,-15.418796875,-12.4195703125
-4.9687265625,-9.6872109375,-13.886015625,-3.88228125,-7.212609375,-9.80136328125,-11.71951953125,-12.01693359375,-9.568328125,-8.942609375,-14.225984375,-18.07165234375,-5.63624609375,-14.551921875,-14.57616796875,-14.9770625,-8.15812890625,-12.8876328125,-16.276078125,-21.443984375,-20.59203125,-16.629203125,-12.58773828125,-15.7637734375,-18.97342578125,-16.04722265625,-21.6106484375,-17.51487890625,-18.040796875,-14.4985703125
-5.7137265625,-11.1112109375,-14.857015625,-4.33928125,-9.539609375,-12.05836328125,-13.38151953125,-13.06993359375,-10.682328125,-10.314609375,-16.278984375,-18.54965234375,-6.56724609375,-15.418921875,-16.48016796875,-16.2520625,-7.95312890625,-13.6736328125,-17.253078125,-22.987984375,-21.88703125,-17.097203125,-13.47873828125,-17.8317734375,-21.14842578125,-17.48922265625,-22.8436484375,-18.81387890625,-19.588796875,-15.7665703125
-5.9407265625,-11.8922109375,-15.272015625,-5.14428125,-11.257609375,-13.87636328125,-14.26951953125,-13.40293359375,-11.763328125,-11.374609375,-17.731984375,-18.26965234375,-8.51424609375,-16.095921875,-17.33516796875,-16.4470625,-7.52612890625,-14.3356328125,-17.346078125,-23.051984375,-22.44603125,-16.876203125,-14.08473828125,-18.5447734375,-22.29642578125,-18.07322265625,-23.1796484375,-18.81587890625,-19.826796875,-16.1655703125
-5.6217265625,-11.8682109375,-15.117015625,-6.14128125,-12.053609375,-14.97536328125,-14.16751953125,-12.82993359375,-12.609328125,-11.864609375,-18.220984375,-17.21965234375,-10.90424609375,-16.331921875,-16.99116796875,-15.3980625,-6.83812890625,-14.5756328125,-16.427078125,-21.561984375,-22.26203125,-15.830203125,-14.15373828125,-17.8717734375,-22.29142578125,-17.81922265625,-22.6006484375,-17.41687890625,-18.764796875,-15.6825703125
-4.7557265625,-10.9722109375,-14.364015625,-7.09028125,-11.798609375,-15.14036328125,-13.02351953125,-11.28593359375,-13.011328125,-11.553609375,-17.511984375,-15.51165234375,-12.85424609375,-15.891921875,-15.42516796875,-13.1190625,-5.77212890625,-14.1096328125,-14.500078125,-18.712984375,-21.35603125,-14.003203125,-13.38673828125,-15.9567734375,-21.08542578125,-16.82822265625,-21.1276484375,-14.88387890625,-16.718796875,-14.4025703125
-3.4057265625,-9.3212109375,-13.004015625,-7.78328125,-10.605609375,-14.36136328125,-11.01951953125,-8.94093359375,-12.849328125,-10.405609375,-15.667984375,-13.40765234375,-13.53524609375,-14.711921875,-12.82216796875,-9.8920625,-4.29112890625,-12.8186328125,-11.756078125,-14.980984375,-19.84503125,-11.650203125,-11.63173828125,-13.1507734375,-18.80742578125,-15.33022265625,-18.8866484375,-11.81187890625,-14.232796875,-12.5545703125
-1.7227265625,-7.2152109375,-11.097015625,-8.12728125,-8.835609375,-12.89136328125,-8.58351953125,-6.23393359375,-12.175328125,-8.651609375,-13.087984375,-11.27465234375,-12.55324609375,-12.954921875,-9.58416796875,-6.2340625,-2.54212890625,-10.8116328125,-8.549078125,-11.013984375,-17.94103125,-9.164203125,-8.99073828125,-9.9457734375,-15.77742578125,-13.63222265625,-16.1286484375,-8.93487890625,-11.893796875,-10.4775703125
0.0792734374999999,-5.0362109375,-8.793015625,-8.14728125,-6.979609375,-11.16336328125,-6.26551953125,-3.75593359375,-11.204328125,-6.711609375,-10.368984375,-9.46365234375,-10.13424609375,-10.943921875,-6.23916796875,-2.7430625,-0.82612890625,-8.3906328125,-5.281078125,-7.435984375,-15.89103125,-6.924203125,-5.78473828125,-6.8297734375,-12.43042578125,-11.99222265625,-13.1696484375,-6.83787890625,-10.110796875,-8.4905703125
1.8092734375,-3.1032109375,-6.317015625,-7.90628125,-5.428609375,-9.58936328125,-4.52051953125,-2.00493359375,-10.190328125,-5.007609375,-8.065984375,-8.18865234375,-7.01424609375,-8.998921875,-3.28716796875,0.1059375,0.550871093750001,-5.9336328125,-2.282078125,-4.638984375,-13.89303125,-5.149203125,-2.42573828125,-4.1437734375,-9.17842578125,-10.50722265625,-10.3036484375,-5.72587890625,-8.970796875,-6.7395703125
3.3472734375,-1.5772109375,-3.934015625,-7.43428125,-4.301609375,-8.38936328125,-3.53451953125,-1.17693359375,-9.297328125,-3.786609375,-6.497984375,-7.46265234375,-4.11824609375,-7.299921875,-1.04516796875,2.0909375,1.41587109375,-3.7996328125,0.261921875,-2.708984375,-12.05403125,-3.842203125,0.71026171875,-2.0127734375,-6.31342578125,-9.10322265625,-7.7296484375,-5.36787890625,-8.253796875,-5.1325703125
4.6402734375,-0.4472109375,-1.916015625,-6.73728125,-3.477609375,-7.53436328125,-3.21551953125,-1.14293359375,-8.549328125,-3.040609375,-5.676984375,-7.14065234375,-2.20524609375,-5.854921875,0.41783203125,3.2489375,1.78387109375,-2.2566328125,2.287921875,-1.489984375,-10.41203125,-2.869203125,3.32926171875,-0.3857734375,-3.96042578125,-7.63722265625,-5.5386484375,-5.26887890625,-7.601796875,-3.4335703125
5.6562734375,0.4037890625,-0.486015624999999,-5.84928125,-2.759609375,-6.82636328125,-3.29451953125,-1.57893359375,-7.858328125,-2.552609375,-5.358984375,-7.00965234375,-1.60024609375,-4.553921875,1.26183203125,3.7859375,1.79787109375,-1.4436328125,3.799921875,-0.735984375,-8.97103125,-2.082203125,5.23926171875,0.8682265625,-2.10842578125,-6.03222265625,-3.7216484375,-4.94787890625,-6.720796875,-1.4465703125
6.3952734375,1.1097890625,0.275984375000001,-4.82628125,-1.980609375,-6.00236328125,-3.42051953125,-2.12693359375,-7.068328125,-2.004609375,-5.165984375,-6.87565234375,-2.12724609375,-3.253921875,1.80083203125,3.9559375,1.63287109375,-1.3236328125,4.850921875,-0.207984375,-7.71503125,-1.413203125,6.37526171875,1.8852265625,-0.664425781249999,-4.34522265625,-2.2046484375,-4.15887890625,-5.509796875,0.8374296875
6.9142734375,1.7527890625,0.479984375000001,-3.73028125,-1.025609375,-4.83336328125,-3.23451953125,-2.52193359375,-6.019328125,-1.126609375,-4.727984375,-6.61965234375,-3.25324609375,-1.874921875,2.38083203125,3.9719375,1.39687109375,-1.7006328125,5.527921875,0.280015625,-6.61203125,-0.898203125,6.80826171875,2.7542265625,0.468574218750001,-2.76122265625,-0.9156484375,-3.00587890625,-4.111796875,3.1834296875
7.3222734375,2.3387890625,0.359984375000001,-2.64428125,0.146390625,-3.21636328125,-2.48951953125,-2.66993359375,-4.654328125,0.182390625,-3.807984375,-6.22665234375,-4.38624609375,-0.471921874999998,3.24183203125,3.9609375,1.09387109375,-2.3246328125,5.941921875,0.835015625,-5.63603125,-0.662203125,6.69626171875,3.4842265625,1.32357421875,-1.49922265625,0.127351562499999,-1.91887890625,-2.887796875,5.1664296875
7.7212734375,2.8217890625,0.122984375000001,-1.69928125,1.464390625,-1.23136328125,-1.16851953125,-2.65793359375,-3.094328125,1.801390625,-2.373984375,-5.77465234375,-5.18624609375,0.768078125000002,4.41683203125,3.9659375,0.66387109375,-3.0236328125,6.199921875,1.461015625,-4.79203125,-0.866203125,6.18626171875,4.0082265625,1.84757421875,-0.71922265625,0.784351562499999,-1.48687890625,-2.285796875,6.3174296875
8.1582734375,3.1477890625,-0.141015625,-1.02628125,2.772390625,0.881636718749999,0.50448046875,-2.66093359375,-1.608328125,3.453390625,-0.598984374999999,-5.39065234375,-5.68324609375,1.618078125,5.73683203125,3.9789375,0.0588710937500005,-3.7776328125,6.382921875,2.050015625,-4.12703125,-1.627203125,5.35426171875,4.2212265625,1.95257421875,-0.465222656249999,0.8833515625,-2.16887890625,-2.622796875,6.3534296875
8.6232734375,3.2957890625,-0.437015624999999,-0.66328125,3.932390625,2.82563671875,2.18948046875,-2.78893359375,-0.457328125000002,4.852390625,1.212015625,-5.18765234375,-6.14624609375,1.966078125,6.93883203125,3.9589375,-0.696128906249999,-4.6536328125,6.544921875,2.432015625,-3.69403125,-2.935203125,4.21826171875,4.0432265625,1.59257421875,-0.660222656249999,0.358351562500001,-4.00087890625,-3.876796875,5.3604296875
9.0502734375,3.2797890625,-0.800015624999999,-0.52228125,4.864390625,4.34063671875,3.56148046875,-3.00993359375,0.221671874999998,5.822390625,2.716015625,-5.22865234375,-6.80224609375,1.887078125,7.79283203125,3.8389375,-1.50112890625,-5.6996328125,6.703921875,2.448015625,-3.52203125,-4.617203125,2.81126171875,3.4702265625,0.81557421875,-1.15522265625,-0.660648437500001,-6.51287890625,-5.623796875,3.8154296875
9.3142734375,3.1347890625,-1.257015625,-0.45328125,5.490390625,5.25163671875,4.37348046875,-3.19193359375,0.429671874999999,6.329390625,3.635015625,-5.52265234375,-7.60724609375,1.584078125,8.19083203125,3.5209375,-2.23912890625,-6.8676328125,6.826921875,2.011015625,-3.59203125,-6.365203125,1.24126171875,2.5652265625,-0.26542578125,-1.81022265625,-1.9046484375,-8.91887890625,-7.214796875,2.3754296875
9.2502734375,2.8737890625,-1.820015625,-0.34228125,5.686390625,5.45963671875,4.47748046875,-3.22293359375,0.231671874999998,6.414390625,3.803015625,-6.03865234375,-8.23724609375,1.250078125,8.13383203125,2.8959375,-2.82612890625,-8.0286328125,6.817921875,1.125015625,-3.86803125,-7.848203125,-0.31573828125,1.4012265625,-1.55242578125,-2.57622265625,-3.1446484375,-10.51287890625,-8.114796875,1.5244296875
8.7182734375,2.4407890625,-2.494015625,-0.15528125,5.324390625,4.94263671875,3.83648046875,-3.09593359375,-0.312328125000001,6.116390625,3.182015625,-6.72765234375,-8.29524609375,0.945078125000002,7.67783203125,1.8819375,-3.25412890625,-9.0526328125,6.530921875,-0.128984375,-4.33803125,-8.838203125,-1.67473828125,0.00322656250000053,-3.04642578125,-3.54222265625,-4.3556484375,-11.03287890625,-8.204796875,1.3174296875
7.6542734375,1.7157890625,-3.307015625,0.0457187499999998,4.343390625,3.72863671875,2.52448046875,-2.94593359375,-1.202328125,5.402390625,1.840015625,-7.54865234375,-7.58824609375,0.540078125000001,6.84683203125,0.4829375,-3.58812890625,-9.9036328125,5.787921875,-1.634984375,-5.03103125,-9.308203125,-2.73473828125,-1.6897734375,-4.84142578125,-4.88422265625,-5.7426484375,-10.80387890625,-7.871796875,1.3524296875
6.0842734375,0.5667890625,-4.352015625,0.09271875,2.733390625,1.86163671875,0.66448046875,-3.03193359375,-2.526328125,4.171390625,-0.0979843749999993,-8.48765234375,-6.31024609375,-0.234921874999998,5.58183203125,-1.1870625,-3.94212890625,-10.6916328125,4.401921875,-3.287984375,-6.00203125,-9.438203125,-3.55073828125,-3.7907734375,-7.05642578125,-6.72722265625,-7.6186484375,-10.56987890625,-7.825796875,0.9944296875
4.0932734375,-1.0592109375,-5.778015625,-0.24228125,0.514390625,-0.602363281250001,-1.61551953125,-3.63993359375,-4.409328125,2.300390625,-2.481984375,-9.57365234375,-4.99524609375,-1.673921875,3.76983203125,-2.9260625,-4.44212890625,-11.6156328125,2.236921875,-5.023984375,-7.27303125,-9.513203125,-4.31673828125,-6.3837734375,-9.72342578125,-9.00622265625,-10.1936484375,-11.13187890625,-8.743796875,-0.2725703125
1.8212734375,-3.0862109375,-7.679015625,-1.11828125,-2.232609375,-3.56036328125,-4.16051953125,-4.92293359375,-6.881328125,-0.258609375,-5.160984375,-10.84465234375,-4.25324609375,-3.925921875,1.33183203125,-4.5120625,-5.16612890625,-12.8476328125,-0.712078125,-6.799984375,-8.78103125,-9.756203125,-5.26673828125,-9.4267734375,-12.69942578125,-11.43022265625,-13.4096484375,-12.93387890625,-10.919796875,-2.5545703125
-0.5647265625,-5.3072109375,-9.965015625,-2.51228125,-5.316609375,-6.82236328125,-6.75851953125,-6.77593359375,-9.779328125,-3.409609375,-7.977984375,-12.30665234375,-4.45524609375,-6.886921875,-1.66816796875,-5.7870625,-6.10012890625,-14.4096328125,-4.244078125,-8.565984375,-10.36103125,-10.184203125,-6.53373828125,-12.6897734375,-15.65242578125,-13.57022265625,-16.8896484375,-15.81387890625,-14.085796875,-5.4345703125
-2.9007265625,-7.4372109375,-12.332015625,-4.23128125,-8.468609375,-10.13336328125,-9.18551953125,-8.86593359375,-12.778328125,-6.904609375,-10.772984375,-13.88265234375,-5.55024609375,-10.215921875,-4.99216796875,-6.7070625,-7.11312890625,-16.1456328125,-7.958078125,-10.247984375,-11.78803125,-10.588203125,-8.05673828125,-15.7857734375,-18.13342578125,-15.01522265625,-20.0266484375,-19.02587890625,-17.477796875,-8.1185703125
-5.0557265625,-9.2002109375,-14.342015625,-6.01028125,-11.429609375,-13.23636328125,-11.28251953125,-10.78593359375,-15.535328125,-10.404609375,-13.392984375,-15.40865234375,-7.11724609375,-13.466921875,-8.28116796875,-7.3320625,-7.99112890625,-17.8026328125,-11.370078125,-11.752984375,-12.84303125,-10.663203125,-9.59873828125,-18.2797734375,-19.72942578125,-15.52722265625,-22.1966484375,-21.55787890625,-20.157796875,-9.7775703125
-6.9137265625,-10.4202109375,-15.574015625,-7.60128125,-13.965609375,-15.91036328125,-12.96951953125,-12.19993359375,-17.801328125,-13.568609375,-15.700984375,-16.66265234375,-8.58224609375,-16.248921875,-11.15416796875,-7.7670625,-8.50312890625,-19.1646328125,-14.056078125,-12.985984375,-13.38403125,-10.213203125,-10.85673828125,-19.8447734375,-20.22742578125,-15.11822265625,-23.0016484375,-22.59687890625,-21.413796875,-9.9305703125
-8.3357265625,-11.0652109375,-15.782015625,-8.79728125,-15.848609375,-17.96236328125,-14.19551953125,-12.93293359375,-19.457328125,-16.118609375,-17.599984375,-17.44065234375,-9.50524609375,-18.337921875,-13.30716796875,-8.1030625,-8.49112890625,-20.1476328125,-15.770078125,-13.854984375,-13.37603125,-9.315203125,-11.59273828125,-20.3657734375,-19.71242578125,-14.04022265625,-22.4336484375,-21.87587890625,-21.056796875,-8.6605703125
-9.1747265625,-11.2142109375,-15.033015625,-9.45428125,-16.881609375,-19.24636328125,-14.91851953125,-13.01193359375,-20.491328125,-17.874609375,-19.023984375,-17.62965234375,-9.76124609375,-19.702921875,-14.57216796875,-8.3710625,-7.93912890625,-20.7986328125,-16.465078125,-14.299984375,-12.90703125,-8.308203125,-11.71673828125,-19.9557734375,-18.51442578125,-12.69322265625,-20.8686484375,-19.73387890625,-19.437796875,-6.5375703125
-9.3257265625,-10.9892109375,-13.717015625,-9.52028125,-16.997609375,-19.70936328125,-15.14751953125,-12.65093359375,-20.969328125,-18.766609375,-19.937984375,-17.24765234375,-9.56824609375,-20.442921875,-14.94816796875,-8.5380625,-6.98112890625,-21.2186328125,-16.221078125,-14.301984375,-12.15603125,-7.612203125,-11.25473828125,-18.8737734375,-17.06042578125,-11.47622265625,-18.8796484375,-16.88787890625,-17.205796875,-4.3055703125
-8.7777265625,-10.4882109375,-12.367015625,-9.02528125,-16.289609375,-19.42136328125,-14.94851953125,-12.13693359375,-20.967328125,-18.800609375,-20.303984375,-16.42965234375,-9.33524609375,-20.667921875,-14.55016796875,-8.5250625,-5.84212890625,-21.4376328125,-15.162078125,-13.889984375,-11.33403125,-7.491203125,-10.27873828125,-17.3857734375,-15.67642578125,-10.65622265625,-16.9656484375,-14.08987890625,-14.983796875,-2.5155703125
-7.6277265625,-9.7652109375,-11.362015625,-8.03528125,-14.934609375,-18.52536328125,-14.38751953125,-11.65293359375,-20.497328125,-18.018609375,-20.063984375,-15.36065234375,-9.43324609375,-20.389921875,-13.53816796875,-8.2430625,-4.74112890625,-21.3726328125,-13.400078125,-13.122984375,-10.60203125,-7.929203125,-8.85673828125,-15.6727734375,-14.47842578125,-10.29422265625,-15.3726484375,-11.87387890625,-13.165796875,-1.3315703125
-6.0587265625,-8.8602109375,-10.757015625,-6.64328125,-13.105609375,-17.16436328125,-13.48851953125,-11.16593359375,-19.501328125,-16.472609375,-19.163984375,-14.20365234375,-9.99924609375,-19.530921875,-12.05816796875,-7.6350625,-3.81412890625,-20.8776328125,-11.070078125,-12.077984375,-10.01903125,-8.679203125,-7.09673828125,-13.8197734375,-13.39242578125,-10.25422265625,-14.0666484375,-10.48687890625,-11.892796875,-0.5865703125
-4.3027265625,-7.8112109375,-10.343015625,-4.99528125,-10.957609375,-15.43336328125,-12.25351953125,-10.47593359375,-17.918328125,-14.242609375,-17.596984375,-13.05065234375,-10.82724609375,-18.011921875,-10.23116796875,-6.7040625,-3.08612890625,-19.8646328125,-8.381078125,-10.837984375,-9.53003125,-9.430203125,-5.20873828125,-11.8617734375,-12.26342578125,-10.27822265625,-12.8666484375,-9.94087890625,-11.136796875,0.0174296875
-2.5587265625,-6.6452109375,-9.835015625,-3.27428125,-8.606609375,-13.35436328125,-10.70151953125,-9.36293359375,-15.759328125,-11.450609375,-15.436984375,-11.90265234375,-11.42224609375,-15.834921875,-8.15416796875,-5.5060625,-2.48112890625,-18.3666328125,-5.611078125,-9.453984375,-8.99203125,-9.940203125,-3.47973828125,-9.8097734375,-10.95642578125,-10.07822265625,-11.5806484375,-10.05987890625,-10.752796875,0.7284296875
-0.9007265625,-5.3552109375,-9.031015625,-1.61828125,-6.073609375,-10.89736328125,-8.85851953125,-7.73393359375,-13.109328125,-8.243609375,-12.823984375,-10.69765234375,-11.19124609375,-13.078921875,-5.87516796875,-4.1270625,-1.87312890625,-16.5146328125,-2.998078125,-7.913984375,-8.22003125,-10.064203125,-2.12273828125,-7.6407734375,-9.39742578125,-9.44222265625,-10.0816484375,-10.49887890625,-10.466796875,1.6944296875
0.7332734375,-3.9032109375,-7.862015625,-0.0542812500000003,-3.287609375,-8.05236328125,-6.75951953125,-5.70393359375,-10.118328125,-4.783609375,-9.936984375,-9.38665234375,-9.74824609375,-9.863921875,-3.38716796875,-2.6650625,-1.14412890625,-14.4486328125,-0.635078125,-6.156984375,-7.08803125,-9.712203125,-1.12573828125,-5.3097734375,-7.60342578125,-8.30822265625,-8.3386484375,-10.79687890625,-9.903796875,2.9654296875
2.4362734375,-2.2752109375,-6.412015625,1.44671875,-0.222609375,-4.95236328125,-4.51651953125,-3.60593359375,-7.015328125,-1.272609375,-6.985984375,-8.02265234375,-7.18824609375,-6.359921875,-0.68716796875,-1.2390625,-0.267128906249999,-12.2936328125,1.526921875,-4.178984375,-5.63603125,-8.845203125,-0.26273828125,-2.8367734375,-5.72642578125,-6.81322265625,-6.4556484375,-10.57287890625,-8.761796875,4.4524296875
4.1892734375,-0.5642109375,-4.904015625,2.86771875,2.931390625,-1.93736328125,-2.37551953125,-1.89093359375,-4.124328125,2.007390625,-4.239984375,-6.80165234375,-4.13924609375,-2.850921875,2.12683203125,-0.00706250000000005,0.63687109375,-10.1946328125,3.543921875,-2.142984375,-4.12403125,-7.540203125,0.72526171875,-0.4237734375,-4.09142578125,-5.28122265625,-4.7346484375,-9.78587890625,-7.065796875,5.8514296875
5.8062734375,0.9957890625,-3.614015625,4.11471875,5.784390625,0.527636718749999,-0.668519531249999,-0.91993359375,-1.795328125,4.722390625,-2.019984375,-6.00565234375,-1.52024609375,0.274078125000001,4.81683203125,0.8469375,1.31587109375,-8.3446328125,5.364921875,-0.372984375,-2.94403125,-6.030203125,1.92526171875,1.5442265625,-3.13542578125,-4.15122265625,-3.6516484375,-8.84187890625,-5.276796875,6.6594296875
7.0162734375,2.1067890625,-2.734015625,5.07971875,7.926390625,2.08563671875,0.35548046875,-0.77693359375,-0.269328125000001,6.596390625,-0.602984374999998,-5.84665234375,-0.108246093749999,2.630078125,7.08783203125,1.2119375,1.49387109375,-6.9276328125,6.846921875,0.807015625,-2.40703125,-4.643203125,3.21526171875,2.6812265625,-3.20242578125,-3.81622265625,-3.6536484375,-8.37087890625,-4.088796875,6.3814296875
7.6122734375,2.5787890625,-2.272015625,5.69671875,9.127390625,2.67663671875,0.66548046875,-1.23693359375,0.416671874999999,7.560390625,-0.0679843749999982,-6.31965234375,-0.16824609375,4.021078125,8.74883203125,1.1819375,1.02687109375,-6.0026328125,7.896921875,1.310015625,-2.52203125,-3.606203125,4.41826171875,2.8702265625,-4.30342578125,-4.41022265625,-4.8496484375,-8.77687890625,-4.007796875,4.8594296875
7.5752734375,2.4807890625,-2.051015625,5.95671875,9.417390625,2.58463671875,0.47848046875,-1.92793359375,0.423671874999998,7.815390625,-0.176984374999998,-7.14165234375,-1.36924609375,4.557078125,9.84883203125,1.1209375,0.0238710937500004,-5.4246328125,8.614921875,1.418015625,-2.94003125,-2.880203125,5.50126171875,2.4192265625,-6.00642578125,-5.69022265625,-6.8176484375,-9.91487890625,-5.000796875,2.4794296875
7.1102734375,2.1417890625,-1.790015625,5.89671875,9.060390625,2.29363671875,0.19048046875,-2.51693359375,0.0246718749999992,7.775390625,-0.429984374999998,-7.84865234375,-3.02624609375,4.621078125,10.67883203125,1.5639375,-1.15612890625,-4.9006328125,9.293921875,1.691015625,-3.09103125,-2.152203125,6.63826171875,1.9752265625,-7.57842578125,-7.09222265625,-8.7126484375,-11.14487890625,-6.489796875,0.0634296875000002
6.5652734375,1.9717890625,-1.228015625,5.58871875,8.432390625,2.25363671875,0.23448046875,-2.81593359375,-0.504328125000001,7.885390625,-0.285984374999998,-8.00465234375,-4.51424609375,4.681078125,11.62383203125,2.9599375,-2.04212890625,-4.1526328125,10.269921875,2.686015625,-2.48603125,-1.037203125,8.07426171875,2.2012265625,-8.31242578125,-7.98822265625,-9.6596484375,-11.71987890625,-7.691796875,-1.5165703125
6.2632734375,2.2527890625,-0.269015624999999,5.11071875,7.839390625,2.66763671875,0.87448046875,-2.79293359375,-1.015328125,8.422390625,0.554015625000002,-7.40465234375,-5.57924609375,5.037078125,12.93083203125,5.4169375,-2.26912890625,-3.1056328125,11.702921875,4.652015625,-0.96003125,0.669796875000001,9.89826171875,3.4212265625,-7.84642578125,-7.97222265625,-9.1756484375,-11.20687890625,-8.031796875,-1.7675703125
6.3402734375,2.9977890625,0.938984375,4.50971875,7.350390625,3.40863671875,2.06548046875,-2.53693359375,-1.547328125,9.366390625,1.997015625,-6.16465234375,-6.36324609375,5.661078125,14.53583203125,8.6039375,-1.72612890625,-1.9756328125,13.430921875,7.359015625,1.24596875,2.831796875,11.88126171875,5.4332265625,-6.29842578125,-7.00722265625,-7.3806484375,-9.67787890625,-7.406796875,-0.7665703125
6.7012734375,3.9697890625,2.055984375,3.81871875,6.840390625,4.12663671875,3.46648046875,-2.18893359375,-2.269328125,10.428390625,3.615015625,-4.64265234375,-7.15824609375,6.216078125,16.07383203125,11.8809375,-0.574128906249999,-1.1766328125,15.003921875,10.191015625,3.62796875,5.009796875,13.51426171875,7.6002265625,-4.16742578125,-5.38722265625,-4.8966484375,-7.62387890625,-6.149796875,0.9634296875
7.1152734375,4.8207890625,2.724984375,3.11771875,6.181390625,4.48263671875,4.64648046875,-1.85793359375,-3.307328125,11.210390625,4.879015625,-3.25765234375,-8.10724609375,6.250078125,17.06083203125,14.5659375,0.85987109375,-1.1156328125,15.885921875,12.417015625,5.66396875,6.642796875,14.22126171875,9.1562265625,-2.07942578125,-3.55922265625,-2.5206484375,-5.69287890625,-4.783796875,2.7744296875
7.3512734375,5.2547890625,2.738984375,2.54071875,5.397390625,4.32163671875,5.29648046875,-1.59093359375,-4.627328125,11.386390625,5.410015625,-2.32065234375,-9.07524609375,5.415078125,17.13283203125,16.1859375,2.23287109375,-1.9986328125,15.691921875,13.477015625,6.99596875,7.285796875,13.62126171875,9.5392265625,-0.55442578125,-1.95222265625,-0.903648437499999,-4.41787890625,-3.739796875,4.1804296875
7.2732734375,5.1287890625,2.085984375,2.20471875,4.629390625,3.68663671875,5.31148046875,-1.42393359375,-6.061328125,10.817390625,5.114015625,-1.96565234375,-9.75624609375,3.606078125,16.19483203125,16.5859375,3.28887109375,-3.7546328125,14.320921875,13.137015625,7.48296875,6.761796875,11.67826171875,8.5662265625,0.119574218750001,-0.866222656250001,-0.361648437500001,-4.08287890625,-3.210796875,4.9624296875
6.8542734375,4.4647890625,0.906984375,2.12671875,4.012390625,2.72563671875,4.77348046875,-1.41893359375,-7.415328125,9.565390625,4.148015625,-2.16465234375,-9.87524609375,0.975078125000001,14.43183203125,15.8869375,3.88987109375,-6.1026328125,11.950921875,11.477015625,7.13296875,5.187796875,8.68126171875,6.4032265625,-0.12742578125,-0.45122265625,-0.894648437499999,-4.74087890625,-3.193796875,5.1114296875
6.1612734375,3.3937890625,-0.567015624999999,2.24271875,3.622390625,1.60563671875,3.92448046875,-1.63693359375,-8.545328125,7.848390625,2.796015625,-2.78665234375,-9.35024609375,-2.132921875,12.22183203125,14.3629375,4.00487109375,-8.6536328125,8.952921875,8.801015625,6.02396875,2.900796875,5.11626171875,3.4262265625,-1.20642578125,-0.72922265625,-2.2836484375,-6.28287890625,-3.597796875,4.7174296875
5.3152734375,2.0977890625,-2.080015625,2.46471875,3.504390625,0.479636718749999,3.09548046875,-2.07793359375,-9.357328125,5.975390625,1.351015625,-3.64265234375,-8.30324609375,-5.279921875,10.00183203125,12.3349375,3.67787109375,-11.0056328125,5.793921875,5.522015625,4.27296875,0.338796875,1.52026171875,0.0942265625000007,-2.91842578125,-1.61422265625,-4.1956484375,-8.45787890625,-4.307796875,3.9064296875
4.4442734375,0.7817890625,-3.411015625,2.72271875,3.651390625,-0.544363281250001,2.57748046875,-2.66493359375,-9.809328125,4.255390625,0.036015625000001,-4.53165234375,-6.96424609375,-8.059921875,8.13683203125,10.1049375,3.00787109375,-12.8136328125,2.935921875,2.082015625,2.06096875,-2.067203125,-1.63573828125,-3.1187734375,-4.96742578125,-2.93122265625,-6.2466484375,-10.87187890625,-5.173796875,2.8214296875
3.6432734375,-0.3542109375,-4.419015625,2.96971875,3.976390625,-1.42436328125,2.48148046875,-3.28293359375,-9.915328125,2.914390625,-1.017984375,-5.27065234375,-5.54424609375,-10.192921875,6.81783203125,7.9299375,2.13887109375,-13.8426328125,0.745921875,-1.113984375,-0.350031249999999,-3.990203125,-4.02073828125,-5.7637734375,-6.97742578125,-4.43622265625,-8.0606484375,-13.03887890625,-5.993796875,1.6214296875
2.9772734375,-1.1542109375,-5.032015625,3.19971875,4.340390625,-2.17636328125,2.71348046875,-3.79093359375,-9.733328125,2.023390625,-1.763984375,-5.73365234375,-4.15324609375,-11.559921875,6.04183203125,6.0099375,1.24587109375,-13.9956328125,-0.567078125,-3.730984375,-2.63003125,-5.254203125,-5.47373828125,-7.4727734375,-8.55042578125,-5.86022265625,-9.3236484375,-14.51887890625,-6.539796875,0.4784296875
2.5082734375,-1.5502109375,-5.228015625,3.47471875,4.624390625,-2.84336328125,3.05748046875,-4.03293359375,-9.329328125,1.506390625,-2.225984375,-5.88165234375,-2.79924609375,-12.173921875,5.65583203125,4.4539375,0.51587109375,-13.3056328125,-0.984078125,-5.529984375,-4.45703125,-5.834203125,-5.99573828125,-8.0377734375,-9.38042578125,-6.97022265625,-9.8346484375,-15.05487890625,-6.615796875,-0.4155703125
2.2712734375,-1.5922109375,-5.071015625,3.89271875,4.752390625,-3.48436328125,3.26948046875,-3.90893359375,-8.768328125,1.175390625,-2.504984375,-5.79965234375,-1.45524609375,-12.124921875,5.43583203125,3.2419375,0.0848710937500003,-11.9226328125,-0.653078125,-6.422984375,-5.63803125,-5.804203125,-5.71873828125,-7.4857734375,-9.38442578125,-7.63522265625,-9.5426484375,-14.64187890625,-6.122796875,-0.8725703125
2.2292734375,-1.4372109375,-4.765015625,4.50571875,4.649390625,-4.17536328125,3.12648046875,-3.46893359375,-8.121328125,0.799390625,-2.791984375,-5.71165234375,-0.14224609375,-11.545921875,5.13583203125,2.1929375,-0.0361289062500001,-10.0766328125,0.133921875,-6.533984375,-6.24103125,-5.298203125,-4.86273828125,-6.1117734375,-8.78842578125,-7.87522265625,-8.5746484375,-13.50187890625,-5.105796875,-0.7865703125
2.2572734375,-1.3062109375,-4.625015625,5.26271875,4.254390625,-4.99836328125,2.47948046875,-2.93893359375,-7.452328125,0.185390625,-3.343984375,-5.92965234375,1.04475390625,-10.592921875,4.54183203125,1.0079375,-0.00512890624999951,-8.0476328125,1.018921875,-6.210984375,-6.61203125,-4.484203125,-3.69373828125,-4.4207734375,-8.08642578125,-7.88322265625,-7.2386484375,-12.01087890625,-3.789796875,-0.2395703125
2.1982734375,-1.4042109375,-4.935015625,6.03671875,3.594390625,-5.95736328125,1.33048046875,-2.60593359375,-6.776328125,-0.722609375,-4.395984375,-6.72265234375,1.97975390625,-9.423921875,3.54083203125,-0.6040625,-0.0871289062499994,-6.1036328125,1.678921875,-5.922984375,-7.22903125,-3.542203125,-2.45473828125,-2.9837734375,-7.84842578125,-7.95422265625,-5.9596484375,-10.57487890625,-2.533796875,0.4734296875
1.9492734375,-1.8182109375,-5.781015625,6.69171875,2.836390625,-6.91836328125,-0.13351953125,-2.66293359375,-6.049328125,-1.779609375,-6.019984375,-8.15665234375,2.58575390625,-8.165921875,2.19883203125,-2.7340625,-0.498128906249999,-4.4326328125,1.954921875,-6.049984375,-8.41803125,-2.610203125,-1.28773828125,-2.2247734375,-8.43142578125,-8.32522265625,-5.1196484375,-9.48787890625,-1.688796875,0.9654296875
1.5262734375,-2.4432109375,-6.981015625,7.13571875,2.239390625,-7.62436328125,-1.58451953125,-3.11593359375,-5.217328125,-2.645609375,-8.012984375,-10.00165234375,2.89675390625,-6.897921875,0.78583203125,-5.1290625,-1.24312890625,-3.0966328125,1.930921875,-6.687984375,-10.09803125,-1.739203125,-0.20073828125,-2.2437734375,-9.76042578125,-9.01322265625,-4.8806484375,-8.81187890625,-1.412796875,0.9794296875
1.0702734375,-2.9962109375,-8.130015625,7.35971875,2.043390625,-7.79436328125,-2.65551953125,-3.78893359375,-4.274328125,-2.916609375,-9.932984375,-11.79965234375,3.03375390625,-5.661921875,-0.28816796875,-7.2270625,-2.08512890625,-2.0526328125,1.910921875,-7.586984375,-11.75103125,-0.908203125,0.89026171875,-2.7837734375,-11.32342578125,-9.77622265625,-5.1266484375,-8.39287890625,-1.583796875,0.5434296875
0.7912734375,-3.1542109375,-8.750015625,7.42371875,2.398390625,-7.26836328125,-3.03551953125,-4.38893359375,-3.286328125,-2.327609375,-11.259984375,-13.04965234375,3.10775390625,-4.488921875,-0.63116796875,-8.3660625,-2.67012890625,-1.2226328125,2.276921875,-8.278984375,-12.65703125,-0.111203124999999,2.05326171875,-3.3687734375,-12.41842578125,-10.23722265625,-5.5636484375,-8.02487890625,-1.919796875,-0.0685703124999999
0.8532734375,-2.7092109375,-8.496015625,7.39571875,3.280390625,-6.11136328125,-2.58051953125,-4.62893359375,-2.399328125,-0.925609375,-11.625984375,-13.42465234375,3.09575390625,-3.435921875,-0.02816796875,-8.0730625,-2.72312890625,-0.571632812500001,3.307921875,-8.315984375,-12.27203125,0.544796875000001,3.24926171875,-3.5517734375,-12.50442578125,-10.09222265625,-5.9306484375,-7.67487890625,-2.194796875,-0.5275703125
1.2782734375,-1.6642109375,-7.322015625,7.25571875,4.441390625,-4.64636328125,-1.40051953125,-4.34593359375,-1.812328125,0.885390625,-10.952984375,-12.88565234375,2.79875390625,-2.604921875,1.45483203125,-6.2630625,-2.16812890625,-0.151632812500001,5.016921875,-7.495984375,-10.50903125,0.819796875,4.31726171875,-3.1187734375,-11.46042578125,-9.26522265625,-6.1416484375,-7.55987890625,-2.401796875,-0.6505703125
1.9232734375,-0.2262109375,-5.509015625,6.90071875,5.466390625,-3.34336328125,0.15148046875,-3.56593359375,-1.722328125,2.513390625,-9.469984375,-11.64265234375,1.90575390625,-2.108921875,3.48383203125,-3.2560625,-1.10812890625,-0.0716328125000008,7.131921875,-5.929984375,-7.78403125,0.451796875000001,5.03926171875,-2.1527734375,-9.60642578125,-7.91222265625,-6.2916484375,-7.99387890625,-2.693796875,-0.4615703125
2.5872734375,1.2907890625,-3.509015625,6.25971875,5.984390625,-2.61936328125,1.64148046875,-2.44593359375,-2.214328125,3.450390625,-7.592984375,-10.02065234375,0.16575390625,-2.013921875,5.59383203125,0.3569375,0.28887109375,-0.427632812500001,9.200921875,-3.936984375,-4.78303125,-0.679203124999999,5.24426171875,-0.9357734375,-7.50342578125,-6.30622265625,-6.5326484375,-9.12787890625,-3.208796875,-0.1025703125
3.1392734375,2.5907890625,-1.752015625,5.40671875,5.858390625,-2.65736328125,2.74348046875,-1.17193359375,-3.203328125,3.498390625,-5.772984375,-8.32165234375,-2.46524609375,-2.298921875,7.35183203125,3.9289375,1.89487109375,-1.2286328125,10.781921875,-1.869984375,-2.12703125,-2.472203125,4.87826171875,0.2102265625,-5.66442578125,-4.69522265625,-6.9396484375,-10.78887890625,-3.917796875,0.2774296875
3.5672734375,3.4917890625,-0.519015624999999,4.54571875,5.206390625,-3.37136328125,3.33748046875,0.09506640625,-4.488328125,2.802390625,-4.372984375,-6.74765234375,-5.76624609375,-2.882921875,8.48383203125,6.9359375,3.65687109375,-2.3946328125,11.601921875,0.00201562499999963,-0.129031249999999,-4.661203125,4.01026171875,1.0372265625,-4.35242578125,-3.22322265625,-7.4716484375,-12.55987890625,-4.644796875,0.5764296875
3.9412734375,3.9557890625,0.0769843750000012,3.89271875,4.268390625,-4.49836328125,3.48348046875,1.22706640625,-5.859328125,1.700390625,-3.609984375,-5.39165234375,-9.32524609375,-3.701921875,8.89783203125,9.0799375,5.56087109375,-3.8026328125,11.617921875,1.514015625,1.24596875,-6.949203125,2.78526171875,1.4102265625,-3.55742578125,-1.93522265625,-8.0206484375,-14.00287890625,-5.195796875,0.7144296875
4.3342734375,4.0437890625,0.0769843750000012,3.56771875,3.292390625,-5.71836328125,3.36048046875,2.15506640625,-7.166328125,0.523390625,-3.546984375,-4.27865234375,-12.65524609375,-4.751921875,8.64683203125,10.2829375,7.55487109375,-5.3426328125,10.974921875,2.561015625,2.23496875,-9.120203125,1.35326171875,1.2782265625,-3.12742578125,-0.84722265625,-8.5176484375,-14.88487890625,-5.509796875,0.6004296875
4.7492734375,3.8327890625,-0.363015624999999,3.54971875,2.463390625,-6.76236328125,3.18348046875,2.87206640625,-8.328328125,-0.546609375,-4.120984375,-3.40665234375,-15.33724609375,-6.078921875,7.85283203125,10.6119375,9.48887109375,-6.9526328125,9.882921875,3.036015625,3.05596875,-11.089203125,-0.19073828125,0.635226562500001,-2.93842578125,-0.0062226562499994,-8.9986484375,-15.27887890625,-5.711796875,0.1434296875
5.0632734375,3.3557890625,-1.063015625,3.67671875,1.833390625,-7.50136328125,3.08948046875,3.39306640625,-9.344328125,-1.494609375,-5.175984375,-2.78865234375,-17.10624609375,-7.734921875,6.63883203125,10.1809375,11.08987109375,-8.6156328125,8.507921875,2.796015625,3.75096875,-12.868203125,-1.84073828125,-0.4997734375,-3.00842578125,0.477777343750001,-9.5876484375,-15.50287890625,-6.054796875,-0.7125703125
5.0442734375,2.6057890625,-1.920015625,3.68371875,1.261390625,-7.98736328125,3.04448046875,3.67406640625,-10.292328125,-2.404609375,-6.500984375,-2.46765234375,-17.88524609375,-9.711921875,5.09583203125,9.0999375,12.03187109375,-10.3206328125,6.914921875,1.700015625,4.15996875,-14.513203125,-3.64773828125,-2.0707734375,-3.49242578125,0.460777343750001,-10.4086484375,-15.94587890625,-6.796796875,-1.9555703125
4.4542734375,1.5667890625,-2.942015625,3.31071875,0.470390625,-8.40536328125,2.85948046875,3.60606640625,-11.291328125,-3.351609375,-7.867984375,-2.49765234375,-17.74624609375,-11.907921875,3.30383203125,7.4609375,12.05287109375,-12.0006328125,5.112921875,-0.314984375,4.02296875,-16.056203125,-5.64273828125,-3.9717734375,-4.58042578125,-0.186222656249999,-11.4856484375,-16.86687890625,-8.069796875,-3.5065703125
3.1922734375,0.2627890625,-4.187015625,2.46071875,-0.751609375,-8.94036328125,2.33848046875,3.09106640625,-12.392328125,-4.325609375,-9.068984375,-2.90065234375,-16.83524609375,-14.108921875,1.36583203125,5.3599375,11.07387109375,-13.5006328125,3.141921875,-3.138984375,3.13296875,-17.448203125,-7.74473828125,-6.0357734375,-6.36542578125,-1.52122265625,-12.7106484375,-18.28787890625,-9.825796875,-5.2375703125
1.3862734375,-1.2252109375,-5.658015625,1.29171875,-2.353609375,-9.65136328125,1.43948046875,2.15506640625,-13.506328125,-5.218609375,-9.955984375,-3.63565234375,-15.31224609375,-16.018921875,-0.55916796875,2.9329375,9.24887109375,-14.5836328125,1.156921875,-6.457984375,1.45496875,-18.542203125,-9.72373828125,-8.0567734375,-8.76042578125,-3.49322265625,-13.8896484375,-19.99587890625,-11.842796875,-6.9965703125
-0.6127265625,-2.7632109375,-7.231015625,0.21371875,-3.954609375,-10.39736328125,0.37148046875,0.98806640625,-14.402328125,-5.868609375,-10.475984375,-4.59165234375,-13.32224609375,-17.322921875,-2.27816796875,0.3679375,6.91087109375,-15.0036328125,-0.568078125,-9.810984375,-0.849031249999999,-19.111203125,-11.24873828125,-9.8307734375,-11.50342578125,-5.94422265625,-14.8506484375,-21.64187890625,-13.806796875,-8.6485703125
-2.3217265625,-4.2242109375,-8.629015625,-0.18528125,-4.899609375,-10.86636328125,-0.40951953125,-0.0599335937500003,-14.749328125,-6.132609375,-10.686984375,-5.62665234375,-10.99324609375,-17.755921875,-3.59716796875,-2.1300625,4.44587109375,-14.5816328125,-1.704078125,-12.706984375,-3.49603125,-18.908203125,-12.00273828125,-11.2067734375,-14.25242578125,-8.67522265625,-15.5486484375,-22.86887890625,-15.410796875,-10.0975703125
-3.2727265625,-5.5482109375,-9.457015625,0.72571875,-4.399609375,-10.66836328125,-0.29151953125,-0.55393359375,-14.198328125,-5.936609375,-10.735984375,-6.61965234375,-8.43724609375,-17.155921875,-4.37116796875,-4.4080625,2.15987109375,-13.2556328125,-1.973078125,-14.759984375,-6.19503125,-17.754203125,-11.79973828125,-12.1167734375,-16.72142578125,-11.53322265625,-16.0946484375,-23.44287890625,-16.456796875,-11.3015703125
-3.1677265625,-6.7632109375,-9.360015625,3.38871875,-1.835609375,-9.49536328125,1.24048046875,-0.11993359375,-12.502328125,-5.291609375,-10.787984375,-7.50565234375,-5.74024609375,-15.513921875,-4.53916796875,-6.4150625,0.19287109375,-11.0896328125,-1.251078125,-15.796984375,-8.75203125,-15.620203125,-10.64773828125,-12.5857734375,-18.77042578125,-14.45522265625,-16.6856484375,-23.30987890625,-16.906796875,-12.2695703125
-2.0317265625,-7.9382109375,-8.256015625,7.77371875,2.849390625,-7.31736328125,4.28848046875,1.32706640625,-9.688328125,-4.291609375,-10.943984375,-8.28865234375,-2.95624609375,-13.007921875,-4.16816796875,-8.2020625,-1.48212890625,-8.2726328125,0.349921875,-15.925984375,-11.11403125,-12.671203125,-8.74273828125,-12.7137734375,-20.43042578125,-17.44222265625,-17.4596484375,-22.60387890625,-16.875796875,-13.0515703125
-0.2607265625,-9.1162109375,-6.480015625,13.23971875,8.908390625,-4.48436328125,8.33548046875,3.44506640625,-6.166328125,-3.096609375,-11.192984375,-9.01465234375,-0.111246093749999,-10.008921875,-3.47616796875,-9.8760625,-3.00612890625,-5.0936328125,2.476921875,-15.527984375,-13.34803125,-9.252203125,-6.42173828125,-12.6597734375,-21.86742578125,-20.48822265625,-18.3986484375,-21.59087890625,-16.590796875,-13.7345703125
-0.2607265625,-9.1162109375,-6.480015625,13.23971875,8.908390625,-4.48436328125,8.33548046875,3.44506640625,-6.166328125,-3.096609375,-11.192984375,-9.01465234375,-0.111246093749999,-10.008921875,-3.47616796875,-9.8760625,-3.00612890625,-5.0936328125,2.476921875,-15.527984375,-13.34803125,-9.252203125,-6.42173828125,-12.6597734375,-21.86742578125,-20.48822265625,-18.3986484375,-21.59087890625,-16.590796875,-13.7345703125
