"Fp1","Fpz","Fp2","F7","F3","Fz","F4","F8","FC5","FC1","FC2","FC6","T7","C3","Cz","C4","T8","CP5","CP1","CP2","CP6","P7","P3","Pz","P4","P8","POz","O1","Oz","O2"
-2.32627734375,3.782984375,0.953648437499999,6.7746796875,3.54579296875,2.34121875,-0.1131171875,6.92426953125,7.99041796875,-2.205265625,1.18296484375,-0.0992343750000018,1.578796875,-5.07701171875,-2.12842578125,-3.19658203125,-2.675640625,-3.78271484375,-4.04093359375,-2.66390625,-5.2580703125,-9.90889453125,1.976890625,-8.51396484375,-13.13067578125,-13.15637890625,-17.61584765625,-12.21069921875,-8.48869921875,-16.26203125
-2.91227734375,5.495984375,1.4386484375,6.4356796875,3.42079296875,2.16921875,1.3698828125,6.82226953125,7.50041796875,-2.544265625,0.471964843750001,4.525765625,1.214796875,-6.04601171875,-3.56142578125,-2.30858203125,0.226359375,-5.07271484375,-6.35093359375,-3.61190625,-2.9170703125,-9.12789453125,0.571890625000002,-11.60896484375,-12.97367578125,-10.50837890625,-19.89484765625,-10.03669921875,-6.37169921875,-13.61703125
-2.52827734375,6.137984375,1.7946484375,5.7126796875,3.12279296875,1.80321875,2.3448828125,6.73126953125,6.50141796875,-2.859265625,-0.00803515624999918,7.723765625,0.320796875,-7.20401171875,-4.72342578125,-1.85158203125,1.623359375,-6.46071484375,-8.40593359375,-4.50790625,-1.7490703125,-9.20089453125,-1.109109375,-14.32096484375,-13.72867578125,-9.13237890625,-22.44684765625,-9.19169921875,-6.34569921875,-13.34903125
-1.56527734375,5.761984375,2.1906484375,4.5416796875,2.56879296875,1.26721875,2.8268828125,6.64726953125,4.96641796875,-3.148265625,-0.215035156249998,9.292765625,-1.272203125,-8.50001171875,-5.46342578125,-1.70858203125,1.660359375,-7.94271484375,-9.97893359375,-5.16090625,-1.6720703125,-10.33489453125,-2.926109375,-16.40096484375,-15.18667578125,-9.02437890625,-25.01784765625,-9.75569921875,-8.30869921875,-15.34103125
-0.77127734375,4.760984375,2.7926484375,2.9726796875,1.73879296875,0.671218750000001,2.9758828125,6.61926953125,3.07641796875,-3.388265625,-0.149035156249999,9.356765625,-3.529203125,-9.73401171875,-5.66042578125,-1.61258203125,1.003359375,-9.42371484375,-10.81593359375,-5.33690625,-2.1870703125,-12.46189453125,-4.545109375,-17.60996484375,-16.76267578125,-9.75137890625,-27.14584765625,-11.38169921875,-11.40569921875,-18.64503125
-0.79027734375,3.679984375,3.6066484375,1.1876796875,0.756792968749998,0.223218750000001,3.0308828125,6.78126953125,1.18441796875,-3.490265625,0.198964843750002,8.274765625,-6.136203125,-10.58501171875,-5.24442578125,-1.29358203125,0.476359375,-10.68671484375,-10.70993359375,-4.84590625,-2.6280703125,-15.17589453125,-5.539109375,-17.78396484375,-17.78267578125,-10.67437890625,-28.33784765625,-13.44869921875,-14.43569921875,-21.95703125
-1.76527734375,3.064984375,4.4846484375,-0.497320312500001,-0.0352070312500015,0.252218750000001,3.2938828125,7.33726953125,-0.27258203125,-3.233265625,0.945964843750001,6.643765625,-8.532203125,-10.68901171875,-4.15942578125,-0.529582031250001,0.706359375,-11.40971484375,-9.53893359375,-3.58090625,-2.4180703125,-17.75889453125,-5.501109375,-16.83196484375,-17.71167578125,-11.17437890625,-28.18784765625,-15.20469921875,-16.27869921875,-24.10603125
-3.18727734375,3.347984375,5.2806484375,-1.6623203125,-0.0812070312500008,1.18421875,4.1518828125,8.51126953125,-0.88158203125,-2.246265625,2.34796484375,5.355765625,-10.086203125,-9.73901171875,-2.29542578125,0.873417968749999,1.957359375,-11.22271484375,-7.24793359375,-1.47090625,-1.2040703125,-19.35089453125,-4.115109375,-14.68196484375,-16.23167578125,-10.79837890625,-26.40584765625,-15.87269921875,-16.14469921875,-24.31403125
-4.07027734375,4.744984375,6.0096484375,-1.8953203125,1.21279296875,3.40921875,5.9938828125,10.43326953125,-0.357582031249999,-0.102265624999999,4.70696484375,5.481765625,-10.338203125,-7.57201171875,0.51557421875,3.08741796875,4.128359375,-9.82471484375,-3.83693359375,1.55009375,1.1139296875,-19.23389453125,-1.200109375,-11.24396484375,-13.21467578125,-9.29237890625,-22.79584765625,-14.76069921875,-13.64669921875,-22.21503125
-3.42027734375,7.152984375,6.8586484375,-0.966320312500001,4.16479296875,7.02621875,8.9998828125,12.99126953125,1.37541796875,3.458734375,8.14996484375,7.858765625,-9.182203125,-4.24201171875,4.38457421875,6.19341796875,6.856359375,-7.09771484375,0.61506640625,5.50909375,4.3989296875,-17.11389453125,3.231890625,-6.45296484375,-8.69167578125,-6.61137890625,-17.27084765625,-11.43169921875,-8.80069921875,-17.79103125
-0.76127734375,10.121984375,8.0366484375,1.0486796875,8.54379296875,11.64321875,12.9108828125,15.74226953125,4.15041796875,8.290734375,12.44296484375,12.527765625,-6.903203125,-0.0430117187499999,9.19457421875,10.05341796875,9.655359375,-3.18271484375,5.87706640625,10.28709375,8.2939296875,-13.23089453125,8.917890625,-0.40596484375,-2.87467578125,-2.94337890625,-9.94184765625,-5.87369921875,-2.02669921875,-11.35203125
3.53472265625,12.977984375,9.5746484375,3.7776796875,13.53679296875,16.40221875,17.0068828125,18.00126953125,7.59941796875,13.756734375,16.97296484375,18.443765625,-4.034203125,4.53898828125,14.50157421875,14.24141796875,12.058359375,1.52728515625,11.51706640625,15.53609375,12.2619296875,-8.24889453125,15.324890625,6.52403515625,3.78832421875,1.27062109375,-1.22884765625,1.41130078125,5.87030078125,-3.57203125
8.34072265625,15.103984375,11.2426484375,6.7266796875,18.01779296875,20.27821875,20.3698828125,19.12226953125,11.26341796875,18.899734375,20.94796484375,23.812765625,-1.133203125,8.93598828125,19.61857421875,18.12241796875,13.749359375,6.47928515625,16.93506640625,20.70009375,15.6989296875,-2.97889453125,21.718890625,13.66903515625,10.60732421875,5.38062109375,8.09315234375,9.48330078125,13.78230078125,4.50096875
12.25772265625,16.218984375,12.6546484375,9.4626796875,20.99579296875,22.50821875,22.2858828125,18.83026953125,14.69541796875,22.789734375,23.70196484375,26.965765625,1.413796875,12.64798828125,23.83057421875,21.04941796875,14.635359375,11.07828515625,21.50106640625,25.16109375,18.0809296875,1.88610546875,27.319890625,20.19503515625,16.73832421875,8.65362109375,16.97915234375,17.17030078125,20.48230078125,11.53096875
14.22872265625,16.448984375,13.4906484375,11.7086796875,21.98479296875,22.86921875,22.5368828125,17.38126953125,17.51141796875,24.863734375,24.92196484375,27.190765625,3.449796875,15.33798828125,26.61957421875,22.57341796875,14.790359375,14.79228515625,24.72106640625,28.39909375,19.0969296875,5.87310546875,31.450890625,25.30903515625,21.34032421875,10.44362109375,24.30615234375,23.29630078125,24.85830078125,16.12396875
13.94972265625,16.132984375,13.6586484375,13.3176796875,21.12679296875,21.68921875,21.4138828125,15.45726953125,19.40041796875,25.062734375,24.65496484375,24.974765625,4.959796875,16.87398828125,27.75957421875,22.54341796875,14.335359375,17.21728515625,26.33606640625,30.09009375,18.6949296875,8.66610546875,33.653890625,28.42903515625,23.76032421875,10.34362109375,29.11515234375,26.86530078125,26.15030078125,17.20596875
11.89772265625,15.520984375,13.2856484375,14.2036796875,19.03379296875,19.60121875,19.4878828125,13.82726953125,20.14341796875,23.748734375,23.16396484375,21.545765625,5.945796875,17.29098828125,27.27657421875,21.08341796875,13.319359375,18.12628515625,26.34206640625,30.10609375,17.0639296875,10.00210546875,33.769890625,29.27803515625,23.70732421875,8.29462109375,30.82815234375,27.22030078125,24.14230078125,14.44896875
9.01272265625,14.624984375,12.5846484375,14.3296796875,16.46479296875,17.23621875,17.3248828125,12.98426953125,19.67541796875,21.483734375,20.77696484375,18.115765625,6.370796875,16.76198828125,25.35557421875,18.52841796875,11.740359375,17.51128515625,24.95906640625,28.51309375,14.5919296875,9.69610546875,32.007890625,27.93603515625,21.36032421875,4.65462109375,29.43815234375,24.24530078125,19.28630078125,8.54496875
6.27172265625,13.322984375,11.7116484375,13.7426796875,14.03879296875,15.03021875,15.3048828125,12.98626953125,18.16241796875,18.834734375,17.84096484375,15.340765625,6.211796875,15.55898828125,22.30757421875,15.37741796875,9.661359375,15.63228515625,22.61006640625,25.60709375,11.8059296875,7.82210546875,28.974890625,24.85903515625,17.38932421875,0.18462109375,25.58515234375,18.58730078125,12.66130078125,1.10096875
4.35272265625,11.596984375,10.7026484375,12.6166796875,12.09879296875,13.19821875,13.6088828125,13.53226953125,16.00041796875,16.267734375,14.76896484375,13.235765625,5.553796875,14.02098828125,18.60057421875,12.26541796875,7.327359375,12.99728515625,19.86706640625,21.93509375,9.2829296875,4.89910546875,25.560890625,20.82403515625,12.80532421875,-4.10437890625,20.41615234375,11.68230078125,5.72130078125,-5.91303125
3.49172265625,9.698984375,9.4816484375,11.2026796875,10.74879296875,11.80821875,12.2948828125,14.16326953125,13.69741796875,14.095734375,12.03096484375,11.482765625,4.605796875,12.47498828125,14.83957421875,9.84141796875,5.146359375,10.24028515625,17.31206640625,18.20009375,7.4869296875,1.85910546875,22.649890625,16.73003515625,8.63132421875,-7.25737890625,15.18515234375,5.38930078125,-0.17169921875,-10.95103125
3.49772265625,8.088984375,7.9466484375,9.7106796875,9.93779296875,10.83121875,11.3548828125,14.41326953125,11.64341796875,12.436734375,10.03496484375,9.834765625,3.604796875,11.13098828125,11.63157421875,8.54141796875,3.546359375,7.90228515625,15.33106640625,15.03309375,6.5919296875,-0.260894531249999,20.754890625,13.28803515625,5.52232421875,-8.72737890625,10.75115234375,1.28630078125,-4.22769921875,-13.51103125
3.87972265625,7.187984375,6.0906484375,8.2006796875,9.49779296875,10.13821875,10.6888828125,13.90726953125,9.91041796875,11.200734375,8.93796484375,8.354765625,2.682796875,10.00298828125,9.35957421875,8.34441796875,2.786359375,6.22528515625,13.94806640625,12.72309375,6.3789296875,-0.758894531249999,19.775890625,10.73903515625,3.50432421875,-8.59337890625,7.24115234375,-0.00569921875000023,-6.48269921875,-14.24003125
4.06072265625,7.102984375,4.1236484375,6.5806796875,9.16779296875,9.49921875,10.0658828125,12.45026953125,8.24941796875,10.109734375,8.51696484375,7.362765625,1.798796875,8.92198828125,8.00157421875,8.70041796875,2.835359375,5.07428515625,12.81106640625,11.07709375,6.3209296875,0.392105468750001,19.051890625,8.75603515625,2.00432421875,-7.48637890625,4.08615234375,0.93130078125,-7.68769921875,-14.45503125
3.61872265625,7.508984375,2.4456484375,4.7196796875,8.63979296875,8.62521875,9.1438828125,10.12726953125,6.29641796875,8.799734375,8.21496484375,7.141765625,0.800796875,7.63098828125,7.12757421875,8.73241796875,3.357359375,4.03628515625,11.35206640625,9.50709375,5.8119296875,2.50810546875,17.683890625,6.61103515625,0.15732421875,-6.30537890625,0.39515234375,2.62730078125,-8.88469921875,-15.40303125
2.44972265625,7.768984375,1.4376484375,2.5756796875,7.63779296875,7.26921875,7.5848828125,7.30026953125,3.84241796875,6.950734375,7.37096484375,7.627765625,-0.435203125,5.91898828125,6.06957421875,7.62841796875,3.803359375,2.64528515625,9.03306640625,7.30909375,4.4309296875,4.46610546875,14.964890625,3.52203515625,-2.77667578125,-5.85837890625,-4.55684765625,3.39930078125,-10.96069921875,-17.70703125
0.76172265625,7.240984375,1.2126484375,0.253679687499999,6.00679296875,5.34821875,5.2158828125,4.45026953125,0.998417968750001,4.433734375,5.52196484375,8.290765625,-1.872203125,3.71498828125,4.20157421875,5.00641796875,3.576359375,0.62428515625,5.59206640625,4.00209375,2.0799296875,5.16610546875,10.705890625,-0.96196484375,-7.08167578125,-6.61537890625,-10.95284765625,2.02230078125,-14.36169921875,-21.28203125
-1.03027734375,5.602984375,1.5186484375,-2.0043203125,3.82079296875,3.02421875,2.1668828125,1.96026953125,-1.81858203125,1.415734375,2.65496484375,8.366765625,-3.252203125,1.14298828125,1.23257421875,1.08441796875,2.247359375,-1.94971484375,1.18706640625,-0.42390625,-1.0270703125,3.93610546875,5.316890625,-6.71296484375,-12.46267578125,-8.61537890625,-18.32784765625,-1.89169921875,-19.02669921875,-25.58203125
-2.41127734375,3.027984375,1.8856484375,-3.8543203125,1.44479296875,0.731218750000002,-1.0881171875,0.00726953124999952,-4.02258203125,-1.618265625,-0.713035156249999,7.301765625,-4.165203125,-1.47901171875,-2.60942578125,-3.39558203125,-0.232640625,-4.64271484375,-3.59193359375,-5.43490625,-4.4540703125,0.751105468750001,-0.350109374999999,-13.00596484375,-18.12667578125,-11.49037890625,-25.69984765625,-7.84469921875,-24.42969921875,-29.84603125
-2.85627734375,0.137984375,1.8876484375,-4.8803203125,-0.500207031250001,-0.906781249999998,-3.7981171875,-1.36473046875,-5.05758203125,-3.975265625,-3.67703515625,5.122765625,-4.222203125,-3.70101171875,-6.57042578125,-7.40758203125,-3.428640625,-6.81671484375,-7.86993359375,-10.07990625,-7.6350703125,-3.79489453125,-5.290109375,-18.71696484375,-22.99067578125,-14.54637890625,-31.84484765625,-14.64069921875,-29.63869921875,-33.17403125
-1.97627734375,-2.190015625,1.3456484375,-4.6643203125,-1.33120703125,-1.26478125,-5.1371171875,-2.08373046875,-4.61058203125,-4.990265625,-5.25003515625,2.484765625,-3.248203125,-5.07001171875,-9.59542578125,-9.93458203125,-6.519640625,-7.89271484375,-10.74193359375,-13.26390625,-9.9400703125,-8.68189453125,-8.627109375,-22.64796484375,-25.94167578125,-16.90037890625,-35.58784765625,-20.70969921875,-33.42569921875,-34.55703125
0.25372265625,-3.111015625,0.387648437499999,-2.9363203125,-0.568207031250001,0.0552187500000016,-4.4721171875,-1.95073046875,-2.75958203125,-4.277265625,-4.72603515625,0.374765624999998,-1.401203125,-5.28501171875,-10.70542578125,-10.23858203125,-8.552640625,-7.56571484375,-11.55193359375,-14.08690625,-10.7490703125,-12.76089453125,-9.812109375,-23.86696484375,-26.10367578125,-17.66837890625,-36.07784765625,-24.51369921875,-34.52369921875,-33.04703125
3.33072265625,-2.123015625,-0.603351562500001,0.224679687499998,1.85779296875,3.04021875,-1.6221171875,-0.66373046875,0.0164179687499999,-1.911265625,-1.96903515625,-0.331234375000001,0.873796875,-4.31601171875,-9.40842578125,-8.08058203125,-8.779640625,-5.92171484375,-10.11493359375,-12.15290625,-9.5880703125,-15.11089453125,-8.726109375,-21.99896484375,-23.08467578125,-16.21937890625,-33.02684765625,-25.03169921875,-32.08269921875,-28.15303125
6.27472265625,0.699984375000001,-1.0783515625,4.2486796875,5.53979296875,7.20321875,2.9948828125,2.01726953125,2.98141796875,1.566734375,2.47196484375,0.796765624999999,3.004796875,-2.44301171875,-5.93742578125,-3.83258203125,-6.947640625,-3.41671484375,-6.81493359375,-7.75690625,-6.3190703125,-15.34789453125,-5.709109375,-17.38996484375,-17.16867578125,-12.45637890625,-26.86984765625,-22.19069921875,-26.12869921875,-20.26503125
7.97572265625,4.657984375,-0.486351562500001,8.1546796875,9.68479296875,11.67321875,8.3768828125,6.05426953125,5.37541796875,5.281734375,7.50196484375,3.617765625,4.507796875,-0.18101171875,-1.21642578125,1.55941796875,-3.431640625,-0.73271484375,-2.52193359375,-1.84990625,-1.3120703125,-13.77189453125,-1.514109375,-11.07496484375,-9.34067578125,-6.97937890625,-18.74684765625,-16.98569921875,-17.78269921875,-10.81603125
7.70872265625,8.656984375,1.5046484375,10.8836796875,13.30979296875,15.41421875,13.1578828125,10.96726953125,6.65841796875,8.292734375,11.83096484375,7.512765625,5.160796875,1.90098828125,3.47957421875,6.84141796875,0.856359375,1.43428515625,1.67406640625,4.24009375,4.5439296875,-11.20189453125,2.872890625,-4.46996484375,-1.07367578125,-1.00037890625,-10.22384765625,-11.13169921875,-8.97669921875,-1.95903125
5.54872265625,11.625984375,4.7596484375,11.7566796875,15.54679296875,17.57521875,16.0398828125,15.86526953125,6.70641796875,9.907734375,14.44396484375,11.596765625,5.090796875,3.41198828125,7.04357421875,10.86441796875,4.788359375,2.63428515625,4.86406640625,9.27709375,10.0709296875,-8.57389453125,6.558890625,1.12803515625,6.11932421875,4.03662109375,-2.79684765625,-6.32969921875,-1.73269921875,4.19796875
2.45172265625,12.942984375,8.5846484375,10.8046796875,15.96379296875,17.82921875,16.3258828125,19.70926953125,5.89741796875,9.955734375,14.99396484375,15.005765625,4.716796875,4.31298828125,8.99757421875,13.02441796875,7.468359375,2.85928515625,6.67706640625,12.57309375,14.2239296875,-6.48989453125,9.093890625,5.03303515625,11.19832421875,6.97162109375,2.61715234375,-3.51569921875,2.67530078125,6.46296875
-0.0722773437499997,12.642984375,11.9096484375,8.7696796875,14.77479296875,16.54921875,14.2938828125,21.70426953125,4.96741796875,8.888734375,13.93596484375,17.175765625,4.580796875,4.92698828125,9.65357421875,13.47741796875,8.597359375,2.56728515625,7.41906640625,14.21709375,16.4949296875,-4.97289453125,10.668890625,7.39203515625,13.92232421875,7.35062109375,5.96915234375,-2.48769921875,4.20530078125,5.06496875
-0.58727734375,11.328984375,13.7376484375,6.7596796875,12.79279296875,14.69621875,11.1838828125,21.61426953125,4.67241796875,7.616734375,12.32996484375,18.036765625,5.126796875,5.76798828125,9.89757421875,13.02241796875,8.558359375,2.48828515625,7.91006640625,14.95909375,17.0749296875,-3.56189453125,12.001890625,9.04303515625,14.83532421875,5.55262109375,7.98315234375,-2.12469921875,3.94130078125,1.48496875
1.62472265625,9.853984375,13.6416484375,5.7596796875,11.13479296875,13.42721875,8.7338828125,19.84526953125,5.42041796875,7.133734375,11.38896484375,18.028765625,6.529796875,7.26998828125,10.71457421875,12.70941796875,8.177359375,3.28928515625,9.08306640625,15.80809375,16.6889296875,-1.68089453125,13.959890625,11.04703515625,14.91132421875,2.56762109375,9.73415234375,-1.07369921875,3.45430078125,-2.27103125
6.16772265625,8.980984375,12.0046484375,6.2336796875,10.80879296875,13.63221875,8.4608828125,17.26226953125,7.11941796875,8.089734375,11.95696484375,17.896765625,8.641796875,9.58598828125,12.69157421875,13.34841796875,8.261359375,5.26328515625,11.53306640625,17.52409375,16.1979296875,0.932105468750001,17.092890625,14.13003515625,15.04932421875,-0.45637890625,12.06415234375,1.47030078125,3.96730078125,-4.62203125
11.61172265625,9.136984375,9.8086484375,7.9926796875,12.33679296875,15.57121875,11.0048828125,14.84826953125,9.30641796875,10.517734375,14.16596484375,18.326765625,11.042796875,12.51498828125,15.74557421875,15.15041796875,9.181359375,8.19528515625,15.21006640625,20.23909375,16.1689296875,3.98910546875,21.319890625,18.29103515625,15.63632421875,-2.70137890625,15.13115234375,5.30230078125,5.75330078125,-5.09803125
16.03372265625,10.339984375,8.0946484375,10.3326796875,15.53879296875,18.77421875,15.8078828125,13.35126953125,11.42241796875,13.817734375,17.38196484375,19.590765625,13.183796875,15.56598828125,19.16057421875,17.64341796875,10.693359375,11.44228515625,19.40006640625,23.36809375,16.5989296875,6.73510546875,25.881890625,22.73203515625,16.40332421875,-3.94637890625,18.30215234375,9.26730078125,8.04330078125,-4.45403125
17.85472265625,12.223984375,7.4176484375,12.3666796875,19.55179296875,22.19921875,21.3028828125,13.04526953125,13.04441796875,17.002734375,20.47096484375,21.350765625,14.582796875,18.11598828125,21.90357421875,19.89341796875,12.073359375,14.19628515625,22.99406640625,25.84509375,16.9509296875,8.30210546875,29.623890625,26.18703515625,16.61032421875,-4.52437890625,20.46415234375,11.81230078125,9.51630078125,-4.12903125
16.55572265625,14.141984375,7.6496484375,13.3996796875,23.09779296875,24.62521875,25.5168828125,13.70526953125,13.99141796875,19.090734375,22.25896484375,22.748765625,15.019796875,19.59798828125,23.05957421875,20.94041796875,12.470359375,15.82728515625,24.92506640625,26.60309375,16.4749296875,8.17210546875,31.472890625,27.46503515625,15.48932421875,-4.98037890625,20.60115234375,11.78330078125,9.08030078125,-5.34603125
12.90272265625,15.354984375,8.1876484375,13.1756796875,24.90979296875,25.10421875,26.8658828125,14.75326953125,14.28041796875,19.448734375,21.98596484375,22.769765625,14.632796875,19.68198828125,22.17557421875,20.22641796875,11.313359375,16.12928515625,24.58406640625,25.03409375,14.6649296875,6.51410546875,30.890890625,25.96703515625,12.67032421875,-5.68037890625,18.31215234375,9.05230078125,6.52130078125,-8.38703125
8.51472265625,15.267984375,8.3666484375,11.8826796875,24.15079296875,23.27721875,24.7558828125,15.49926953125,13.96841796875,17.949734375,19.55096484375,20.745765625,13.826796875,18.35098828125,19.37357421875,17.77441796875,8.562359375,15.36028515625,22.00106640625,21.22109375,11.5519296875,4.16210546875,28.065890625,21.89003515625,8.37432421875,-6.59437890625,13.99215234375,4.63330078125,2.61130078125,-12.47203125
5.00772265625,13.647984375,7.7866484375,9.9456796875,20.67979296875,19.44021875,19.7208828125,15.36026953125,13.02341796875,14.912734375,15.42596484375,16.732765625,13.052796875,15.84998828125,15.17957421875,14.04441796875,4.728359375,14.03528515625,17.72606640625,15.80709375,7.6899296875,2.22010546875,23.735890625,16.04903515625,3.26832421875,-7.37037890625,8.57615234375,0.16530078125,-1.35369921875,-16.28203125
3.17472265625,10.706984375,6.4156484375,7.7756796875,15.08779296875,14.35121875,13.0988828125,14.04026953125,11.32341796875,10.891734375,10.35496484375,11.524765625,12.569796875,12.54598828125,10.22557421875,9.60341796875,0.663359375,12.60028515625,12.51006640625,9.65209375,3.8559296875,1.46810546875,18.789890625,9.45003515625,-1.87567578125,-7.58837890625,3.04415234375,-2.95169921875,-4.27669921875,-18.72903125
2.68472265625,7.000984375,4.5306484375,5.6406796875,8.50979296875,8.92921875,6.4348828125,11.61326953125,8.80741796875,6.443734375,5.01396484375,6.297765625,12.330796875,8.76498828125,4.98457421875,4.86841796875,-2.771640625,11.18628515625,6.97106640625,3.48009375,0.6739296875,1.90310546875,13.866890625,2.87303515625,-6.48767578125,-7.01937890625,-2.02684765625,-4.28669921875,-5.81769921875,-19.48703125
2.41572265625,3.206984375,2.5546484375,3.6576796875,2.23779296875,3.94821875,0.932882812500001,8.43626953125,5.59841796875,1.968734375,-0.15803515625,2.076765625,12.020796875,4.70798828125,-0.302425781249999,0.0834179687499983,-5.031640625,9.55228515625,1.42406640625,-2.29190625,-1.6130703125,2.69410546875,9.165890625,-3.31396484375,-10.32467578125,-5.74337890625,-6.61284765625,-4.58369921875,-6.49769921875,-19.05403125
1.19472265625,-0.102015625,0.854648437499999,1.8396796875,-2.71320703125,-0.159781249999998,-2.8561171875,4.93326953125,1.98441796875,-2.330265625,-4.92603515625,-0.662234375000001,11.226796875,0.47198828125,-5.53042578125,-4.53458203125,-6.039640625,7.25728515625,-4.05593359375,-7.48790625,-3.1210703125,2.62110546875,4.522890625,-9.06796484375,-13.38267578125,-4.09937890625,-11.03284765625,-5.29869921875,-7.32769921875,-18.35703125
-1.52027734375,-2.588015625,-0.441351562500001,0.127679687499999,-5.90720703125,-3.33678125,-5.0371171875,1.44026953125,-1.66758203125,-6.369265625,-9.11403515625,-2.071234375,9.667796875,-3.82601171875,-10.52642578125,-8.65658203125,-6.100640625,3.97128515625,-9.39993359375,-11.97990625,-4.1160703125,0.79010546875,-0.271109374999998,-14.37796484375,-15.70367578125,-2.50237890625,-15.54084765625,-7.67769921875,-9.12469921875,-18.15003125
-5.34527734375,-4.150015625,-1.4773515625,-1.5453203125,-7.49020703125,-5.74378125,-6.1141171875,-1.73673046875,-4.98358203125,-10.037265625,-12.47003515625,-2.677234375,7.390796875,-7.90401171875,-14.89042578125,-11.83458203125,-5.625640625,-0.21671484375,-14.30193359375,-15.50090625,-4.7460703125,-2.75489453125,-5.104109375,-18.99296484375,-17.22067578125,-1.24037890625,-19.96784765625,-11.89469921875,-11.93569921875,-18.52803125
-9.15227734375,-4.828015625,-2.5223515625,-3.1653203125,-7.96220703125,-7.53278125,-6.6211171875,-4.15673046875,-7.59458203125,-13.076265625,-14.63103515625,-2.987234375,4.823796875,-11.26401171875,-17.98842578125,-13.60458203125,-4.874640625,-4.67971484375,-18.14593359375,-17.62990625,-4.9100703125,-6.91989453125,-9.369109375,-22.34696484375,-17.73667578125,-0.35237890625,-23.66284765625,-16.77169921875,-14.90669921875,-18.86803125
-11.56727734375,-4.695015625,-3.7323515625,-4.5533203125,-7.89720703125,-8.68178125,-6.8261171875,-5.22273046875,-9.16458203125,-15.090265625,-15.21203515625,-3.180234375,2.626796875,-13.31701171875,-19.15942578125,-13.63758203125,-3.859640625,-8.43871484375,-20.18293359375,-17.92490625,-4.3120703125,-10.05989453125,-12.136109375,-23.75696484375,-17.02667578125,0.371621093749999,-25.75384765625,-20.32669921875,-16.71869921875,-18.20903125
-11.56127734375,-3.799015625,-4.9963515625,-5.3903203125,-7.72020703125,-8.99878125,-6.6611171875,-4.43973046875,-9.49058203125,-15.694265625,-13.97903515625,-3.058234375,1.403796875,-13.61701171875,-18.03142578125,-11.85258203125,-2.431640625,-10.58271484375,-19.86793359375,-16.16590625,-2.6790703125,-10.81689453125,-12.595109375,-22.77096484375,-14.99467578125,1.27562109375,-25.59484765625,-20.80669921875,-16.30869921875,-15.81503125
-8.93927734375,-2.185015625,-5.9393515625,-5.3533203125,-7.56420703125,-8.26878125,-5.8501171875,-1.75073046875,-8.57558203125,-14.688265625,-11.01603515625,-2.233234375,1.440796875,-12.07701171875,-14.75742578125,-8.47958203125,-0.446640625,-10.66371484375,-17.15793359375,-12.52090625,0.0199296875000003,-8.79889453125,-10.495109375,-19.45096484375,-11.77667578125,2.66662109375,-23.10584765625,-17.58669921875,-13.41869921875,-11.56003125
-4.49427734375,0.0489843750000016,-6.0493515625,-4.2923203125,-7.19020703125,-6.39778125,-4.1351171875,2.32026953125,-6.61958203125,-12.151265625,-6.78203515625,-0.401234375000001,2.621796875,-9.01201171875,-10.02542578125,-4.02058203125,2.083359375,-8.85571484375,-12.58093359375,-7.55990625,3.4719296875,-4.73889453125,-6.291109375,-14.40996484375,-7.73567578125,4.65862109375,-18.82784765625,-11.43669921875,-8.70569921875,-5.97303125
0.27572265625,2.700984375,-4.8833515625,-2.3343203125,-6.08520703125,-3.48678125,-1.4641171875,6.86126953125,-3.94658203125,-8.418265625,-1.98803515625,2.458765625,4.510796875,-5.02001171875,-4.82242578125,0.847417968749999,4.928359375,-5.83171484375,-7.05193359375,-2.09790625,7.0929296875,-0.111894531249999,-0.979109374999998,-8.59296484375,-3.37267578125,7.09062109375,-13.68984765625,-4.11769921875,-3.44169921875,-0.044031249999998
3.82072265625,5.442984375,-2.3003515625,0.136679687499999,-3.79720703125,0.137218750000002,1.8978828125,10.91926953125,-0.943582031249999,-4.002265625,2.59096484375,6.002765625,6.538796875,-0.798011718749999,-0.108425781249998,5.40241796875,7.661359375,-2.48071484375,-1.55693359375,3.02809375,10.1909296875,3.52310546875,4.279890625,-2.95296484375,0.79932421875,9.54762109375,-8.64584765625,2.39230078125,0.97930078125,5.05696875
5.23072265625,7.845984375,1.3536484375,2.6066796875,-0.33920703125,3.95021875,5.3518828125,13.80226953125,1.96541796875,0.472734375,6.28896484375,9.589765625,8.199796875,3.03698828125,3.45657421875,8.98741796875,9.764359375,0.41228515625,3.13706640625,7.16009375,12.1649296875,5.15710546875,8.570890625,1.83403515625,4.36132421875,11.48562109375,-4.34784765625,6.69630078125,3.55030078125,8.29596875
4.57572265625,9.465984375,5.2566484375,4.6096796875,3.63679296875,7.30121875,8.1028828125,15.17126953125,4.36941796875,4.366734375,8.66096484375,12.447765625,9.207796875,6.07798828125,5.64757421875,11.12341796875,10.785359375,2.42728515625,6.66206640625,9.96209375,12.6629296875,4.75510546875,11.527890625,5.52803515625,7.07832421875,12.44862109375,-0.94884765625,8.52630078125,4.04230078125,9.12796875
2.75172265625,9.975984375,8.3886484375,5.8676796875,7.07479296875,9.57421875,9.4278828125,14.97026953125,5.96541796875,7.165734375,9.55396484375,13.907765625,9.554796875,8.19598828125,6.67457421875,11.63341796875,10.502359375,3.62728515625,9.08306640625,11.47809375,11.6949296875,3.27110546875,13.426890625,8.32503515625,8.95232421875,12.25362109375,1.89615234375,8.81230078125,3.11630078125,7.74796875
0.92672265625,9.297984375,9.9416484375,6.3366796875,9.00279296875,10.37521875,8.9718828125,13.32826953125,6.64841796875,8.617734375,9.14096484375,13.595765625,9.448796875,9.50598828125,7.01957421875,10.71941796875,9.010359375,4.46428515625,10.75306640625,12.05909375,9.6309296875,2.18510546875,14.968890625,10.66903515625,10.19432421875,11.05662109375,4.79215234375,9.13930078125,2.00030078125,5.03096875
-0.0432773437499998,7.665984375,9.6476484375,6.1626796875,8.99779296875,9.68221875,6.9338828125,10.55626953125,6.53141796875,8.778734375,7.87796484375,11.541765625,9.139796875,10.22998828125,7.17957421875,8.92541796875,6.693359375,5.47528515625,12.03606640625,12.16709375,7.0789296875,2.70110546875,16.809890625,12.93803515625,11.08632421875,9.24162109375,8.20615234375,10.83430078125,1.84930078125,2.12496875
0.0627226562500001,5.580984375,7.8806484375,5.5786796875,7.35479296875,7.86921875,4.0368828125,7.23626953125,5.86441796875,7.951734375,6.36396484375,8.227765625,8.755796875,10.53698828125,7.41257421875,6.99341796875,4.093359375,6.94728515625,13.04306640625,12.14509375,4.6739296875,5.05610546875,19.121890625,15.17903515625,11.80432421875,7.21062109375,12.11215234375,14.19230078125,3.15830078125,-0.0490312499999987
0.91772265625,3.678984375,5.4846484375,4.8306796875,4.92979296875,5.58221875,1.2798828125,4.22426953125,4.93441796875,6.565734375,5.16296484375,4.548765625,8.263796875,10.46498828125,7.63857421875,5.66041796875,1.745359375,8.74328515625,13.57306640625,12.09409375,2.8809296875,8.38310546875,21.460890625,17.06003515625,12.34032421875,5.23462109375,15.94215234375,18.34530078125,5.61730078125,-1.08003125
1.96972265625,2.548984375,3.4376484375,4.1256796875,2.75679296875,3.52021875,-0.430117187499999,2.44126953125,3.98341796875,5.072734375,4.64396484375,1.625765625,7.587796875,9.98798828125,7.55957421875,5.45441796875,0.0493593749999999,10.39628515625,13.29106640625,11.92809375,1.8929296875,11.22910546875,23.039890625,18.09003515625,12.56132421875,3.45362109375,18.88315234375,21.84130078125,8.42530078125,-1.00903125
2.76972265625,2.539984375,2.4506484375,3.6236796875,1.64879296875,2.20821875,-0.6131171875,2.46626953125,3.19741796875,3.875734375,4.90096484375,0.413765624999998,6.750796875,9.13898828125,6.90957421875,6.51141796875,-0.779640625,11.38528515625,12.03306640625,11.52609375,1.6409296875,12.38810546875,23.228890625,17.93903515625,12.34832421875,1.96262109375,20.30315234375,23.52030078125,10.79430078125,-0.124031249999998
3.09672265625,3.612984375,2.6676484375,3.4046796875,1.91079296875,1.86521875,0.628882812500001,4.19926953125,2.68841796875,3.264734375,5.74296484375,1.232765625,5.921796875,8.07798828125,5.66357421875,8.46341796875,-0.716640625,11.40928515625,9.97506640625,10.83109375,1.8519296875,11.52110546875,21.920890625,16.63003515625,11.67332421875,0.880621093749999,20.03415234375,23.11330078125,12.28830078125,1.21196875
2.89572265625,5.303984375,3.6156484375,3.4196796875,3.24679296875,2.35921875,2.6768828125,6.83026953125,2.44441796875,3.319734375,6.75596484375,3.519765625,5.292796875,7.01998828125,4.03957421875,10.46641796875,0.0753593750000006,10.49728515625,7.57006640625,9.83509375,2.1359296875,9.23110546875,19.578890625,14.48903515625,10.56832421875,0.292621093749999,18.36415234375,21.23030078125,12.85130078125,2.58996875
2.16572265625,6.869984375,4.4906484375,3.4666796875,4.88879296875,3.27421875,4.6448828125,9.20626953125,2.25341796875,3.835734375,7.42996484375,6.065765625,4.892796875,6.08698828125,2.33057421875,11.46241796875,1.268359375,8.93328515625,5.29306640625,8.49209375,2.0679296875,6.60810546875,16.944890625,11.93703515625,9.04732421875,0.161621093749999,15.79715234375,18.84330078125,12.60330078125,3.55096875
0.94272265625,7.572984375,4.6236484375,3.2636796875,5.91479296875,4.04621875,5.6988828125,10.38226953125,1.72941796875,4.368734375,7.30796484375,7.648765625,4.508796875,5.21198828125,0.69157421875,10.59141796875,2.446359375,7.06528515625,3.40906640625,6.68909375,1.3029296875,4.57310546875,14.646890625,9.27403515625,7.07332421875,0.276621093749999,12.79415234375,16.67030078125,11.64730078125,3.66196875
-0.65427734375,6.967984375,3.8666484375,2.6056796875,5.64979296875,4.16621875,5.3258828125,10.04926953125,0.501417968750001,4.397734375,6.12996484375,7.651765625,3.805796875,4.18298828125,-0.944425781249999,7.57541796875,3.235359375,5.14028515625,1.87906640625,4.31009375,-0.3020703125,3.42110546875,12.915890625,6.60303515625,4.60632421875,0.32562109375,9.61715234375,14.85130078125,10.00430078125,2.67796875
-2.41227734375,5.057984375,2.6196484375,1.4726796875,3.95079296875,3.35621875,3.4628828125,8.59326953125,-1.54358203125,3.549734375,3.89696484375,6.232765625,2.564796875,2.79598828125,-2.77942578125,2.87741796875,3.430359375,3.25628515625,0.461066406250001,1.36809375,-2.5980703125,2.80110546875,11.564890625,3.88003515625,1.69632421875,0.0426210937499993,6.33615234375,13.03630078125,7.68530078125,0.678968750000001
-4.07727734375,2.285984375,1.5326484375,0.0586796874999989,1.25879296875,1.67721875,0.4928828125,6.80226953125,-4.12258203125,1.777734375,0.907964843750001,4.040765625,0.870796875,1.00998828125,-4.94442578125,-2.42858203125,3.054359375,1.44228515625,-1.08093359375,-1.90090625,-5.1450703125,2.10410546875,10.189890625,1.04903515625,-1.43367578125,-0.63237890625,2.96215234375,10.78630078125,4.81030078125,-1.92603125
-5.38827734375,-0.593015625,1.0736484375,-1.3053203125,-1.60120703125,-0.474781249999998,-2.8421171875,5.43326953125,-6.64158203125,-0.585265625,-2.25603515625,1.814765625,-0.883203125,-0.98401171875,-7.31542578125,-7.01058203125,2.356359375,-0.21971484375,-2.77893359375,-5.02290625,-7.3240703125,0.949105468750001,8.475890625,-1.83396484375,-4.38067578125,-1.48137890625,-0.40584765625,7.97230078125,1.67330078125,-4.56703125
-6.08827734375,-2.746015625,1.2636484375,-2.2643203125,-3.74920703125,-2.50478125,-5.6351171875,4.88526953125,-8.44758203125,-2.933265625,-4.85803515625,0.130765624999999,-2.193203125,-2.83901171875,-9.46542578125,-9.71658203125,1.719359375,-1.54171484375,-4.41393359375,-7.40490625,-8.5180703125,-0.577894531249999,6.406890625,-4.55296484375,-6.65767578125,-2.08637890625,-3.51984765625,4.91130078125,-1.30269921875,-6.72503125
-5.92827734375,-3.555015625,1.7036484375,-2.5633203125,-4.58620703125,-3.83878125,-7.0871171875,5.09626953125,-9.09458203125,-4.624265625,-6.23703515625,-0.697234375000001,-2.739203125,-4.21501171875,-10.82842578125,-9.95458203125,1.498359375,-2.31271484375,-5.64293359375,-8.54990625,-8.3280703125,-2.06989453125,4.270890625,-6.80796484375,-7.86967578125,-2.04137890625,-6.07684765625,2.15830078125,-3.70169921875,-8.10903125
-4.74327734375,-2.848015625,1.8896484375,-2.1253203125,-4.00020703125,-4.12378125,-6.7731171875,5.67526953125,-8.47758203125,-5.231265625,-6.04903515625,-0.588234375000001,-2.572203125,-4.91501171875,-10.94842578125,-7.84758203125,1.877359375,-2.41771484375,-6.18593359375,-8.25590625,-6.7120703125,-3.12389453125,2.497890625,-8.34096484375,-7.87567578125,-1.17137890625,-7.86184765625,0.14930078125,-5.26369921875,-8.66103125
-2.55927734375,-0.922015624999998,1.6146484375,-1.0353203125,-2.33720703125,-3.31278125,-4.7701171875,6.17526953125,-6.80358203125,-4.659265625,-4.37903515625,0.403765624999998,-2.100203125,-4.91501171875,-9.69142578125,-4.11158203125,2.818359375,-1.89571484375,-5.95093359375,-6.68090625,-3.9730703125,-3.60489453125,1.448890625,-9.02496484375,-6.83067578125,0.38362109375,-8.82784765625,-1.01969921875,-5.93169921875,-8.43603125
0.29672265625,1.632984375,1.1926484375,0.550679687499999,-0.170207031250001,-1.61478125,-1.6131171875,6.36126953125,-4.45158203125,-3.128265625,-1.68603515625,2.178765625,-1.879203125,-4.29301171875,-7.28242578125,0.235417968749999,4.135359375,-0.91171484375,-5.03493359375,-4.26190625,-0.6290703125,-3.68489453125,1.273890625,-8.88396484375,-5.10567578125,2.24262109375,-9.09584765625,-1.58469921875,-5.81469921875,-7.48703125
3.16172265625,4.186984375,1.2966484375,2.4696796875,1.99779296875,0.600218750000002,1.8728828125,6.29926953125,-1.84158203125,-1.062265625,1.33996484375,4.586765625,-2.340203125,-3.18301171875,-4.23942578125,4.16541796875,5.596359375,0.317285156250001,-3.66693359375,-1.56990625,2.7429296875,-3.73289453125,1.859890625,-8.07996484375,-3.16467578125,3.93862109375,-8.89784765625,-1.93969921875,-5.11469921875,-5.90103125
5.13072265625,6.249984375,2.5166484375,4.5146796875,3.88179296875,2.86521875,4.7818828125,6.21826953125,0.629417968750001,1.017734375,3.94096484375,7.304765625,-3.588203125,-1.76301171875,-1.22142578125,6.85141796875,6.973359375,1.57628515625,-2.13893359375,0.841093750000001,5.6119296875,-4.09689453125,2.891890625,-6.88896484375,-1.45467578125,5.07362109375,-8.52184765625,-2.43969921875,-4.08469921875,-3.92803125
5.36572265625,7.504984375,4.9026484375,6.3546796875,5.36079296875,4.65121875,6.3378828125,6.23226953125,2.58541796875,2.588734375,5.46896484375,9.738765625,-5.335203125,-0.26701171875,1.13157421875,7.80641796875,7.999359375,2.70928515625,-0.72493359375,2.54509375,7.5399296875,-4.85889453125,4.017890625,-5.62196484375,-0.29967578125,5.41762109375,-8.20984765625,-3.19569921875,-2.95269921875,-2.01803125
3.52072265625,7.734984375,7.7686484375,7.5226796875,6.26779296875,5.40321875,6.0548828125,6.12526953125,3.69441796875,3.208734375,5.51896484375,11.046765625,-6.996203125,1.03098828125,2.34957421875,6.93541796875,8.304359375,3.66028515625,0.38506640625,3.32409375,8.2019296875,-5.68689453125,5.033890625,-4.52596484375,0.16632421875,4.93762109375,-8.04184765625,-3.96469921875,-1.84569921875,-0.648031249999999
0.0537226562500002,6.736984375,9.8536484375,7.5336796875,6.23279296875,4.63421875,3.8138828125,5.36726953125,3.72141796875,2.573734375,3.98296484375,10.378765625,-7.931203125,1.86398828125,2.23157421875,4.48241796875,7.402359375,4.47128515625,1.11506640625,3.16409375,7.3999296875,-5.92889453125,5.984890625,-3.70996484375,-0.00367578124999979,3.73262109375,-7.89584765625,-4.19469921875,-0.73769921875,-0.0900312499999991
-3.84627734375,4.366984375,9.7976484375,6.1036796875,4.73579296875,2.07021875,-0.157117187499999,3.35726953125,2.57641796875,0.580734375,1.03596484375,7.219765625,-7.756203125,2.04298828125,0.866574218750001,0.905417968749999,4.830359375,5.23928515625,1.47706640625,2.23009375,5.1099296875,-4.92589453125,7.098890625,-3.12596484375,-0.63067578125,1.95062109375,-7.49784765625,-3.26269921875,0.52230078125,-0.273031249999999
-6.78327734375,0.712984375000001,6.7706484375,3.3406796875,1.43479296875,-2.14778125,-5.3121171875,-0.23073046875,0.376417968750001,-2.587265625,-2.87703515625,1.703765625,-6.553203125,1.53298828125,-1.38842578125,-3.20958203125,0.411359375,6.06028515625,1.56606640625,0.84509375,1.5699296875,-2.35889453125,8.643890625,-2.57696484375,-1.43267578125,-0.234378906250001,-6.48984765625,-0.74069921875,2.17130078125,-0.774031249999998
-7.82327734375,-3.721015625,0.946648437499999,-0.195320312500002,-3.43220703125,-7.33978125,-10.8121171875,-5.17573046875,-2.52158203125,-6.382265625,-7.04503515625,-5.285234375,-4.826203125,0.53198828125,-3.95242578125,-7.17958203125,-5.485640625,7.00328515625,1.57706640625,-0.51090625,-2.6320703125,1.59010546875,10.791890625,-1.73396484375,-2.01567578125,-2.53537890625,-4.47584765625,3.43130078125,4.51330078125,-0.868031249999998
-6.90627734375,-8.035015625,-6.4163515625,-3.6423203125,-8.87020703125,-12.36978125,-15.6291171875,-10.68473046875,-5.50558203125,-9.944265625,-10.59703515625,-12.295234375,-3.239203125,-0.53701171875,-6.13442578125,-10.26758203125,-11.871640625,8.10428515625,1.79006640625,-1.27890625,-6.5930703125,6.30910546875,13.550890625,-0.196964843749999,-1.88267578125,-4.47437890625,-1.08984765625,8.92130078125,7.85530078125,0.341968750000001
-4.75527734375,-11.216015625,-13.3873515625,-6.1113203125,-13.40620703125,-15.99278125,-18.7721171875,-15.63173046875,-7.82558203125,-12.350265625,-12.73503515625,-17.739234375,-2.302203125,-1.17301171875,-7.31842578125,-11.83858203125,-17.355640625,9.36028515625,2.47906640625,-0.99790625,-9.3030703125,11.01710546875,16.744890625,2.35603515625,-0.58867578125,-5.44437890625,3.85415234375,15.07030078125,12.32930078125,3.60396875
-2.40427734375,-12.532015625,-18.0683515625,-6.9903203125,-15.71520703125,-17.33078125,-19.5901171875,-18.95373046875,-8.82758203125,-12.965265625,-13.01303515625,-20.399234375,-2.187203125,-0.98601171875,-7.17542578125,-11.57958203125,-20.579640625,10.72328515625,3.78306640625,0.491093750000001,-9.9970703125,15.08110546875,20.044890625,5.97603515625,2.02732421875,-4.96137890625,10.17415234375,21.06530078125,17.65530078125,9.03996875
-0.69227734375,-11.790015625,-19.2573515625,-6.1253203125,-15.21120703125,-16.20078125,-17.9851171875,-20.00673046875,-8.21858203125,-11.678265625,-11.47903515625,-19.796234375,-2.729203125,0.14698828125,-5.76242578125,-9.62758203125,-20.695640625,12.11328515625,5.62106640625,2.95709375,-8.4460703125,18.22210546875,23.040890625,10.33203515625,5.66932421875,-2.95037890625,17.22315234375,26.12630078125,23.02730078125,15.79396875
0.01872265625,-9.335015625,-16.7843515625,-3.8263203125,-12.25720703125,-13.11278125,-14.4171171875,-18.71673046875,-6.19958203125,-8.888265625,-8.60603515625,-16.290234375,-3.539203125,2.07398828125,-3.45742578125,-6.52558203125,-17.668640625,13.43528515625,7.70906640625,5.86609375,-5.0520703125,20.48010546875,25.331890625,14.74703515625,9.62132421875,0.11862109375,23.97115234375,29.64930078125,27.28430078125,22.14896875
-0.17027734375,-5.868015625,-11.4613515625,-0.745320312500001,-7.91920703125,-9.00378125,-9.7211171875,-15.51573046875,-3.39658203125,-5.308265625,-5.08603515625,-10.896234375,-4.161203125,4.43898828125,-0.799425781249999,-3.00858203125,-12.297640625,14.56828515625,9.64106640625,8.58209375,-0.6750703125,21.92010546875,26.597890625,18.38103515625,13.00432421875,3.38162109375,29.27415234375,31.19230078125,29.34730078125,26.20996875
-0.85827734375,-2.204015625,-4.7393515625,2.3076796875,-3.50220703125,-4.87478125,-4.8371171875,-11.16473046875,-0.620582031249999,-1.711265625,-1.61203515625,-4.922234375,-4.242203125,6.76898828125,1.68157421875,0.263417968749999,-5.950640625,15.32228515625,10.99606640625,10.58309375,3.7009296875,22.32610546875,26.626890625,20.48703515625,15.11132421875,5.95562109375,32.19815234375,30.40430078125,28.68130078125,26.79396875
-1.53227734375,0.930984375000001,1.7366484375,4.5476796875,-0.0942070312500007,-1.50878125,-0.5841171875,-6.54173046875,1.39341796875,1.251734375,1.27696484375,0.420765625,-3.685203125,8.55498828125,3.55257421875,2.89041796875,-0.106640625,15.41428515625,11.41706640625,11.57709375,7.2889296875,21.14810546875,25.324890625,20.62403515625,15.63732421875,7.29662109375,32.28115234375,27.04930078125,25.50030078125,23.94396875
-1.73927734375,3.039984375,6.5236484375,5.4156796875,1.73879296875,0.674218750000001,2.4668828125,-2.45373046875,2.21441796875,3.153734375,3.23696484375,4.303765625,-2.716203125,9.33998828125,4.52057421875,4.73841796875,4.107359375,14.52728515625,10.67106640625,11.50709375,9.6719296875,17.82310546875,22.713890625,18.75703515625,14.69832421875,7.36662109375,29.61015234375,21.17730078125,20.61430078125,18.78096875
-1.22727734375,3.906984375,8.7206484375,4.7726796875,2.06879296875,1.65521875,4.0428828125,0.53926953125,1.82541796875,3.841734375,4.11696484375,6.357765625,-1.785203125,8.84398828125,4.45657421875,5.81241796875,6.223359375,12.46328515625,8.70706640625,10.48409375,10.8049296875,12.28510546875,18.965890625,15.23703515625,12.68832421875,6.55062109375,24.76315234375,13.35330078125,15.08230078125,12.88796875
-0.0362773437500001,3.600984375,8.2036484375,3.0006796875,1.48979296875,1.73921875,4.2018828125,2.25226953125,0.587417968750001,3.456734375,3.96796484375,6.644765625,-1.327203125,7.10398828125,3.44457421875,6.13041796875,6.475359375,9.30828515625,5.70306640625,8.73909375,10.9189296875,5.31310546875,14.443890625,10.70503515625,10.11132421875,5.44062109375,18.65715234375,4.75130078125,9.93230078125,7.70296875
1.51572265625,2.450984375,5.6836484375,0.853679687499999,0.812792968749999,1.41621875,3.3548828125,2.85726953125,-0.934582031249999,2.386734375,3.08296484375,5.592765625,-1.530203125,4.50598828125,1.81157421875,5.73841796875,5.588359375,5.49128515625,2.09606640625,6.62309375,10.3929296875,-1.56489453125,9.712890625,5.95303515625,7.45932421875,4.61762109375,12.35915234375,-3.04969921875,6.00730078125,4.15796875
2.96572265625,0.984984375000001,2.4766484375,-0.889320312500002,0.684792968749999,1.18821875,2.2108828125,2.74326953125,-2.22558203125,1.139734375,2.00196484375,3.943765625,-2.279203125,1.68898828125,0.092574218750002,4.82541796875,4.428359375,1.65328515625,-1.48493359375,4.59109375,9.6629296875,-6.65389453125,5.447890625,1.74403515625,5.15332421875,4.49762109375,6.85215234375,-8.56369921875,3.84830078125,2.57496875
3.90872265625,-0.183015624999999,0.0336484374999992,-1.7763203125,1.34879296875,1.43121875,1.5788828125,2.32326953125,-3.01758203125,0.199734375,1.40996484375,2.588765625,-3.264203125,-0.68301171875,-1.07842578125,3.81041796875,3.686359375,-1.58471484375,-4.36193359375,3.13309375,9.1389296875,-8.84089453125,2.259890625,-1.35796484375,3.51032421875,5.26562109375,2.77915234375,-10.97169921875,3.55830078125,2.72796875
4.15472265625,-0.535015625,-0.603351562500001,-1.8113203125,2.65379296875,2.33021875,2.0528828125,1.91626953125,-3.32758203125,-0.0842656249999987,1.90696484375,2.253765625,-4.165203125,-2.12701171875,-1.15742578125,3.25541796875,3.695359375,-3.81171484375,-5.98493359375,2.63109375,9.1129296875,-8.07489453125,0.518890625000001,-3.11296484375,2.71132421875,6.85062109375,0.30015234375,-10.44469921875,4.73630078125,4.00896875
3.78472265625,0.166984375,0.807648437499999,-1.3343203125,4.22879296875,3.85721875,3.7408828125,1.72126953125,-3.33358203125,0.440734375,3.73796484375,3.168765625,-4.773203125,-2.45901171875,0.110574218750001,3.61341796875,4.422359375,-4.87771484375,-6.09293359375,3.19709375,9.6689296875,-5.31389453125,0.241890625000002,-3.62396484375,2.76932421875,8.95862109375,-0.88284765625,-8.00969921875,6.58730078125,5.64396875
3.11472265625,1.770984375,3.6486484375,-0.750320312500001,5.66679296875,5.76521875,6.1868828125,1.81826953125,-3.20858203125,1.694734375,6.61896484375,4.978765625,-5.022203125,-1.78701171875,2.53757421875,4.95641796875,5.564359375,-4.84271484375,-4.79493359375,4.59109375,10.6349296875,-2.01689453125,1.092890625,-3.25796484375,3.50632421875,11.13062109375,-1.34384765625,-5.05169921875,8.18530078125,6.87596875
2.59072265625,3.767984375,6.7116484375,-0.317320312500001,6.62379296875,7.60721875,8.5468828125,2.15426953125,-2.99358203125,3.342734375,9.76496484375,6.950765625,-4.953203125,-0.43601171875,5.49957421875,6.85841796875,6.685359375,-3.89071484375,-2.55793359375,6.25309375,11.6169296875,0.513105468750001,2.516890625,-2.51396484375,4.57432421875,12.85362109375,-1.69784765625,-2.73769921875,8.78530078125,7.09196875
2.60372265625,5.481984375,8.6996484375,-0.0653203125000017,6.87979296875,8.85521875,9.9508828125,2.55326953125,-2.58658203125,4.863734375,12.16696484375,8.304765625,-4.647203125,1.19098828125,8.14857421875,8.55641796875,7.357359375,-2.27871484375,-0.0629335937499995,7.51309375,12.1449296875,1.60710546875,3.958890625,-1.84296484375,5.54632421875,13.69162109375,-2.37884765625,-1.64769921875,8.05830078125,5.92496875
3.28072265625,6.352984375,8.7956484375,0.135679687499999,6.44279296875,9.13121875,9.9018828125,2.79726953125,-1.82458203125,5.776734375,13.04596484375,8.502765625,-4.156203125,2.78598828125,9.79257421875,9.34141796875,7.302359375,-0.28971484375,2.07806640625,7.90709375,11.8729296875,1.36810546875,5.085890625,-1.45696484375,6.07632421875,13.42062109375,-3.48284765625,-1.70569921875,6.20530078125,3.40496875
4.39272265625,6.207984375,7.0696484375,0.471679687499999,5.66579296875,8.46921875,8.5238828125,2.78726953125,-0.58658203125,5.930734375,12.28196484375,7.438765625,-3.466203125,4.28598828125,10.25357421875,8.98041796875,6.524359375,1.83328515625,3.59906640625,7.45809375,10.7759296875,0.47410546875,5.931890625,-1.19696484375,6.07532421875,12.11562109375,-4.67884765625,-2.34069921875,3.92430078125,0.0979687500000015
5.49072265625,5.352984375,4.4886484375,1.1096796875,5.22879296875,7.40621875,6.5428828125,2.64626953125,1.12541796875,5.659734375,10.52796484375,5.543765625,-2.505203125,5.88598828125,9.97457421875,7.88941796875,5.361359375,3.95028515625,4.69806640625,6.71209375,9.2149296875,-0.175894531249999,6.856890625,-0.576964843749999,5.79032421875,10.14362109375,-5.28384765625,-2.73169921875,2.24830078125,-2.90603125
6.19872265625,4.425984375,2.4876484375,2.1706796875,5.87679296875,6.78921875,5.0008828125,2.67926953125,3.16841796875,5.629734375,8.90196484375,3.711765625,-1.200203125,7.88298828125,9.76657421875,6.91641796875,4.389359375,6.03328515625,5.87206640625,6.46109375,7.8049296875,0.17910546875,8.352890625,0.985035156250001,5.70832421875,8.04262109375,-4.50784765625,-2.06169921875,2.23330078125,-4.30103125
6.41172265625,4.072984375,2.2676484375,3.7256796875,7.98679296875,7.34521875,4.8238828125,3.14126953125,5.29141796875,6.449734375,8.40696484375,2.961765625,0.448796875,10.42098828125,10.33257421875,6.85441796875,4.160359375,8.10528515625,7.57406640625,7.28909375,7.1479296875,1.89610546875,10.758890625,3.81303515625,6.30332421875,6.33262109375,-1.80884765625,0.21930078125,4.55530078125,-3.11103125
6.29372265625,4.625984375,4.2106484375,5.7586796875,11.24079296875,9.25421875,6.4138828125,3.98026953125,7.19941796875,8.256734375,9.42196484375,3.927765625,2.325796875,13.29498828125,11.83957421875,7.97441796875,4.915359375,10.13628515625,9.89006640625,9.20409375,7.5259296875,4.81610546875,14.031890625,7.72603515625,7.76732421875,5.32662109375,2.81515234375,4.17430078125,9.16230078125,0.773968750000002
6.10372265625,5.941984375,7.6746484375,8.1166796875,14.64779296875,11.95921875,9.4268828125,4.75626953125,8.60141796875,10.551734375,11.51096484375,6.434765625,4.200796875,15.93298828125,13.79257421875,9.86241796875,6.431359375,11.97728515625,12.42106640625,11.57509375,8.7219296875,8.31810546875,17.670890625,11.99503515625,9.85432421875,4.99062109375,8.70415234375,9.26030078125,15.12330078125,6.38696875
5.99972265625,7.450984375,11.2546484375,10.4546796875,16.91679296875,14.32821875,12.8368828125,4.83726953125,9.22741796875,12.350734375,13.61996484375,9.463765625,5.788796875,17.56998828125,15.25057421875,11.59141796875,8.125359375,13.34528515625,14.40806640625,13.37309375,10.0669296875,11.52910546875,20.839890625,15.56103515625,11.90632421875,4.93762109375,14.67115234375,14.40130078125,20.82430078125,11.92896875
5.95172265625,8.414984375,13.3486484375,12.2536796875,16.97979296875,15.09721875,15.2948828125,3.78826953125,8.84541796875,12.612734375,14.54696484375,11.549765625,6.818796875,17.53498828125,15.26157421875,12.14541796875,9.343359375,13.88628515625,15.04206640625,13.61109375,10.6989296875,13.61510546875,22.629890625,17.39503515625,13.08832421875,4.57562109375,19.34215234375,18.28130078125,24.49830078125,15.40096875
5.78272265625,8.277984375,12.8196484375,12.9576796875,14.40379296875,13.40821875,15.6488828125,1.67426953125,7.32641796875,10.723734375,13.47496484375,11.476765625,7.110796875,15.53598828125,13.31257421875,10.89741796875,9.672359375,13.30828515625,13.82406640625,11.77509375,9.9559296875,14.05710546875,22.400890625,16.90103515625,12.74632421875,3.41262109375,21.64615234375,19.83030078125,24.94130078125,15.42496875
5.32172265625,6.932984375,9.4986484375,12.2236796875,9.56079296875,9.21621875,13.4158828125,-0.902730468750001,4.76241796875,6.825734375,10.32796484375,8.887765625,6.642796875,11.84598828125,9.61157421875,7.92041796875,9.104359375,11.53328515625,10.83006640625,8.09009375,7.7279296875,12.82510546875,20.064890625,14.19503515625,10.76632421875,1.40762109375,21.26415234375,18.69130078125,22.13230078125,11.95596875
4.58572265625,4.743984375,4.3286484375,10.1656796875,3.52579296875,3.37321875,9.0088828125,-3.06873046875,1.59341796875,1.829734375,5.81096484375,4.500765625,5.596796875,7.29398828125,5.06057421875,4.00341796875,8.001359375,8.82328515625,6.76306640625,3.49109375,4.5689296875,10.41110546875,16.206890625,10.14103515625,7.73732421875,-0.872378906250001,18.82315234375,15.46630078125,17.38030078125,6.50696875
3.82072265625,2.353984375,-0.971351562500001,7.4076796875,-2.25120703125,-2.64578125,3.5988828125,-4.10373046875,-1.41558203125,-2.896265625,1.11796484375,-0.219234375000001,4.341796875,3.03998828125,0.946574218750001,0.323417968749999,6.896359375,5.76228515625,2.73306640625,-0.70990625,1.4879296875,7.68910546875,11.926890625,6.06503515625,4.76432421875,-2.42437890625,15.68415234375,11.53930078125,12.83330078125,1.62796875
3.36272265625,0.403984375,-4.6273515625,4.8806796875,-6.40920703125,-7.31178125,-1.3231171875,-3.78873046875,-3.40058203125,-6.037265625,-2.53703515625,-3.738234375,3.335796875,0.17898828125,-1.56042578125,-2.04058203125,6.254359375,3.08628515625,-0.15393359375,-3.31890625,-0.5070703125,5.60710546875,8.440890625,3.26703515625,3.00532421875,-2.27737890625,13.37915234375,8.52930078125,10.52130078125,-0.213031249999998
3.39772265625,-0.656015624999998,-5.6013515625,3.4056796875,-8.12720703125,-9.62578125,-4.4941171875,-2.48073046875,-3.76358203125,-6.825265625,-4.37003515625,-5.112234375,2.931796875,-0.67001171875,-1.85242578125,-2.52958203125,6.307359375,1.37828515625,-1.21793359375,-3.71090625,-0.849070312499999,4.78310546875,6.592890625,2.51703515625,3.13332421875,-0.0193789062500009,12.95215234375,7.58330078125,11.41030078125,2.18596875
3.83072265625,-0.678015624999999,-4.0443515625,3.2936796875,-7.38920703125,-9.50478125,-5.3341171875,-0.88873046875,-2.48158203125,-5.331265625,-4.28903515625,-4.280234375,3.192796875,0.36798828125,-0.115425781249998,-1.28058203125,7.005359375,0.78728515625,-0.49093359375,-2.05990625,0.360929687500001,5.17710546875,6.489890625,3.74103515625,5.00132421875,3.90762109375,14.48815234375,8.84830078125,14.93230078125,8.12596875
4.33772265625,0.153984375,-1.1413515625,4.1726796875,-4.97220703125,-7.77678125,-4.1271171875,0.28226953125,-0.19558203125,-2.452265625,-2.89503515625,-1.939234375,3.800796875,2.43998828125,2.73957421875,0.973417968749999,8.052359375,0.91328515625,1.27806640625,0.725093750000001,2.4259296875,6.05010546875,7.454890625,6.03103515625,7.65632421875,8.27662109375,17.04415234375,11.36530078125,19.21430078125,15.23096875
4.56572265625,1.356984375,1.5676484375,5.1756796875,-2.15520703125,-5.81178125,-1.8671171875,0.588269531250001,1.99441796875,0.423734375,-1.21303515625,0.846765624999998,4.173796875,4.29698828125,5.42157421875,3.22041796875,9.014359375,0.95728515625,2.90306640625,3.33809375,4.3639296875,6.31510546875,8.338890625,8.00603515625,9.71732421875,11.51462109375,19.02515234375,13.49530078125,21.89430078125,20.43896875
4.32572265625,2.301984375,2.9706484375,5.3866796875,-0.26220703125,-4.92278125,0.182882812500001,-0.0877304687499993,2.94341796875,1.977734375,-0.242035156249999,3.072765625,3.743796875,4.80498828125,6.75757421875,4.57541796875,9.462359375,0.11128515625,3.26706640625,4.59209375,5.3229296875,5.12110546875,8.050890625,8.39603515625,9.98232421875,12.37262109375,18.90415234375,13.67630078125,21.19330078125,21.37096875
3.66372265625,2.447984375,2.8176484375,4.3136796875,-0.16520703125,-5.81778125,1.0188828125,-1.60973046875,1.94541796875,1.503734375,-0.534035156249999,4.063765625,2.269796875,3.43098828125,6.14857421875,4.59841796875,9.140359375,-2.02771484375,1.82206640625,3.88609375,4.9259296875,2.30910546875,6.058890625,6.59803515625,8.00432421875,10.52562109375,15.93115234375,11.14130078125,16.74230078125,17.44996875
2.78972265625,1.572984375,1.5976484375,2.1066796875,-1.96920703125,-8.34378125,0.252882812500001,-3.68773046875,-0.956582031249999,-0.822265625,-2.00803515625,3.567765625,-0.00620312499999992,0.44798828125,3.77457421875,3.39941796875,8.054359375,-5.22171484375,-1.16293359375,1.42109375,3.4019296875,-1.51089453125,2.612890625,2.93703515625,4.31432421875,6.75962109375,10.50115234375,6.24830078125,9.76230078125,10.18896875
1.94372265625,-0.117015624999999,0.0726484374999989,-0.574320312500001,-4.98020703125,-11.62878125,-1.8201171875,-5.93473046875,-4.96858203125,-4.075265625,-4.06303515625,1.770765625,-2.436203125,-3.20801171875,0.474574218750002,1.52841796875,6.471359375,-8.66671484375,-4.72493359375,-1.92590625,1.4379296875,-5.23689453125,-1.377109375,-1.49296484375,0.18632421875,2.62462109375,3.98715234375,0.32330078125,2.50930078125,2.45196875
1.32072265625,-2.063015625,-1.1513515625,-2.9353203125,-8.02320703125,-14.50678125,-4.4001171875,-7.88573046875,-8.86358203125,-7.008265625,-5.87103515625,-0.724234375000002,-4.257203125,-6.34801171875,-2.63142578125,-0.25258203125,4.827359375,-11.33571484375,-7.63393359375,-4.98490625,-0.1510703125,-7.70789453125,-4.730109375,-5.30396484375,-2.93067578125,-0.27337890625,-1.85184765625,-4.85769921875,-2.71169921875,-2.91903125
1.05272265625,-3.587015625,-1.8103515625,-4.4363203125,-9.97920703125,-16.03178125,-6.5081171875,-9.02873046875,-11.48358203125,-8.605265625,-6.73303515625,-3.008234375,-4.942203125,-8.03501171875,-4.60842578125,-1.23558203125,3.592359375,-12.44171484375,-8.92993359375,-6.76290625,-0.7490703125,-8.12789453125,-6.493109375,-7.37596484375,-4.02367578125,-0.934378906250001,-5.58684765625,-7.77169921875,-4.48469921875,-4.35303125
1.15872265625,-4.200015625,-1.9623515625,-5.0123203125,-10.28420703125,-15.84878125,-7.3581171875,-8.93173046875,-12.22058203125,-8.505265625,-6.36803515625,-4.181234375,-4.463203125,-7.96501171875,-5.07442578125,-1.02358203125,3.116359375,-11.81071484375,-8.32693359375,-6.81390625,-0.155070312499999,-6.37789453125,-6.338109375,-7.28396484375,-2.89467578125,0.71462109375,-6.65984765625,-7.76069921875,-2.74869921875,-2.05403125
1.45672265625,-3.811015625,-1.8383515625,-5.0263203125,-9.15220703125,-14.29078125,-6.6801171875,-7.43973046875,-11.23058203125,-7.116265625,-5.02903515625,-3.764234375,-3.314203125,-6.55201171875,-4.30142578125,0.290417968749999,3.502359375,-9.96571484375,-6.29993359375,-5.36590625,1.3849296875,-3.12489453125,-4.687109375,-5.39496484375,-0.15067578125,3.93262109375,-5.48484765625,-5.29469921875,1.35630078125,2.37796875
1.54472265625,-2.730015625,-1.6603515625,-5.0133203125,-7.39120703125,-12.16078125,-4.8521171875,-4.85473046875,-9.30058203125,-5.351265625,-3.37203515625,-1.959234375,-2.270203125,-4.65301171875,-2.99642578125,2.16041796875,4.553359375,-7.84071484375,-3.78893359375,-3.15290625,3.3119296875,0.37010546875,-2.484109375,-2.61196484375,3.12732421875,7.56662109375,-3.12784765625,-1.73969921875,6.11130078125,6.87196875
0.98872265625,-1.508015625,-1.4723515625,-5.3633203125,-5.94820703125,-10.33078125,-2.7571171875,-1.92673046875,-7.41258203125,-4.134265625,-2.12803515625,0.408765624999999,-1.988203125,-3.09101171875,-1.87542578125,3.82041796875,5.811359375,-6.28271484375,-1.68793359375,-1.04290625,4.9739296875,2.73810546875,-0.711109374999998,0.0980351562500008,5.85932421875,10.50062109375,-0.74084765625,1.28530078125,9.94130078125,9.80396875
-0.37027734375,-0.715015624999999,-1.1353515625,-6.1193203125,-5.45120703125,-9.36778125,-1.4051171875,0.386269531250001,-6.26458203125,-3.966265625,-1.77403515625,2.256765625,-2.675203125,-2.26601171875,-1.28442578125,4.60841796875,6.708359375,-5.61871484375,-0.419933593750001,0.33209375,5.8379296875,3.08710546875,0.0688906250000016,2.11803515625,7.33832421875,11.96362109375,0.91015234375,2.64330078125,11.92430078125,10.49896875
-2.19227734375,-0.744015624999999,-0.490351562500001,-6.9783203125,-5.99620703125,-9.37878125,-1.4791171875,1.29826953125,-6.00758203125,-4.747265625,-2.36503515625,2.719765625,-4.000203125,-2.04601171875,-1.09342578125,4.20241796875,6.772359375,-5.55471484375,0.17306640625,0.76509375,5.6419296875,1.40010546875,-0.0841093749999988,3.33803515625,7.37232421875,11.65062109375,1.64815234375,2.13630078125,11.94030078125,9.21996875
-3.70427734375,-1.657015625,0.398648437499999,-7.4483203125,-7.24220703125,-10.08478125,-3.0161171875,0.498269531250001,-6.29158203125,-5.916265625,-3.56603515625,1.524765625,-5.289203125,-1.97801171875,-0.876425781249999,2.70341796875,5.812359375,-5.45071484375,0.60506640625,0.43609375,4.4459296875,-1.46489453125,-0.640109374999998,4.03203515625,6.22832421875,9.72762109375,1.78615234375,0.47330078125,10.50230078125,6.81296875
-4.08027734375,-3.142015625,1.1466484375,-7.1043203125,-8.66720703125,-11.02978125,-5.3981171875,-1.75173046875,-6.55558203125,-6.760265625,-4.83903515625,-0.929234375000002,-5.865203125,-1.62001171875,-0.240425781249998,0.554417968749999,3.991359375,-4.75971484375,1.37206640625,-0.267906249999999,2.5809296875,-4.20989453125,-0.969109374999999,4.58003515625,4.45432421875,6.75362109375,1.85715234375,-1.20169921875,8.41530078125,4.23596875
-2.92227734375,-4.610015625,1.1896484375,-5.7853203125,-9.79520703125,-11.78778125,-7.6481171875,-4.74073046875,-6.33858203125,-6.737265625,-5.68703515625,-3.821234375,-5.361203125,-0.79101171875,0.917574218750001,-1.64758203125,1.737359375,-3.35371484375,2.65606640625,-0.96490625,0.494929687500001,-5.69189453125,-0.706109374999999,5.21303515625,2.65732421875,3.52262109375,2.32515234375,-1.91269921875,6.41830078125,2.17296875
-0.54727734375,-5.441015625,0.104648437499999,-3.6793203125,-10.28020703125,-12.08678125,-8.9001171875,-7.56173046875,-5.46258203125,-5.692265625,-5.85203515625,-6.297234375,-3.847203125,0.37498828125,2.35457421875,-3.36358203125,-0.454640625,-1.54971484375,4.24906640625,-1.41490625,-1.4220703125,-5.35589453125,0.105890625000002,5.91703515625,1.31432421875,0.792621093749999,3.39115234375,-1.24069921875,4.96030078125,0.845968750000001
2.13172265625,-5.250015625,-2.0913515625,-1.2413203125,-9.92120703125,-11.86578125,-8.7851171875,-9.44073046875,-4.04558203125,-3.900265625,-5.38603515625,-7.805234375,-1.742203125,1.54898828125,3.60157421875,-4.28358203125,-2.235640625,0.13028515625,5.69506640625,-1.57290625,-2.9830703125,-3.30689453125,1.119890625,6.49103515625,0.64932421875,-0.977378906250001,4.98115234375,0.66430078125,4.17330078125,0.096968750000002
4.04172265625,-4.072015625,-4.8763515625,0.985679687499998,-8.72820703125,-11.26178125,-7.5811171875,-10.06473046875,-2.41158203125,-1.946265625,-4.60303515625,-8.241234375,0.409796875,2.38198828125,4.17257421875,-4.40558203125,-3.535640625,1.27328515625,6.53606640625,-1.55390625,-4.2170703125,-0.117894531249999,1.918890625,6.71203515625,0.61832421875,-1.76637890625,6.86215234375,3.31230078125,4.02730078125,-0.322031249999998
4.43772265625,-2.371015625,-7.4243515625,2.5506796875,-7.00520703125,-10.57478125,-6.0651171875,-9.75473046875,-0.95558203125,-0.517265624999999,-3.95203515625,-7.919234375,2.163796875,2.62898828125,3.75757421875,-4.01358203125,-4.536640625,1.76028515625,6.50906640625,-1.55690625,-5.2920703125,3.42610546875,2.200890625,6.48103515625,1.00832421875,-1.92437890625,8.79915234375,6.13430078125,4.49730078125,-0.415031249999998
3.18272265625,-0.875015625,-9.0033515625,3.2136796875,-5.34920703125,-10.16878125,-5.1641171875,-9.32773046875,-0.0265820312499994,-0.164265624999999,-3.85803515625,-7.419234375,3.292796875,2.19498828125,2.32357421875,-3.55458203125,-5.535640625,1.71628515625,5.61706640625,-1.76290625,-6.3600703125,6.48310546875,1.845890625,5.88803515625,1.59132421875,-1.92737890625,10.66215234375,8.60730078125,5.63830078125,0.206968750000001
0.75472265625,-0.272015625,-9.2983515625,2.9676796875,-4.46320703125,-10.34378125,-5.5481171875,-9.62773046875,0.138417968750002,-1.120265625,-4.57203515625,-7.316234375,3.772796875,1.12398828125,0.132574218750001,-3.44158203125,-6.741640625,1.32428515625,4.09006640625,-2.22990625,-7.4350703125,8.25410546875,0.885890625000002,5.17503515625,2.26632421875,-2.08937890625,12.42815234375,10.26730078125,7.50530078125,2.13696875
-1.96727734375,-0.918015624999999,-8.5043515625,1.9886796875,-4.85820703125,-11.21278125,-7.3531171875,-10.98773046875,-0.55158203125,-3.225265625,-6.04303515625,-7.907234375,3.688796875,-0.41301171875,-2.31742578125,-3.85258203125,-8.146640625,0.66328515625,2.29306640625,-2.82290625,-8.3330703125,8.10910546875,-0.551109374999998,4.63803515625,3.10632421875,-2.38637890625,14.11915234375,10.71030078125,9.99230078125,5.75496875
-4.05527734375,-2.686015625,-7.1133515625,0.577679687499999,-6.60120703125,-12.63278125,-10.1191171875,-12.98673046875,-2.01058203125,-5.987265625,-7.90003515625,-9.065234375,3.156796875,-2.15201171875,-4.43042578125,-4.63858203125,-9.511640625,-0.28671484375,0.63106640625,-3.24290625,-8.7500703125,5.83910546875,-2.271109375,4.49403515625,4.28032421875,-2.51037890625,15.69915234375,9.70430078125,12.71430078125,10.80396875
-4.90327734375,-5.036015625,-5.6053515625,-0.907320312500001,-9.25420703125,-14.25778125,-12.9901171875,-14.68173046875,-3.93758203125,-8.756265625,-9.58803515625,-10.330234375,2.303796875,-3.77201171875,-5.70042578125,-5.42358203125,-10.499640625,-1.52071484375,-0.55493359375,-3.17190625,-8.4350703125,1.87210546875,-4.035109375,4.77503515625,5.86232421875,-2.14137890625,16.99215234375,7.34430078125,15.00730078125,16.23296875
-4.49127734375,-7.248015625,-4.2503515625,-2.1133203125,-12.05220703125,-15.66878125,-15.0721171875,-15.17973046875,-5.85958203125,-10.951265625,-10.63603515625,-11.183234375,1.297796875,-4.98701171875,-5.89942578125,-5.83858203125,-10.866640625,-2.88871484375,-1.09993359375,-2.46490625,-7.3870703125,-2.74389453125,-5.616109375,5.28103515625,7.65932421875,-1.23637890625,17.66115234375,4.11430078125,16.08630078125,20.44896875
-3.39027734375,-8.684015625,-3.1473515625,-2.7843203125,-14.20920703125,-16.54278125,-15.7891171875,-14.15273046875,-7.29058203125,-12.219265625,-10.87603515625,-11.304234375,0.351796875,-5.64201171875,-5.17542578125,-5.73858203125,-10.611640625,-4.11371484375,-1.08093359375,-1.28390625,-5.9310703125,-6.70689453125,-6.892109375,5.63203515625,9.19432421875,-0.125378906250001,17.30315234375,0.75430078125,15.32030078125,21.92996875
-2.44227734375,-8.991015625,-2.3923515625,-2.8693203125,-15.20920703125,-16.75178125,-15.0731171875,-11.97973046875,-7.91958203125,-12.489265625,-10.49403515625,-10.675234375,-0.318203125,-5.76401171875,-3.99042578125,-5.25858203125,-9.981640625,-4.92271484375,-0.79293359375,-0.056906249999999,-4.6100703125,-9.00489453125,-7.889109375,5.42003515625,9.89832421875,0.67662109375,15.65215234375,-2.01669921875,12.57030078125,19.97096875
-2.29027734375,-8.201015625,-2.1803515625,-2.5703203125,-14.94120703125,-16.36178125,-13.3091171875,-9.45373046875,-7.71858203125,-11.913265625,-9.88603515625,-9.497234375,-0.568203125,-5.52001171875,-2.91842578125,-4.70858203125,-9.345640625,-5.15871484375,-0.60093359375,0.71809375,-3.9420703125,-9.30189453125,-8.727109375,4.38803515625,9.40532421875,0.80962109375,12.76815234375,-3.71669921875,8.38430078125,15.16596875
-3.02427734375,-6.705015625,-2.7293515625,-2.2903203125,-13.67220703125,-15.54778125,-11.1251171875,-7.33673046875,-6.89958203125,-10.755265625,-9.41503515625,-8.061234375,-0.385203125,-5.11301171875,-2.39042578125,-4.38658203125,-9.002640625,-4.79771484375,-0.76093359375,0.70809375,-4.1810703125,-7.95989453125,-9.496109375,2.55003515625,7.75232421875,0.273621093749999,9.08615234375,-4.21169921875,3.85830078125,9.18896875
-4.19727734375,-5.099015625,-4.0633515625,-2.4613203125,-11.89720703125,-14.50078125,-9.1301171875,-6.04173046875,-5.79358203125,-9.280265625,-9.23403515625,-6.654234375,0.0937968750000001,-4.68501171875,-2.51342578125,-4.43158203125,-9.040640625,-3.91271484375,-1.29793359375,-0.107906249999999,-5.2500703125,-5.75189453125,-10.179109375,0.17103515625,5.33832421875,-0.635378906250001,5.25515234375,-3.73369921875,0.12930078125,3.92396875
-5.14227734375,-3.926015625,-5.8173515625,-3.3073203125,-10.11920703125,-13.33078125,-7.7331171875,-5.55273046875,-4.70058203125,-7.681265625,-9.22503515625,-5.533234375,0.627796875,-4.26401171875,-3.02942578125,-4.77058203125,-9.309640625,-2.61871484375,-1.99393359375,-1.44190625,-6.8240703125,-3.49889453125,-10.678109375,-2.33696484375,2.71232421875,-1.55737890625,1.87015234375,-2.83069921875,-2.17869921875,0.502968750000001
-5.34927734375,-3.448015625,-7.2693515625,-4.6633203125,-8.62320703125,-12.01378125,-7.0531171875,-5.53273046875,-3.76158203125,-6.024265625,-9.07303515625,-4.881234375,0.975796875,-3.74201171875,-3.41042578125,-5.16858203125,-9.513640625,-1.03171484375,-2.47593359375,-2.81390625,-8.4860703125,-1.76789453125,-10.859109375,-4.52396484375,0.35532421875,-2.26937890625,-0.70284765625,-2.16369921875,-3.14669921875,-1.06903125
-4.62627734375,-3.547015625,-7.6373515625,-5.9613203125,-7.34020703125,-10.36378125,-6.9211171875,-5.52073046875,-2.86758203125,-4.228265625,-8.39903515625,-4.734234375,1.030796875,-2.88501171875,-3.03742578125,-5.33058203125,-9.369640625,0.78428515625,-2.32193359375,-3.68890625,-9.8560703125,-0.71989453125,-10.551109375,-5.95796484375,-1.41767578125,-2.70937890625,-2.32184765625,-2.17769921875,-3.29469921875,-1.51603125
-3.01227734375,-3.793015625,-6.5083515625,-6.4543203125,-5.89620703125,-8.11278125,-6.9531171875,-5.14873046875,-1.68758203125,-2.101265625,-6.88203515625,-4.912234375,0.897796875,-1.37201171875,-1.39042578125,-4.98358203125,-8.755640625,2.84628515625,-1.16293359375,-3.60690625,-10.6570703125,-0.10589453125,-9.519109375,-6.26096484375,-2.44367578125,-2.90537890625,-2.95484765625,-2.83169921875,-3.14269921875,-1.59903125
-0.63627734375,-3.652015625,-4.0693515625,-5.5803203125,-3.83920703125,-5.05978125,-6.6871171875,-4.31573046875,0.149417968750001,0.556734375000001,-4.36003515625,-5.047234375,0.857796875,1.06498828125,1.76057421875,-3.93858203125,-7.763640625,5.20128515625,1.20906640625,-2.27990625,-10.7430703125,0.557105468750001,-7.531109375,-5.18496484375,-2.66067578125,-2.88937890625,-2.61784765625,-3.62169921875,-2.94369921875,-1.67603125
2.27972265625,-2.747015625,-1.0083515625,-3.2853203125,-0.894207031250001,-1.23478125,-5.7411171875,-3.22673046875,2.80041796875,3.803734375,-0.905035156249999,-4.766234375,1.205796875,4.45298828125,6.22457421875,-2.13758203125,-6.636640625,7.80528515625,4.70606640625,0.30309375,-10.1230703125,1.71810546875,-4.554109375,-2.75596484375,-2.10267578125,-2.67837890625,-1.43084765625,-3.91669921875,-2.73369921875,-1.71303125
5.31972265625,-1.052015625,1.8616484375,-0.103320312500001,2.87779296875,3.02721875,-3.9461171875,-2.23873046875,6.04241796875,7.427734375,3.14496484375,-3.898234375,2.076796875,8.43498828125,11.38157421875,0.302417968749999,-5.617640625,10.39128515625,8.86106640625,3.82709375,-8.9190703125,3.51810546875,-0.958109374999998,0.632035156250001,-0.90767578125,-2.27237890625,0.28615234375,-3.37869921875,-2.50269921875,-1.52703125
7.88472265625,1.104984375,3.9826484375,3.0576796875,7.09579296875,7.17121875,-1.3661171875,-1.59173046875,9.32541796875,10.972734375,7.25996484375,-2.531234375,3.349796875,12.31698828125,16.33657421875,3.10741796875,-4.804640625,12.48228515625,12.89306640625,7.70409375,-7.2850703125,5.69310546875,2.481890625,4.28303515625,0.70832421875,-1.66637890625,2.03315234375,-2.16769921875,-2.30469921875,-0.986031249999998
9.43572265625,3.253984375,5.2146484375,5.3246796875,11.20779296875,10.63521875,1.7928828125,-1.22673046875,12.01041796875,13.900734375,10.90496484375,-0.847234375000001,4.716796875,15.31698828125,20.22457421875,5.96941796875,-4.120640625,13.58628515625,15.98606640625,11.27009375,-5.3180703125,7.71510546875,4.848890625,7.43903515625,2.52632421875,-0.845378906250001,3.31415234375,-0.80469921875,-2.23169921875,-0.0660312499999982
9.80172265625,5.046984375,5.7416484375,6.2296796875,14.67679296875,13.06621875,5.2688828125,-0.81673046875,13.66041796875,15.826734375,13.74096484375,1.051765625,5.862796875,16.90098828125,22.51557421875,8.67941796875,-3.380640625,13.47028515625,17.61906640625,14.01609375,-3.0390703125,9.09910546875,5.502890625,9.57403515625,4.40932421875,0.20062109375,3.89315234375,0.17930078125,-2.30169921875,1.18696875
9.27072265625,6.376984375,5.8316484375,5.8636796875,17.11779296875,14.41621875,8.7618828125,-0.0287304687500001,14.19341796875,16.649734375,15.67696484375,3.140765625,6.626796875,16.97498828125,23.14157421875,11.13441796875,-2.447640625,12.31628515625,17.75106640625,15.72609375,-0.4990703125,9.64710546875,4.400890625,10.56103515625,6.29832421875,1.42362109375,3.90515234375,0.52430078125,-2.40969921875,2.66996875
8.38672265625,7.274984375,5.6756484375,4.7316796875,18.30379296875,14.85021875,11.8558828125,1.19226953125,13.81341796875,16.494734375,16.73896484375,5.301765625,7.029796875,15.82098828125,22.37857421875,13.21441796875,-1.366640625,10.59028515625,16.72706640625,16.43809375,2.0889296875,9.44910546875,2.070890625,10.60603515625,8.12332421875,2.65962109375,3.73815234375,0.23430078125,-2.41769921875,4.17396875
7.57372265625,7.706984375,5.3746484375,3.4286796875,18.11179296875,14.55121875,14.0098828125,2.50526953125,12.78241796875,15.536734375,16.89396484375,7.169765625,7.169796875,13.87098828125,20.59457421875,14.65141796875,-0.401640625,8.73328515625,15.01006640625,16.29909375,4.3039296875,8.69210546875,-0.688109374999998,10.03803515625,9.71932421875,3.63062109375,3.78315234375,-0.61069921875,-2.30269921875,5.36296875
6.90372265625,7.475984375,5.0166484375,2.3436796875,16.50479296875,13.57321875,14.6898828125,3.35826953125,11.25341796875,13.877734375,15.99896484375,8.185765625,7.098796875,11.50198828125,18.08657421875,15.06541796875,0.0883593750000005,6.93428515625,12.97906640625,15.46009375,5.6669296875,7.52910546875,-3.161109375,9.15603515625,10.87332421875,4.08662109375,4.28615234375,-1.95569921875,-2.16469921875,5.90696875
6.16272265625,6.331984375,4.6866484375,1.5536796875,13.62479296875,11.88121875,13.6278828125,3.36926953125,9.29241796875,11.567734375,13.93996484375,7.863765625,6.801796875,9.00498828125,15.09257421875,14.16741796875,-0.118640624999999,5.15428515625,10.90706640625,14.10109375,5.9159296875,6.13310546875,-4.885109375,8.22403515625,11.50232421875,4.00962109375,5.38415234375,-3.61569921875,-2.04069921875,5.76596875
5.14472265625,4.213984375,4.4066484375,0.926679687499998,9.90379296875,9.52421875,11.0468828125,2.61926953125,7.04441796875,8.756734375,10.86396484375,6.108765625,6.258796875,6.66098828125,11.93757421875,12.03641796875,-0.904640625,3.34528515625,9.07906640625,12.51309375,5.2289296875,4.81910546875,-5.622109375,7.56203515625,11.82032421875,3.72462109375,7.23315234375,-5.07969921875,-1.68469921875,5.39096875
3.90272265625,1.452984375,4.0956484375,0.303679687499999,6.04579296875,6.80021875,7.6788828125,1.62226953125,4.84541796875,5.814734375,7.32196484375,3.396765625,5.513796875,4.79698828125,9.12657421875,9.23941796875,-1.785640625,1.63028515625,7.87006640625,11.14009375,4.2059296875,4.03610546875,-5.290109375,7.57403515625,12.31132421875,3.74162109375,10.03415234375,-5.56069921875,-0.60669921875,5.58596875
2.76172265625,-1.231015625,3.6556484375,-0.369320312500001,2.84479296875,4.28421875,4.5698828125,0.989269531250001,3.16441796875,3.314734375,4.18896484375,0.667765624999999,4.672796875,3.73198828125,7.25757421875,6.69441796875,-2.099640625,0.31228515625,7.66806640625,10.46109375,3.5979296875,4.18810546875,-3.955109375,8.62403515625,13.47832421875,4.41262109375,13.89015234375,-4.36969921875,1.62030078125,7.07796875
2.08572265625,-2.985015625,3.0876484375,-1.0083203125,0.966792968749999,2.66521875,2.7098828125,1.04426953125,2.42041796875,1.862734375,2.36196484375,-1.026234375,3.870796875,3.65898828125,6.79757421875,5.28541796875,-1.320640625,-0.28371484375,8.66506640625,10.77409375,3.9029296875,5.42010546875,-1.856109375,10.81303515625,15.51032421875,5.63462109375,18.60615234375,-1.35069921875,4.99630078125,10.06596875
1.99772265625,-3.213015625,2.5296484375,-1.4593203125,0.77979296875,2.45221875,2.6448828125,1.68126953125,2.79441796875,1.844734375,2.34696484375,-0.986234375,3.221796875,4.53798828125,7.82257421875,5.43241796875,0.670359375,-0.0197148437499997,10.66506640625,11.99509375,5.0939296875,7.50610546875,0.599890625000002,13.81603515625,18.08832421875,6.83262109375,23.58315234375,2.94230078125,8.94230078125,14.04796875
2.27072265625,-1.886015625,2.1426484375,-1.6203203125,2.23779296875,3.67621875,4.2098828125,2.46926953125,4.11441796875,3.216734375,3.96596484375,0.772765624999998,2.774796875,6.05598828125,9.89957421875,6.86441796875,3.497359375,0.91728515625,13.04306640625,13.60709375,6.6139296875,9.89310546875,2.897890625,16.90103515625,20.46932421875,7.26962109375,27.92715234375,7.43330078125,12.49530078125,18.02196875
2.47472265625,0.392984375000001,1.9526484375,-1.5343203125,4.83579296875,5.77321875,6.5308828125,2.92726953125,5.87741796875,5.446734375,6.35596484375,3.462765625,2.494796875,7.68598828125,12.18257421875,8.74641796875,6.430359375,2.02428515625,14.93306640625,14.84109375,7.6529296875,11.87810546875,4.512890625,19.15803515625,21.82232421875,6.51762109375,30.73615234375,10.96330078125,14.73130078125,20.94096875
2.24272265625,2.624984375,1.7876484375,-1.3963203125,7.69179296875,7.75121875,8.3558828125,2.78526953125,7.40641796875,7.678734375,8.30096484375,5.832765625,2.288796875,8.81498828125,13.71057421875,10.06741796875,8.687359375,2.65728515625,15.54906640625,14.97909375,7.5619296875,12.86110546875,4.995890625,19.83603515625,21.60832421875,4.77662109375,31.41915234375,12.74230078125,15.20030078125,22.19696875
1.47872265625,3.819984375,1.3886484375,-1.4463203125,9.81279296875,8.61521875,8.6158828125,2.11326953125,8.09541796875,9.048734375,8.73296484375,6.719765625,2.061796875,8.91798828125,13.75057421875,10.07741796875,9.733359375,2.28428515625,14.47206640625,13.63109375,6.1459296875,12.56810546875,4.061890625,18.58903515625,19.79132421875,2.81962109375,29.86115234375,12.56330078125,14.08630078125,21.84196875
0.33672265625,3.405984375,0.619648437499999,-1.8483203125,10.44979296875,7.81321875,6.9128828125,1.25726953125,7.64041796875,9.004734375,7.17796484375,5.570765625,1.770796875,7.72798828125,12.04657421875,8.54441796875,9.435359375,0.71028515625,11.76606640625,10.85509375,3.7009296875,11.13510546875,1.658890625,15.53903515625,16.75832421875,1.56162109375,26.36015234375,10.72730078125,12.00430078125,20.42096875
-0.97727734375,1.441984375,-0.409351562500001,-2.6273203125,9.35379296875,5.45821875,3.6668828125,0.58626953125,6.12741796875,7.477734375,3.90496484375,2.656765625,1.413796875,5.32498828125,8.87357421875,5.73941796875,8.030359375,-1.87871484375,7.90506640625,7.06209375,0.797929687500001,8.98810546875,-2.008109375,11.14403515625,13.05732421875,1.51462109375,21.41015234375,7.76230078125,9.56030078125,18.50696875
-2.36727734375,-1.443015625,-1.4343515625,-3.7023203125,6.80479296875,2.21621875,-0.1361171875,0.20226953125,3.97241796875,4.846734375,-0.23803515625,-1.112234375,0.975796875,2.12098828125,4.90557421875,2.22441796875,5.947359375,-5.02671484375,3.56406640625,2.82309375,-2.0230703125,6.61110546875,-6.503109375,6.00103515625,9.13132421875,2.48162109375,15.49115234375,4.14530078125,6.99130078125,16.29796875
-3.83627734375,-4.349015625,-2.2843515625,-4.9433203125,3.45179296875,-1.01878125,-3.4021171875,-0.164730468749999,1.75441796875,1.768734375,-4.21503515625,-4.643234375,0.412796875,-1.25601171875,0.981574218750001,-1.37758203125,3.615359375,-8.20371484375,-0.58793359375,-1.32290625,-4.4320703125,4.35510546875,-11.246109375,0.693035156250001,5.22532421875,3.67262109375,9.01215234375,0.19630078125,4.14030078125,13.59296875
-5.29927734375,-6.478015625,-3.0323515625,-6.1913203125,0.0747929687499997,-3.46878125,-5.3421171875,-0.97773046875,0.0154179687500005,-1.055265625,-7.17403515625,-7.112234375,-0.304203125,-4.13801171875,-2.15042578125,-4.53758203125,1.343359375,-10.96171484375,-4.03493359375,-4.96390625,-6.3030703125,2.40910546875,-15.622109375,-4.27296484375,1.47932421875,4.19062109375,2.38415234375,-3.84569921875,0.74830078125,10.13296875
-6.45527734375,-7.432015625,-3.9293515625,-7.2513203125,-2.64520703125,-4.69478125,-5.7021171875,-2.55673046875,-0.90358203125,-3.080265625,-8.69603515625,-8.227234375,-1.124203125,-6.02701171875,-4.04742578125,-6.87158203125,-0.705640625,-13.01771484375,-6.48093359375,-7.83590625,-7.6050703125,0.859105468750001,-19.121109375,-8.49196484375,-1.94867578125,3.53062109375,-3.89784765625,-7.69869921875,-3.21569921875,5.97196875
-6.85127734375,-7.298015625,-5.1423515625,-7.9083203125,-4.31620703125,-4.69478125,-4.8041171875,-4.81473046875,-0.97758203125,-4.078265625,-8.85103515625,-8.227234375,-1.918203125,-6.77801171875,-4.68942578125,-8.18058203125,-2.458640625,-14.29671484375,-7.89293359375,-9.83190625,-8.3370703125,-0.27089453125,-21.491109375,-11.71296484375,-4.85067578125,1.80262109375,-9.33184765625,-11.06169921875,-7.47069921875,1.54196875
-6.12927734375,-6.539015625,-6.5423515625,-7.9913203125,-4.92120703125,-3.84078125,-3.3931171875,-7.21773046875,-0.48758203125,-4.182265625,-8.10503515625,-7.654234375,-2.555203125,-6.65301171875,-4.46642578125,-8.47958203125,-3.852640625,-14.90471484375,-8.49493359375,-11.00290625,-8.5430703125,-1.05989453125,-22.828109375,-13.92096484375,-7.06367578125,-0.421378906250001,-13.58384765625,-13.74769921875,-11.57969921875,-2.57303125
-4.25927734375,-5.730015625,-7.6763515625,-7.4323203125,-4.74620703125,-2.69578125,-2.3181171875,-8.94373046875,0.135417968750001,-3.788265625,-7.09803515625,-7.030234375,-2.955203125,-6.17001171875,-3.98442578125,-7.96858203125,-4.750640625,-15.02871484375,-8.66193359375,-11.51590625,-8.3290703125,-1.67389453125,-23.468109375,-15.30796484375,-8.54067578125,-2.44737890625,-16.59984765625,-15.73669921875,-15.11269921875,-5.85803125
-1.61427734375,-5.272015625,-7.9793515625,-6.2823203125,-4.15220703125,-1.74578125,-2.1531171875,-9.19173046875,0.549417968750001,-3.321265625,-6.36503515625,-6.603234375,-3.086203125,-5.79601171875,-3.77542578125,-6.94858203125,-4.937640625,-14.74071484375,-8.71893359375,-11.55090625,-7.8270703125,-2.20989453125,-23.724109375,-16.13696484375,-9.33567578125,-3.77737890625,-18.50984765625,-17.03969921875,-17.67769921875,-7.95203125
1.10972265625,-5.216015625,-7.0893515625,-4.6773203125,-3.32820703125,-1.19178125,-2.9471171875,-7.50873046875,0.71741796875,-3.000265625,-6.13003515625,-6.313234375,-2.908203125,-5.66801171875,-4.06742578125,-5.71358203125,-4.232640625,-13.87571484375,-8.76393359375,-11.22690625,-7.1640703125,-2.49089453125,-23.645109375,-16.55796484375,-9.53767578125,-4.28537890625,-19.44184765625,-17.48869921875,-18.90469921875,-8.68803125
3.07672265625,-5.281015625,-5.0663515625,-2.7853203125,-2.18520703125,-0.908781249999999,-4.2331171875,-4.02473046875,0.949417968750001,-2.753265625,-6.27403515625,-5.943234375,-2.345203125,-5.54001171875,-4.72542578125,-4.52258203125,-2.663640625,-12.10371484375,-8.64893359375,-10.60990625,-6.4660703125,-2.05689453125,-22.990109375,-16.54696484375,-9.25567578125,-4.23537890625,-19.41784765625,-16.73869921875,-18.53969921875,-8.18603125
3.55872265625,-5.044015625,-2.3873515625,-0.788320312500002,-0.501207031250001,-0.592781249999998,-5.2841171875,0.55126953125,1.73341796875,-2.328265625,-6.48903515625,-5.315234375,-1.343203125,-4.98101171875,-5.39742578125,-3.59458203125,-0.573640624999999,-9.20571484375,-8.13793359375,-9.77790625,-5.8840703125,-0.447894531249999,-21.451109375,-15.99496484375,-8.63567578125,-4.13937890625,-18.40384765625,-14.54169921875,-16.62769921875,-6.92203125
2.23972265625,-4.208015625,0.251648437499999,1.1016796875,1.78379296875,0.0112187500000012,-5.4481171875,5.14226953125,3.40841796875,-1.528265625,-6.47003515625,-4.404234375,0.022796875,-3.69101171875,-5.72642578125,-3.07558203125,1.456359375,-5.36571484375,-7.11193359375,-8.84790625,-5.5870703125,2.38810546875,-18.962109375,-14.83096484375,-7.86367578125,-4.50337890625,-16.43284765625,-11.08069921875,-13.62969921875,-5.62603125
-0.53627734375,-2.774015625,2.1876484375,2.6146796875,4.32179296875,0.943218750000002,-4.4251171875,8.63226953125,5.87541796875,-0.402265625,-6.04703515625,-3.298234375,1.484796875,-1.72301171875,-5.51142578125,-2.96458203125,2.833359375,-1.23871484375,-5.66493359375,-7.93190625,-5.6770703125,5.87110546875,-15.844109375,-13.08196484375,-7.08267578125,-5.56637890625,-13.66284765625,-7.08269921875,-10.33069921875,-4.97103125
-3.73727734375,-1.058015625,2.9686484375,3.4686796875,6.38979296875,1.99821875,-2.3901171875,10.18626953125,8.51941796875,0.715734375,-5.22003515625,-2.102234375,2.629796875,0.51098828125,-4.76842578125,-3.07258203125,3.217359375,2.24228515625,-4.06293359375,-7.05190625,-6.0980703125,8.95110546875,-12.718109375,-10.84096484375,-6.29767578125,-7.16637890625,-10.33684765625,-3.57369921875,-7.55269921875,-5.22603125
-5.98627734375,0.457984375000001,2.4346484375,3.4926796875,7.20579296875,2.84421875,0.0818828125,9.49826953125,10.43141796875,1.352734375,-4.13203515625,-0.869234375000001,3.055796875,2.41798828125,-3.69342578125,-3.08258203125,2.647359375,4.26128515625,-2.60693359375,-6.12090625,-6.5990703125,10.57510546875,-10.233109375,-8.21996484375,-5.34467578125,-8.79937890625,-6.70984765625,-1.42769921875,-5.83369921875,-6.08103125
-6.17527734375,1.356984375,0.769648437499999,2.7656796875,6.36979296875,3.21021875,2.2478828125,6.89826953125,10.81241796875,1.157734375,-3.00403515625,0.378765624999998,2.558796875,3.49398828125,-2.56742578125,-2.70858203125,1.498359375,4.46328515625,-1.49393359375,-4.99390625,-6.8200703125,10.21210546875,-8.781109375,-5.32496484375,-3.95467578125,-9.80537890625,-2.97384765625,-0.95669921875,-5.20469921875,-6.75003125
-4.05527734375,1.476984375,-1.4763515625,1.6436796875,4.13279296875,3.06121875,3.5178828125,3.29126953125,9.36241796875,0.143734375000001,-2.02403515625,1.584765625,1.265796875,3.55598828125,-1.61942578125,-1.81058203125,0.276359375,3.13828515625,-0.707933593749999,-3.53790625,-6.4310703125,8.15410546875,-8.312109375,-2.24496484375,-1.87167578125,-9.59437890625,0.80315234375,-1.70169921875,-5.13669921875,-6.26903125
-0.40527734375,0.989984375000001,-3.4513515625,0.640679687499999,1.34279296875,2.66121875,3.7328828125,-0.0997304687499998,6.49341796875,-1.218265625,-1.23203515625,2.647765625,-0.356203125,2.86998828125,-0.889425781249999,-0.413582031250002,-0.588640625,1.15228515625,0.0150664062499999,-1.66190625,-5.2570703125,5.45410546875,-8.329109375,0.98803515625,1.05332421875,-7.80737890625,4.70515234375,-2.53569921875,-4.66069921875,-3.82503125
3.33872265625,0.306984375000001,-4.2393515625,0.213679687499999,-0.90320703125,2.49521875,3.2508828125,-2.13073046875,3.22241796875,-2.167265625,-0.485035156249999,3.490765625,-1.635203125,2.08498828125,-0.198425781249998,1.35241796875,-0.851640625,-0.35371484375,1.10306640625,0.66009375,-3.3280703125,3.54510546875,-8.078109375,4.39403515625,4.78032421875,-4.42737890625,8.91715234375,-2.06369921875,-2.66569921875,0.990968750000002
5.77972265625,-0.128015625,-3.2723515625,0.550679687499999,-1.75320703125,3.01121875,2.7388828125,-2.17173046875,0.768417968750001,-2.036265625,0.442964843750001,4.094765625,-1.966203125,1.94098828125,0.727574218750002,3.28341796875,-0.476640625,-0.43071484375,2.90206640625,3.31909375,-0.8850703125,3.60910546875,-6.907109375,7.96103515625,8.99432421875,0.14262109375,13.53415234375,0.73530078125,1.59930078125,7.97996875
6.16472265625,-0.101015624999999,-0.712351562500001,1.4666796875,-1.05520703125,4.30421875,2.7378828125,-0.42873046875,-0.0385820312499998,-0.675265625,1.62196484375,4.385765625,-1.114203125,2.83198828125,1.98957421875,5.05141796875,0.348359375,1.20028515625,5.36506640625,5.94309375,1.5949296875,5.95310546875,-4.688109375,11.43903515625,13.01632421875,5.04862109375,18.26215234375,5.81730078125,7.95030078125,16.15096875
4.62572265625,0.207984375000001,2.4496484375,2.4546796875,0.46879296875,5.91121875,3.2358828125,2.05026953125,0.78841796875,1.345734375,2.76696484375,4.052765625,0.577796875,4.46198828125,3.27857421875,6.13141796875,1.184359375,3.88728515625,7.85606640625,7.82209375,3.3999296875,9.63510546875,-2.078109375,14.18603515625,15.80732421875,9.07562109375,22.20815234375,11.70630078125,14.94430078125,23.68896875
1.98172265625,0.245984375000001,4.7466484375,2.9096796875,1.50579296875,6.92621875,3.5708828125,3.77026953125,2.34941796875,2.930734375,3.24296484375,2.522765625,2.257796875,5.84898828125,3.88057421875,5.86341796875,1.382359375,6.23928515625,9.27506640625,8.04309375,3.7029296875,12.69310546875,-0.396109374999998,15.22803515625,16.20232421875,10.95262109375,23.98715234375,15.82230078125,20.14130078125,28.27196875
-0.73327734375,-0.639015624999999,4.9166484375,2.3956796875,0.79279296875,6.41821875,2.7748828125,3.46026953125,3.33141796875,2.971734375,2.32796484375,-0.760234375000001,2.910796875,5.77298828125,2.98057421875,3.70841796875,0.308359375,6.76028515625,8.51506640625,5.86309375,1.8599296875,12.98310546875,-1.057109375,13.64103515625,13.37432421875,9.84262109375,22.26115234375,15.59130078125,21.08030078125,27.88596875
-2.78827734375,-2.796015625,2.5306484375,0.844679687499998,-2.19920703125,3.95121875,0.1778828125,0.661269531249999,2.70841796875,0.911734375000001,-0.36903515625,-5.856234375,1.834796875,3.43998828125,0.112574218750002,-0.39658203125,-2.332640625,4.64928515625,5.06306640625,1.17509375,-2.2150703125,9.30310546875,-4.811109375,9.08303515625,7.34232421875,5.80162109375,16.50315234375,9.85530078125,16.54730078125,21.84596875
-4.05027734375,-5.964015625,-1.8123515625,-1.4453203125,-6.97320703125,-0.132781249999999,-4.1091171875,-4.08273046875,0.25641796875,-2.961265625,-4.61903515625,-12.005234375,-0.991203125,-1.04101171875,-4.52342578125,-5.84258203125,-6.260640625,0.27628515625,-0.646933593749999,-5.26190625,-7.8430703125,2.12510546875,-11.243109375,2.14003515625,-0.81967578125,-0.0743789062500007,7.51215234375,-0.29369921875,7.38430078125,11.42996875
-4.92827734375,-9.349015625,-6.8023515625,-3.9833203125,-12.25520703125,-4.86478125,-9.1711171875,-9.50073046875,-3.41458203125,-7.688265625,-9.62403515625,-17.778234375,-4.881203125,-6.68901171875,-10.11542578125,-11.52858203125,-10.661640625,-4.97571484375,-7.38393359375,-12.06490625,-13.7660703125,-6.54489453125,-18.891109375,-5.80296484375,-9.30867578125,-6.03037890625,-2.76384765625,-11.87569921875,-3.78669921875,-0.488031249999999
-6.01227734375,-12.062015625,-11.0543515625,-6.3253203125,-16.62520703125,-9.14978125,-13.7611171875,-14.17173046875,-7.26458203125,-12.137265625,-14.41103515625,-21.690234375,-8.758203125,-12.15601171875,-15.64042578125,-16.35858203125,-14.510640625,-9.44971484375,-13.71093359375,-17.84590625,-18.6650703125,-14.12389453125,-25.926109375,-13.15096484375,-16.35867578125,-10.43537890625,-12.08184765625,-21.45969921875,-13.82169921875,-10.71303125
-7.65527734375,-13.618015625,-13.6633515625,-8.2333203125,-19.15720703125,-12.26378125,-16.9441171875,-17.07573046875,-10.36958203125,-15.516265625,-18.26103515625,-22.944234375,-11.643203125,-16.36301171875,-20.29842578125,-19.71558203125,-16.991640625,-12.03671484375,-18.62393359375,-21.82090625,-21.7100703125,-18.62989453125,-30.962109375,-18.76596484375,-20.96367578125,-12.49637890625,-18.87584765625,-26.72669921875,-20.48969921875,-17.14603125
-9.72927734375,-14.133015625,-14.4383515625,-9.6493203125,-19.72120703125,-14.04478125,-18.4691171875,-17.87573046875,-12.27858203125,-17.577265625,-20.89403515625,-21.823234375,-13.022203125,-18.87101171875,-23.70042578125,-21.60158203125,-17.792640625,-12.60871484375,-21.83193359375,-24.01590625,-22.7980703125,-19.39989453125,-33.513109375,-22.29696484375,-23.13667578125,-12.48637890625,-22.75684765625,-27.25569921875,-23.20769921875,-19.44803125
-11.68027734375,-14.111015625,-13.7723515625,-10.5643203125,-18.86420703125,-14.72978125,-18.7001171875,-16.88473046875,-13.03258203125,-18.468265625,-22.34403515625,-19.511234375,-12.942203125,-19.83101171875,-25.75842578125,-22.39158203125,-17.152640625,-11.83671484375,-23.59893359375,-24.99390625,-22.3840703125,-17.08689453125,-33.931109375,-24.05596484375,-23.61267578125,-11.36337890625,-24.35284765625,-24.27069921875,-22.82869921875,-18.71403125
-12.82427734375,-14.033015625,-12.3433515625,-10.9053203125,-17.40720703125,-14.62978125,-18.2321171875,-14.84073046875,-12.95458203125,-18.436265625,-22.73803515625,-17.455234375,-11.828203125,-19.68301171875,-26.48542578125,-22.47758203125,-15.684640625,-10.65371484375,-24.37093359375,-25.39490625,-21.1110703125,-13.13489453125,-33.005109375,-24.63996484375,-23.30267578125,-10.11437890625,-24.73784765625,-19.74469921875,-20.87669921875,-16.56903125
-12.70527734375,-14.059015625,-10.8233515625,-10.5493203125,-16.04020703125,-13.95478125,-17.5221171875,-12.64673046875,-12.41558203125,-17.645265625,-22.19303515625,-16.669234375,-10.198203125,-18.85601171875,-25.93142578125,-22.06258203125,-14.106640625,-9.73071484375,-24.48993359375,-25.60890625,-19.4920703125,-9.09489453125,-31.534109375,-24.59596484375,-22.86267578125,-9.23837890625,-24.86484765625,-15.48769921875,-18.77269921875,-14.31503125
-11.34227734375,-14.008015625,-9.7013515625,-9.4603203125,-15.12320703125,-12.86078125,-16.7701171875,-11.13273046875,-11.71358203125,-16.212265625,-20.86603515625,-17.338234375,-8.459203125,-17.65201171875,-24.28142578125,-21.19258203125,-12.981640625,-9.27171484375,-24.13193359375,-25.71790625,-17.8210703125,-6.09689453125,-30.087109375,-24.27796484375,-22.55667578125,-8.61737890625,-25.24384765625,-12.59769921875,-17.37269921875,-12.49203125
-9.25027734375,-13.592015625,-9.1823515625,-7.8493203125,-14.73820703125,-11.61378125,-16.0641171875,-10.82973046875,-11.07958203125,-14.374265625,-19.06703515625,-18.912234375,-6.847203125,-16.28501171875,-21.96942578125,-19.92958203125,-12.539640625,-9.13671484375,-23.39793359375,-25.64090625,-16.2400703125,-4.60489453125,-28.946109375,-23.86596484375,-22.33767578125,-7.76337890625,-25.89984765625,-11.32769921875,-16.87369921875,-10.92303125
-7.25627734375,-12.720015625,-9.1653515625,-6.2213203125,-14.84820703125,-10.63578125,-15.5491171875,-11.77673046875,-10.68658203125,-12.566265625,-17.26903515625,-20.547234375,-5.478203125,-14.95101171875,-19.63242578125,-18.48858203125,-12.622640625,-9.09071484375,-22.41693359375,-25.29890625,-14.8500703125,-4.44589453125,-28.149109375,-23.42096484375,-22.02867578125,-6.21637890625,-26.52284765625,-11.24569921875,-16.95569921875,-9.06803125
-6.17027734375,-11.623015625,-9.2983515625,-5.2413203125,-15.36820703125,-10.33178125,-15.4231171875,-13.45473046875,-10.60858203125,-11.274265625,-15.95503515625,-21.540234375,-4.430203125,-13.83001171875,-17.86742578125,-17.20258203125,-12.790640625,-8.99971484375,-21.35993359375,-24.67990625,-13.7370703125,-5.01189453125,-27.535109375,-22.90996484375,-21.45367578125,-3.86037890625,-26.67084765625,-11.52969921875,-17.04469921875,-6.48303125
-6.41727734375,-10.714015625,-9.1533515625,-5.4453203125,-16.13720703125,-10.81678125,-15.7211171875,-14.99273046875,-10.74858203125,-10.765265625,-15.36103515625,-21.531234375,-3.772203125,-13.02201171875,-16.94042578125,-16.33458203125,-12.550640625,-8.87671484375,-20.35693359375,-23.79990625,-12.9340703125,-5.55589453125,-26.804109375,-22.21096484375,-20.51767578125,-1.03237890625,-25.96084765625,-11.30869921875,-16.59769921875,-3.18003125
-7.81527734375,-10.288015625,-8.4773515625,-6.9563203125,-16.86920703125,-11.76878125,-16.1241171875,-15.58173046875,-10.87158203125,-10.900265625,-15.31303515625,-20.472234375,-3.574203125,-12.50501171875,-16.66242578125,-15.89558203125,-11.610640625,-8.82571484375,-19.42593359375,-22.65590625,-12.3800703125,-5.51289453125,-25.659109375,-21.16496484375,-19.25367578125,1.57862109375,-24.21984765625,-10.00869921875,-15.36169921875,0.246968750000001
-9.62227734375,-10.331015625,-7.4193515625,-9.3883203125,-17.21420703125,-12.55978125,-16.0481171875,-14.89973046875,-10.74258203125,-11.213265625,-15.31203515625,-18.534234375,-3.886203125,-12.18401171875,-16.54442578125,-15.65358203125,-10.036640625,-8.97771484375,-18.50093359375,-21.24990625,-11.9540703125,-4.75789453125,-23.975109375,-19.67496484375,-17.82467578125,3.19962109375,-21.57384765625,-7.62569921875,-13.50369921875,2.81896875
-10.88727734375,-10.560015625,-6.5283515625,-11.9913203125,-16.92120703125,-12.58878125,-15.0001171875,-13.26373046875,-10.28158203125,-11.195265625,-14.84303515625,-16.075234375,-4.702203125,-11.99601171875,-16.11042578125,-15.31058203125,-8.222640625,-9.42771484375,-17.51893359375,-19.64890625,-11.5320703125,-3.67389453125,-21.921109375,-17.78396484375,-16.45767578125,3.30362109375,-18.41384765625,-4.75769921875,-11.52869921875,3.65896875
-10.92227734375,-10.636015625,-6.4713515625,-13.9863203125,-15.98420703125,-11.60978125,-12.9361171875,-11.44073046875,-9.63258203125,-10.574265625,-13.67003515625,-13.622234375,-5.932203125,-11.96801171875,-15.16242578125,-14.69958203125,-6.715640625,-10.19371484375,-16.48493359375,-18.00390625,-11.0280703125,-2.93689453125,-19.889109375,-15.63996484375,-15.30567578125,1.90462109375,-15.21584765625,-2.32269921875,-9.98669921875,2.52696875
-9.66327734375,-10.375015625,-7.5953515625,-14.8833203125,-14.64920703125,-9.86278125,-10.3401171875,-10.24673046875,-9.07558203125,-9.427265625,-11.94103515625,-11.766234375,-7.400203125,-12.17601171875,-13.82742578125,-13.84258203125,-5.961640625,-11.17971484375,-15.46093359375,-16.49390625,-10.3810703125,-3.10689453125,-18.292109375,-13.38996484375,-14.32567578125,-0.367378906250001,-12.31784765625,-1.07369921875,-9.14169921875,0.0609687500000007
-7.70627734375,-9.830015625,-9.6193515625,-14.6593203125,-13.28220703125,-7.93478125,-7.9621171875,-10.15473046875,-8.86258203125,-8.078265625,-10.06003515625,-10.966234375,-8.867203125,-12.64101171875,-12.42242578125,-12.88158203125,-6.112640625,-12.16471484375,-14.49493359375,-15.25790625,-9.5470703125,-4.24089453125,-17.336109375,-11.11196484375,-13.29267578125,-2.49537890625,-9.79584765625,-1.17669921875,-8.81469921875,-2.45703125
-5.99327734375,-9.240015625,-11.6843515625,-13.6903203125,-12.17720703125,-6.46278125,-6.4301171875,-11.08173046875,-9.07158203125,-6.917265625,-8.45303515625,-11.360234375,-10.084203125,-13.25401171875,-11.25842578125,-11.99258203125,-6.979640625,-12.85171484375,-13.60093359375,-14.37590625,-8.5440703125,-5.78789453125,-16.918109375,-8.84796484375,-11.97867578125,-3.54837890625,-7.52784765625,-2.10969921875,-8.49769921875,-3.70103125
-5.30327734375,-8.896015625,-12.7823515625,-12.5263203125,-11.47520703125,-5.85278125,-6.0051171875,-12.44473046875,-9.59158203125,-6.240265625,-7.38703515625,-12.698234375,-10.854203125,-13.80701171875,-10.52942578125,-11.35958203125,-8.155640625,-12.96971484375,-12.79293359375,-13.91790625,-7.5220703125,-6.86089453125,-16.727109375,-6.71396484375,-10.37367578125,-3.13237890625,-5.39384765625,-2.95969921875,-7.68069921875,-2.90603125
-5.86027734375,-9.004015625,-12.3063515625,-11.6223203125,-11.20720703125,-6.15478125,-6.5741171875,-13.48573046875,-10.24258203125,-6.194265625,-6.93103515625,-14.451234375,-11.090203125,-14.12401171875,-10.32242578125,-11.18658203125,-9.240640625,-12.42871484375,-12.15893359375,-13.99090625,-6.7870703125,-6.75589453125,-16.469109375,-4.98096484375,-8.80267578125,-1.59037890625,-3.45984765625,-2.95969921875,-6.22069921875,-0.216031249999999
-7.27927734375,-9.605015625,-10.4313515625,-11.1913203125,-11.39320703125,-7.12578125,-7.8231171875,-13.71373046875,-10.91458203125,-6.795265625,-7.02703515625,-16.072234375,-10.851203125,-14.20301171875,-10.68342578125,-11.69058203125,-10.030640625,-11.42471484375,-11.89993359375,-14.73490625,-6.7190703125,-5.38889453125,-16.083109375,-4.04496484375,-7.82967578125,0.16862109375,-2.03284765625,-1.96069921875,-4.51769921875,3.38196875
-8.85527734375,-10.592015625,-8.0663515625,-11.2123203125,-12.03920703125,-8.39078125,-9.4031171875,-13.20673046875,-11.59858203125,-7.932265625,-7.59203515625,-17.239234375,-10.317203125,-14.23801171875,-11.64842578125,-13.03058203125,-10.551640625,-10.40371484375,-12.26193359375,-16.23690625,-7.5890703125,-3.39689453125,-15.785109375,-4.27596484375,-7.99867578125,1.12262109375,-1.54384765625,-0.51569921875,-3.36569921875,6.47996875
-9.96527734375,-11.755015625,-6.3783515625,-11.5383203125,-13.05420703125,-9.58178125,-11.0071171875,-12.55473046875,-12.29858203125,-9.358265625,-8.54203515625,-17.915234375,-9.719203125,-14.49201171875,-13.16542578125,-15.16558203125,-10.945640625,-9.84971484375,-13.37893359375,-18.38190625,-9.3480703125,-1.79489453125,-15.908109375,-5.79596484375,-9.50767578125,0.66362109375,-2.28984765625,0.47530078125,-3.51369921875,7.88296875
-10.30127734375,-12.832015625,-6.1763515625,-11.9833203125,-14.18120703125,-10.42378125,-12.3721171875,-12.44773046875,-12.91758203125,-10.695265625,-9.72603515625,-18.198234375,-9.262203125,-15.08901171875,-14.99442578125,-17.74058203125,-11.304640625,-10.01071484375,-15.12093359375,-20.76190625,-11.5280703125,-1.43389453125,-16.644109375,-8.32396484375,-12.01167578125,-1.09037890625,-4.19684765625,0.33330078125,-5.19669921875,7.15096875
-9.86427734375,-13.530015625,-7.5053515625,-12.3453203125,-15.03320703125,-10.75478125,-13.2611171875,-13.17773046875,-13.23958203125,-11.494265625,-10.86303515625,-18.130234375,-9.071203125,-15.88001171875,-16.67342578125,-20.08358203125,-11.572640625,-10.74271484375,-17.07093359375,-22.73290625,-13.3530703125,-2.59889453125,-17.909109375,-11.19796484375,-14.68167578125,-3.37637890625,-6.76184765625,-1.00869921875,-7.95669921875,4.76296875
-8.82127734375,-13.569015625,-9.6713515625,-12.3923203125,-15.22920703125,-10.50478125,-13.4691171875,-14.38673046875,-13.02058203125,-11.381265625,-11.56803515625,-17.610234375,-9.204203125,-16.49301171875,-17.65242578125,-21.39258203125,-11.557640625,-11.60071484375,-18.68693359375,-23.64990625,-14.0410703125,-4.99089453125,-19.412109375,-13.62096484375,-16.53567578125,-5.20737890625,-9.27484765625,-3.08269921875,-10.89769921875,1.78096875
-7.36827734375,-12.768015625,-11.6103515625,-11.8883203125,-14.51720703125,-9.67178125,-12.8441171875,-15.24073046875,-12.10958203125,-10.206265625,-11.49003515625,-16.462234375,-9.672203125,-16.53301171875,-17.53142578125,-21.03558203125,-11.040640625,-12.12271484375,-19.55993359375,-23.14590625,-13.1400703125,-8.01189453125,-20.873109375,-15.00296484375,-16.86567578125,-5.88337890625,-11.17584765625,-5.28869921875,-13.16869921875,-0.743031249999998
-5.68427734375,-11.146015625,-12.3673515625,-10.6873203125,-12.85720703125,-8.30678125,-11.3271171875,-14.91773046875,-10.53458203125,-8.124265625,-10.46603515625,-14.568234375,-10.438203125,-15.79401171875,-16.25142578125,-18.81658203125,-9.876640625,-12.09871484375,-19.58493359375,-21.29690625,-10.7110703125,-11.09589453125,-22.177109375,-15.18896484375,-15.52167578125,-5.26137890625,-12.29484765625,-7.28569921875,-14.34269921875,-2.22603125
-3.93627734375,-8.957015625,-11.4553515625,-8.8363203125,-10.43820703125,-6.52378125,-9.0001171875,-13.09273046875,-8.50458203125,-5.553265625,-8.60103515625,-12.004234375,-11.349203125,-14.35901171875,-14.12842578125,-15.06758203125,-8.071640625,-11.63771484375,-18.93793359375,-18.55690625,-7.2700703125,-13.85789453125,-23.351109375,-14.43796484375,-12.92567578125,-3.72137890625,-12.83384765625,-9.09169921875,-14.50269921875,-2.66103125
-2.30727734375,-6.650015625,-9.0143515625,-6.6133203125,-7.64720703125,-4.52778125,-6.1501171875,-10.13873046875,-6.34258203125,-3.040265625,-6.26303515625,-9.112234375,-12.081203125,-12.54201171875,-11.72642578125,-10.56058203125,-5.808640625,-11.00871484375,-17.92593359375,-15.56190625,-3.5820703125,-16.05989453125,-24.432109375,-13.21896484375,-9.86167578125,-1.92737890625,-13.16384765625,-10.89569921875,-14.06569921875,-2.43603125
-0.97327734375,-4.749015625,-5.7663515625,-4.4623203125,-4.99420703125,-2.63178125,-3.2981171875,-6.95673046875,-4.38758203125,-1.116265625,-3.99903515625,-6.485234375,-12.162203125,-10.74301171875,-9.64942578125,-6.28858203125,-3.444640625,-10.40571484375,-16.83093359375,-12.92490625,-0.402070312499999,-17.49989453125,-25.325109375,-11.97096484375,-7.17467578125,-0.56437890625,-13.58284765625,-12.77269921875,-13.51369921875,-2.05303125
-0.0742773437499999,-3.731015625,-2.7613515625,-2.8533203125,-3.01420703125,-1.24678125,-1.1321171875,-4.55773046875,-2.91558203125,-0.177265624999999,-2.40903515625,-4.807234375,-11.156203125,-9.29301171875,-8.37442578125,-3.20758203125,-1.437640625,-9.81071484375,-15.83693359375,-11.10290625,1.7109296875,-17.95889453125,-25.802109375,-10.95496484375,-5.49667578125,-0.12337890625,-14.18884765625,-14.50769921875,-13.16269921875,-1.88003125
0.32872265625,-3.876015625,-0.999351562500001,-2.1353203125,-2.14820703125,-0.795781249999999,-0.3061171875,-3.62073046875,-2.13058203125,-0.412265625,-1.97203515625,-4.614234375,-8.924203125,-8.38601171875,-8.14142578125,-1.97258203125,-0.208640625,-9.04571484375,-15.02693359375,-10.33590625,2.4999296875,-17.27989453125,-25.602109375,-10.22796484375,-5.06967578125,-0.74137890625,-14.86484765625,-15.64169921875,-13.06569921875,-2.01303125
0.23372265625,-5.153015625,-1.0533515625,-2.4323203125,-2.61620703125,-1.56278125,-1.1521171875,-4.21773046875,-2.18058203125,-1.745265625,-2.85903515625,-6.036234375,-5.798203125,-8.07001171875,-8.92442578125,-2.74758203125,0.0263593750000002,-7.94771484375,-14.41793359375,-10.62090625,2.0199296875,-15.51189453125,-24.586109375,-9.71396484375,-5.72067578125,-2.15637890625,-15.38184765625,-15.71869921875,-13.07269921875,-2.28503125
-0.34327734375,-7.172015625,-2.8553515625,-3.5933203125,-4.30820703125,-3.52678125,-3.4691171875,-5.81773046875,-3.13458203125,-3.827265625,-4.83503515625,-8.678234375,-2.506203125,-8.28501171875,-10.43942578125,-5.13658203125,-0.626640624999999,-6.54871484375,-13.97593359375,-11.71790625,0.594929687500001,-13.00889453125,-22.840109375,-9.30496484375,-6.97467578125,-3.78637890625,-15.54484765625,-14.55469921875,-12.95769921875,-2.37303125
-1.36427734375,-9.270015625,-5.7143515625,-5.2183203125,-6.75720703125,-6.28778125,-6.5291171875,-7.56373046875,-4.91058203125,-6.090265625,-7.30703515625,-11.708234375,0.150796875,-8.87301171875,-12.21542578125,-8.30458203125,-1.762640625,-5.09671484375,-13.60993359375,-13.20190625,-1.2620703125,-10.33589453125,-20.637109375,-8.91696484375,-8.26067578125,-4.95037890625,-15.28584765625,-12.34469921875,-12.52169921875,-1.95303125
-2.71327734375,-10.739015625,-8.6043515625,-6.7803203125,-9.22120703125,-9.14778125,-9.3201171875,-8.68573046875,-7.19458203125,-7.892265625,-9.52403515625,-14.110234375,1.672796875,-9.57101171875,-13.70142578125,-11.23958203125,-2.817640625,-3.91871484375,-13.16093359375,-14.54990625,-2.9610703125,-8.01089453125,-18.312109375,-8.48096484375,-9.09367578125,-5.12637890625,-14.65484765625,-9.52269921875,-11.62869921875,-0.858031249999998
-4.12527734375,-11.100015625,-10.5593515625,-7.7953203125,-10.84820703125,-11.34078125,-10.8941171875,-8.81473046875,-9.43158203125,-8.726265625,-10.84503515625,-15.018234375,2.060796875,-10.03101171875,-14.41342578125,-13.07658203125,-3.270640625,-3.20071484375,-12.44293359375,-15.27090625,-3.9710703125,-6.23489453125,-16.110109375,-7.91296484375,-9.21567578125,-4.18937890625,-13.74584765625,-6.52969921875,-10.24169921875,0.777968750000001
-5.21727734375,-10.300015625,-11.0223515625,-7.9703203125,-10.86120703125,-12.27878125,-10.6541171875,-8.05373046875,-10.92958203125,-8.400265625,-10.95903515625,-13.997234375,1.731796875,-9.89801171875,-14.06842578125,-13.36058203125,-2.808640625,-2.86371484375,-11.32793359375,-15.03590625,-3.9840703125,-4.81889453125,-14.123109375,-7.12196484375,-8.64767578125,-2.50137890625,-12.66584765625,-3.66869921875,-8.47769921875,2.46296875
-5.61827734375,-8.702015625,-9.9483515625,-7.2503203125,-8.72820703125,-11.69978125,-8.4621171875,-6.79873046875,-11.06358203125,-7.073265625,-9.93203515625,-11.144234375,1.250796875,-8.91601171875,-12.63442578125,-12.12758203125,-1.406640625,-2.60571484375,-9.82393359375,-13.76290625,-2.9950703125,-3.36489453125,-12.310109375,-6.04996484375,-7.64967578125,-0.80337890625,-11.53884765625,-1.09969921875,-6.62169921875,3.45096875
-5.13127734375,-6.848015625,-7.6713515625,-5.7773203125,-4.30620703125,-9.68578125,-4.5771171875,-5.47373046875,-9.50858203125,-5.117265625,-8.08703515625,-6.947234375,1.050796875,-7.02701171875,-10.29242578125,-9.76658203125,0.727359375,-2.08971484375,-8.06393359375,-11.59290625,-1.2530703125,-1.54289453125,-10.578109375,-4.70896484375,-6.57267578125,0.140621093749999,-10.49784765625,1.11430078125,-5.01769921875,3.07496875
-3.83827734375,-5.141015625,-4.6693515625,-3.7943203125,2.05179296875,-6.59078125,0.4918828125,-4.32773046875,-6.41458203125,-2.899265625,-5.80603515625,-1.997234375,1.283796875,-4.39001171875,-7.34042578125,-6.78158203125,3.287359375,-1.14971484375,-6.20493359375,-8.80690625,0.8999296875,0.734105468750001,-8.844109375,-3.16896484375,-5.66367578125,-0.0253789062500003,-9.61884765625,3.00730078125,-3.85969921875,1.15496875
-2.07527734375,-3.663015625,-1.3973515625,-1.5823203125,9.49979296875,-2.94578125,6.1198828125,-3.38973046875,-2.41358203125,-0.642265624999999,-3.38803515625,3.219765625,1.832796875,-1.34301171875,-4.10542578125,-3.59258203125,5.999359375,0.11228515625,-4.33893359375,-5.73490625,3.1869296875,3.32610546875,-7.068109375,-1.52896484375,-4.95167578125,-1.00737890625,-8.86184765625,4.72730078125,-3.04469921875,-1.79703125
-2.07527734375,-3.663015625,-1.3973515625,-1.5823203125,9.49979296875,-2.94578125,6.1198828125,-3.38973046875,-2.41358203125,-0.642265624999999,-3.38803515625,3.219765625,1.832796875,-1.34301171875,-4.10542578125,-3.59258203125,5.999359375,0.11228515625,-4.33893359375,-5.73490625,3.1869296875,3.32610546875,-7.068109375,-1.52896484375,-4.95167578125,-1.00737890625,-8.86184765625,4.72730078125,-3.04469921875,-1.79703125
