"Fp1","Fpz","Fp2","F7","F3","Fz","F4","F8","FC5","FC1","FC2","FC6","T7","C3","Cz","C4","T8","CP5","CP1","CP2","CP6","P7","P3","Pz","P4","P8","POz","O1","Oz","O2"
1.29236328125,12.99159765625,1.53575390625,8.9060625,-2.706765625,5.627453125,2.82956640625,4.3525625,0.885191406250001,6.47711328125,0.52994140625,3.025921875,0.5300390625,-5.11713671875,-3.57169140625,-3.707125,1.9204921875,5.3621953125,-2.41785546875,0.761546875000001,-3.2532109375,6.4357734375,-8.7450390625,-3.89266015625,-4.31640625,-1.98652734375,-4.17808203125,-4.72171875,-5.513734375,-1.21523828125
-2.15363671875,11.32059765625,0.33875390625,3.7100625,-1.547765625,5.497453125,2.42156640625,3.7915625,-2.71080859375,4.12111328125,1.94494140625,5.763921875,-1.7629609375,-6.88513671875,-2.04869140625,-0.877124999999999,1.3884921875,0.5711953125,-3.72385546875,-0.417453125,-1.5062109375,-1.1112265625,-13.2200390625,-4.19266015625,-3.84640625,-2.72952734375,-5.85408203125,-9.62671875,-7.873734375,-3.84023828125
-5.16163671875,9.05559765625,0.24875390625,-0.0259374999999999,-1.497765625,4.871453125,1.88156640625,2.9585625,-5.23380859375,2.31811328125,2.26594140625,6.521921875,-3.1799609375,-8.56513671875,-1.80569140625,0.170875000000001,0.8454921875,-3.3388046875,-5.25085546875,-1.808453125,-1.0422109375,-6.5412265625,-16.3550390625,-5.22866015625,-4.21540625,-3.53352734375,-7.40608203125,-12.84771875,-9.581734375,-5.60023828125
-7.61063671875,6.32359765625,1.09075390625,-2.2289375,-2.452765625,3.740453125,1.06156640625,2.0165625,-6.81480859375,1.01511328125,1.40594140625,5.215921875,-3.7139609375,-10.05713671875,-2.84469140625,-0.606125,0.1244921875,-6.0678046875,-6.86885546875,-3.379453125,-1.8692109375,-9.6812265625,-18.0300390625,-6.86966015625,-5.37140625,-4.31652734375,-8.67808203125,-14.24671875,-10.448734375,-6.40423828125
-9.28463671875,3.58859765625,2.22775390625,-3.1089375,-3.904765625,2.343453125,-0.0774335937499997,1.2065625,-7.77080859375,0.0711132812499997,-0.32905859375,2.408921875,-3.6119609375,-11.20213671875,-4.73769140625,-2.708125,-0.9295078125,-7.4398046875,-8.31285546875,-4.990453125,-3.6142109375,-10.8922265625,-18.4640390625,-8.70366015625,-6.99240625,-4.97552734375,-9.51208203125,-14.12171875,-10.478734375,-6.45223828125
-9.87063671875,1.46659765625,2.88775390625,-2.9199375,-5.182765625,1.110453125,-1.36843359375,0.6945625,-8.26780859375,-0.57388671875,-2.33705859375,-0.962078125,-3.2409609375,-11.80213671875,-6.81469140625,-5.371125,-2.3325078125,-7.4208046875,-9.29685546875,-6.444453125,-5.7642109375,-10.7822265625,-18.0560390625,-10.25666015625,-8.67640625,-5.48252734375,-9.84108203125,-13.01271875,-9.912734375,-6.18023828125
-9.19663671875,0.422597656250001,2.54475390625,-1.9139375,-5.706765625,0.483453125,-2.52443359375,0.5065625,-8.21180859375,-0.83288671875,-3.93605859375,-3.941078125,-2.9349609375,-11.69413671875,-8.40369140625,-7.862125,-3.9195078125,-6.1778046875,-9.62485546875,-7.558453125,-7.8672109375,-9.9682265625,-17.2410390625,-11.19166015625,-10.10440625,-5.92352734375,-9.72908203125,-11.50271875,-9.153734375,-6.08923828125
-7.48863671875,0.527597656250001,1.17375390625,-0.4019375,-5.149765625,0.721453125,-3.30443359375,0.5705625,-7.40180859375,-0.54188671875,-4.60905859375,-5.836078125,-2.8589609375,-10.83513671875,-9.01669140625,-9.640125,-5.4005078125,-4.1088046875,-9.27285546875,-8.199453125,-9.6092109375,-8.9672265625,-16.3780390625,-11.38766015625,-11.08940625,-6.41952734375,-9.33208203125,-10.06471875,-8.581734375,-6.50623828125
-5.36063671875,1.43159765625,-0.75424609375,1.2360625,-3.514765625,1.797453125,-3.63043359375,0.7725625,-5.76380859375,0.41811328125,-4.17605859375,-6.363078125,-2.9459609375,-9.36213671875,-8.50569140625,-10.428125,-6.4475078125,-1.7798046875,-8.39285546875,-8.303453125,-10.7902109375,-8.1422265625,-15.6800390625,-10.92366015625,-11.55240625,-7.00152734375,-8.81408203125,-8.96471875,-8.370734375,-7.40023828125
-3.50263671875,2.54659765625,-2.54124609375,2.6320625,-1.134765625,3.415453125,-3.58643359375,0.9845625,-3.50980859375,1.99911328125,-2.85305859375,-5.661078125,-2.9559609375,-7.59313671875,-7.11269140625,-10.218125,-6.7955078125,0.2311953125,-7.27085546875,-7.892453125,-11.2882109375,-7.6712265625,-15.1870390625,-10.00366015625,-11.49540625,-7.53252734375,-8.27908203125,-8.23871875,-8.437734375,-8.40223828125
-2.36763671875,3.31659765625,-3.61924609375,3.5120625,1.424234375,5.112453125,-3.37443359375,1.0885625,-1.17780859375,3.92411328125,-1.14705859375,-4.200078125,-2.6699609375,-5.97313671875,-5.36969140625,-9.234125,-6.3355078125,1.5121953125,-6.23585546875,-7.089453125,-11.0592109375,-7.5552265625,-14.8340390625,-8.87866015625,-10.97940625,-7.77552734375,-7.75208203125,-7.76871875,-8.525734375,-9.00923828125
-2.05163671875,3.43059765625,-3.79224609375,3.7610625,3.550234375,6.431453125,-3.20143359375,1.0115625,0.51719140625,5.74411328125,0.36894140625,-2.581078125,-2.1059609375,-4.92713671875,-3.85769140625,-7.843125,-5.1965078125,1.9331953125,-5.53385546875,-6.107453125,-10.1712109375,-7.6542265625,-14.5490390625,-7.76966015625,-10.11640625,-7.54552734375,-7.19908203125,-7.39571875,-8.366734375,-8.86523828125
-2.35763671875,2.93659765625,-3.25324609375,3.4760625,4.808234375,7.104453125,-3.15143359375,0.7645625,1.00819140625,7.03611328125,1.31594140625,-1.312078125,-1.5449609375,-4.68913671875,-2.95269140625,-6.439125,-3.7265078125,1.6831953125,-5.22485546875,-5.184453125,-8.8542109375,-7.7282265625,-14.2970390625,-6.81666015625,-9.07140625,-6.85652734375,-6.57508203125,-6.99971875,-7.815734375,-7.93923828125
-2.89063671875,2.22159765625,-2.43124609375,2.9910625,5.095234375,7.171453125,-3.10443359375,0.4425625,0.20619140625,7.61811328125,1.65294140625,-0.638078125,-1.2989609375,-5.16113671875,-2.68769140625,-5.338125,-2.3845078125,1.1981953125,-5.15185546875,-4.493453125,-7.4952109375,-7.4942265625,-14.0390390625,-6.06966015625,-8.06640625,-5.95852734375,-5.86108203125,-6.50371875,-6.916734375,-6.53023828125
-3.19263671875,1.85859765625,-1.79424609375,2.7440625,4.680234375,6.940453125,-2.82843359375,0.1815625,-1.40680859375,7.63011328125,1.64394140625,-0.504078125,-1.4019609375,-5.92013671875,-2.78269140625,-4.700125,-1.5855078125,0.9921953125,-5.01485546875,-4.072453125,-6.5202109375,-6.7282265625,-13.6740390625,-5.49166015625,-7.31340625,-5.20352734375,-5.08108203125,-5.86371875,-5.860734375,-5.09723828125
-2.92763671875,2.33559765625,-1.66924609375,3.0280625,4.074234375,6.805453125,-2.19343359375,0.0915625,-3.01880859375,7.41711328125,1.66994140625,-0.657078125,-1.5099609375,-6.38713671875,-2.79969140625,-4.471125,-1.5555078125,1.4471953125,-4.50985546875,-3.822453125,-6.1792109375,-5.3912265625,-13.0510390625,-4.97066015625,-6.91140625,-4.81552734375,-4.26808203125,-5.06971875,-4.861734375,-4.01323828125
-2.03663671875,3.78159765625,-2.11224609375,3.8030625,3.803234375,7.045453125,-1.30643359375,0.1925625,-3.87480859375,7.32711328125,2.02394140625,-0.806078125,-1.1289609375,-6.08313671875,-2.34469140625,-4.419125,-2.2435078125,2.6601953125,-3.46185546875,-3.548453125,-6.3852109375,-3.6822265625,-12.0460390625,-4.34666015625,-6.75240625,-4.71552734375,-3.42908203125,-4.13971875,-4.038734375,-3.38523828125
-0.73563671875,5.85359765625,-2.88024609375,4.7420625,4.166234375,7.721453125,-0.45843359375,0.3955625,-3.58380859375,7.58111328125,2.79994140625,-0.747078125,0.0260390625,-4.82913671875,-1.23069140625,-4.238125,-3.3115078125,4.4231953125,-1.90185546875,-3.031453125,-6.7242109375,-1.9652265625,-10.6300390625,-3.47566015625,-6.54740625,-4.53552734375,-2.52608203125,-3.11471875,-3.379734375,-3.04923828125
0.64536328125,7.88959765625,-3.55424609375,5.4270625,5.149234375,8.711453125,0.0735664062500001,0.5785625,-2.22580859375,8.24411328125,3.89994140625,-0.391078125,1.8030390625,-2.79813671875,0.47130859375,-3.674125,-4.2445078125,6.3331953125,-0.04685546875,-2.100453125,-6.6622109375,-0.6192265625,-8.9150390625,-2.30166015625,-5.95640625,-3.83152734375,-1.51708203125,-2.04771875,-2.788734375,-2.71723828125
1.83536328125,9.23459765625,-3.75124609375,5.5550625,6.492234375,9.822453125,0.18756640625,0.7165625,-0.29080859375,9.23711328125,5.12994140625,0.270921875,3.6840390625,-0.42513671875,2.49130859375,-2.622125,-4.5525078125,7.9461953125,1.78314453125,-0.716453125,-5.8192109375,0.1007734375,-7.1470390625,-0.89866015625,-4.77740625,-2.36652734375,-0.416082031249999,-1.02871875,-2.186734375,-2.18423828125
2.70036328125,9.55059765625,-3.30124609375,5.0800625,7.834234375,10.863453125,-0.0264335937499998,0.9285625,1.54919140625,10.35211328125,6.26694140625,1.216921875,5.0810390625,1.75786328125,4.45730859375,-1.172125,-3.9775078125,8.9041953125,3.24314453125,0.951546875,-4.1902109375,0.1377734375,-5.6790390625,0.50833984375,-3.10040625,-0.31452734375,0.62291796875,-0.210718749999999,-1.602734375,-1.47423828125
3.23936328125,8.91559765625,-2.30024609375,4.2560625,8.799234375,11.652453125,-0.41043359375,1.4095625,2.72819140625,11.26711328125,7.06194140625,2.348921875,5.6480390625,3.27586328125,5.93530859375,0.351875000000001,-2.6045078125,9.0241953125,4.02914453125,2.508546875,-2.2102109375,-0.3832265625,-4.8920390625,1.55933984375,-1.35640625,1.73547265625,1.28391796875,0.198281250000001,-1.218734375,-0.855238281250001
3.51336328125,7.68359765625,-1.04024609375,3.5260625,9.046234375,11.968453125,-0.91043359375,2.2695625,2.98819140625,11.58711328125,7.23194140625,3.434921875,5.4090390625,3.81486328125,6.47430859375,1.448875,-0.8445078125,8.3211953125,3.92314453125,3.416546875,-0.6072109375,-1.2292265625,-5.0830390625,1.84533984375,-0.19740625,3.00347265625,1.16991796875,-0.0107187499999988,-1.320734375,-0.726238281250001
3.56436328125,6.24559765625,0.12775390625,3.2860625,8.337234375,11.560453125,-1.64043359375,3.4195625,2.39619140625,10.94911328125,6.52194140625,4.130921875,4.6720390625,3.29586328125,5.75030859375,1.636875,0.7154921875,7.0031953125,2.86414453125,3.218546875,-0.0692109374999994,-2.1622265625,-6.3400390625,1.09233984375,-0.19140625,2.87447265625,0.0119179687500006,-0.942718749999999,-2.143734375,-1.39323828125
3.39036328125,4.85959765625,0.92375390625,3.6590625,6.663234375,10.266453125,-2.75543359375,4.5785625,1.24519140625,9.19811328125,4.87094140625,4.143921875,3.8380390625,1.91386328125,3.78030859375,0.730875,1.5454921875,5.4141953125,1.04214453125,1.793546875,-0.880210937499999,-2.9852265625,-8.4490390625,-0.62066015625,-1.48740625,1.21347265625,-2.10208203125,-2.48971875,-3.666734375,-2.87023828125
3.03336328125,3.64459765625,1.22075390625,4.4540625,4.299234375,8.160453125,-4.23743359375,5.3875625,-0.0608085937499996,6.54511328125,2.54994140625,3.432921875,3.2320390625,0.0958632812499998,1.02230859375,-1.003125,1.4114921875,3.9501953125,-1.09485546875,-0.500453124999999,-2.7652109375,-3.5492265625,-10.8880390625,-2.80866015625,-3.68040625,-1.54352734375,-4.64908203125,-4.29671875,-5.547734375,-4.80223828125
2.66136328125,2.66059765625,1.04075390625,5.3110625,1.720234375,5.583453125,-5.82043359375,5.5655625,-1.10680859375,3.54511328125,0.10694140625,2.249921875,3.0100390625,-1.65513671875,-1.76969140625,-2.960125,0.4744921875,2.9131953125,-2.98885546875,-2.947453125,-5.0352109375,-3.7852265625,-12.9910390625,-4.77166015625,-5.98440625,-4.58852734375,-6.85908203125,-5.87971875,-7.254734375,-6.60623828125
2.50236328125,1.96259765625,0.49175390625,5.8640625,-0.600765625,2.999453125,-7.14243359375,5.0465625,-1.59080859375,0.84011328125,-1.87505859375,1.006921875,3.1400390625,-3.00313671875,-3.89169140625,-4.497125,-0.8225078125,2.3461953125,-4.23385546875,-4.814453125,-6.9282109375,-3.7792265625,-14.2430390625,-5.94666015625,-7.61840625,-7.09452734375,-8.07708203125,-6.85071875,-8.324734375,-7.74223828125
2.65536328125,1.59459765625,-0.27624609375,5.8660625,-2.370765625,0.792453125,-7.97143359375,4.0385625,-1.41780859375,-1.15988671875,-3.04205859375,0.0649218750000002,3.4320390625,-3.92113671875,-4.99569140625,-5.222125,-1.9935078125,1.9871953125,-4.77085546875,-5.697453125,-7.9142109375,-3.7962265625,-14.5310390625,-6.17966015625,-8.15740625,-8.51152734375,-8.07608203125,-7.12071875,-8.581734375,-7.95023828125
3.01636328125,1.58259765625,-1.07524609375,5.2700625,-3.532765625,-0.815546875,-8.26643359375,2.9755625,-0.704808593749999,-2.39988671875,-3.34705859375,-0.368078125,3.6270390625,-4.62913671875,-5.15969140625,-5.092125,-2.6935078125,1.4281953125,-4.84885546875,-5.628453125,-7.8252109375,-4.1142265625,-14.1580390625,-5.73866015625,-7.64340625,-8.68952734375,-7.11408203125,-6.90571875,-8.169734375,-7.31823828125
3.41736328125,1.96459765625,-1.67724609375,4.2700625,-4.188765625,-1.704546875,-8.03243359375,2.3805625,0.31019140625,-3.04588671875,-2.92205859375,-0.217078125,3.5220390625,-5.36713671875,-4.71369140625,-4.304125,-2.7685078125,0.4361953125,-4.80485546875,-4.919453125,-6.8002109375,-4.7792265625,-13.5810390625,-5.08166015625,-6.45440625,-7.80452734375,-5.73308203125,-6.52471875,-7.412734375,-6.16923828125
3.80436328125,2.81059765625,-1.84724609375,3.2140625,-4.472765625,-1.775546875,-7.18043359375,2.6735625,1.34319140625,-3.26688671875,-1.90105859375,0.533921875,3.0530390625,-6.18013671875,-3.97769140625,-3.101125,-2.2235078125,-0.8388046875,-4.80785546875,-3.907453125,-5.1422109375,-5.4842265625,-13.1050390625,-4.55966015625,-5.04240625,-6.21852734375,-4.45408203125,-6.16971875,-6.610734375,-4.87623828125
4.24536328125,4.17059765625,-1.43024609375,2.4160625,-4.470765625,-0.974546875000001,-5.55343359375,4.0025625,2.08519140625,-3.15188671875,-0.35405859375,1.863921875,2.3080390625,-6.90413671875,-3.10069140625,-1.639125,-1.2065078125,-1.9398046875,-4.79285546875,-2.801453125,-3.1972109375,-5.7582265625,-12.7610390625,-4.26566015625,-3.73540625,-4.34052734375,-3.56808203125,-5.83271875,-5.904734375,-3.72823828125
4.78336328125,5.97659765625,-0.42324609375,2.0070625,-4.247765625,0.617453125,-3.07043359375,6.1365625,2.23919140625,-2.76088671875,1.62894140625,3.686921875,1.4420390625,-7.33613671875,-2.09369140625,-0.00312499999999982,0.0144921875000001,-2.4268046875,-4.58285546875,-1.712453125,-1.3092109375,-5.3052265625,-12.4220390625,-4.10166015625,-2.69440625,-2.55552734375,-3.11808203125,-5.43471875,-5.306734375,-2.89423828125
5.33436328125,7.96259765625,1.00275390625,1.9180625,-3.925765625,2.705453125,0.12056640625,8.4945625,1.61119140625,-2.21388671875,3.83494140625,5.797921875,0.5900390625,-7.42713671875,-0.98769140625,1.678875,1.1214921875,-2.1898046875,-4.10085546875,-0.751453125,0.1827890625,-4.2542265625,-11.9990390625,-3.97566015625,-1.98940625,-1.18852734375,-3.02308203125,-5.00671875,-4.830734375,-2.47223828125
5.66736328125,9.68159765625,2.54575390625,1.9660625,-3.707765625,4.806453125,3.59056640625,10.3315625,0.180191406250001,-1.70188671875,5.89694140625,7.867921875,-0.1879609375,-7.36013671875,0.0483085937499999,3.149875,1.8374921875,-1.5608046875,-3.47785546875,-0.0864531249999998,0.9727890625,-3.1192265625,-11.5680390625,-3.92966015625,-1.68940625,-0.47552734375,-3.21008203125,-4.76371875,-4.581734375,-2.52523828125
5.45036328125,10.61659765625,3.86275390625,1.9020625,-3.806765625,6.366453125,6.67056640625,11.0405625,-1.92080859375,-1.44288671875,7.38894140625,9.493921875,-0.9109609375,-7.45413671875,0.73330859375,4.075875,2.0024921875,-1.1618046875,-3.00585546875,0.0935468750000004,0.885789062500001,-2.5212265625,-11.3650390625,-4.12266015625,-1.84840625,-0.507527343750001,-3.66608203125,-5.01971875,-4.731734375,-3.06423828125
4.36836328125,10.36559765625,4.68575390625,1.4790625,-4.334765625,6.936453125,8.62156640625,10.4125625,-4.46780859375,-1.61388671875,7.95894140625,10.295921875,-1.6809609375,-7.99613671875,0.79230859375,4.180875,1.5994921875,-1.5948046875,-2.99785546875,-0.337453125,-0.0212109374999994,-2.8672265625,-11.6630390625,-4.70166015625,-2.45040625,-1.19052734375,-4.40508203125,-5.98971875,-5.393734375,-4.00523828125
2.32636328125,8.83259765625,4.89475390625,0.5600625,-5.255765625,6.329453125,8.89156640625,8.7205625,-7.17580859375,-2.28288671875,7.45294140625,10.030921875,-2.6699609375,-9.09313671875,0.0793085937499995,3.377875,0.7724921875,-3.1048046875,-3.64385546875,-1.372453125,-1.4642109375,-4.1532265625,-12.5960390625,-5.69366015625,-3.38740625,-2.25952734375,-5.41708203125,-7.62871875,-6.516734375,-5.16023828125
-0.36663671875,6.34159765625,4.54775390625,-0.7859375,-6.427765625,4.703453125,7.37456640625,6.6075625,-9.70580859375,-3.36688671875,5.96394140625,8.707921875,-4.0789609375,-10.60813671875,-1.36769140625,1.816875,-0.2065078125,-5.4228046875,-4.92485546875,-2.836453125,-3.0162109375,-5.9742265625,-14.0470390625,-6.98666015625,-4.47240625,-3.34552734375,-6.61808203125,-9.58971875,-7.865734375,-6.26723828125
-3.06563671875,3.57059765625,3.85575390625,-2.3159375,-7.670765625,2.486453125,4.50156640625,4.8135625,-11.72180859375,-4.67388671875,3.80694140625,6.641921875,-6.0419609375,-12.22013671875,-3.31969140625,-0.153125,-1.0355078125,-7.8668046875,-6.61485546875,-4.437453125,-4.2532109375,-7.7112265625,-15.6680390625,-8.35566015625,-5.49740625,-4.07752734375,-7.82608203125,-11.34871875,-9.074734375,-7.05323828125
-5.12063671875,1.30259765625,3.14575390625,-3.7799375,-8.843765625,0.199453125,1.09256640625,3.8785625,-12.99980859375,-6.00088671875,1.42494140625,4.393921875,-8.5089609375,-13.55613671875,-5.42969140625,-2.094125,-1.5115078125,-9.6818046875,-8.35885546875,-5.866453125,-4.8922109375,-8.7702265625,-17.0430390625,-9.54666015625,-6.29840625,-4.19652734375,-8.80208203125,-12.39471875,-9.765734375,-7.31723828125
-6.19763671875,0.145597656250001,2.76675390625,-5.0459375,-9.881765625,-1.735546875,-1.95143359375,3.9165625,-13.50380859375,-7.20888671875,-0.74705859375,2.566921875,-11.1509609375,-14.34113671875,-7.35169140625,-3.658125,-1.6165078125,-10.3848046875,-9.80885546875,-6.923453125,-4.9012109375,-8.7672265625,-17.8610390625,-10.37666015625,-6.82940625,-3.66552734375,-9.33808203125,-12.40871875,-9.693734375,-6.99523828125
-6.35563671875,0.335597656250001,2.95575390625,-6.0949375,-10.779765625,-3.096546875,-3.95943359375,4.6055625,-13.39380859375,-8.23088671875,-2.39405859375,1.570921875,-13.3759609375,-14.49913671875,-8.85969140625,-4.703125,-1.5025078125,-9.9448046875,-10.75285546875,-7.587453125,-4.5232109375,-7.6412265625,-18.0110390625,-10.81566015625,-7.18840625,-2.71852734375,-9.36008203125,-11.34371875,-8.858734375,-6.20023828125
-5.90963671875,1.69059765625,3.68775390625,-6.9429375,-11.516765625,-3.851546875,-4.66643359375,5.3915625,-12.97980859375,-9.02588671875,-3.37005859375,1.484921875,-14.5119609375,-14.15813671875,-9.86469140625,-5.286125,-1.3875078125,-8.7438046875,-11.16285546875,-7.988453125,-4.1382109375,-5.6962265625,-17.5940390625,-10.97966015625,-7.54040625,-1.79652734375,-8.96908203125,-9.43671875,-7.523734375,-5.19823828125
-5.24063671875,3.68159765625,4.67175390625,-7.5909375,-11.991765625,-4.079546875,-4.20043359375,5.8005625,-12.62380859375,-9.54388671875,-3.66205859375,2.087921875,-14.1189609375,-13.58013671875,-10.35669140625,-5.528125,-1.4585078125,-7.3938046875,-11.15485546875,-8.297453125,-4.0392109375,-3.5602265625,-16.8640390625,-11.03766015625,-7.99040625,-1.35552734375,-8.38708203125,-7.15171875,-6.104734375,-4.31423828125
-4.64863671875,5.60059765625,5.49375390625,-8.0139375,-12.054765625,-3.886546875,-2.92143359375,5.6605625,-12.58880859375,-9.71388671875,-3.34005859375,3.009921875,-12.2719609375,-13.03213671875,-10.32369140625,-5.480125,-1.7785078125,-6.4658046875,-10.88185546875,-8.581453125,-4.2502109375,-1.9792265625,-16.1110390625,-11.07166015625,-8.47940625,-1.66652734375,-7.84608203125,-5.04871875,-5.005734375,-3.81223828125
-4.24563671875,6.78159765625,5.84075390625,-8.1609375,-11.604765625,-3.364546875,-1.26343359375,5.1035625,-12.88680859375,-9.44288671875,-2.51705859375,3.886921875,-9.5969609375,-12.65913671875,-9.74769140625,-5.115125,-2.2615078125,-6.2348046875,-10.43785546875,-8.736453125,-4.5342109375,-1.4892265625,-15.5150390625,-11.01466015625,-8.80440625,-2.68152734375,-7.47108203125,-3.58871875,-4.463734375,-3.79323828125
-3.95263671875,6.82159765625,5.63075390625,-7.9919375,-10.671765625,-2.607546875,0.34356640625,4.4035625,-13.26780859375,-8.66888671875,-1.36305859375,4.438921875,-6.9969609375,-12.41413671875,-8.65569140625,-4.419125,-2.7225078125,-6.5718046875,-9.81085546875,-8.547453125,-4.5712109375,-2.1462265625,-15.0520390625,-10.68466015625,-8.73140625,-4.05752734375,-7.22508203125,-2.95371875,-4.454734375,-4.15823828125
-3.58663671875,5.71659765625,4.98375390625,-7.5389375,-9.418765625,-1.749546875,1.49456640625,3.7755625,-13.39280859375,-7.42988671875,-0.11205859375,4.473921875,-5.2369609375,-12.08613671875,-7.16469140625,-3.494125,-2.9995078125,-7.0368046875,-8.91585546875,-7.851453125,-4.1902109375,-3.4982265625,-14.5320390625,-9.89366015625,-8.12840625,-5.30952734375,-6.93608203125,-2.97371875,-4.701734375,-4.64023828125
-2.97363671875,3.85959765625,4.07875390625,-6.9159375,-8.086765625,-0.971546875,1.86456640625,3.2435625,-13.04380859375,-5.91988671875,0.94194140625,3.873921875,-4.6209609375,-11.42513671875,-5.49969140625,-2.599125,-3.0715078125,-7.1208046875,-7.68185546875,-6.686453125,-3.5212109375,-4.8162265625,-13.7270390625,-8.58366015625,-7.07440625,-6.03952734375,-6.40108203125,-3.21571875,-4.796734375,-4.91323828125
-2.02463671875,1.88459765625,3.01675390625,-6.2509375,-6.958765625,-0.486546875,1.30056640625,2.6375625,-12.24580859375,-4.46288671875,1.48394140625,2.578921875,-4.9289609375,-10.30813671875,-3.98869140625,-2.111125,-3.1145078125,-6.5138046875,-6.16885546875,-5.350453125,-2.9872109375,-5.4362265625,-12.5240390625,-6.91866015625,-5.88240625,-6.12752734375,-5.52608203125,-3.19671875,-4.412734375,-4.72923828125
-0.80763671875,0.395597656250001,1.79175390625,-5.6439375,-6.331765625,-0.524546875,-0.17643359375,1.6955625,-11.28180859375,-3.46188671875,1.22994140625,0.588921875,-5.6269609375,-8.87613671875,-3.03069140625,-2.416125,-3.4555078125,-5.2658046875,-4.63785546875,-4.334453125,-3.1222109375,-5.0322265625,-11.0240390625,-5.28566015625,-5.01840625,-5.79752734375,-4.41808203125,-2.61171875,-3.482734375,-4.04523828125
0.36836328125,-0.307402343749999,0.35175390625,-5.2059375,-6.470765625,-1.315546875,-2.46743359375,0.1995625,-10.60880859375,-3.32888671875,-0.01805859375,-2.027078125,-6.2049609375,-7.55113671875,-3.01769140625,-3.760125,-4.4565078125,-3.8118046875,-3.52785546875,-4.168453125,-4.3092109375,-3.7262265625,-9.5600390625,-4.18466015625,-4.91440625,-5.48252734375,-3.37908203125,-1.48371875,-2.244734375,-3.05123828125
1.00736328125,-0.324402343749999,-1.29624609375,-5.0829375,-7.519765625,-3.012546875,-5.45143359375,-1.8994375,-10.68980859375,-4.36888671875,-2.29105859375,-5.093078125,-6.4459609375,-6.89013671875,-4.20969140625,-6.134125,-6.3365078125,-2.7958046875,-3.31885546875,-5.227453125,-6.5792109375,-1.9772265625,-8.6060390625,-4.04966015625,-5.79140625,-5.56552734375,-2.79608203125,-0.146718749999999,-1.119734375,-2.09423828125
0.70136328125,-0.0324023437499994,-3.03824609375,-5.3799375,-9.414765625,-5.552546875,-8.90743359375,-4.4454375,-11.76880859375,-6.62488671875,-5.39005859375,-8.288078125,-6.4789609375,-7.33513671875,-6.61569140625,-9.249125,-9.0025078125,-2.7618046875,-4.33485546875,-7.566453125,-9.5832109375,-0.3482265625,-8.5740390625,-5.08866015625,-7.57440625,-6.15252734375,-2.97908203125,0.91528125,-0.527734375,-1.53123828125
-0.53063671875,0.172597656250001,-4.68424609375,-6.0409375,-11.843765625,-8.553546875,-12.38943359375,-7.1154375,-13.71980859375,-9.75588671875,-8.87405859375,-11.151078125,-6.6139609375,-8.97013671875,-9.93069140625,-12.599125,-11.9765078125,-3.8628046875,-6.55985546875,-10.839453125,-12.7232109375,0.7487734375,-9.5930390625,-7.18766015625,-9.93240625,-7.02252734375,-4.01508203125,1.30328125,-0.704734375,-1.59223828125
-2.17263671875,0.0945976562500004,-6.05924609375,-6.8449375,-14.274765625,-11.372546875,-15.25643359375,-9.5214375,-16.07880859375,-13.06988671875,-12.13405859375,-13.182078125,-7.0819609375,-11.43413671875,-13.54869140625,-15.586125,-14.5405078125,-5.7668046875,-9.57985546875,-14.366453125,-15.3462109375,1.1847734375,-11.3960390625,-9.91266015625,-12.37340625,-7.75352734375,-5.68008203125,0.89128125,-1.591734375,-2.27223828125
-3.47563671875,-0.198402343749999,-7.07224609375,-7.5159375,-16.068765625,-13.322546875,-16.89343359375,-11.3174375,-18.20880859375,-15.73988671875,-14.55105859375,-14.019078125,-7.8429609375,-14.02813671875,-16.68369140625,-17.666125,-16.0165078125,-7.7968046875,-12.65785546875,-17.323453125,-16.9282109375,1.1257734375,-13.3770390625,-12.58466015625,-14.36440625,-7.94552734375,-7.45908203125,-0.10871875,-2.813734375,-3.30223828125
-3.85963671875,-0.47440234375,-7.69524609375,-7.8419375,-16.698765625,-13.947546875,-16.98043359375,-12.2874375,-19.47980859375,-17.09888671875,-15.67905859375,-13.592078125,-8.5859609375,-15.96113671875,-18.60069140625,-18.505125,-16.0395078125,-9.2168046875,-14.96985546875,-18.995453125,-17.2142109375,0.9277734375,-14.7970390625,-14.46866015625,-15.45440625,-7.39452734375,-8.69408203125,-1.23371875,-3.800734375,-4.21723828125
-3.18863671875,-0.52540234375,-7.89124609375,-7.7559375,-15.995765625,-13.214546875,-15.66643359375,-12.3904375,-19.44280859375,-16.87388671875,-15.40405859375,-12.178078125,-8.9069609375,-16.64113671875,-18.88669140625,-18.091125,-14.6825078125,-9.5098046875,-15.87885546875,-18.994453125,-16.2962109375,0.9477734375,-15.0570390625,-15.01566015625,-15.40840625,-6.16852734375,-8.83308203125,-1.98071875,-4.029734375,-4.53623828125
-1.82263671875,-0.305402343749999,-7.55624609375,-7.3779375,-14.253765625,-11.518546875,-13.51143359375,-11.7314375,-17.97580859375,-15.27088671875,-13.96605859375,-10.293078125,-8.5519609375,-15.87513671875,-17.58669140625,-16.715125,-12.4045078125,-8.5438046875,-15.14885546875,-17.367453125,-14.5562109375,1.3307734375,-13.9250390625,-14.04766015625,-14.27040625,-4.54452734375,-7.65008203125,-2.04571875,-3.272734375,-3.97823828125
-0.42863671875,0.0825976562500008,-6.56824609375,-6.9819375,-12.086765625,-9.493546875,-11.23943359375,-10.5034375,-15.36380859375,-12.85588671875,-11.82405859375,-8.473078125,-7.5499609375,-13.88613671875,-15.12169140625,-14.793125,-9.8635078125,-6.5858046875,-12.97785546875,-14.534453125,-12.4882109375,1.9037734375,-11.6220390625,-11.78966015625,-12.31540625,-2.88952734375,-5.32208203125,-1.45871875,-1.698734375,-2.61523828125
0.39836328125,0.511597656250001,-4.91524609375,-6.8079375,-10.124765625,-7.702546875,-9.39543359375,-8.9214375,-12.17880859375,-10.29088671875,-9.44605859375,-7.052078125,-6.1329609375,-11.17013671875,-12.07569140625,-12.679125,-7.6545078125,-4.1398046875,-9.87285546875,-11.104453125,-10.4922109375,2.2777734375,-8.6940390625,-8.74666015625,-9.94040625,-1.54352734375,-2.33108203125,-0.528718749999999,0.203265625,-0.86823828125
0.49136328125,0.942597656250001,-2.80524609375,-6.8159375,-8.749765625,-6.427546875,-8.14743359375,-7.1914375,-9.02880859375,-8.07288671875,-7.16905859375,-6.080078125,-4.5569609375,-8.27813671875,-8.99369140625,-10.581125,-6.0875078125,-1.7108046875,-6.43985546875,-7.676453125,-8.7892109375,2.1017734375,-5.7540390625,-5.51466015625,-7.55840625,-0.75852734375,0.724917968750001,0.338281250000001,1.826265625,0.64376171875
0.18936328125,1.39359765625,-0.64624609375,-6.6389375,-8.008765625,-5.655546875,-7.35343359375,-5.4824375,-6.31380859375,-6.43588671875,-5.21005859375,-5.408078125,-2.9589609375,-5.65213671875,-6.29569140625,-8.618125,-5.1175078125,0.3831953125,-3.22985546875,-4.714453125,-7.4412109375,1.2637734375,-3.2630390625,-2.60966015625,-5.51740625,-0.662527343750001,3.31891796875,0.83528125,2.680265625,1.36876171875
0.0463632812500001,1.81959765625,1.10575390625,-5.8059375,-7.696765625,-5.235546875,-6.81543359375,-3.8714375,-4.15280859375,-5.41688671875,-3.73505859375,-4.857078125,-1.3739609375,-3.55013671875,-4.25769140625,-6.901125,-4.4595078125,2.0481953125,-0.64585546875,-2.506453125,-6.4312109375,-0.0702265625000003,-1.4490390625,-0.37466015625,-4.02840625,-1.22352734375,5.12691796875,0.861281250000001,2.584265625,1.07076171875
0.44736328125,2.05859765625,2.13075390625,-4.0899375,-7.524765625,-5.037546875,-6.45443359375,-2.3254375,-2.45380859375,-4.97188671875,-2.90205859375,-4.346078125,0.1430390625,-2.06413671875,-3.01869140625,-5.560125,-3.8045078125,3.3291953125,1.07414453125,-1.168453125,-5.7282109375,-1.5702265625,-0.352039062500001,1.04333984375,-3.14040625,-2.23552734375,6.06691796875,0.51628125,1.719265625,-0.0582382812500004
1.44736328125,1.94559765625,2.33775390625,-1.7139375,-7.290765625,-5.010546875,-6.27743359375,-0.7824375,-1.03880859375,-5.01788671875,-2.79705859375,-3.888078125,1.4080390625,-1.17213671875,-2.58769140625,-4.716125,-2.9935078125,4.2791953125,1.84914453125,-0.672453125,-5.3262109375,-2.8972265625,0.0859609374999994,1.63633984375,-2.77240625,-3.39152734375,6.23791796875,0.00828125000000046,0.503265625,-1.52123828125
2.84236328125,1.48859765625,1.84275390625,0.6680625,-6.960765625,-5.141546875,-6.25143359375,0.7275625,0.192191406250001,-5.41488671875,-3.34805859375,-3.505078125,2.0910390625,-0.788136718750001,-2.82869140625,-4.395125,-2.0675078125,4.8891953125,1.73914453125,-0.868453125,-5.2332109375,-3.8432265625,-0.0410390625000012,1.48233984375,-2.79340625,-4.41152734375,5.83291796875,-0.468718749999999,-0.630734374999999,-2.79523828125
4.28036328125,0.931597656250001,0.90875390625,2.1750625,-6.623765625,-5.384546875,-6.22743359375,2.0405625,1.15419140625,-5.94388671875,-4.26605859375,-3.137078125,1.8380390625,-0.78213671875,-3.44169140625,-4.458125,-1.2225078125,5.0851953125,0.96914453125,-1.505453125,-5.4112109375,-4.4062265625,-0.6170390625,0.75133984375,-3.04740625,-5.14852734375,5.08791796875,-0.806718749999999,-1.404734375,-3.56623828125
5.32936328125,0.627597656250001,-0.10424609375,2.0510625,-6.375765625,-5.625546875,-5.99343359375,2.9415625,1.62519140625,-6.33288671875,-5.10105859375,-2.656078125,0.4940390625,-0.97513671875,-3.99269140625,-4.603125,-0.6785078125,4.8301953125,-0.0818554687500002,-2.251453125,-5.7272109375,-4.7262265625,-1.4840390625,-0.24366015625,-3.35040625,-5.59452734375,4.27391796875,-0.97571875,-1.729734375,-3.78423828125
5.59836328125,0.813597656250001,-0.80424609375,0.0920625000000004,-6.209765625,-5.690546875,-5.39643359375,3.2775625,1.47019140625,-6.30588671875,-5.39905859375,-1.968078125,-1.6819609375,-1.14913671875,-4.03469140625,-4.487125,-0.5545078125,4.2211953125,-0.93185546875,-2.738453125,-5.9882109375,-4.9322265625,-2.3940390625,-1.07566015625,-3.49440625,-5.83952734375,3.67391796875,-0.957718749999999,-1.651734375,-3.58323828125
4.92336328125,1.44559765625,-0.90724609375,-3.0989375,-5.997765625,-5.412546875,-4.44943359375,3.0065625,0.865191406250001,-5.65588671875,-4.89405859375,-1.110078125,-3.9649609375,-1.08113671875,-3.27269140625,-3.903125,-0.7975078125,3.5281953125,-1.13785546875,-2.653453125,-6.0392109375,-5.0032265625,-3.0240390625,-1.32466015625,-3.30540625,-6.00852734375,3.51491796875,-0.715718749999999,-1.287734375,-3.14623828125
3.49636328125,2.22159765625,-0.40424609375,-6.2659375,-5.538765625,-4.736546875,-3.38143359375,2.2045625,0.289191406250001,-4.33088671875,-3.62905859375,-0.266078125,-5.4109609375,-0.615136718750001,-1.69169140625,-2.873125,-1.2245078125,3.0911953125,-0.44485546875,-1.841453125,-5.8282109375,-4.7912265625,-3.0840390625,-0.75466015625,-2.70740625,-6.19752734375,3.88891796875,-0.224718749999999,-0.771734374999999,-2.60923828125
1.81736328125,2.76859765625,0.38475390625,-8.0589375,-4.649765625,-3.758546875,-2.55243359375,1.0525625,0.27819140625,-2.48688671875,-1.92205859375,0.344921875,-5.3139609375,0.275863281249999,0.45930859375,-1.601125,-1.6325078125,3.1421953125,1.11814453125,-0.371453124999999,-5.3822109375,-4.1742265625,-2.4580390625,0.590339843750001,-1.72740625,-6.42652734375,4.72691796875,0.475281250000001,-0.190734375,-2.00923828125
0.49836328125,2.87359765625,0.95975390625,-7.6809375,-3.267765625,-2.673546875,-2.24543359375,-0.1874375,1.12619140625,-0.42988671875,-0.19905859375,0.593921875,-3.6129609375,1.48286328125,2.77930859375,-0.341124999999999,-1.8725078125,3.6751953125,3.25414453125,1.498546875,-4.7482109375,-3.1822265625,-1.2700390625,2.40733984375,-0.46240625,-6.60652734375,5.84791796875,1.27728125,0.447265625,-1.28923828125
0.0123632812500001,2.58759765625,0.92175390625,-5.2619375,-1.530765625,-1.668546875,-2.48543359375,-1.2524375,2.72419140625,1.50511328125,1.18994140625,0.495921875,-0.9709609375,2.80586328125,4.85630859375,0.706875,-1.8905078125,4.4591953125,5.50514453125,3.416546875,-3.9592109375,-1.9962265625,0.1839609375,4.25333984375,0.94859375,-6.59752734375,7.02691796875,2.06728125,1.203265625,-0.35823828125
0.47136328125,2.16459765625,0.19475390625,-1.7849375,0.229234375,-0.881546875000001,-3.05143359375,-1.9844375,4.59619140625,3.05011328125,2.04994140625,0.135921875,1.5500390625,4.00286328125,6.37030859375,1.423875,-1.7365078125,5.1551953125,7.38714453125,5.033546875,-3.0802109375,-0.8572265625,1.5569609375,5.69733984375,2.32759375,-6.30552734375,8.04591796875,2.77928125,2.129265625,0.807761718749999
1.54236328125,1.88059765625,-0.96824609375,1.4020625,1.589234375,-0.427546875,-3.66843359375,-2.3914375,6.07319140625,4.01411328125,2.31594140625,-0.430078125,3.0250390625,4.83486328125,7.14230859375,1.759875,-1.5745078125,5.4631953125,8.50814453125,6.040546875,-2.2382109375,0.0107734375000001,2.5499609375,6.44633984375,3.46459375,-5.77652734375,8.71591796875,3.40228125,3.206265625,2.10276171875
2.62436328125,1.90459765625,-2.17124609375,3.2250625,2.219234375,-0.415546875,-4.17043359375,-2.6244375,6.59519140625,4.29411328125,1.98594140625,-1.208078125,3.0960390625,5.12286328125,7.12330859375,1.713875,-1.6205078125,5.2251953125,8.66014453125,6.229546875,-1.6082109375,0.4827734375,2.9859609375,6.40833984375,4.16459375,-5.19152734375,8.91291796875,3.95828125,4.315265625,3.31076171875
3.22336328125,2.25359765625,-3.10924609375,3.3450625,2.008234375,-0.900546875,-4.51543359375,-2.8974375,5.96119140625,3.90911328125,1.11094140625,-2.197078125,2.0490390625,4.81486328125,6.37230859375,1.330875,-2.0035078125,4.4771953125,7.86614453125,5.547546875,-1.3512109375,0.5727734375,2.8479609375,5.67933984375,4.30459375,-4.78452734375,8.61291796875,4.47628125,5.271265625,4.20276171875
3.25436328125,2.83859765625,-3.71524609375,2.1830625,1.097234375,-1.811546875,-4.72543359375,-3.3934375,4.39119140625,3.00811328125,-0.18705859375,-3.314078125,0.5640390625,4.00286328125,5.02530859375,0.688875,-2.6675078125,3.4111953125,6.36014453125,4.139546875,-1.5582109375,0.4347734375,2.2719609375,4.46733984375,3.87359375,-4.73452734375,7.88891796875,4.93928125,5.873265625,4.61676171875
3.03836328125,3.52659765625,-4.14924609375,0.5380625,-0.213765625,-2.946546875,-4.83943359375,-4.1804375,2.36619140625,1.79911328125,-1.69905859375,-4.389078125,-0.6759609375,2.87886328125,3.28230859375,-0.114125,-3.4175078125,2.2701953125,4.50014453125,2.301546875,-2.2292109375,0.2667734375,1.4439609375,3.00233984375,2.95159375,-5.09852734375,6.85891796875,5.22428125,5.955265625,4.49276171875
3.03836328125,4.20059765625,-4.63724609375,-0.8739375,-1.602765625,-4.029546875,-4.88943359375,-5.1854375,0.40019140625,0.47211328125,-3.15805859375,-5.227078125,-1.2499609375,1.65386328125,1.39030859375,-0.979125,-4.0585078125,1.2501953125,2.64314453125,0.381546875,-3.2852109375,0.2157734375,0.506960937499999,1.46633984375,1.66659375,-5.80252734375,5.62191796875,5.11028125,5.431265625,3.86276171875
3.57736328125,4.79959765625,-5.28624609375,-1.6799375,-2.846765625,-4.802546875,-4.87043359375,-6.2244375,-1.09580859375,-0.83588671875,-4.30305859375,-5.696078125,-1.0449609375,0.482863281249999,-0.39469140625,-1.830125,-4.5185078125,0.4621953125,1.04414453125,-1.320453125,-4.6122109375,0.3527734375,-0.4660390625,-0.0326601562499995,0.14259375,-6.68852734375,4.23191796875,4.39728125,4.336265625,2.81476171875
4.68436328125,5.30759765625,-6.00924609375,-1.8629375,-3.864765625,-5.119546875,-4.74743359375,-7.0924375,-1.87780859375,-2.02688671875,-4.97305859375,-5.794078125,-0.1559609375,-0.55613671875,-1.88469140625,-2.638125,-4.8645078125,-0.0518046874999998,-0.18685546875,-2.618453125,-6.0882109375,0.6907734375,-1.4310390625,-1.45966015625,-1.52740625,-7.58452734375,2.71191796875,3.05328125,2.812265625,1.46476171875
6.05836328125,5.69559765625,-6.61024609375,-1.6359375,-4.645765625,-5.007546875,-4.52043359375,-7.6334375,-1.89980859375,-3.02888671875,-5.18205859375,-5.668078125,1.2040390625,-1.43013671875,-2.99569140625,-3.412125,-5.2295078125,-0.3038046875,-1.05685546875,-3.464453125,-7.5812109375,1.1797734375,-2.3320390625,-2.80266015625,-3.23840625,-8.35852734375,1.11391796875,1.27128125,1.087265625,-0.0502382812500004
7.15836328125,5.87459765625,-6.92824609375,-1.2569375,-5.137765625,-4.641546875,-4.25643359375,-7.7644375,-1.29580859375,-3.77988671875,-5.09805859375,-5.550078125,2.7620390625,-2.08513671875,-3.73469140625,-4.141125,-5.6945078125,-0.3348046875,-1.60485546875,-3.906453125,-8.8992109375,1.7177734375,-3.0770390625,-4.00266015625,-4.81040625,-8.90252734375,-0.424082031249999,-0.58471875,-0.563734375,-1.53923828125
7.44636328125,5.71759765625,-6.91624609375,-0.8309375,-5.206765625,-4.232546875,-4.05443359375,-7.4684375,-0.28380859375,-4.19388671875,-4.94005859375,-5.639078125,4.2340390625,-2.38613671875,-4.13769140625,-4.751125,-6.1955078125,-0.1908046875,-1.82385546875,-4.001453125,-9.7782109375,2.2027734375,-3.5260390625,-4.90266015625,-5.96840625,-9.09952734375,-1.66408203125,-2.09371875,-1.869734375,-2.72623828125
6.69336328125,5.12259765625,-6.64024609375,-0.2489375,-4.727765625,-3.915546875,-3.97543359375,-6.7824375,0.94319140625,-4.16788671875,-4.85105859375,-5.994078125,5.3700390625,-2.16513671875,-4.22969140625,-5.110125,-6.5365078125,0.0981953124999999,-1.65585546875,-3.757453125,-9.9612109375,2.6087734375,-3.5040390625,-5.29666015625,-6.42140625,-8.83652734375,-2.34108203125,-2.92371875,-2.622734375,-3.30323828125
5.10836328125,4.08759765625,-6.23924609375,0.6610625,-3.693765625,-3.712546875,-4.02143359375,-5.8054375,2.24519140625,-3.64988671875,-4.82605859375,-6.499078125,5.9910390625,-1.33313671875,-4.00669140625,-5.082125,-6.5285078125,0.4971953125,-1.05585546875,-3.149453125,-9.3052109375,2.9897734375,-2.8850390625,-5.03366015625,-5.98440625,-8.05852734375,-2.28008203125,-2.93971875,-2.742734375,-3.05623828125
3.20136328125,2.72659765625,-5.86224609375,1.8710625,-2.251765625,-3.551546875,-4.12543359375,-4.7064375,3.51619140625,-2.71188671875,-4.72805859375,-6.896078125,6.0150390625,0.0208632812499996,-3.43469140625,-4.581125,-6.1255078125,0.9451953125,-0.0678554687500004,-2.177453125,-7.8502109375,3.4137734375,-1.6740390625,-4.10166015625,-4.65740625,-6.80452734375,-1.47908203125,-2.23971875,-2.281734375,-1.97323828125
1.52336328125,1.26359765625,-5.58724609375,3.0710625,-0.629765625,-3.292546875,-4.12343359375,-3.7114375,4.68519140625,-1.53888671875,-4.34505859375,-6.875078125,5.4890390625,1.64086328125,-2.47869140625,-3.591125,-5.4285078125,1.3911953125,1.17214453125,-0.896453125,-5.7842109375,3.9097734375,-0.0140390625000002,-2.62966015625,-2.61240625,-5.18052734375,-0.0950820312499996,-1.05371875,-1.361734375,-0.248238281250001
0.49936328125,0.0235976562500007,-5.37324609375,3.8610625,0.956234375,-2.766546875,-3.73643359375,-3.0604375,5.75519140625,-0.32788671875,-3.48905859375,-6.203078125,4.6500390625,3.22386328125,-1.13869140625,-2.186125,-4.5835078125,1.8511953125,2.48914453125,0.597546875,-3.3672109375,4.4917734375,1.9009609375,-0.83866015625,-0.13640625,-3.29852734375,1.63291796875,0.404281250000001,-0.0877343750000001,1.82376171875
0.36136328125,-0.60740234375,-5.10624609375,4.0260625,2.356234375,-1.839546875,-2.70343359375,-2.9074375,6.75419140625,0.78311328125,-2.09705859375,-4.863078125,3.9250390625,4.54186328125,0.49630859375,-0.545125,-3.7195078125,2.4131953125,3.73214453125,2.174546875,-0.897210937499999,5.1707734375,3.8979609375,1.00433984375,2.43059375,-1.27652734375,3.45091796875,2.02728125,1.498265625,3.95876171875
1.11936328125,-0.303402343749999,-4.71124609375,3.6680625,3.484234375,-0.512546875,-0.99943359375,-3.2184375,7.63019140625,1.71611328125,-0.30005859375,-3.136078125,3.8070390625,5.49686328125,2.22530859375,1.041875,-2.9905078125,3.1361953125,4.78514453125,3.640546875,1.2857890625,5.9347734375,5.8189609375,2.62533984375,4.72359375,0.710472656249999,5.12891796875,3.76528125,3.374265625,5.95076171875
2.56636328125,1.02359765625,-4.22724609375,3.1350625,4.295234375,1.038453125,1.03456640625,-3.7514375,8.22719140625,2.42911328125,1.57694140625,-1.544078125,4.6170390625,6.09586328125,3.76830859375,2.220875,-2.6145078125,3.9741953125,5.55314453125,4.730546875,2.7937890625,6.7257734375,7.4949609375,3.76133984375,6.38159375,2.41047265625,6.46691796875,5.53228125,5.462265625,7.65876171875
4.37036328125,3.10959765625,-3.79024609375,2.8740625,4.768234375,2.531453125,2.79656640625,-4.1964375,8.39319140625,2.92711328125,3.12394140625,-0.650078125,6.3100390625,6.41086328125,4.84230859375,2.665875,-2.8145078125,4.7981953125,5.96114453125,5.176546875,3.2727890625,7.4517734375,8.7739609375,4.21633984375,7.11059375,3.56447265625,7.31991796875,7.17628125,7.574265625,8.98076171875
6.20436328125,5.38459765625,-3.57424609375,3.2510625,4.937234375,3.694453125,3.69556640625,-4.4114375,8.12919140625,3.28011328125,3.99594140625,-0.804078125,8.4620390625,6.54686328125,5.27430859375,2.215875,-3.6785078125,5.4861953125,5.98414453125,4.835546875,2.5637890625,8.0347734375,9.5889609375,3.93133984375,6.78759375,4.01747265625,7.63691796875,8.53328125,9.433265625,9.85176171875
7.77236328125,7.14559765625,-3.73224609375,4.3720625,4.913234375,4.342453125,3.39856640625,-4.5844375,7.60819140625,3.58311328125,4.03394140625,-1.993078125,10.4370390625,6.58986328125,5.06530859375,0.967875,-5.0755078125,5.9631953125,5.66514453125,3.772546875,0.841789062500001,8.4087734375,9.9619609375,3.03733984375,5.53859375,3.80247265625,7.47591796875,9.47528125,10.757265625,10.23576171875
8.76336328125,7.80059765625,-4.36924609375,5.9880625,4.855234375,4.379453125,1.93656640625,-5.1904375,7.05719140625,3.85411328125,3.28394140625,-3.877078125,11.6370390625,6.54986328125,4.36230859375,-0.755125,-6.7015078125,6.1541953125,5.09214453125,2.231546875,-1.4172109375,8.5107734375,9.9389609375,1.81433984375,3.71559375,3.11947265625,6.95991796875,9.91828125,11.344265625,10.10976171875
8.90136328125,7.08959765625,-5.49324609375,7.5810625,4.857234375,3.773453125,-0.34143359375,-6.7104375,6.60819140625,3.98811328125,1.93094140625,-5.967078125,11.7160390625,6.32686328125,3.34330859375,-2.562125,-8.2055078125,5.9441953125,4.32414453125,0.513546875,-3.6402109375,8.3017734375,9.5309609375,0.577339843750001,1.75659375,2.23747265625,6.19891796875,9.80228125,11.111265625,9.45776171875
8.08936328125,5.20559765625,-6.94424609375,8.6040625,4.850234375,2.569453125,-2.89443359375,-9.2594375,6.22719140625,3.79711328125,0.22394140625,-7.801078125,10.7060390625,5.75986328125,2.12230859375,-4.141125,-9.2955078125,5.2221953125,3.36914453125,-1.118453125,-5.3852109375,7.8387734375,8.7199609375,-0.45366015625,0.02659375,1.38647265625,5.27291796875,9.13328125,10.135265625,8.31276171875
6.48136328125,2.73859765625,-8.34724609375,8.7040625,4.616234375,0.908453124999999,-5.17843359375,-12.3544375,5.73719140625,3.12811328125,-1.56005859375,-9.066078125,8.9950390625,4.72886328125,0.769308593749999,-5.314125,-9.8005078125,3.9771953125,2.21114453125,-2.481453125,-6.4492109375,7.3017734375,7.5249609375,-1.18866015625,-1.25440625,0.70747265625,4.27091796875,8.03828125,8.673265625,6.82776171875
4.37736328125,0.42459765625,-9.18324609375,7.8160625,3.926234375,-0.968546875,-6.80943359375,-15.0254375,4.90319140625,1.96211328125,-3.14205859375,-9.634078125,7.1260390625,3.23986328125,-0.61169140625,-6.001125,-9.7035078125,2.3211953125,0.87514453125,-3.474453125,-6.8312109375,6.8917734375,6.0339609375,-1.64566015625,-2.00740625,0.247472656249999,3.32691796875,6.76828125,7.122265625,5.30676171875
2.08136328125,-1.17540234375,-9.02924609375,6.1390625,2.685234375,-2.764546875,-7.64743359375,-16.2544375,3.56719140625,0.44811328125,-4.29105859375,-9.589078125,5.4940390625,1.42686328125,-1.85369140625,-6.207125,-9.1215078125,0.4301953125,-0.56985546875,-4.078453125,-6.6742109375,6.6407734375,4.3759609375,-1.92666015625,-2.27240625,-0.0345273437500007,2.56891796875,5.59728125,5.861265625,4.10576171875
-0.14763671875,-1.88140234375,-7.84324609375,4.0460625,0.988234375,-4.213546875,-7.76843359375,-15.5364375,1.75019140625,-1.13888671875,-4.89405859375,-9.192078125,4.1170390625,-0.52113671875,-2.79769140625,-6.047125,-8.2695078125,-1.5468046875,-2.04885546875,-4.356453125,-6.2122109375,6.3117734375,2.6709609375,-2.20166015625,-2.22040625,-0.251527343750001,2.01891796875,4.66728125,5.053265625,3.45976171875
-2.07663671875,-1.87240234375,-6.07024609375,1.9690625,-0.892765625,-5.145546875,-7.37543359375,-13.1944375,-0.33080859375,-2.50388671875,-4.98605859375,-8.767078125,2.6660390625,-2.41113671875,-3.36069140625,-5.709125,-7.4055078125,-3.5068046875,-3.49985546875,-4.430453125,-5.7022109375,5.4967734375,1.0049609375,-2.64466015625,-2.08640625,-0.533527343750001,1.57491796875,3.91828125,4.575265625,3.34676171875
-3.51563671875,-1.47740234375,-4.43824609375,0.3180625,-2.577765625,-5.508546875,-6.66743359375,-10.2384375,-2.30080859375,-3.41488671875,-4.69705859375,-8.517078125,0.7700390625,-4.04513671875,-3.54769140625,-5.352125,-6.7395078125,-5.3458046875,-4.84185546875,-4.407453125,-5.3052109375,3.9117734375,-0.5360390625,-3.32166015625,-2.05440625,-0.945527343750001,1.09291796875,3.16228125,4.147265625,3.51176171875
-4.36063671875,-0.930402343749999,-3.55124609375,-0.5589375,-3.687765625,-5.330546875,-5.72243359375,-7.8354375,-3.69780859375,-3.73888671875,-4.16705859375,-8.395078125,-1.5849609375,-5.20913671875,-3.41869140625,-5.005125,-6.3495078125,-6.8998046875,-5.94185546875,-4.339453125,-5.0262109375,1.6437734375,-1.8390390625,-4.12866015625,-2.16140625,-1.44752734375,0.493917968750001,2.23128125,3.530265625,3.60076171875
-4.61863671875,-0.269402343749999,-3.55024609375,-0.4289375,-3.992765625,-4.693546875,-4.47043359375,-6.7054375,-4.09280859375,-3.44688671875,-3.50905859375,-8.137078125,-3.8979609375,-5.73413671875,-3.08569140625,-4.585125,-6.1315078125,-7.9638046875,-6.65785546875,-4.236453125,-4.7492109375,-0.8342265625,-2.7840390625,-4.87466015625,-2.31740625,-1.95152734375,-0.225082031249999,1.08928125,2.634265625,3.31276171875
-4.41763671875,0.558597656250001,-4.05324609375,0.7030625,-3.510765625,-3.738546875,-2.80543359375,-6.7514375,-3.29880859375,-2.64088671875,-2.81505859375,-7.421078125,-5.3609609375,-5.60213671875,-2.71769140625,-3.984125,-5.8565078125,-8.3838046875,-6.92685546875,-4.119453125,-4.3412109375,-2.8942265625,-3.3250390625,-5.42766015625,-2.41640625,-2.40052734375,-1.04808203125,-0.167718749999999,1.516265625,2.50376171875
-4.01963671875,1.51859765625,-4.38224609375,2.4860625,-2.481765625,-2.655546875,-0.75343359375,-7.1254375,-1.52780859375,-1.56288671875,-2.16105859375,-6.054078125,-5.3379609375,-5.00113671875,-2.48769140625,-3.147125,-5.2905078125,-8.1518046875,-6.81185546875,-4.041453125,-3.7302109375,-4.0802265625,-3.5560390625,-5.81066015625,-2.41940625,-2.79052734375,-1.98308203125,-1.37571875,0.325265625,1.24176171875
-3.72463671875,2.42059765625,-3.91924609375,4.3250625,-1.222765625,-1.617546875,1.46256640625,-6.7124375,0.65019140625,-0.52688671875,-1.57005859375,-4.066078125,-3.7609609375,-4.25113671875,-2.48269140625,-2.081125,-4.2945078125,-7.4148046875,-6.47585546875,-4.050453125,-2.9252109375,-4.2862265625,-3.6740390625,-6.15266015625,-2.34740625,-3.11452734375,-3.01608203125,-2.35771875,-0.747734374999999,-0.19623828125
-3.66063671875,3.03259765625,-2.43624609375,5.7020625,0.00223437500000001,-0.682546875,3.54756640625,-4.7774375,2.59419140625,0.241113281250001,-0.97705859375,-1.697078125,-1.1719609375,-3.63313671875,-2.63169140625,-0.848125,-2.8495078125,-6.3908046875,-6.07985546875,-4.117453125,-2.0172109375,-3.7332265625,-3.8460390625,-6.55966015625,-2.23440625,-3.30552734375,-4.04708203125,-2.94371875,-1.513734375,-1.42823828125
-3.61963671875,3.26559765625,-0.21824609375,6.4450625,1.048234375,0.230453124999999,5.29056640625,-1.4094375,3.88119140625,0.71111328125,-0.24805859375,0.688921875,1.5800390625,-3.24513671875,-2.73469140625,0.432875,-1.0655078125,-5.2548046875,-5.71085546875,-4.126453125,-1.1462109375,-2.8192265625,-4.0780390625,-7.01166015625,-2.08840625,-3.26152734375,-4.87008203125,-3.00471875,-1.845734375,-2.11723828125
-3.16763671875,3.24859765625,2.05375390625,6.7150625,1.869234375,1.253453125,6.62756640625,2.4935625,4.40819140625,1.00911328125,0.71994140625,2.714921875,3.7460390625,-2.97513671875,-2.56169140625,1.587875,0.8004921875,-4.0918046875,-5.36585546875,-3.940453125,-0.460210937499999,-1.9552265625,-4.2220390625,-7.34366015625,-1.88740625,-2.90452734375,-5.24908203125,-2.52571875,-1.718734375,-2.11523828125
-1.94463671875,3.22459765625,3.61275390625,6.7740625,2.459234375,2.437453125,7.61056640625,5.6595625,4.32119140625,1.26611328125,1.89994140625,4.108921875,4.9400390625,-2.61513671875,-2.00069140625,2.425875,2.3694921875,-2.9268046875,-5.00985546875,-3.510453125,-0.0462109374999988,-1.4472265625,-4.0960390625,-7.34166015625,-1.59740625,-2.23552734375,-5.05108203125,-1.65971875,-1.229734375,-1.50623828125
0.04736328125,3.36059765625,3.97775390625,6.7750625,2.794234375,3.679453125,8.34256640625,7.0065625,3.88819140625,1.50511328125,3.11394140625,4.781921875,5.1720390625,-2.01813671875,-1.15269140625,2.790875,3.2794921875,-1.7978046875,-4.64485546875,-2.935453125,0.0927890625000005,-1.4272265625,-3.6220390625,-6.88766015625,-1.23740625,-1.35552734375,-4.35508203125,-0.714718749999999,-0.590734375,-0.564238281250001
2.35036328125,3.61259765625,3.19175390625,6.6970625,2.801234375,4.730453125,8.91256640625,6.0695625,3.38819140625,1.62911328125,4.08794140625,4.824921875,4.7090390625,-1.22713671875,-0.34169140625,2.608875,3.3524921875,-0.8268046875,-4.35285546875,-2.457453125,-0.00221093749999923,-1.8582265625,-2.9000390625,-6.08066015625,-0.92540625,-0.466527343750001,-3.48308203125,-0.0427187499999988,-0.103734375,0.33576171875
4.14836328125,3.72359765625,1.81275390625,6.3960625,2.379234375,5.265453125,9.28356640625,3.1905625,3.00219140625,1.48111328125,4.54194140625,4.409921875,3.9020390625,-0.482136718750001,0.0163085937499998,1.906875,2.6604921875,-0.2398046875,-4.27585546875,-2.384453125,-0.313210937499999,-2.6142265625,-2.1850390625,-5.23766015625,-0.874406250000001,0.141472656249999,-2.89608203125,0.0932812500000004,-0.084734375,0.794761718749999
4.53836328125,3.37059765625,0.63775390625,5.7320625,1.498234375,5.013453125,9.25656640625,-0.5844375,2.76119140625,0.95011328125,4.30294140625,3.671921875,3.0770390625,-0.10613671875,-0.38569140625,0.803875000000001,1.4434921875,-0.2998046875,-4.53385546875,-2.968453125,-0.8702109375,-3.5592265625,-1.7970390625,-4.75666015625,-1.30640625,0.158472656249999,-3.00508203125,-0.395718749999999,-0.757734375,0.49776171875
2.98436328125,2.40559765625,0.27875390625,4.7370625,0.299234375,3.926453125,8.60156640625,-3.8794375,2.61919140625,0.0811132812500004,3.40094140625,2.661921875,2.5030390625,-0.32113671875,-1.55369140625,-0.509125,0.00349218750000002,-1.1418046875,-5.12285546875,-4.241453125,-1.7052109375,-4.5542265625,-1.9520390625,-4.90066015625,-2.30840625,-0.605527343750001,-3.95408203125,-1.38871875,-2.140734375,-0.67123828125
-0.28063671875,1.01159765625,0.82675390625,3.7240625,-0.876765625,2.272453125,7.28756640625,-5.5384375,2.57819140625,-0.87688671875,2.10594140625,1.422921875,2.3740390625,-1.08713671875,-3.14769140625,-1.796125,-1.3535078125,-2.6158046875,-5.84685546875,-5.913453125,-2.7612109375,-5.3852265625,-2.6070390625,-5.62566015625,-3.72340625,-2.08252734375,-5.50808203125,-2.57471875,-3.981734375,-2.52723828125
-4.24063671875,-0.37640234375,1.79975390625,3.1830625,-1.580765625,0.560453125,5.58956640625,-5.1074375,2.72319140625,-1.55388671875,0.84894140625,0.0839218750000002,2.7560390625,-2.09013671875,-4.58769140625,-2.810125,-2.3435078125,-4.2668046875,-6.35685546875,-7.420453125,-3.8232109375,-5.7482265625,-3.4220390625,-6.53666015625,-5.13140625,-3.89552734375,-7.08808203125,-3.53171875,-5.794734375,-4.57823828125
-7.59563671875,-1.36140234375,2.45175390625,3.4960625,-1.429765625,-0.695546875000001,3.94256640625,-3.0124375,3.15919140625,-1.64888671875,0.03894140625,-1.131078125,3.5280390625,-2.86813671875,-5.29569140625,-3.340125,-2.7695078125,-5.5008046875,-6.29085546875,-8.144453125,-4.5342109375,-5.3412265625,-3.8900390625,-7.04066015625,-5.96940625,-5.45952734375,-7.98908203125,-3.87271875,-7.004734375,-6.16723828125
-9.42563671875,-1.86940234375,2.23575390625,4.6870625,-0.316765625,-1.222546875,2.66356640625,-0.3334375,3.92719140625,-1.08488671875,-0.13905859375,-1.995078125,4.4080390625,-3.03713671875,-4.94769140625,-3.281125,-2.5955078125,-5.8458046875,-5.46185546875,-7.707453125,-4.5272109375,-4.0232265625,-3.5910390625,-6.61566015625,-5.77440625,-6.19252734375,-7.68708203125,-3.39071875,-7.180734375,-6.73323828125
-9.54663671875,-2.17440234375,1.12375390625,6.4040625,1.485234375,-1.086546875,1.79356640625,1.7075625,4.97419140625,-0.0358867187499996,0.20594140625,-2.406078125,5.0540390625,-2.47213671875,-3.63369140625,-2.695125,-1.9755078125,-5.1298046875,-3.96285546875,-6.144453125,-3.6062109375,-1.9072265625,-2.3720390625,-5.09066015625,-4.40140625,-5.73452734375,-6.09108203125,-2.14371875,-6.235734375,-6.05623828125
-8.41463671875,-2.64340234375,-0.40324609375,8.1000625,3.414234375,-0.585546875,1.15856640625,2.2815625,6.13819140625,1.17511328125,0.78494140625,-2.412078125,5.2200390625,-1.35613671875,-1.79269140625,-1.767125,-1.1935078125,-3.5108046875,-2.13385546875,-3.862453125,-1.8482109375,0.6527734375,-0.410039062500001,-2.72266015625,-2.09140625,-4.06452734375,-3.57608203125,-0.411718749999999,-4.448734375,-4.33423828125
-6.77363671875,-3.42540234375,-1.63024609375,9.2740625,4.885234375,-0.0405468750000004,0.57656640625,1.2855625,7.14119140625,2.24311328125,1.34394140625,-2.116078125,4.8740390625,-0.0621367187500006,0.0473085937499995,-0.664125,-0.5355078125,-1.3818046875,-0.37185546875,-1.412453125,0.463789062500001,3.1887734375,1.8919609375,-0.0476601562499992,0.67959375,-1.45852734375,-0.77608203125,1.43728125,-2.281734375,-2.05123828125
-5.29863671875,-4.32140234375,-1.95224609375,9.6610625,5.577234375,0.384453124999999,0.0585664062500002,-0.6574375,7.67219140625,3.01111328125,1.82294140625,-1.579078125,4.2300390625,1.05686328125,1.53830859375,0.575875,-0.1325078125,0.7891953125,1.06414453125,0.771546875,2.9957890625,5.2897734375,4.0729609375,2.38733984375,3.42659375,1.64847265625,1.73191796875,3.09728125,-0.148734375,0.265761718749999
-4.35363671875,-4.92540234375,-1.11724609375,9.3140625,5.538234375,0.718453125,-0.15843359375,-2.5384375,7.54419140625,3.51211328125,2.33794140625,-0.798078125,3.6610390625,1.82186328125,2.60630859375,2.016875,0.1274921875,2.5951953125,2.12214453125,2.511546875,5.4747890625,6.7427734375,5.7729609375,4.23833984375,5.81659375,4.78047265625,3.63391796875,4.40428125,1.705265625,2.24476171875
-3.94663671875,-4.92440234375,0.67375390625,8.5220625,5.080234375,1.068453125,0.22156640625,-3.4654375,6.80019140625,3.88511328125,2.99194140625,0.208921875,3.4850390625,2.24786328125,3.34930859375,3.688875,0.5474921875,3.7761953125,2.87214453125,3.848546875,7.7197890625,7.5557734375,6.8139609375,5.40533984375,7.68459375,7.49047265625,4.89091796875,5.31928125,3.171265625,3.71376171875
-3.85763671875,-4.31740234375,2.84675390625,7.6000625,4.572234375,1.472453125,1.28156640625,-3.0824375,5.69219140625,4.23711328125,3.72094140625,1.321921875,3.7440390625,2.46686328125,3.89430859375,5.479875,1.4134921875,4.2401953125,3.39514453125,4.912546875,9.6177890625,7.8677734375,7.1829609375,5.98633984375,8.99059375,9.41247265625,5.61891796875,5.87328125,4.203265625,4.66776171875
-3.83363671875,-3.42540234375,4.66875390625,6.7340625,4.302234375,1.859453125,2.77156640625,-1.6934375,4.58219140625,4.58511328125,4.29994140625,2.334921875,4.1160390625,2.65886328125,4.34930859375,7.174875,2.7954921875,4.0591953125,3.75714453125,5.850546875,11.1227890625,7.8447734375,7.0069609375,6.21033984375,9.80659375,10.33547265625,5.98191796875,6.12928125,4.794265625,5.20576171875
-3.67963671875,-2.67340234375,5.53475390625,5.9770625,4.426234375,2.144453125,4.23256640625,-0.0474374999999998,3.84419140625,4.92611328125,4.51994140625,3.059921875,4.0780390625,3.01986328125,4.83330859375,8.558875,4.5004921875,3.4581953125,4.05614453125,6.810546875,12.2427890625,7.6177734375,6.5259609375,6.36733984375,10.29259375,10.29047265625,6.13991796875,6.18628125,5.002265625,5.48576171875
-3.27063671875,-2.33140234375,5.21075390625,5.3420625,4.966234375,2.345453125,5.24756640625,1.0705625,3.74719140625,5.31311328125,4.36494140625,3.439921875,3.2250390625,3.71986328125,5.49030859375,9.507875,6.1964921875,2.7531953125,4.46114453125,7.939546875,12.9977890625,7.2857734375,6.0619609375,6.72233984375,10.64159375,9.56747265625,6.22191796875,6.17728125,4.949265625,5.67776171875
-2.55763671875,-2.37040234375,3.91475390625,4.8310625,5.828234375,2.602453125,5.64756640625,1.2115625,4.30919140625,5.85111328125,4.05794140625,3.587921875,1.5550390625,4.83386328125,6.43930859375,10.014875,7.5744921875,2.2331953125,5.15514453125,9.313546875,13.3727890625,6.8957734375,5.8989609375,7.41633984375,10.99059375,8.61247265625,6.31391796875,6.20828125,4.799265625,5.89876171875
-1.61863671875,-2.49840234375,2.20875390625,4.4020625,6.840234375,3.091453125,5.58556640625,0.4035625,5.25019140625,6.58911328125,3.94994140625,3.749921875,-0.4499609375,6.26786328125,7.69930859375,10.161875,8.4514921875,2.0451953125,6.22314453125,10.847546875,13.3067890625,6.4507734375,6.1659609375,8.40033984375,11.35459375,7.84947265625,6.44491796875,6.30228125,4.714265625,6.16976171875
-0.60963671875,-2.31440234375,0.75875390625,3.9770625,7.800234375,3.918453125,5.46756640625,-0.9364375,6.12719140625,7.45811328125,4.33794140625,4.184921875,-2.0179609375,7.77386328125,9.14930859375,10.077875,8.7944921875,2.1651953125,7.57414453125,12.288546875,12.7667890625,5.9697734375,6.7889609375,9.45233984375,11.62859375,7.52147265625,6.59091796875,6.40628125,4.802265625,6.40776171875
0.34936328125,-1.50640234375,0.07575390625,3.5160625,8.508234375,5.053453125,5.75356640625,-2.2304375,6.58819140625,8.28911328125,5.30894140625,5.027921875,-2.4509609375,9.05386328125,10.56030859375,9.887875,8.7024921875,2.4631953125,8.94614453125,13.312546875,11.8157890625,5.5527734375,7.5799609375,10.27233984375,11.64359375,7.62047265625,6.67591796875,6.45728125,5.068265625,6.45776171875
1.23136328125,-0.0124023437499989,0.35175390625,3.0670625,8.810234375,6.319453125,6.69256640625,-2.9354375,6.51319140625,8.90511328125,6.70594140625,6.190921875,-1.4849609375,9.89886328125,11.69230859375,9.686875,8.3344921875,2.8161953125,10.01514453125,13.686546875,10.6387890625,5.3737734375,8.3519609375,10.61633984375,11.26459375,7.92947265625,6.59191796875,6.44428125,5.397265625,6.15776171875
1.99236328125,1.91459765625,1.48375390625,2.7490625,8.665234375,7.459453125,8.13956640625,-2.6854375,6.00819140625,9.20211328125,8.21294140625,7.384921875,0.5980390625,10.28986328125,12.42830859375,9.550875,7.8254921875,3.1951953125,10.56414453125,13.386546875,9.4917890625,5.5767734375,9.0009609375,10.44133984375,10.49059375,8.15047265625,6.26291796875,6.43428125,5.620265625,5.44376171875
2.47636328125,3.77859765625,3.20475390625,2.7140625,8.197234375,8.262453125,9.64656640625,-1.3754375,5.31019140625,9.23011328125,9.53194140625,8.274921875,3.1490390625,10.42486328125,12.85430859375,9.563875,7.2504921875,3.7031953125,10.62314453125,12.633546875,8.6187890625,6.1927734375,9.5539609375,9.96633984375,9.50459375,8.05647265625,5.72791796875,6.54528125,5.630265625,4.42276171875
2.47436328125,5.04059765625,5.24475390625,3.1310625,7.663234375,8.673453125,10.75056640625,0.7935625,4.71619140625,9.19011328125,10.51994140625,8.665921875,5.4970390625,10.63186328125,13.21330859375,9.803875,6.6694921875,4.5301953125,10.49614453125,11.826546875,8.1787890625,7.1107734375,10.1399609375,9.58733984375,8.62159375,7.57347265625,5.18591796875,6.89328125,5.447265625,3.36476171875
1.86336328125,5.31959765625,7.38375390625,4.1050625,7.329234375,8.802453125,11.24956640625,3.3685625,4.46719140625,9.33111328125,11.20694140625,8.605921875,7.1990390625,11.19186328125,13.75330859375,10.306875,6.1764921875,5.8061953125,10.59714453125,11.351546875,8.2027890625,8.0987734375,10.9019609375,9.67933984375,8.15059375,6.76747265625,4.91591796875,7.48928125,5.187265625,2.56976171875
0.66436328125,4.50459765625,9.43575390625,5.5330625,7.326234375,8.799453125,11.24956640625,5.8085625,4.60319140625,9.75511328125,11.69294140625,8.324921875,8.1100390625,12.14086328125,14.54230859375,11.014875,5.8774921875,7.4261953125,11.18214453125,11.379546875,8.5867890625,8.8227734375,11.8409609375,10.36933984375,8.23259375,5.76947265625,5.09291796875,8.14428125,4.936265625,2.17876171875
-0.98863671875,2.75959765625,11.19575390625,7.0450625,7.570234375,8.708453125,11.01156640625,7.6685625,4.91319140625,10.29011328125,12.01194140625,8.067921875,8.3090390625,13.19986328125,15.37730859375,11.747875,5.8184921875,8.9901953125,12.15314453125,11.757546875,9.1137890625,8.9187734375,12.7239609375,11.42833984375,8.74459375,4.69047265625,5.63391796875,8.47628125,4.647265625,2.06776171875
-2.84963671875,0.479597656250001,12.41275390625,8.1350625,7.787234375,8.424453125,10.76056640625,8.6925625,5.07019140625,10.55811328125,12.05894140625,7.930921875,7.9940390625,13.88486328125,15.83730859375,12.228875,5.9304921875,9.9351953125,13.05814453125,12.086546875,9.5117890625,8.1517734375,13.1609609375,12.34833984375,9.32459375,3.59047265625,6.17491796875,8.06928125,4.133265625,1.90776171875
-4.54263671875,-1.78040234375,12.82075390625,8.4300625,7.650234375,7.788453125,10.55656640625,8.8025625,4.84419140625,10.19811328125,11.64394140625,7.821921875,7.3950390625,13.75986328125,15.48530859375,12.171875,6.0574921875,9.8041953125,13.32914453125,11.947546875,9.5417890625,6.5817734375,12.8299609375,12.58533984375,9.54559375,2.52747265625,6.25291796875,6.72928125,3.202265625,1.36876171875
-5.63763671875,-3.40240234375,12.22875390625,7.8700625,6.984234375,6.742453125,10.30156640625,8.0705625,4.23419140625,9.08411328125,10.64394140625,7.565921875,6.7030390625,12.67586328125,14.13530859375,11.446875,6.0254921875,8.4801953125,12.60914453125,11.153546875,9.1177890625,4.6127734375,11.6969609375,11.87133984375,9.15759375,1.63447265625,5.60091796875,4.67128125,1.873265625,0.371761718749999
-5.83963671875,-3.86540234375,10.64275390625,6.7120625,5.887234375,5.442453125,9.84756640625,6.6935625,3.41519140625,7.40711328125,9.13194140625,7.054921875,6.0090390625,10.85186328125,12.00130859375,10.188875,5.7404921875,6.2631953125,10.96614453125,9.860546875,8.3697890625,2.8607734375,10.0649609375,10.38033984375,8.24159375,1.14647265625,4.35791796875,2.49528125,0.485265625,-0.78823828125
-5.14163671875,-2.95740234375,8.34775390625,5.4010625,4.679234375,4.212453125,9.12756640625,4.9605625,2.61019140625,5.57611328125,7.38594140625,6.334921875,5.2980390625,8.74286328125,9.59630859375,8.752875,5.2624921875,3.7461953125,8.84814453125,8.464546875,7.5747890625,1.9177734375,8.4449609375,8.64133984375,7.15959375,1.30547265625,3.02191796875,0.950281250000001,-0.416734375,-1.56223828125
-3.81663671875,-0.939402343749999,5.86675390625,4.3980625,3.704234375,3.373453125,8.19956640625,3.1925625,1.97219140625,4.01411328125,5.75394140625,5.562921875,4.5200390625,6.80286328125,7.44530859375,7.526875,4.8034921875,1.5741953125,6.82014453125,7.372546875,6.9997890625,2.0837734375,7.2979609375,7.23833984375,6.32559375,2.19947265625,2.17391796875,0.58528125,-0.374734375,-1.45123828125
-2.29263671875,1.47859765625,3.79875390625,3.9800625,3.148234375,3.054453125,7.18256640625,1.7085625,1.51319140625,2.96011328125,4.48894140625,4.916921875,3.6780390625,5.28386328125,5.83030859375,6.751875,4.6354921875,0.1851953125,5.28614453125,6.797546875,6.7967890625,3.2087734375,6.8169609375,6.51233984375,5.99659375,3.67647265625,2.15191796875,1.47728125,0.699265625,-0.29223828125
-1.00963671875,3.39559765625,2.58575390625,4.1160625,2.997234375,3.134453125,6.17556640625,0.8085625,1.14519140625,2.40911328125,3.67094140625,4.524921875,2.8710390625,4.21186328125,4.73830859375,6.465875,4.9424921875,-0.3208046875,4.35514453125,6.699546875,6.9857890625,4.7157734375,6.8519609375,6.43333984375,6.19859375,5.39547265625,2.88091796875,3.15828125,2.440265625,1.63776171875
-0.28963671875,4.10259765625,2.34675390625,4.4740625,3.117234375,3.346453125,5.26956640625,0.6935625,0.77519140625,2.18311328125,3.23794140625,4.435921875,2.2310390625,3.47386328125,3.97930859375,6.537875,5.7154921875,-0.1508046875,3.87814453125,6.865546875,7.4987890625,5.8697734375,7.0129609375,6.67433984375,6.76659375,6.98647265625,3.92991796875,4.80928125,4.168265625,3.74376171875
-0.26963671875,3.36959765625,2.85375390625,4.5880625,3.312234375,3.434453125,4.57156640625,1.3215625,0.38619140625,2.07611328125,3.05394140625,4.593921875,1.7920390625,2.92486328125,3.33130859375,6.722875,6.7504921875,0.3191953125,3.57614453125,7.032546875,8.1837890625,6.1207734375,6.8649609375,6.77533984375,7.40859375,8.16247265625,4.71491796875,5.59028125,5.143265625,5.34876171875
-0.92363671875,1.48859765625,3.66175390625,4.0410625,3.351234375,3.240453125,4.16356640625,2.3235625,-0.0228085937499996,1.91811328125,2.94994140625,4.829921875,1.3890390625,2.41986328125,2.62230859375,6.731875,7.7384921875,0.6561953125,3.15714453125,6.964546875,8.8137890625,5.3097734375,6.0919609375,6.32833984375,7.78159375,8.76947265625,4.73391796875,4.97428125,4.840265625,5.93876171875
-2.15963671875,-0.925402343749999,4.33375390625,2.6070625,2.998234375,2.696453125,3.99256640625,3.1395625,-0.55580859375,1.56011328125,2.73694140625,4.892921875,0.6940390625,1.80386328125,1.75730859375,6.315875,8.3674921875,0.4581953125,2.39714453125,6.477546875,9.1187890625,3.6337734375,4.5639609375,5.11333984375,7.59359375,8.76447265625,3.73691796875,2.91828125,3.150265625,5.31676171875
-3.84063671875,-3.20840234375,4.61275390625,0.3730625,2.094234375,1.808453125,3.86256640625,3.3255625,-1.41880859375,0.87711328125,2.23394140625,4.544921875,-0.5719609375,0.94286328125,0.71030859375,5.365875,8.4324921875,-0.5318046875,1.18714453125,5.464546875,8.8697890625,1.4917734375,2.3689609375,3.16633984375,6.70259375,8.19747265625,1.79391796875,-0.128718749999999,0.428265625,3.64276171875
-5.66063671875,-4.85340234375,4.47375390625,-2.2039375,0.656234375,0.676453125,3.55256640625,2.8065625,-2.75980859375,-0.18088671875,1.33494140625,3.690921875,-2.3699609375,-0.20513671875,-0.50469140625,3.956875,7.8984921875,-2.2858046875,-0.43685546875,3.932546875,7.9647890625,-0.6472265625,-0.182039062499999,0.76233984375,5.16759375,7.19947265625,-0.746082031249999,-3.38471875,-2.621734375,1.35776171875
-7.07663671875,-5.59040234375,4.02475390625,-4.4079375,-1.069765625,-0.490546875000001,2.96256640625,1.8685625,-4.50180859375,-1.51888671875,0.05494140625,2.453921875,-4.2359609375,-1.53213671875,-1.83869140625,2.322875,6.9074921875,-4.4258046875,-2.29985546875,2.028546875,6.4987890625,-2.3282265625,-2.6010390625,-1.69166015625,3.24059375,5.97547265625,-3.37508203125,-5.98471875,-5.185734375,-0.942238281250001
-7.46563671875,-5.39640234375,3.35775390625,-5.5739375,-2.635765625,-1.417546875,2.16756640625,0.9205625,-6.33380859375,-2.91388671875,-1.44605859375,1.146921875,-5.4589609375,-2.79713671875,-3.20269140625,0.793875000000001,5.7094921875,-6.3558046875,-4.13085546875,0.0115468750000005,4.7777890625,-3.2072265625,-4.3800390625,-3.76666015625,1.29959375,4.78347265625,-5.56208203125,-7.25571875,-6.586734375,-2.65923828125
-6.47263671875,-4.46340234375,2.48775390625,-5.4019375,-3.542765625,-1.865546875,1.35656640625,0.1765625,-7.83680859375,-4.08588671875,-2.91505859375,0.144921875,-5.4709609375,-3.72913671875,-4.46969140625,-0.329124999999999,4.5544921875,-7.5218046875,-5.64285546875,-1.822453125,3.2467890625,-3.1442265625,-5.1810390625,-5.12966015625,-0.25540625,3.87047265625,-6.89408203125,-6.92271875,-6.476734375,-3.32923828125
-4.27163671875,-3.17640234375,1.40175390625,-4.0549375,-3.473765625,-1.752546875,0.73656640625,-0.5134375,-8.62380859375,-4.80488671875,-4.10505859375,-0.303078125,-4.1799609375,-4.13813671875,-5.51369140625,-0.902125,3.5994921875,-7.6408046875,-6.60785546875,-3.229453125,2.3087890625,-2.2362265625,-4.9510390625,-5.62866015625,-1.14140625,3.38147265625,-7.18508203125,-5.16771875,-4.931734375,-2.75523828125
-1.58163671875,-2.05140234375,0.19575390625,-2.0459375,-2.478765625,-1.228546875,0.43056640625,-1.5484375,-8.46180859375,-4.98388671875,-4.87905859375,-0.215078125,-2.0359609375,-3.97513671875,-6.25369140625,-1.014125,2.8734921875,-6.7608046875,-6.90785546875,-4.063453125,2.1317890625,-0.7622265625,-3.8910390625,-5.31266015625,-1.28540625,3.30747265625,-6.50508203125,-2.53471875,-2.404734375,-1.08423828125
0.58136328125,-1.58740234375,-0.82924609375,-0.0299375,-0.963765625,-0.632546875,0.41156640625,-3.2034375,-7.33280859375,-4.70588671875,-5.22305859375,0.151921875,0.2140390625,-3.30113671875,-6.62069140625,-0.896125,2.2964921875,-5.1608046875,-6.50485546875,-4.261453125,2.6087890625,0.9237734375,-2.3070390625,-4.33366015625,-0.79740625,3.52147265625,-5.09108203125,0.29828125,0.464265625,1.24176171875
1.31136328125,-2.03440234375,-1.20924609375,1.4340625,0.552234375,-0.299546875,0.54356640625,-5.2364375,-5.42480859375,-4.14288671875,-5.15405859375,0.487921875,1.9300390625,-2.18713671875,-6.47169140625,-0.712124999999999,1.7734921875,-3.1868046875,-5.37585546875,-3.764453125,3.4797890625,2.5297734375,-0.4500390625,-2.81066015625,0.176593749999999,3.90447265625,-3.18608203125,2.79228125,3.139265625,3.67876171875
0.27036328125,-3.20240234375,-0.51424609375,2.1300625,1.739234375,-0.323546875,0.73156640625,-6.8004375,-3.00680859375,-3.39388671875,-4.60605859375,0.668921875,2.9060390625,-0.62713671875,-5.56769140625,-0.391125,1.3244921875,-1.1068046875,-3.48285546875,-2.465453125,4.5177890625,3.9287734375,1.5919609375,-0.744660156249999,1.57059375,4.43647265625,-0.921082031249999,4.73728125,5.383265625,5.80776171875
-2.05463671875,-4.47940234375,1.36875390625,2.3040625,2.612234375,-0.457546875,1.04956640625,-6.8344375,-0.33080859375,-2.37788671875,-3.42805859375,0.851921875,3.4230390625,1.42686328125,-3.68369140625,0.341875,1.1344921875,0.9221953125,-0.85285546875,-0.264453125,5.6237890625,5.1657734375,3.8459609375,1.89733984375,3.38159375,5.16847265625,1.65791796875,6.23628125,7.237265625,7.45076171875
-4.55463671875,-5.11940234375,4.08975390625,2.5100625,3.422234375,-0.267546875,1.70256640625,-4.7114375,2.33519140625,-0.93588671875,-1.51805859375,1.349921875,3.9990390625,3.93486328125,-0.82769140625,1.761875,1.4714921875,2.7791953125,2.29314453125,2.769546875,6.8057890625,6.3237734375,6.2849609375,5.00233984375,5.55459375,6.11347265625,4.45391796875,7.49328125,8.821265625,8.62376171875
-6.11163671875,-4.65840234375,6.92875390625,3.2200625,4.398234375,0.553453125,2.83056640625,-0.7474375,4.63419140625,0.93311328125,0.97694140625,2.378921875,4.9850390625,6.63286328125,2.61330859375,3.897875,2.4994921875,4.3051953125,5.48014453125,6.249546875,8.0957890625,7.3437734375,8.6809609375,8.19333984375,7.87459375,7.16947265625,7.19291796875,8.55628125,10.132265625,9.40476171875
-6.17963671875,-3.18040234375,9.10675390625,4.5100625,5.525234375,1.938453125,4.32356640625,3.8015625,6.16919140625,2.92111328125,3.57494140625,3.852921875,6.2970390625,9.05786328125,5.91230859375,6.405875,4.1254921875,5.3231953125,8.06714453125,9.481546875,9.4427890625,7.9817734375,10.6139609375,10.87133984375,9.95259375,8.11947265625,9.42491796875,9.22828125,10.973265625,9.81276171875
-4.95563671875,-1.27740234375,10.08775390625,6.0000625,6.524234375,3.454453125,5.77356640625,7.2705625,6.70219140625,4.49411328125,5.56994140625,5.358921875,7.4580390625,10.71386328125,8.23730859375,8.624875,5.9724921875,5.7561953125,9.47414453125,11.677546875,10.6257890625,7.9507734375,11.6659609375,12.41833984375,11.30159375,8.69247265625,10.66191796875,9.18228125,11.047265625,9.75776171875
-3.12063671875,0.276597656250001,9.70875390625,7.0540625,7.033234375,4.524453125,6.62356640625,8.3725625,6.31019140625,5.15011328125,6.30694140625,6.319921875,7.9120390625,11.29286328125,8.99930859375,9.837875,7.4744921875,5.7031953125,9.42514453125,12.279546875,11.2767890625,7.1527734375,11.6559609375,12.45733984375,11.50559375,8.63047265625,10.58791796875,8.21028125,10.137265625,9.07276171875
-1.41763671875,0.92959765625,8.12275390625,7.0940625,6.876234375,4.741453125,6.42756640625,6.8225625,5.36419140625,4.68711328125,5.50794140625,6.267921875,7.3830390625,10.81786328125,8.13530859375,9.610875,8.0694921875,5.4071953125,8.09614453125,11.223546875,11.0597890625,5.8287734375,10.7459609375,11.06133984375,10.42259375,7.80147265625,9.24291796875,6.40428125,8.288265625,7.65376171875
-0.29163671875,0.61059765625,5.69075390625,5.9310625,6.229234375,4.114453125,5.15356640625,3.4715625,4.38619140625,3.33911328125,3.48294140625,5.113921875,6.0650390625,9.64786328125,6.17230859375,8.056875,7.4464921875,5.1421953125,6.07714453125,9.000546875,9.8937890625,4.5127734375,9.3859609375,8.77133984375,8.32259375,6.30647265625,7.06991796875,4.20128125,5.868265625,5.60876171875
0.25236328125,-0.27740234375,2.88675390625,3.9430625,5.551234375,3.089453125,3.31956640625,-0.1194375,3.86219140625,1.71611328125,1.06194140625,3.250921875,4.5390390625,8.34486328125,4.01930859375,5.828875,5.7214921875,5.0961953125,4.15814453125,6.486546875,8.0787890625,3.8147734375,8.1359609375,6.40633984375,5.85959375,4.53247265625,4.76891796875,2.23228125,3.464265625,3.33176171875
0.52836328125,-1.14040234375,0.23075390625,1.9310625,5.338234375,2.335453125,1.79756640625,-2.4374375,4.04819140625,0.56311328125,-0.73805859375,1.403921875,3.4580390625,7.45186328125,2.57130859375,3.846875,3.4364921875,5.3051953125,3.02114453125,4.597546875,6.2067890625,4.1237734375,7.4459609375,4.73133984375,3.83659375,3.04647265625,3.02691796875,1.06028125,1.659265625,1.41376171875
0.82736328125,-1.57440234375,-1.77424609375,0.6690625,5.859234375,2.392453125,1.36056640625,-2.6994375,4.83019140625,0.41511328125,-1.15805859375,0.293921875,3.1800390625,7.26386328125,2.35530859375,2.896875,1.3294921875,5.6471953125,2.97814453125,3.928546875,4.9217890625,5.4097734375,7.4779609375,4.16133984375,2.89559375,2.36947265625,2.24391796875,0.940281250000001,0.812265625,0.408761718749999
1.13236328125,-1.60540234375,-2.70024609375,0.4560625,7.038234375,3.420453125,2.29356640625,-1.1364375,5.75419140625,1.37711328125,0.00494140624999995,0.325921875,3.5840390625,7.72686328125,3.38430859375,3.341875,0.0364921874999999,5.9351953125,3.90014453125,4.569546875,4.6597890625,7.2557734375,8.0689609375,4.66133984375,3.28159375,2.73847265625,2.41791796875,1.73928125,0.958265625,0.61276171875
1.16336328125,-1.60640234375,-2.27724609375,1.0160625,8.516234375,5.193453125,4.36356640625,1.2235625,6.28719140625,3.14311328125,2.39794140625,1.481921875,4.2320390625,8.50486328125,5.23730859375,5.054875,-0.0865078124999998,6.0611953125,5.34714453125,6.166546875,5.5027890625,9.0937734375,8.8829609375,5.85333984375,4.78759375,4.01047265625,3.23191796875,3.05528125,1.848265625,1.93876171875
0.70536328125,-1.95140234375,-0.48724609375,1.7590625,9.858234375,7.296453125,7.07856640625,3.1225625,6.13019140625,5.22311328125,5.36394140625,3.436921875,4.7390390625,9.19986328125,7.31430859375,7.562875,1.0024921875,6.1131953125,6.82614453125,8.164546875,7.2207890625,10.4847734375,9.6409609375,7.25233984375,6.89359375,5.74247265625,4.26191796875,4.44928125,3.091265625,3.96976171875
-0.12063671875,-2.66240234375,2.36175390625,2.1610625,10.795234375,9.373453125,9.96956640625,3.7405625,5.38019140625,7.21011328125,8.27894140625,5.757921875,5.0680390625,9.59386328125,9.13930859375,10.313875,3.0724921875,6.3521953125,8.03214453125,10.073546875,9.4117890625,11.2417734375,10.2849609375,8.51633984375,9.01359375,7.40347265625,5.19891796875,5.62928125,4.321265625,6.12876171875
-0.89363671875,-3.32440234375,5.66475390625,2.0230625,11.358234375,11.259453125,12.71156640625,3.1445625,4.46219140625,8.92811328125,10.77194140625,8.072921875,5.4810390625,9.78686328125,10.54530859375,12.881875,5.6634921875,7.0611953125,8.95714453125,11.627546875,11.6657890625,11.4167734375,10.9659609375,9.57233984375,10.72859375,8.57847265625,5.96291796875,6.51928125,5.321265625,7.88876171875
-1.14463671875,-3.33940234375,8.69075390625,1.5260625,11.823234375,12.960453125,15.10356640625,2.2445625,3.91919140625,10.43511328125,12.75294140625,10.121921875,6.2540390625,10.12886328125,11.65630859375,15.038875,8.1624921875,8.3661953125,9.81814453125,12.786546875,13.6317890625,11.2147734375,11.9099609375,10.55833984375,11.88559375,9.09747265625,6.66091796875,7.21528125,6.052265625,8.93976171875
-0.62063671875,-2.33340234375,10.81575390625,1.1130625,12.482234375,14.512453125,16.99756640625,2.2315625,4.16419140625,11.88511328125,14.27794140625,11.732921875,7.3980390625,10.98886328125,12.67830859375,16.667875,9.9604921875,10.1231953125,10.86014453125,13.634546875,15.0267890625,10.9017734375,13.2459609375,11.64833984375,12.54659375,9.03447265625,7.45291796875,7.88128125,6.597265625,9.24976171875
0.56736328125,-0.42140234375,11.71275390625,1.2060625,13.421234375,15.826453125,18.23956640625,3.8175625,5.24519140625,13.33011328125,15.37094140625,12.778921875,8.6450390625,12.48086328125,13.69230859375,17.670875,10.6494921875,11.9261953125,12.15414453125,14.245546875,15.6567890625,10.6797734375,14.8889609375,12.86833984375,12.86159375,8.62947265625,8.41491796875,8.61428125,7.071265625,9.00876171875
1.95636328125,1.80259765625,11.43675390625,1.9160625,14.448234375,16.654453125,18.67656640625,6.7525625,6.77619140625,14.59611328125,15.94894140625,13.185921875,9.6380390625,14.32786328125,14.56630859375,17.953875,10.1594921875,13.2211953125,13.51414453125,14.602546875,15.4707890625,10.5657734375,16.5239609375,14.02633984375,12.95359375,8.15547265625,9.45591796875,9.33028125,7.540265625,8.48776171875
2.93936328125,3.56159765625,10.36475390625,2.9420625,15.185234375,16.700453125,18.22856640625,9.9275625,8.13419140625,15.31911328125,15.85994140625,12.959921875,10.1530390625,15.96686328125,15.02630859375,17.471875,8.7834921875,13.5161953125,14.55814453125,14.606546875,14.6017890625,10.3587734375,17.7119609375,14.78833984375,12.85659375,7.79147265625,10.33491796875,9.75328125,7.956265625,7.87676171875
3.11236328125,4.26159765625,9.01175390625,3.7520625,15.243234375,15.796453125,16.97556640625,11.9745625,8.81619140625,15.12811328125,15.00094140625,12.196921875,10.1790390625,16.81986328125,14.79730859375,16.279875,7.0574921875,12.6051953125,14.89014453125,14.164546875,13.3117890625,9.7667734375,18.0989609375,14.83933984375,12.51859375,7.56147265625,10.75891796875,9.54628125,8.155265625,7.20276171875
2.51036328125,3.76759765625,7.79175390625,3.8970625,14.393234375,14.010453125,15.16456640625,11.9705625,8.68019140625,13.85211328125,13.40794140625,11.026921875,9.8330390625,16.57386328125,13.76130859375,14.551875,5.5544921875,10.6921953125,14.30514453125,13.286546875,11.8957890625,8.6177734375,17.6069609375,14.06333984375,11.88659375,7.37647265625,10.53791796875,8.52228125,7.959265625,6.39976171875
1.54436328125,2.43059765625,6.85975390625,3.2390625,12.671234375,11.624453125,13.11556640625,9.8405625,7.93619140625,11.61511328125,11.29394140625,9.567921875,9.2250390625,15.31486328125,12.06030859375,12.569875,4.6834921875,8.3241953125,12.92014453125,12.148546875,10.6237890625,7.0047734375,16.4879609375,12.67233984375,11.02559375,7.15547265625,9.72391796875,6.80428125,7.327265625,5.46176171875
0.71336328125,0.872597656250001,6.12475390625,2.0270625,10.394234375,9.030453125,11.11456640625,6.3035625,6.97019140625,8.82111328125,9.01094140625,7.927921875,8.3920390625,13.46786328125,10.08930859375,10.682875,4.5984921875,6.1711953125,11.16414453125,11.058546875,9.7247890625,5.2767734375,15.2219609375,11.17333984375,10.17459375,6.92647265625,8.63191796875,4.82428125,6.438265625,4.56176171875
0.34736328125,-0.338402343749999,5.38475390625,0.7990625,8.052234375,6.607453125,9.36456640625,2.4705625,6.16819140625,6.02611328125,6.94694140625,6.245921875,7.3510390625,11.59086328125,8.33830859375,9.205875,5.2304921875,4.7701953125,9.60014453125,10.342546875,9.3697890625,3.8777734375,14.2949609375,10.16233984375,9.66159375,6.82947265625,7.70491796875,3.15028125,5.628265625,4.00876171875
0.51236328125,-0.952402343749999,4.48075390625,0.1370625,6.123234375,4.613453125,7.95256640625,-0.6464375,5.76319140625,3.75611328125,5.37294140625,4.704921875,6.1580390625,10.12686328125,7.15730859375,8.291875,6.3764921875,4.3261953125,8.67514453125,10.183546875,9.6107890625,3.1327734375,13.9789609375,10.03133984375,9.71759375,7.02847265625,7.29591796875,2.23328125,5.205265625,4.07476171875
1.04036328125,-1.11340234375,3.37075390625,0.3220625,4.886234375,3.116453125,6.81956640625,-2.4634375,5.70719140625,2.29611328125,4.32994140625,3.483921875,4.9220390625,9.22586328125,6.60730859375,7.874875,7.7304921875,4.6541953125,8.50714453125,10.504546875,10.3317890625,3.0837734375,14.2049609375,10.77233984375,10.31459375,7.59147265625,7.48391796875,2.20128125,5.279265625,4.80876171875
1.60736328125,-1.22840234375,2.13675390625,1.1250625,4.331234375,2.013453125,5.77556640625,-2.8974375,5.68319140625,1.58911328125,3.63094140625,2.673921875,3.7600390625,8.72886328125,6.46030859375,7.708875,8.8824921875,5.2571953125,8.83814453125,10.981546875,11.2227890625,3.4957734375,14.5889609375,11.97433984375,11.13959375,8.39747265625,8.02391796875,2.79728125,5.699265625,5.94876171875
1.88936328125,-1.70540234375,0.94475390625,1.9210625,4.189234375,1.133453125,4.62556640625,-2.2474375,5.30819140625,1.31511328125,2.98394140625,2.232921875,2.7650390625,8.29986328125,6.33930859375,7.477875,9.3784921875,5.5581953125,9.17714453125,11.168546875,11.8337890625,4.0127734375,14.6329609375,13.00233984375,11.69959375,9.11347265625,8.44991796875,3.50428125,6.095265625,6.97776171875
1.71836328125,-2.73140234375,-0.03224609375,2.0850625,4.085234375,0.339453124999999,3.27956640625,-1.0204375,4.41319140625,1.08811328125,2.15694140625,2.005921875,2.0000390625,7.64286328125,5.89630859375,6.905875,8.8474921875,5.1731953125,9.02914453125,10.692546875,11.6987890625,4.3667734375,13.9719609375,13.25533984375,11.50859375,9.28147265625,8.27491796875,3.78228125,6.030265625,7.30476171875
1.12136328125,-4.22140234375,-0.69424609375,1.3490625,3.724234375,-0.427546875,1.76956640625,0.2305625,3.16919140625,0.64411328125,1.08094140625,1.764921875,1.4820390625,6.64586328125,4.97430859375,5.854875,7.1554921875,4.0851953125,8.12914453125,9.414546875,10.5357890625,4.4657734375,12.5389609375,12.39933984375,10.29359375,8.51147265625,7.19991796875,3.31128125,5.197265625,6.52276171875
0.23036328125,-5.91340234375,-1.05724609375,-0.0859375,3.036234375,-1.183546875,0.19156640625,1.0295625,1.95619140625,-0.07688671875,-0.14505859375,1.292921875,1.1440390625,5.40186328125,3.67030859375,4.383875,4.4904921875,2.6021953125,6.53214453125,7.471546875,8.4147890625,4.3497734375,10.5599609375,10.47933984375,8.12459375,6.70347265625,5.25491796875,2.10728125,3.593265625,4.61676171875
-0.79363671875,-7.49940234375,-1.25724609375,-1.7029375,2.178234375,-1.925546875,-1.31043359375,1.1025625,1.14919140625,-0.94188671875,-1.31905859375,0.479921875,0.8060390625,4.12286328125,2.27930859375,2.726875,1.3574921875,1.1631953125,4.57114453125,5.227546875,5.7877890625,4.0857734375,8.4439609375,7.88533984375,5.42059375,4.16447265625,2.79491796875,0.502281250000001,1.553265625,2.03176171875
-1.74163671875,-8.67440234375,-1.50424609375,-2.9439375,1.410234375,-2.627546875,-2.51443359375,0.4245625,0.925191406250001,-1.70088671875,-2.22105859375,-0.610078125,0.2160390625,3.01786328125,1.14930859375,1.211875,-1.5465078125,0.1091953125,2.68814453125,3.131546875,3.3177890625,3.6987734375,6.6259609375,5.18333984375,2.79059375,1.54147265625,0.36191796875,-1.01071875,-0.375734375,-0.474238281250001
-2.36063671875,-9.17140234375,-2.02124609375,-3.5049375,0.941234375,-3.236546875,-3.16343359375,-0.8034375,1.18519140625,-2.10588671875,-2.70005859375,-1.763078125,-0.8489609375,2.21186328125,0.527308593749999,0.133875000000001,-3.5775078125,-0.4548046875,1.25514453125,1.566546875,1.5937890625,3.1797734375,5.4289609375,2.91033984375,0.81659375,-0.428527343750001,-1.51008203125,-1.98771875,-1.653734375,-2.11523828125
-2.44563671875,-8.83940234375,-2.92724609375,-3.4849375,0.838234375,-3.674546875,-3.10043359375,-2.2624375,1.59319140625,-2.02488671875,-2.71505859375,-2.720078125,-2.4399609375,1.72886328125,0.49030859375,-0.338125,-4.3895078125,-0.6618046875,0.46214453125,0.728546875,0.897789062500001,2.5287734375,4.9689609375,1.43233984375,-0.14640625,-1.21752734375,-2.46208203125,-2.19571875,-1.939734375,-2.37123828125
-1.97463671875,-7.74540234375,-4.13424609375,-3.2869375,1.025234375,-3.852546875,-2.38943359375,-3.6414375,1.78719140625,-1.50288671875,-2.33805859375,-3.317078125,-4.3339609375,1.51686328125,0.94030859375,-0.216124999999999,-4.0565078125,-0.7718046875,0.28014453125,0.582546875,1.1107890625,1.8097734375,5.1429609375,0.866339843750001,-0.09040625,-0.736527343750001,-2.41508203125,-1.66371875,-1.215734375,-1.21223828125
-1.11763671875,-6.21640234375,-5.34924609375,-3.3209375,1.330234375,-3.719546875,-1.33543359375,-4.7234375,1.61819140625,-0.73988671875,-1.74605859375,-3.558078125,-6.0589609375,1.47586328125,1.62630859375,0.279875000000001,-3.0125078125,-1.0238046875,0.51014453125,0.897546875,1.7797890625,1.1857734375,5.7029609375,1.06933984375,0.63959375,0.59047265625,-1.57508203125,-0.627718749999999,0.193265625,0.863761718749999
-0.14763671875,-4.72140234375,-6.24624609375,-3.7529375,1.544234375,-3.323546875,-0.40143359375,-5.4354375,1.23919140625,-0.0288867187499999,-1.19805859375,-3.612078125,-7.0969609375,1.46486328125,2.20130859375,0.777875000000001,-1.8765078125,-1.5288046875,0.86114453125,1.335546875,2.3077890625,0.8697734375,6.3609609375,1.70033984375,1.47159375,1.98447265625,-0.362082031249999,0.587281250000001,1.722265625,2.99576171875
0.66836328125,-3.68640234375,-6.68924609375,-4.4829375,1.486234375,-2.870546875,-0.0374335937499999,-5.8484375,0.950191406250001,0.30511328125,-0.98405859375,-3.717078125,-7.1779609375,1.31986328125,2.33630859375,0.901875,-1.2615078125,-2.2568046875,1.06014453125,1.565546875,2.2117890625,1.0307734375,6.8789609375,2.35833984375,1.85659375,2.64847265625,0.76891796875,1.67028125,2.800265625,4.31976171875
1.12136328125,-3.33140234375,-6.80624609375,-5.2519375,1.053234375,-2.676546875,-0.48043359375,-6.1344375,0.95719140625,0.00811328124999999,-1.32505859375,-4.071078125,-6.4499609375,0.916863281249999,1.86930859375,0.461875,-1.6005078125,-3.0688046875,0.95914453125,1.390546875,1.3237890625,1.7007734375,7.1239609375,2.74933984375,1.52759375,2.13947265625,1.51091796875,2.41128125,3.110265625,4.35776171875
1.11736328125,-3.64440234375,-6.86024609375,-5.7579375,0.244234375,-3.021546875,-1.62743359375,-6.4994375,1.27019140625,-0.96288671875,-2.25605859375,-4.753078125,-5.4029609375,0.25586328125,0.894308593749999,-0.454124999999999,-3.0115078125,-3.7538046875,0.59314453125,0.828546875,-0.157210937499999,2.7797734375,7.1029609375,2.79933984375,0.60359375,0.581472656249999,1.81791796875,2.74228125,2.711265625,3.20576171875
0.70536328125,-4.47140234375,-7.01224609375,-5.7309375,-0.823765625,-3.973546875,-3.07243359375,-7.0844375,1.74419140625,-2.34588671875,-3.57505859375,-5.716078125,-4.5819609375,-0.48813671875,-0.25769140625,-1.525125,-5.2345078125,-4.0638046875,0.16714453125,0.105546875,-1.7832109375,4.0937734375,6.9529609375,2.64533984375,-0.50840625,-1.41152734375,1.87691796875,2.74728125,1.956265625,1.43376171875
0.03136328125,-5.63340234375,-7.18424609375,-5.0479375,-1.917765625,-5.322546875,-4.33943359375,-7.8504375,2.17119140625,-3.64588671875,-4.91505859375,-6.809078125,-4.3079609375,-1.01713671875,-1.16169140625,-2.363125,-7.7055078125,-3.7848046875,-0.0678554687500004,-0.476453124999999,-3.0652109375,5.4167734375,6.8589609375,2.51433984375,-1.34340625,-3.04352734375,1.94391796875,2.59728125,1.289265625,-0.23123828125
-0.75863671875,-6.98740234375,-7.09724609375,-3.8579375,-2.762765625,-6.679546875,-5.12643359375,-8.5414375,2.34119140625,-4.38788671875,-5.91605859375,-7.827078125,-4.5579609375,-1.06413671875,-1.51869140625,-2.708125,-9.7445078125,-2.8498046875,0.0281445312499997,-0.743453125,-3.6672109375,6.4417734375,6.9149609375,2.54933984375,-1.63240625,-3.71452734375,2.15991796875,2.43928125,1.002265625,-1.25423828125
-1.54863671875,-8.39140234375,-6.46424609375,-2.5929375,-3.182765625,-7.687546875,-5.41743359375,-8.7644375,2.10919140625,-4.36888671875,-6.41605859375,-8.572078125,-5.0699609375,-0.57213671875,-1.34169140625,-2.565125,-10.7715078125,-1.4328046875,0.36414453125,-0.774453125,-3.5452109375,6.7837734375,7.0469609375,2.66433984375,-1.43340625,-3.26152734375,2.41591796875,2.28328125,1.093265625,-1.50323828125
-2.19463671875,-9.63740234375,-5.21124609375,-1.8179375,-3.234765625,-8.204546875,-5.42643359375,-8.2084375,1.45619140625,-3.77088671875,-6.52605859375,-8.927078125,-5.5689609375,0.24186328125,-0.97469140625,-2.209125,-10.4675078125,0.0631953125,0.63714453125,-0.859453125,-2.9402109375,6.0817734375,7.0439609375,2.56533984375,-1.09340625,-1.97252734375,2.39591796875,1.98828125,1.280265625,-1.23823828125
-2.47963671875,-10.44040234375,-3.59824609375,-1.9869375,-3.169765625,-8.338546875,-5.44643359375,-6.8384375,0.482191406250001,-3.03588671875,-6.53105859375,-8.891078125,-5.9369609375,0.998863281249999,-0.89669140625,-2.013125,-8.8655078125,1.1361953125,0.50814453125,-1.301453125,-2.2232109375,4.1877734375,6.6939609375,1.92533984375,-1.02040625,-0.372527343750001,1.76591796875,1.35428125,1.191265625,-0.90923828125
-2.16363671875,-10.51140234375,-2.16524609375,-3.2189375,-3.243765625,-8.323546875,-5.68943359375,-4.9544375,-0.63080859375,-2.61088671875,-6.67005859375,-8.559078125,-6.2099609375,1.36786328125,-1.41969140625,-2.223125,-6.3295078125,1.3891953125,-0.17385546875,-2.219453125,-1.6922109375,1.3337734375,5.9089609375,0.63633984375,-1.42640625,1.04447265625,0.410917968750001,0.265281250000001,0.597265625,-0.907238281250001
-1.10163671875,-9.72040234375,-1.49624609375,-5.1809375,-3.542765625,-8.358546875,-6.18643359375,-3.0364375,-1.65580859375,-2.72988671875,-7.00305859375,-8.056078125,-6.4319609375,1.24586328125,-2.52969140625,-2.851125,-3.4455078125,0.7141953125,-1.27585546875,-3.490453125,-1.4742109375,-1.8832265625,4.7839609375,-1.09266015625,-2.24340625,1.97347265625,-1.47908203125,-1.23071875,-0.488734375,-1.42323828125
0.63936328125,-8.24440234375,-1.93024609375,-7.1879375,-3.976765625,-8.525546875,-6.80243359375,-1.4974375,-2.34980859375,-3.36788671875,-7.44605859375,-7.478078125,-6.5429609375,0.75086328125,-3.97369140625,-3.769125,-0.8465078125,-0.6658046875,-2.49185546875,-4.866453125,-1.5872109375,-4.7252265625,3.5409609375,-2.86966015625,-3.25640625,2.27547265625,-3.52008203125,-2.96271875,-1.911734375,-2.46723828125
2.71336328125,-6.56740234375,-3.38724609375,-8.5409375,-4.411765625,-8.832546875,-7.36843359375,-0.5114375,-2.56480859375,-4.36188671875,-7.91205859375,-6.890078125,-6.4309609375,0.08586328125,-5.47169140625,-4.852125,0.9474921875,-2.3148046875,-3.54085546875,-6.141453125,-2.0522109375,-6.6572265625,2.4129609375,-4.35066015625,-4.29440625,1.88947265625,-5.33908203125,-4.74671875,-3.518734375,-3.95423828125
4.53636328125,-5.29840234375,-5.38524609375,-8.9159375,-4.779765625,-9.261546875,-7.80443359375,-0.0124374999999999,-2.36780859375,-5.55388671875,-8.39405859375,-6.350078125,-6.0719609375,-0.602136718750001,-6.83569140625,-6.018125,1.6494921875,-3.7768046875,-4.29185546875,-7.218453125,-2.8902109375,-7.5902265625,1.5519609375,-5.36566015625,-5.29340625,0.807472656249999,-6.70108203125,-6.42571875,-5.188734375,-5.71923828125
5.49536328125,-4.87040234375,-7.23324609375,-8.5209375,-5.089765625,-9.748546875,-8.10943359375,0.1525625,-2.03880859375,-6.80988671875,-8.90305859375,-5.933078125,-5.6189609375,-1.25713671875,-7.93969140625,-7.149125,1.2814921875,-4.7388046875,-4.74385546875,-8.051453125,-4.0352109375,-7.8342265625,1.0209609375,-5.90566015625,-6.22140625,-0.855527343750001,-7.50108203125,-7.84271875,-6.757734375,-7.50223828125
5.26036328125,-5.32840234375,-8.29124609375,-7.8859375,-5.372765625,-10.135546875,-8.26543359375,0.0545625000000001,-1.92980859375,-7.94288671875,-9.37005859375,-5.732078125,-5.3499609375,-1.86113671875,-8.67169140625,-8.055125,0.1724921875,-5.0748046875,-4.94685546875,-8.576453125,-5.2742109375,-7.8352265625,0.8259609375,-6.04866015625,-6.98940625,-2.80952734375,-7.73508203125,-8.80671875,-7.982734375,-8.96923828125
3.99036328125,-6.32740234375,-8.22524609375,-7.5139375,-5.621765625,-10.193546875,-8.19043359375,-0.3554375,-2.27080859375,-8.67988671875,-9.61605859375,-5.805078125,-5.5129609375,-2.37813671875,-8.92569140625,-8.510125,-1.1385078125,-4.8328046875,-4.93985546875,-8.711453125,-6.2862109375,-7.8992265625,0.9349609375,-5.91066015625,-7.45140625,-4.61252734375,-7.46908203125,-9.13671875,-8.608734375,-9.81323828125
2.24536328125,-7.32240234375,-7.12724609375,-7.6379375,-5.760765625,-9.737546875,-7.82443359375,-1.0994375,-3.07180859375,-8.76988671875,-9.44405859375,-6.116078125,-6.1729609375,-2.74713671875,-8.64969140625,-8.356125,-2.0985078125,-4.1938046875,-4.75685546875,-8.425453125,-6.7472109375,-8.0872265625,1.2479609375,-5.61366015625,-7.46140625,-5.78452734375,-6.83808203125,-8.75571875,-8.487734375,-9.86023828125
0.68136328125,-7.83540234375,-5.44124609375,-8.2049375,-5.660765625,-8.752546875,-7.21743359375,-1.9934375,-4.12580859375,-8.13888671875,-8.76005859375,-6.495078125,-7.1389609375,-2.92113671875,-7.88669140625,-7.580125,-2.3405078125,-3.4398046875,-4.44885546875,-7.789453125,-6.4412109375,-8.2932265625,1.5819609375,-5.26866015625,-6.94140625,-5.94952734375,-6.01908203125,-7.76371875,-7.654734375,-9.11923828125
-0.24063671875,-7.64740234375,-3.73024609375,-8.9699375,-5.226765625,-7.419546875,-6.51143359375,-2.6074375,-5.07680859375,-6.96588671875,-7.64405859375,-6.684078125,-8.0189609375,-2.91613671875,-6.80469140625,-6.347125,-1.7745078125,-2.8748046875,-4.10285546875,-6.970453125,-5.3552109375,-8.4032265625,1.7159609375,-4.96766015625,-5.95440625,-4.97452734375,-5.22208203125,-6.42371875,-6.334734375,-7.77123828125
-0.37163671875,-6.84840234375,-2.40424609375,-9.6149375,-4.479765625,-6.029546875,-5.83443359375,-2.4314375,-5.56380859375,-5.61388671875,-6.31505859375,-6.410078125,-8.3809609375,-2.80313671875,-5.65169140625,-4.960125,-0.5685078125,-2.7408046875,-3.82385546875,-6.152453125,-3.7112109375,-8.4192265625,1.4859609375,-4.78166015625,-4.70540625,-3.04252734375,-4.64808203125,-5.06971875,-4.863734375,-6.11823828125
0.15336328125,-5.73440234375,-1.57024609375,-9.8899375,-3.555765625,-4.847546875,-5.20143359375,-1.1454375,-5.36880859375,-4.44088671875,-5.01005859375,-5.473078125,-7.9799609375,-2.64913671875,-4.64169140625,-3.713125,0.9544921875,-3.1148046875,-3.66985546875,-5.447453125,-1.8622109375,-8.4902265625,0.8799609375,-4.71566015625,-3.45340625,-0.594527343750001,-4.43008203125,-3.97071875,-3.551734375,-4.48323828125
1.01736328125,-4.64240234375,-1.05724609375,-9.6949375,-2.606765625,-3.991546875,-4.48743359375,1.1635625,-4.51180859375,-3.62088671875,-3.84605859375,-3.777078125,-6.8789609375,-2.43313671875,-3.81569140625,-2.730125,2.4704921875,-3.8738046875,-3.58585546875,-4.821453125,-0.116210937499999,-8.8082265625,0.0799609374999992,-4.64966015625,-2.35940625,1.83547265625,-4.54008203125,-3.22471875,-2.538734375,-3.08923828125
1.87236328125,-3.80440234375,-0.58224609375,-9.0829375,-1.708765625,-3.400546875,-3.46243359375,3.9375625,-3.18780859375,-3.04788671875,-2.76805859375,-1.363078125,-5.4309609375,-2.03313671875,-3.01369140625,-1.901125,3.7934921875,-4.7278046875,-3.38685546875,-4.102453125,1.3937890625,-9.4482265625,-0.5820390625,-4.33866015625,-1.40440625,3.82847265625,-4.75108203125,-2.74271875,-1.771734375,-1.98623828125
2.47536328125,-3.30940234375,0.0267539062500001,-8.1979375,-0.855765625,-2.913546875,-1.93143359375,6.2895625,-1.65780859375,-2.42188671875,-1.64505859375,1.519921875,-4.1339609375,-1.31013671875,-2.00969140625,-1.001125,4.9294921875,-5.3498046875,-2.85785546875,-3.094453125,2.6867890625,-10.2752265625,-0.750039062500001,-3.54166015625,-0.45540625,5.16447265625,-4.74408203125,-2.33871875,-1.113734375,-1.09623828125
2.73336328125,-3.17140234375,0.69575390625,-7.2669375,-0.0427656249999999,-2.424546875,0.0735664062500001,7.3545625,-0.18280859375,-1.48488671875,-0.43205859375,4.371921875,-3.4769609375,-0.256136718750001,-0.71069140625,0.104875000000001,5.9854921875,-5.5488046875,-1.90285546875,-1.746453125,3.7887890625,-11.0432265625,-0.2460390625,-2.19366015625,0.57059375,5.79547265625,-4.30408203125,-1.90671875,-0.522734375,-0.357238281250001
2.65636328125,-3.37640234375,1.10975390625,-6.6149375,0.659234375,-1.983546875,2.15756640625,6.7215625,0.986191406250001,-0.26488671875,0.70794140625,6.513921875,-3.8149609375,0.91086328125,0.72230859375,1.311875,7.0074921875,-5.4068046875,-0.66885546875,-0.279453125,4.6167890625,-11.5982265625,0.768960937499999,-0.529660156249999,1.56259375,5.73747265625,-3.50408203125,-1.56671875,-0.150734375,0.139761718749999
2.34936328125,-3.85940234375,0.87875390625,-6.5889375,1.086234375,-1.772546875,3.67756640625,4.7235625,1.63119140625,0.88111328125,1.44094140625,7.318921875,-5.2429609375,1.77586328125,1.90530859375,2.276875,7.8964921875,-5.2448046875,0.44314453125,0.850546875,4.9477890625,-12.0112265625,1.8139609375,0.95633984375,2.20159375,5.00147265625,-2.73408203125,-1.64371875,-0.299734375,0.12876171875
2.04036328125,-4.44240234375,-0.21524609375,-7.3529375,1.035234375,-1.971546875,4.06556640625,2.3515625,1.65919140625,1.44711328125,1.43294140625,6.494921875,-7.4659609375,1.92286328125,2.39530859375,2.575875,8.4694921875,-5.4358046875,0.94714453125,1.156546875,4.5297890625,-12.4782265625,2.3189609375,1.69633984375,2.12159375,3.61447265625,-2.50608203125,-2.45771875,-1.221734375,-0.66723828125
2.03036328125,-4.86440234375,-2.00924609375,-8.7199375,0.401234375,-2.618546875,3.15856640625,0.8095625,1.18619140625,1.08711328125,0.56494140625,4.284921875,-9.7589609375,1.18186328125,1.93730859375,1.963875,8.5744921875,-6.1388046875,0.54514453125,0.410546875000001,3.2937890625,-13.0902265625,1.9839609375,1.37133984375,1.17559375,1.73347265625,-3.10908203125,-4.00571875,-2.854734375,-2.25723828125
2.49336328125,-4.92040234375,-3.89624609375,-10.1969375,-0.705765625,-3.562546875,1.30956640625,0.9285625,0.555191406250001,-0.14788671875,-0.92605859375,1.438921875,-11.1519609375,-0.18813671875,0.67830859375,0.608875,8.1934921875,-7.1358046875,-0.62385546875,-1.163453125,1.5487890625,-13.6522265625,1.0099609375,0.16533984375,-0.33040625,-0.244527343750001,-4.32208203125,-5.78671875,-4.664734375,-4.17723828125
3.29836328125,-4.62940234375,-5.02124609375,-11.2089375,-1.936765625,-4.518546875,-0.76843359375,2.7455625,0.23419140625,-1.79488671875,-2.50405859375,-1.041078125,-10.8429609375,-1.55413671875,-0.81669140625,-0.907125,7.4564921875,-7.9068046875,-1.96285546875,-2.922453125,-0.0602109374999991,-13.7232265625,0.0509609374999993,-1.22166015625,-1.67240625,-1.73852734375,-5.42708203125,-6.93771875,-5.783734375,-5.58923828125
4.08636328125,-4.27140234375,-4.69224609375,-11.3529375,-2.877765625,-5.204546875,-2.34643359375,5.4945625,0.623191406250001,-3.19688671875,-3.58005859375,-2.317078125,-8.6519609375,-2.20613671875,-1.82869140625,-1.864125,6.6034921875,-7.9088046875,-2.69585546875,-4.091453125,-0.861210937499999,-12.8712265625,-0.125039062500001,-1.91366015625,-2.07740625,-2.23052734375,-5.58808203125,-6.68271875,-5.457734375,-5.70123828125
4.53136328125,-4.23440234375,-2.79224609375,-10.5529375,-3.271765625,-5.487546875,-2.99843359375,8.0375625,1.82019140625,-3.84188671875,-3.80605859375,-2.060078125,-5.1889609375,-1.74713671875,-1.86069140625,-1.812125,5.8934921875,-6.9078046875,-2.29185546875,-4.142453125,-0.545210937499999,-10.9792265625,0.9379609375,-1.34366015625,-1.18740625,-1.57452734375,-4.35208203125,-4.80371875,-3.515734375,-4.25423828125
4.55936328125,-4.74740234375,0.06575390625,-9.0609375,-3.132765625,-5.444546875,-2.76843359375,9.4855625,3.48419140625,-3.63688671875,-3.24305859375,-0.569078125,-1.5959609375,-0.31713671875,-0.89269140625,-0.816125,5.5124921875,-5.1538046875,-0.75585546875,-3.040453125,0.6667890625,-8.3822265625,3.1039609375,0.425339843750001,0.70459375,-0.126527343750001,-1.94508203125,-1.83571875,-0.523734375,-1.71523828125
4.35636328125,-5.70940234375,2.77575390625,-7.3389375,-2.693765625,-5.318546875,-2.09343359375,9.5945625,4.94519140625,-2.93288671875,-2.30305859375,1.392921875,0.9950390625,1.46686328125,0.63130859375,0.592875,5.5034921875,-3.2728046875,1.35614453125,-1.256453125,2.1507890625,-5.7562265625,5.7039609375,2.73433984375,2.78959375,1.40447265625,0.82991796875,1.18128125,2.482265625,0.948761718749999
4.21336328125,-6.72040234375,4.23975390625,-5.8489375,-2.272765625,-5.392546875,-1.55343359375,8.7085625,5.52719140625,-2.31588671875,-1.55605859375,2.928921875,1.9440390625,2.82086328125,2.02430859375,1.672875,5.7514921875,-1.9608046875,3.20714453125,0.460546875,3.1767890625,-3.7922265625,7.8589609375,4.65033984375,4.12959375,2.27047265625,2.98291796875,3.21928125,4.491265625,2.73776171875
4.34236328125,-7.32040234375,3.88475390625,-4.8709375,-2.153765625,-5.867546875,-1.59643359375,7.3915625,4.90519140625,-2.29988671875,-1.48505859375,3.375921875,1.3020390625,3.15086328125,2.63930859375,1.802875,6.0214921875,-1.6488046875,4.05414453125,1.396546875,3.2007890625,-2.8602265625,8.8959609375,5.40033984375,4.08159375,2.01247265625,3.79591796875,3.76628125,4.967265625,3.07776171875
4.74636328125,-7.24040234375,1.95075390625,-4.4229375,-2.493765625,-6.786546875,-2.36443359375,6.1215625,3.25819140625,-3.10488671875,-2.28905859375,2.567921875,-0.3219609375,2.31086328125,2.13930859375,0.768875,6.0704921875,-2.3278046875,3.57614453125,1.154546875,2.1057890625,-2.8382265625,8.6139609375,4.71133984375,2.59659375,0.690472656249999,3.14091796875,3.04528125,4.086265625,2.06776171875
5.18236328125,-6.49340234375,-0.58024609375,-4.2939375,-3.250765625,-7.998546875,-3.64743359375,5.2145625,1.20319140625,-4.58888671875,-3.78605859375,0.911921875,-2.0689609375,0.650863281249999,0.640308593749999,-1.096125,5.7974921875,-3.5758046875,2.01514453125,-0.192453125,0.290789062500001,-3.1802265625,7.3259609375,2.93733984375,0.27359375,-1.09052734375,1.53891796875,1.88428125,2.667265625,0.435761718749999
5.28936328125,-5.28240234375,-2.37924609375,-4.1219375,-4.189765625,-9.187546875,-4.95343359375,4.8905625,-0.42680859375,-6.32988671875,-5.47605859375,-0.798078125,-3.1649609375,-1.14113671875,-1.35769140625,-3.049125,5.3474921875,-4.7468046875,0.04614453125,-2.173453125,-1.4692109375,-3.1562265625,5.6769609375,0.87033984375,-1.89440625,-2.41052734375,-0.0920820312499995,1.31528125,1.819265625,-0.786238281250001
4.79736328125,-3.83140234375,-2.37624609375,-3.5299375,-5.009765625,-9.999546875,-5.73243359375,5.2685625,-0.91580859375,-7.83088671875,-6.79805859375,-1.779078125,-3.1729609375,-2.38613671875,-3.24869140625,-4.324125,5.0334921875,-5.2598046875,-1.58385546875,-4.175453125,-2.4122109375,-2.1712265625,4.3269609375,-0.683660156249999,-3.00840625,-2.47852734375,-0.89808203125,2.10828125,2.412265625,-0.753238281250001
3.69036328125,-2.28940234375,-0.29324609375,-2.3239375,-5.530765625,-10.253546875,-5.69043359375,6.2845625,-0.0198085937499997,-8.79588671875,-7.45005859375,-1.682078125,-2.1119609375,-2.76213671875,-4.66569140625,-4.574125,5.0974921875,-4.8818046875,-2.46685546875,-5.795453125,-2.2172109375,-0.0542265625000002,3.6289609375,-1.33366015625,-2.73740625,-1.06052734375,-0.528082031249999,4.41928125,4.650265625,0.773761718749999
2.19036328125,-0.739402343749999,3.18275390625,-0.6559375,-5.796765625,-10.087546875,-5.01343359375,7.6375625,1.83419140625,-9.30488671875,-7.57405859375,-0.786078125,-0.4159609375,-2.47913671875,-5.65869140625,-4.060125,5.4954921875,-3.8628046875,-2.73785546875,-7.027453125,-1.2022109375,2.8317734375,3.4669609375,-1.28466015625,-1.49040625,1.36447265625,0.698917968750001,7.73528125,7.981265625,3.31376171875
2.19036328125,-0.739402343749999,3.18275390625,-0.6559375,-5.796765625,-10.087546875,-5.01343359375,7.6375625,1.83419140625,-9.30488671875,-7.57405859375,-0.786078125,-0.4159609375,-2.47913671875,-5.65869140625,-4.060125,5.4954921875,-3.8628046875,-2.73785546875,-7.027453125,-1.2022109375,2.8317734375,3.4669609375,-1.28466015625,-1.49040625,1.36447265625,0.698917968750001,7.73528125,7.981265625,3.31376171875
