"Fp1","Fpz","Fp2","F7","F3","Fz","F4","F8","FC5","FC1","FC2","FC6","T7","C3","Cz","C4","T8","CP5","CP1","CP2","CP6","P7","P3","Pz","P4","P8","POz","O1","Oz","O2"
37.6646875,-12.71421875,8.752328125,1.9838671875,-7.7404296875,-3.06805078125,-5.4390625,-1.40530078125,-8.04534375,-6.91798046875,-6.05485546875,-0.3037265625,-1.58053515625,-5.09593359375,-5.4673671875,-2.35053515625,-4.51493359375,-1.698828125,-4.369328125,-41.12821875,-4.76553515625,1.2223046875,-3.04903125,-11.0671796875,13.73901171875,-9.5636640625,-14.9838515625,-2.14229296875,-0.683765625,2.39002734375
38.9536875,-9.18521875,12.917328125,3.7528671875,-8.3334296875,-0.54005078125,-6.9690625,-3.31530078125,-4.99734375,-3.40998046875,-2.78985546875,2.5052734375,0.91946484375,-2.50393359375,-2.7433671875,0.14546484375,1.71406640625,1.537171875,-1.678328125,-39.67721875,-2.22953515625,7.6073046875,0.31396875,-8.0421796875,16.24401171875,-7.7386640625,-12.5238515625,-0.18629296875,1.068234375,3.75702734375
38.7656875,-7.70821875,14.159328125,4.7448671875,-8.7454296875,0.58394921875,-8.2640625,-5.01630078125,-3.44634375,-1.46198046875,-1.10385546875,3.0472734375,0.78946484375,-1.22593359375,-1.1363671875,0.76646484375,4.16906640625,2.701171875,0.00367187499999977,-39.19021875,-1.38453515625,9.2653046875,1.98196875,-6.6041796875,17.07801171875,-7.1606640625,-11.2498515625,0.30870703125,1.793234375,4.14102734375
37.1716875,-8.16121875,12.711328125,4.8968671875,-8.9704296875,0.39894921875,-9.2750625,-6.18030078125,-3.29434375,-0.89798046875,-0.83785546875,1.5582734375,-1.56953515625,-1.14993359375,-0.507367187499999,-0.22853515625,2.98606640625,1.871171875,0.713671875,-39.47621875,-2.15953515625,6.2153046875,1.98896875,-6.6071796875,16.40101171875,-7.7126640625,-11.0438515625,-0.58629296875,1.561234375,3.67002734375
34.8926875,-9.66121875,9.893328125,4.4778671875,-8.9614296875,-0.48805078125,-9.8670625,-6.33630078125,-3.91434375,-1.02298046875,-1.29485546875,-0.9067265625,-4.70953515625,-1.70093359375,-0.3273671875,-1.86853515625,-0.35493359375,-0.142828125,0.827671875,-39.93421875,-3.85853515625,0.1563046875,0.93396875,-7.3361796875,15.00501171875,-8.7906640625,-11.3558515625,-2.25629296875,0.824234375,2.85902734375
33.0316875,-10.99821875,7.452328125,4.0288671875,-8.5724296875,-1.27005078125,-9.7580625,-5.06230078125,-4.49434375,-1.04698046875,-1.62685546875,-3.0177265625,-6.79453515625,-2.15893359375,0.0196328125000007,-2.97353515625,-3.78693359375,-2.231828125,0.848671875,-39.84921875,-5.50353515625,-6.3026953125,-0.35003125,-7.8891796875,13.90501171875,-9.6016640625,-11.4938515625,-3.83229296875,0.181234375,2.34902734375
32.5606875,-11.19921875,6.741328125,4.1358671875,-7.6594296875,-1.32705078125,-8.6760625,-2.35130078125,-4.44634375,-0.49198046875,-1.24785546875,-3.7697265625,-6.45453515625,-2.02993359375,0.9086328125,-2.70753515625,-5.59793359375,-3.503828125,1.140671875,-38.75421875,-6.26253515625,-10.7016953125,-1.20403125,-7.6351796875,13.86501171875,-9.5486640625,-10.9838515625,-4.61729296875,0.0722343749999999,2.57502734375
33.8106875,-9.96021875,8.146328125,5.1248671875,-6.2674296875,-0.49805078125,-6.6310625,1.13069921875,-3.63834375,0.62401953125,-0.05685546875,-2.8417265625,-3.50453515625,-1.25693359375,2.3096328125,-0.90153515625,-5.10593359375,-3.618828125,1.761671875,-36.66821875,-5.77253515625,-11.6456953125,-1.40403125,-6.4941796875,15.08501171875,-8.5026640625,-9.7898515625,-4.40829296875,0.563234375,3.55602734375
36.2746875,-7.74821875,11.007328125,6.8848671875,-4.7354296875,0.90194921875,-4.0290625,4.18269921875,-2.37834375,1.87601953125,1.58014453125,-0.6277265625,0.82646484375,-0.18293359375,3.8436328125,1.92446484375,-2.79993359375,-2.819828125,2.468671875,-34.08421875,-4.23153515625,-9.2356953125,-1.18003125,-4.9201796875,17.18001171875,-6.8306640625,-8.2968515625,-3.53729296875,1.342234375,4.90802734375
38.8606875,-5.51421875,14.040328125,8.9538671875,-3.5674296875,2.27394921875,-1.5100625,5.63869921875,-1.18134375,2.69001953125,3.03914453125,2.0032734375,4.39746484375,0.67206640625,5.0006328125,4.81646484375,0.0650664062499999,-1.699828125,2.880671875,-31.72021875,-2.27653515625,-4.9156953125,-1.00103125,-3.6231796875,19.40101171875,-5.1956640625,-7.0818515625,-2.62729296875,1.922234375,6.06302734375
40.4776875,-4.14921875,16.033328125,10.8058671875,-3.1634296875,3.06694921875,0.3849375,4.97069921875,-0.47234375,2.66201953125,3.75714453125,4.0952734375,5.24646484375,0.90606640625,5.4046328125,6.79646484375,2.16306640625,-0.846828125,2.717671875,-30.17021875,-0.69253515625,-0.7656953125,-1.24203125,-3.1741796875,21.00201171875,-4.2326640625,-6.5808515625,-2.20429296875,1.944234375,6.57002734375
40.5926875,-3.97121875,16.457328125,12.1448671875,-3.5944296875,3.06994921875,1.4599375,2.52569921875,-0.35534375,1.80201953125,3.54114453125,5.0182734375,2.71446484375,0.47806640625,5.0366328125,7.29846484375,2.75406640625,-0.528828125,2.013671875,-29.60921875,-0.0585351562500001,1.4453046875,-1.89603125,-3.6661796875,21.58701171875,-4.2366640625,-6.8008515625,-2.36829296875,1.426234375,6.33902734375
39.5086875,-4.55721875,15.679328125,13.0628671875,-4.5294296875,2.53094921875,1.9499375,-0.66930078125,-0.54934375,0.58101953125,2.69914453125,4.7332734375,-2.06253515625,-0.22093359375,4.2816328125,6.44346484375,1.96206640625,-0.568828125,1.177671875,-29.69821875,-0.46853515625,1.0603046875,-2.51203125,-4.6261796875,21.29701171875,-4.9966640625,-7.2428515625,-2.71829296875,0.812234375,5.69702734375
38.2206875,-4.98921875,14.706328125,13.9678671875,-5.3634296875,2.03094921875,2.4379375,-3.35030078125,-0.53934375,-0.28798046875,1.90514453125,3.7852734375,-6.63753515625,-0.54693359375,3.7566328125,5.00846484375,0.58006640625,-0.467828125,0.830671875,-29.73721875,-1.46853515625,-1.2106953125,-2.40703125,-5.2351796875,20.73501171875,-5.8656640625,-7.1198515625,-2.58529296875,0.752234375,5.22202734375
37.9356875,-4.35521875,14.649328125,15.3258671875,-5.5024296875,2.16394921875,3.5729375,-4.51430078125,0.13365625,-0.22098046875,1.84814453125,3.0322734375,-8.52953515625,0.04806640625,3.9856328125,4.07746484375,-0.42893359375,0.283171875,1.476671875,-29.00721875,-2.25153515625,-3.7096953125,-1.06903125,-4.7581796875,20.67301171875,-6.0676640625,-5.7718515625,-1.45829296875,1.736234375,5.44202734375
39.4516875,-2.22921875,16.196328125,17.3248671875,-4.7054296875,3.20794921875,5.6839375,-3.82130078125,1.60965625,0.92901953125,2.86214453125,3.2272734375,-6.57053515625,1.70106640625,5.1226328125,4.52746484375,-0.43993359375,1.889171875,3.191671875,-27.13421875,-2.03053515625,-4.7176953125,1.50896875,-2.9481796875,21.66401171875,-5.0986640625,-3.0458515625,0.67870703125,3.784234375,6.56402734375
42.7266875,1.12778125,19.331328125,19.6988671875,-3.2484296875,4.96694921875,8.5019375,-1.72230078125,3.60265625,2.78201953125,4.73514453125,4.6452734375,-1.51453515625,4.02006640625,6.8526328125,6.59546484375,0.58606640625,4.091171875,5.531671875,-24.28921875,-0.42853515625,-3.3406953125,4.74696875,-0.1871796875,23.77301171875,-3.0126640625,0.5751484375,3.29770703125,6.386234375,8.37302734375
46.8826875,4.90478125,23.381328125,21.8368671875,-1.7894296875,6.86094921875,11.2679375,0.81169921875,5.50665625,4.60301953125,6.79114453125,6.9232734375,4.46046484375,6.24306640625,8.5266328125,9.72846484375,2.18406640625,6.254171875,7.704671875,-21.11921875,2.31646484375,0.0643046875,7.70296875,2.6838203125,26.52701171875,-0.3946640625,4.1631484375,5.58870703125,8.733234375,10.34902734375
50.6376875,8.13978125,27.347328125,23.1138671875,-0.987429687499999,8.21594921875,13.1699375,2.79069921875,6.66665625,5.64301953125,8.21414453125,9.2382734375,9.02646484375,7.58606640625,9.4636328125,12.82546484375,3.73106640625,7.652171875,8.938671875,-18.46121875,5.43246484375,4.1223046875,9.47896875,4.7458203125,29.13201171875,1.9543359375,6.7461484375,6.85370703125,10.102234375,11.90902734375
52.8856875,10.13278125,30.321328125,23.2058671875,-1.1694296875,8.59594921875,13.7829375,3.62269921875,6.69165625,5.49801953125,8.46314453125,10.7292734375,10.88446484375,7.61706640625,9.2766328125,14.73946484375,4.82106640625,7.825171875,8.832671875,-16.98021875,7.98746484375,7.1923046875,9.63496875,5.4078203125,30.83301171875,3.4513359375,7.7321484375,6.84770703125,10.204234375,12.67302734375
53.0826875,10.63778125,31.778328125,22.2158671875,-2.2104296875,8.00194921875,13.2239375,3.24769921875,5.65865625,4.29901953125,7.53614453125,10.9362734375,10.18546484375,6.46106640625,8.0436328125,14.79746484375,5.45406640625,6.837171875,7.541671875,-16.93621875,9.32646484375,8.2133046875,8.37996875,4.6338203125,31.24101171875,4.0003359375,7.1421484375,5.87470703125,9.316234375,12.61502734375
51.3136875,9.78978125,31.614328125,20.5728671875,-3.6524296875,6.81494921875,12.0139375,2.02269921875,4.05765625,2.59501953125,5.91214453125,9.9772734375,8.11546484375,4.69506640625,6.2236328125,13.03446484375,5.91306640625,5.254171875,5.654671875,-18.15821875,9.30346484375,7.1803046875,6.43696875,2.8858203125,30.42001171875,3.9513359375,5.5181484375,4.59970703125,8.094234375,12.01302734375
48.1206875,7.89178125,30.022328125,18.7898671875,-4.9604296875,5.53094921875,10.7649375,0.47869921875,2.50265625,1.01301953125,4.22014453125,8.3752734375,6.03446484375,2.99706640625,4.3726328125,10.05446484375,6.44206640625,3.826171875,3.854671875,-20.20021875,8.20646484375,5.0163046875,4.63696875,0.8158203125,28.73101171875,3.7843359375,3.5671484375,3.65570703125,7.190234375,11.21802734375
44.2296875,5.25578125,27.356328125,17.2298671875,-5.7914296875,4.47594921875,9.8549375,-0.97830078125,1.40265625,-0.0699804687500001,2.87214453125,6.7102734375,4.70946484375,1.77806640625,2.8536328125,6.68246484375,6.98106640625,3.086171875,2.557671875,-22.56821875,6.47246484375,2.9813046875,3.50596875,-1.0701796875,26.57901171875,3.7893359375,1.7781484375,3.30170703125,6.882234375,10.41302734375
40.3236875,2.17378125,24.046328125,15.9988671875,-6.1524296875,3.67694921875,9.2429375,-2.27130078125,0.81265625,-0.64198046875,1.91614453125,5.3472734375,3.97546484375,1.03706640625,1.7346328125,3.63746484375,7.17806640625,3.123171875,1.761671875,-24.85221875,4.46446484375,2.0163046875,3.07496875,-2.5891796875,24.23901171875,3.9343359375,0.2531484375,3.33370703125,6.977234375,9.52502734375
36.9056875,-1.04221875,20.545328125,15.0228671875,-6.3214296875,2.94494921875,8.5669375,-3.61330078125,0.53765625,-0.94698046875,1.13114453125,4.3482734375,2.98346484375,0.48506640625,0.867632812500001,1.35646484375,6.63306640625,3.619171875,1.163671875,-26.78521875,2.40746484375,2.3673046875,2.98996875,-3.8381796875,21.85701171875,3.9793359375,-1.1908515625,3.28170703125,6.991234375,8.35802734375
34.2536875,-4.05821875,17.239328125,14.2088671875,-6.6124296875,2.05894921875,7.4479375,-5.26630078125,0.32265625,-1.28098046875,0.24814453125,3.5482734375,0.87946484375,-0.20793359375,0.0436328125000003,-0.0435351562499999,5.17106640625,4.077171875,0.415671875,-28.22521875,0.44546484375,3.6263046875,2.77896875,-5.0261796875,19.52301171875,3.6983359375,-2.7768515625,2.74170703125,6.480234375,6.80302734375
32.4046875,-6.58421875,14.362328125,13.5458671875,-7.1534296875,0.92294921875,5.7589375,-7.31730078125,0.00665625000000014,-1.82798046875,-0.85885546875,2.7032734375,-2.45353515625,-1.20993359375,-0.8733671875,-0.71253515625,2.95406640625,4.071171875,-0.650328125,-29.14521875,-1.28453515625,5.0473046875,2.11296875,-6.3131796875,17.35001171875,3.0363359375,-4.5668515625,1.62170703125,5.287234375,4.98502734375
31.1746875,-8.45621875,11.969328125,13.0928671875,-7.8354296875,-0.36505078125,3.6739375,-9.62130078125,-0.43134375,-2.58898046875,-2.08885546875,1.6632734375,-6.10853515625,-2.45793359375,-1.8783671875,-0.935535156249999,0.41606640625,3.408171875,-1.940328125,-29.61021875,-2.62853515625,5.9183046875,0.94196875,-7.7211796875,15.48501171875,2.1513359375,-6.4088515625,0.17870703125,3.601234375,3.23402734375
30.2506875,-9.66421875,10.000328125,12.9328671875,-8.3794296875,-1.54005078125,1.5549375,-11.86930078125,-0.90134375,-3.39498046875,-3.14685546875,0.4912734375,-8.52153515625,-3.70393359375,-2.8243671875,-0.98753515625,-1.88193359375,2.167171875,-3.169328125,-29.73121875,-3.44053515625,5.8103046875,-0.52103125,-9.1191796875,14.06601171875,1.3193359375,-8.0308515625,-1.13229296875,1.820234375,1.93502734375
29.3956875,-10.29121875,8.408328125,13.1428671875,-8.4504296875,-2.27305078125,-0.1550625,-13.64230078125,-1.27834375,-4.00498046875,-3.68285546875,-0.5367265625,-8.30953515625,-4.65293359375,-3.4703671875,-1.00753515625,-3.38693359375,0.625171875,-4.019328125,-29.60921875,-3.64153515625,4.6413046875,-1.92903125,-10.2671796875,13.15501171875,0.7833359375,-9.1748515625,-1.90029296875,0.348234375,1.34502734375
28.6286875,-10.39121875,7.276328125,13.7708671875,-7.7744296875,-2.30005078125,-1.0330625,-14.50630078125,-1.47334375,-4.19798046875,-3.43385546875,-1.0607265625,-5.03553515625,-5.07793359375,-3.5733671875,-0.96953515625,-3.65893359375,-0.875828125,-4.283328125,-29.27021875,-3.27653515625,2.6273046875,-2.96503125,-10.8961796875,12.71501171875,0.6323359375,-9.6918515625,-1.94729296875,-0.573765625,1.49402734375
28.2356875,-9.90521875,6.836328125,14.7878671875,-6.2834296875,-1.52105078125,-0.8100625,-14.18030078125,-1.46334375,-3.83398046875,-2.31185546875,-0.8037265625,0.51946484375,-4.88993359375,-2.9623671875,-0.70553515625,-2.47193359375,-2.026828125,-3.908328125,-28.62221875,-2.49353515625,0.2003046875,-3.45503125,-10.7811796875,12.65001171875,0.7833359375,-9.5488515625,-1.39529296875,-0.910765625,2.21402734375
28.5706875,-8.70721875,7.351328125,16.0508671875,-4.1904296875,-0.0360507812500002,0.5199375,-12.69930078125,-1.27634375,-2.86798046875,-0.41385546875,0.3102734375,6.66646484375,-4.11593359375,-1.5963671875,0.0234648437500002,0.0710664062499999,-2.618828125,-2.952328125,-27.46321875,-1.45653515625,-2.1116953125,-3.38603125,-9.7961796875,12.90701171875,1.0813359375,-8.7708515625,-0.57229296875,-0.779765625,3.26102734375
29.7836875,-6.77721875,8.897328125,17.3408671875,-1.9224296875,1.89294921875,2.7179375,-10.40630078125,-0.94034375,-1.35098046875,2.02014453125,2.1332734375,11.47946484375,-2.85593359375,0.4216328125,1.42246484375,3.46206640625,-2.564828125,-1.517328125,-25.53421875,-0.26253515625,-3.8596953125,-2.86803125,-7.9571796875,13.53401171875,1.4303359375,-7.3948515625,0.14070703125,-0.335765625,4.44402734375
31.6606875,-4.36121875,11.200328125,18.4688671875,0.0905703125000006,3.92794921875,5.4179375,-7.79130078125,-0.43434375,0.57001953125,4.66014453125,4.3532734375,13.50646484375,-1.23393359375,2.8486328125,3.54946484375,6.88506640625,-1.900828125,0.286671875,-22.66021875,1.07046484375,-4.7876953125,-2.06103125,-5.4381796875,14.64801171875,1.8633359375,-5.4748515625,0.47570703125,0.301234375,5.69002734375
33.6556875,-1.97021875,13.656328125,19.3738671875,1.5875703125,5.74594921875,8.1989375,-5.34830078125,0.31965625,2.68001953125,7.15614453125,6.5852734375,12.25846484375,0.61906640625,5.3486328125,6.23546484375,9.51506640625,-0.741828125,2.324671875,-18.91221875,2.53146484375,-4.8346953125,-1.11203125,-2.5641796875,16.32201171875,2.4923359375,-3.1198515625,0.37070703125,1.066234375,7.00502734375
35.1026875,-0.20321875,15.550328125,20.1058671875,2.5155703125,7.11794921875,10.5819375,-3.52030078125,1.41865625,4.73301953125,9.19414453125,8.4782734375,8.31446484375,2.56406640625,7.5596328125,9.07646484375,10.84706640625,0.768171875,4.400671875,-14.70821875,4.03446484375,-4.0526953125,-0.12203125,0.2498203125,18.48301171875,3.3903359375,-0.5178515625,-0.02429296875,1.923234375,8.40402734375
35.5136875,0.51378125,16.362328125,20.7538671875,2.9545703125,7.93394921875,12.0899375,-2.62730078125,2.87465625,6.47901953125,10.54014453125,9.7892734375,3.03146484375,4.42406640625,9.1776328125,11.53846484375,10.82706640625,2.462171875,6.258671875,-10.75121875,5.41046484375,-2.5906953125,0.83996875,2.5958203125,20.88401171875,4.4843359375,2.0821484375,-0.42729296875,2.843234375,9.85302734375
34.8496875,0.14478125,16.010328125,21.3698671875,3.0255703125,8.19794921875,12.4169375,-2.74230078125,4.52865625,7.69301953125,11.06614453125,10.4042734375,-1.99453515625,5.98606640625,10.0286328125,13.13246484375,9.72906640625,4.121171875,7.651671875,-7.77321875000001,6.46546484375,-0.7506953125,1.70596875,4.1978203125,23.17601171875,5.5393359375,4.4331484375,-0.55929296875,3.789234375,11.27202734375
33.6186875,-0.86821875,14.962328125,21.9128671875,2.8215703125,8.00594921875,11.5899375,-3.63630078125,6.03965625,8.22401953125,10.79514453125,10.3452734375,-5.45153515625,7.04306640625,10.1336328125,13.60146484375,7.93906640625,5.481171875,8.437671875,-6.20821875,7.06746484375,1.0023046875,2.42196875,5.0048203125,25.03701171875,6.2623359375,6.3641484375,-0.25729296875,4.721234375,12.56702734375
32.7236875,-1.70621875,14.121328125,22.2368671875,2.3755703125,7.53094921875,9.9619375,-4.87030078125,6.98865625,8.06201953125,9.91914453125,9.7382734375,-6.59853515625,7.46906640625,9.7056328125,13.02946484375,5.83806640625,6.289171875,8.649671875,-5.98521875,7.21546484375,2.1623046875,2.98196875,5.2078203125,26.28301171875,6.4473359375,7.8121484375,0.47970703125,5.602234375,13.66202734375
33.0946875,-1.47621875,14.479328125,22.1448671875,1.6855703125,6.97394921875,8.0599375,-5.96130078125,7.03665625,7.35401953125,8.75014453125,8.7722734375,-5.32353515625,7.26706640625,9.0606328125,11.79246484375,3.79206640625,6.398171875,8.469671875,-6.58221875000001,7.03546484375,2.4213046875,3.43896875,5.1348203125,26.89001171875,6.1053359375,8.8021484375,1.53270703125,6.404234375,14.50902734375
35.2746875,0.40878125,16.673328125,21.5098671875,0.794570312500001,6.49894921875,6.4089375,-6.51030078125,6.07765625,6.33101953125,7.58014453125,7.6472734375,-2.09053515625,6.56306640625,8.4636328125,10.37546484375,2.15706640625,5.857171875,8.130671875,-7.30521875000001,6.72646484375,1.8943046875,3.88396875,5.0898203125,26.94501171875,5.4703359375,9.3891484375,2.74470703125,7.129234375,15.08502734375
39.1556875,3.94578125,20.688328125,20.3888671875,-0.164429687499999,6.17894921875,5.3769375,-6.29330078125,4.32365625,5.21501953125,6.56614453125,6.5372734375,2.12346484375,5.59306640625,8.0156328125,9.17246484375,1.22306640625,4.965171875,7.812671875,-7.63521875,6.47646484375,1.1803046875,4.41096875,5.2148203125,26.57201171875,4.8833359375,9.6271484375,3.99170703125,7.817234375,15.39602734375
43.9876875,8.53578125,25.860328125,19.0398671875,-0.995429687499999,5.99394921875,5.0569375,-5.34230078125,2.29065625,4.17901953125,5.70714453125,5.5902734375,5.96946484375,4.68506640625,7.6576328125,8.36346484375,1.15406640625,4.225171875,7.600671875,-7.43021875000001,6.40046484375,1.1573046875,5.09996875,5.4688203125,25.88801171875,4.6393359375,9.5801484375,5.20970703125,8.548234375,15.49402734375
48.6746875,13.23178125,31.176328125,17.8058671875,-1.5324296875,5.86394921875,5.2659375,-3.94830078125,0.62965625,3.33201953125,4.91314453125,4.9102734375,8.03646484375,4.17806640625,7.2526328125,7.89746484375,1.94306640625,4.160171875,7.502671875,-6.91421875,6.49846484375,2.5033046875,5.98996875,5.6938203125,24.99601171875,4.8643359375,9.3341484375,6.35170703125,9.389234375,15.48302734375
52.1776875,17.06378125,35.623328125,16.9438671875,-1.7154296875,5.66594921875,5.6659375,-2.55630078125,-0.16334375,2.68101953125,4.07114453125,4.4892734375,7.31146484375,4.25506640625,6.6476328125,7.52546484375,3.35306640625,4.999171875,7.442671875,-6.50921875000001,6.61046484375,5.1723046875,6.99596875,5.6848203125,23.95201171875,5.4713359375,8.9631484375,7.33570703125,10.322234375,15.47602734375
53.8076875,19.28378125,38.426328125,16.4598671875,-1.6494296875,5.21894921875,5.9039375,-1.62430078125,-0.0313437499999999,2.09201953125,3.05214453125,4.1402734375,3.61246484375,4.76406640625,5.6916328125,6.87246484375,4.85106640625,6.440171875,7.247671875,-6.64421875,6.41346484375,8.1883046875,7.85196875,5.2378203125,22.71301171875,6.1773359375,8.4711484375,8.01570703125,11.190234375,15.51702734375
53.3466875,19.50878125,39.167328125,16.0828671875,-1.6064296875,4.31494921875,5.6899375,-1.52230078125,0.59565625,1.33701953125,1.74814453125,3.5352734375,-2.18953515625,5.22906640625,4.2636328125,5.58146484375,5.69006640625,7.710171875,6.689671875,-7.58921875,5.52746484375,10.0163046875,8.17696875,4.1948203125,21.13901171875,6.6183359375,7.7911484375,8.24570703125,11.756234375,15.53502734375
51.0636875,17.82278125,37.881328125,15.4258671875,-1.9164296875,2.84294921875,4.8299375,-2.43430078125,1.04465625,0.24001953125,0.13514453125,2.3922734375,-8.33853515625,5.09006640625,2.3516328125,3.52346484375,5.21706640625,7.966171875,5.609671875,-9.35521875000001,3.74446484375,9.4033046875,7.68196875,2.5318203125,19.08601171875,6.5353359375,6.8551484375,7.97270703125,11.835234375,15.37702734375
47.6896875,14.79178125,35.092328125,14.2728671875,-2.7574296875,0.90894921875,3.3209375,-4.22630078125,0.78565625,-1.18798046875,-1.65985546875,0.6662734375,-12.81153515625,4.02806640625,0.1236328125,0.91646484375,3.25406640625,6.796171875,4.049671875,-11.67921875,1.23346484375,6.1623046875,6.37696875,0.4098203125,16.49601171875,5.9363359375,5.6681484375,7.27470703125,11.388234375,14.88502734375
44.2566875,11.32378125,31.692328125,12.7528671875,-4.0244296875,-1.14705078125,1.3979375,-6.42130078125,-0.30734375,-2.75198046875,-3.40485546875,-1.4007265625,-14.13553515625,2.13706640625,-2.1173671875,-1.72753515625,0.24506640625,4.470171875,2.260671875,-14.13421875,-1.46953515625,1.3903046875,4.58596875,-1.8791796875,13.40501171875,5.0943359375,4.2961484375,6.28170703125,10.492234375,13.94602734375
41.7566875,8.35478125,28.626328125,11.2598671875,-5.3984296875,-2.91005078125,-0.5630625,-8.39830078125,-1.94034375,-4.19498046875,-4.86385546875,-3.3867265625,-11.95653515625,-0.14893359375,-4.0643671875,-3.84553515625,-2.97193359375,1.800171875,0.578671875,-16.30921875,-3.70453515625,-3.0476953125,2.77296875,-4.0551796875,9.87601171875,4.3833359375,2.7971484375,5.07870703125,9.233234375,12.52002734375
40.7586875,6.51178125,26.538328125,10.1908671875,-6.5644296875,-4.07505078125,-2.2560625,-9.70330078125,-3.59834375,-5.33498046875,-5.89785546875,-4.8857265625,-7.02753515625,-2.30593359375,-5.5393671875,-5.07653515625,-5.57793359375,-0.285828125,-0.751328125,-17.95521875,-5.00453515625,-5.4056953125,1.30196875,-5.9651796875,5.96401171875,4.0793359375,1.1871484375,3.67970703125,7.650234375,10.68602734375
41.2476875,5.95578125,25.594328125,9.7388671875,-7.3544296875,-4.55105078125,-3.5500625,-10.22930078125,-4.79134375,-6.11698046875,-6.49085546875,-5.6637265625,-0.73853515625,-3.94593359375,-6.5193671875,-5.38453515625,-7.07993359375,-1.172828125,-1.649328125,-18.98121875,-5.26153515625,-4.8116953125,0.30196875,-7.5841796875,1.78201171875,4.2393359375,-0.5088515625,2.10370703125,5.778234375,8.68302734375
42.7586875,6.44978125,25.554328125,9.8908671875,-7.7364296875,-4.43405078125,-4.4220625,-10.13630078125,-5.23034375,-6.58398046875,-6.70685546875,-5.7367265625,5.40746484375,-4.93093359375,-7.0783671875,-5.01553515625,-7.35693359375,-0.783828125,-2.178328125,-19.35521875,-4.69753515625,-1.5466953125,-0.31003125,-8.9151796875,-2.39598828125,4.7203359375,-2.1848515625,0.45570703125,3.729234375,6.88502734375
44.6516875,7.54578125,25.997328125,10.5208671875,-7.7244296875,-3.91105078125,-4.8700625,-9.68130078125,-4.86734375,-6.79098046875,-6.62785546875,-5.3317265625,10.09246484375,-5.32893359375,-7.2893671875,-4.32953515625,-6.53193359375,0.462171875,-2.445328125,-19.01321875,-3.67753515625,3.1403046875,-0.72503125,-9.8891796875,-6.08898828125,5.2873359375,-3.6308515625,-1.09129296875,1.704234375,5.67102734375
46.3296875,8.76478125,26.521328125,11.4658671875,-7.3584296875,-3.16505078125,-4.9270625,-9.11230078125,-3.84434375,-6.73098046875,-6.28585546875,-4.7537265625,12.27646484375,-5.28793359375,-7.1533671875,-3.60653515625,-4.86293359375,1.893171875,-2.514328125,-17.87321875,-2.52153515625,7.5433046875,-1.11103125,-10.3491796875,-8.69798828125,5.7403359375,-4.5978515625,-2.37829296875,-0.0717656249999998,5.24602734375
47.3516875,9.69678125,26.837328125,12.5308671875,-6.7234296875,-2.33605078125,-4.7100625,-8.62530078125,-2.40734375,-6.34998046875,-5.65785546875,-4.2337265625,11.29446484375,-4.92293359375,-6.6113671875,-2.94353515625,-2.75193359375,2.893171875,-2.374328125,-15.92221875,-1.40853515625,10.1163046875,-1.55003125,-10.1231796875,-9.71398828125,5.9793359375,-4.9018515625,-3.36929296875,-1.449765625,5.53602734375
47.4896875,10.05278125,26.765328125,13.4748671875,-5.9314296875,-1.52705078125,-4.3590625,-8.31030078125,-0.84134375,-5.62098046875,-4.71185546875,-3.8507265625,7.08946484375,-4.30393359375,-5.6213671875,-2.28553515625,-0.77193359375,3.118171875,-1.981328125,-13.32921875,-0.41953515625,9.9903046875,-2.05803125,-9.1501796875,-8.96498828125,5.9773359375,-4.5228515625,-4.17329296875,-2.412765625,6.21802734375
46.7426875,9.70778125,26.224328125,14.0438671875,-5.1064296875,-0.83305078125,-3.9570625,-8.14030078125,0.57465625,-4.61398046875,-3.48285546875,-3.5467265625,0.47946484375,-3.48793359375,-4.2443671875,-1.53753515625,0.46906640625,2.569171875,-1.333328125,-10.46521875,0.36446484375,7.2183046875,-2.61603125,-7.5691796875,-6.76198828125,5.6973359375,-3.6218515625,-4.96729296875,-3.040765625,6.87902734375
45.2886875,8.73378125,25.243328125,14.0548671875,-4.3544296875,-0.30605078125,-3.5110625,-8.03030078125,1.63165625,-3.47898046875,-2.09385546875,-3.1997265625,-6.79253515625,-2.54593359375,-2.6623671875,-0.66253515625,0.62306640625,1.522171875,-0.490328125,-7.80921875,0.82646484375,2.7073046875,-3.16603125,-5.6841796875,-3.80998828125,5.0743359375,-2.4458515625,-5.82229296875,-3.397765625,7.23202734375
43.3756875,7.36478125,23.949328125,13.5118671875,-3.7414296875,0.0799492187499999,-3.0220625,-7.89730078125,2.26965625,-2.34998046875,-0.72085546875,-2.6897265625,-12.49753515625,-1.54193359375,-1.1003671875,0.30146484375,-0.14793359375,0.407171875,0.468671875,-5.76221875000001,0.87246484375,-2.1226953125,-3.57003125,-3.8211796875,-0.920988281249997,4.0683359375,-1.1748515625,-6.55629296875,-3.424765625,7.28402734375
41.2136875,5.84978125,22.485328125,12.6578671875,-3.2374296875,0.42794921875,-2.5350625,-7.67330078125,2.58865625,-1.29898046875,0.44414453125,-1.9887265625,-14.78253515625,-0.50593359375,0.245632812500001,1.23746484375,-1.24793359375,-0.344828125,1.495671875,-4.49121875000001,0.50346484375,-5.8316953125,-3.61103125,-2.1951796875,1.28601171875,2.7683359375,0.1611484375,-6.76129296875,-2.944765625,7.33302734375
38.8896875,4.28978125,20.894328125,11.8728671875,-2.7394296875,0.82694921875,-2.1680625,-7.32730078125,2.75365625,-0.35898046875,1.20314453125,-1.2407265625,-13.02653515625,0.53806640625,1.2316328125,1.94146484375,-2.03193359375,-0.457828125,2.548671875,-3.92521875000001,-0.18653515625,-7.4596953125,-3.09603125,-0.8791796875,2.52101171875,1.4043359375,1.6221484375,-6.03029296875,-1.798765625,7.75902734375
36.3756875,2.58378125,19.078328125,11.4158671875,-2.1944296875,1.23894921875,-2.1430625,-6.95130078125,2.85065625,0.40501953125,1.36514453125,-0.772726562499999,-8.14353515625,1.50206640625,1.7416328125,2.12846484375,-2.23493359375,0.0771718750000001,3.519671875,-3.89121875,-1.08453515625,-6.8406953125,-2.00703125,0.1108203125,2.75901171875,0.2613359375,3.2081484375,-4.25429296875,-0.0237656250000002,8.75102734375
33.6406875,0.55278125,16.892328125,11.2558671875,-1.7244296875,1.47094921875,-2.7490625,-6.81730078125,2.80265625,0.87301953125,0.78514453125,-0.9627265625,-2.11153515625,2.20706640625,1.6846328125,1.52646484375,-2.13593359375,0.985171875,4.196671875,-4.26121875,-2.11553515625,-4.5906953125,-0.57203125,0.7248203125,2.07001171875,-0.4616640625,4.7671484375,-1.74429296875,2.089234375,10.15002734375
30.8436875,-1.79821875,14.341328125,11.1478671875,-1.5844296875,1.28394921875,-4.1630625,-7.22930078125,2.45065625,0.93301953125,-0.54185546875,-2.0267265625,2.94846484375,2.45306640625,1.0456328125,0.0304648437499999,-2.33693359375,1.859171875,4.350671875,-4.97121875000001,-3.23553515625,-1.7456953125,0.82696875,0.8958203125,0.496011718750001,-0.7296640625,6.0501484375,0.91570703125,4.136234375,11.55102734375
28.4956875,-4.06221875,11.768328125,10.9208671875,-1.9374296875,0.58794921875,-6.2040625,-8.25530078125,1.74165625,0.59001953125,-2.39385546875,-3.8367265625,5.64046484375,2.17806640625,-0.0213671874999997,-2.14053515625,-3.32493359375,2.428171875,3.929671875,-5.91521875,-4.35753515625,0.8073046875,1.89696875,0.6538203125,-1.93898828125,-0.6426640625,6.9001484375,3.20270703125,5.839234375,12.58502734375
27.3776875,-5.45521875,9.885328125,10.7018671875,-2.6514296875,-0.42405078125,-8.2930625,-9.57530078125,0.89565625,0.0550195312499999,-4.30285546875,-5.8947265625,5.71646484375,1.59306640625,-1.1543671875,-4.41753515625,-5.10593359375,2.786171875,3.193671875,-6.83321875,-5.30353515625,2.7583046875,2.64096875,0.2418203125,-5.13998828125,-0.3346640625,7.4051484375,4.92370703125,7.220234375,13.16402734375
28.1726875,-5.15321875,9.522328125,10.8448671875,-3.3504296875,-1.32705078125,-9.7180625,-10.63230078125,0.36565625,-0.30898046875,-5.68785546875,-7.5297265625,3.96046484375,1.13706640625,-1.8913671875,-6.07153515625,-7.16993359375,3.350171875,2.620671875,-7.37621875,-5.83853515625,4.3573046875,3.35096875,0.0498203125000001,-8.87298828125,0.1113359375,7.8671484375,6.21870703125,8.523234375,13.49702734375
30.9916875,-2.81621875,11.154328125,11.6418671875,-3.6604296875,-1.70805078125,-10.0400625,-10.94430078125,0.55865625,-0.22198046875,-6.14185546875,-8.2447265625,1.65246484375,1.20306640625,-1.9233671875,-6.58153515625,-8.81293359375,4.514171875,2.599671875,-7.32621875000001,-5.81053515625,5.9563046875,4.33096875,0.3668203125,-12.82398828125,0.6623359375,8.5591484375,7.32970703125,9.956234375,13.86302734375
35.1086875,1.03278125,14.487328125,13.0398671875,-3.4744296875,-1.45905078125,-9.3140625,-10.35830078125,1.50365625,0.27501953125,-5.69185546875,-7.9927265625,-0.0875351562500001,1.81206640625,-1.3523671875,-5.95653515625,-9.54493359375,6.243171875,3.104671875,-6.82321875000001,-5.29553515625,7.5273046875,5.56496875,1.0978203125,-16.74798828125,1.2823359375,9.4491484375,8.32270703125,11.430234375,14.33702734375
39.1246875,5.09378125,18.449328125,14.5888671875,-3.0324296875,-0.86805078125,-8.0360625,-9.10630078125,2.76265625,0.78401953125,-4.81585546875,-7.1827265625,-0.78353515625,2.51906640625,-0.701367187499999,-4.76053515625,-9.27193359375,7.957171875,3.636671875,-6.36721875000001,-4.60553515625,8.5793046875,6.63096875,1.7298203125,-20.55598828125,1.8913359375,10.1511484375,9.02170703125,12.551234375,14.70602734375
41.5366875,7.85978125,21.650328125,15.6618671875,-2.7764296875,-0.44805078125,-6.8820625,-7.66930078125,3.66765625,0.80701953125,-4.17185546875,-6.3877265625,-0.65653515625,2.67006640625,-0.6463671875,-3.79853515625,-8.17593359375,8.836171875,3.520671875,-6.54821875,-4.11953515625,8.5413046875,6.94796875,1.5958203125,-24.26098828125,2.4013359375,10.1441484375,9.17070703125,12.862234375,14.62502734375
41.4506875,8.36478125,23.061328125,15.8038671875,-3.0804296875,-0.60605078125,-6.3640625,-6.50630078125,3.72565625,0.0780195312499999,-4.21185546875,-5.9787265625,-0.27553515625,1.82806640625,-1.6143671875,-3.66653515625,-6.48593359375,8.337171875,2.343671875,-7.68521875,-4.03853515625,7.2503046875,6.17696875,0.3008203125,-27.81798828125,2.7833359375,9.1241484375,8.67170703125,12.171234375,13.88102734375
39.0556875,6.68478125,22.520328125,15.0078671875,-3.9944296875,-1.39605078125,-6.5700625,-5.79030078125,2.89665625,-1.26098046875,-4.95785546875,-5.9517265625,-0.0805351562500001,0.05606640625,-3.5263671875,-4.45353515625,-4.39693359375,6.537171875,0.236671875,-9.60121875,-4.26853515625,5.1423046875,4.47096875,-2.0141796875,-31.02098828125,3.1013359375,7.2121484375,7.68470703125,10.684234375,12.55402734375
35.5786875,3.90378125,20.782328125,13.7448671875,-5.2024296875,-2.51205078125,-7.1470625,-5.34730078125,1.59665625,-2.75498046875,-6.05385546875,-6.0167265625,-0.12153515625,-2.10193359375,-5.8343671875,-5.75853515625,-2.13193359375,4.107171875,-2.172328125,-11.70021875,-4.48753515625,3.0563046875,2.43296875,-4.7141796875,-33.53998828125,3.4733359375,4.9161484375,6.53870703125,8.891234375,10.96602734375
32.6986875,1.57378125,19.100328125,12.6988671875,-6.2344296875,-3.48805078125,-7.5800625,-4.86630078125,0.45965625,-3.89698046875,-7.00385546875,-5.8427265625,-0.11953515625,-3.91593359375,-7.8133671875,-6.96253515625,-0.0349335937500002,1.975171875,-4.086328125,-13.27821875,-4.36853515625,1.8283046875,0.80596875,-6.9981796875,-35.08698828125,3.9733359375,2.8841484375,5.53770703125,7.287234375,9.48802734375
31.6996875,0.91778125,18.552328125,12.3838671875,-6.7674296875,-3.97805078125,-7.5620625,-4.19830078125,-0.00134374999999987,-4.40498046875,-7.45585546875,-5.2957265625,0.26746484375,-4.85293359375,-8.9343671875,-7.58453515625,1.45606640625,0.862171875,-4.946328125,-13.89121875,-3.80453515625,1.9273046875,0.10096875,-8.3031796875,-35.62298828125,4.5503359375,1.5941484375,4.80670703125,6.123234375,8.33802734375
32.8446875,2.20578125,19.466328125,12.8788671875,-6.8074296875,-3.94005078125,-7.1520625,-3.46230078125,0.33565625,-4.35798046875,-7.38885546875,-4.5197265625,1.21646484375,-4.85093359375,-9.1223671875,-7.53053515625,1.94106640625,0.939171875,-4.698328125,-13.54921875,-3.00553515625,3.2483046875,0.34996875,-8.5471796875,-35.46698828125,5.0113359375,1.1491484375,4.25670703125,5.342234375,7.50502734375
35.2856875,4.63878125,21.260328125,13.7998671875,-6.6324296875,-3.62805078125,-6.6760625,-2.93530078125,1.13565625,-4.12598046875,-7.08985546875,-3.8457265625,2.64446484375,-4.31593359375,-8.7383671875,-7.09153515625,1.22506640625,1.763171875,-3.771328125,-12.64421875,-2.40253515625,5.1173046875,1.12396875,-8.0831796875,-35.18998828125,5.1073359375,1.3061484375,3.70070703125,4.717234375,6.82902734375
37.5226875,6.80878125,22.793328125,14.5178671875,-6.6164296875,-3.40805078125,-6.5020625,-2.87430078125,1.80865625,-4.10898046875,-6.95185546875,-3.5797265625,4.19746484375,-3.84793359375,-8.3143671875,-6.70753515625,-0.57593359375,2.553171875,-2.799328125,-11.68121875,-2.40153515625,6.5013046875,1.81096875,-7.4161796875,-35.32298828125,4.6833359375,1.6761484375,3.03170703125,4.089234375,6.17602734375
38.1526875,7.44978125,23.005328125,14.4898671875,-7.0204296875,-3.52105078125,-6.8620625,-3.39330078125,1.86665625,-4.46598046875,-7.21085546875,-3.8057265625,5.27546484375,-3.85093359375,-8.2133671875,-6.67353515625,-3.03993359375,2.642171875,-2.256328125,-10.98821875,-3.13553515625,6.4263046875,1.97596875,-6.8821796875,-36.04398828125,3.8023359375,1.9851484375,2.32870703125,3.509234375,5.57602734375
36.5636875,6.09578125,21.507328125,13.5748671875,-7.8424296875,-3.94505078125,-7.7110625,-4.37830078125,1.23565625,-5.02198046875,-7.79385546875,-4.3367265625,5.17346484375,-4.28693359375,-8.4383671875,-6.97653515625,-5.53293359375,1.872171875,-2.224328125,-10.55421875,-4.35253515625,4.5103046875,1.58296875,-6.4871796875,-37.07098828125,2.7613359375,2.2001484375,1.80970703125,3.198234375,5.21902734375
33.2406875,3.30678125,18.815328125,12.1608671875,-8.7594296875,-4.40005078125,-8.6700625,-5.44930078125,0.31665625,-5.38498046875,-8.35685546875,-4.8207265625,3.42346484375,-4.71293359375,-8.6843671875,-7.34353515625,-7.35493359375,0.698171875,-2.410328125,-10.08221875,-5.50353515625,1.3053046875,0.98396875,-5.9891796875,-37.81598828125,1.9833359375,2.4841484375,1.67670703125,3.373234375,5.32202734375
29.5316875,0.39678125,16.122328125,10.9918671875,-9.2774296875,-4.51005078125,-9.1860625,-6.06430078125,-0.23934375,-5.19798046875,-8.48685546875,-4.9207265625,0.18346484375,-4.58193359375,-8.5733671875,-7.42253515625,-7.90493359375,-0.0888281249999998,-2.381328125,-9.19721875,-5.97553515625,-1.8316953125,0.67696875,-5.1161796875,-37.71298828125,1.8133359375,3.0321484375,1.97670703125,4.074234375,5.97402734375
26.9756875,-1.20821875,14.736328125,10.7578671875,-9.0214296875,-4.02005078125,-8.8620625,-5.79730078125,0.0796562500000001,-4.35498046875,-7.93485546875,-4.4697265625,-3.65353515625,-3.60493359375,-7.9003671875,-6.98153515625,-6.86693359375,0.138171875,-1.862328125,-7.69321875,-5.38153515625,-3.4016953125,0.98896875,-3.7891796875,-36.54298828125,2.3143359375,3.9031484375,2.54370703125,5.110234375,7.05302734375
26.5696875,-0.62221875,15.463328125,11.7008671875,-7.9774296875,-2.95405078125,-7.7070625,-4.55630078125,1.32665625,-3.08998046875,-6.75585546875,-3.5317265625,-6.78953515625,-1.96193359375,-6.7653671875,-6.03653515625,-4.37493359375,1.414171875,-0.922328125,-5.67621875,-3.78553515625,-2.5866953125,1.85596875,-2.2241796875,-34.58698828125,3.1773359375,4.9371484375,3.06270703125,6.133234375,8.27102734375
28.3666875,2.13078125,18.253328125,13.5168671875,-6.4844296875,-1.60605078125,-6.0900625,-2.58830078125,3.04665625,-1.86798046875,-5.26685546875,-2.3407265625,-8.09853515625,-0.21693359375,-5.4933671875,-4.81753515625,-1.02893359375,3.137171875,0.0746718749999999,-3.51721875,-1.70253515625,0.2883046875,2.84996875,-0.8391796875,-32.53498828125,3.8353359375,5.8251484375,3.22370703125,6.798234375,9.31202734375
31.5556875,6.23078125,22.283328125,15.5668671875,-5.0154296875,-0.35605078125,-4.4610625,-0.30530078125,4.54665625,-1.11698046875,-3.83185546875,-1.1347265625,-7.05553515625,1.00206640625,-4.4133671875,-3.60853515625,2.32406640625,4.441171875,0.712671875,-1.65021875,0.16046484375,3.9843046875,3.45396875,-0.0161796875000002,-31.16198828125,3.7833359375,6.2901484375,2.89270703125,6.932234375,9.98302734375
34.9006875,10.50278125,26.371328125,17.2218671875,-3.9384296875,0.55494921875,-3.1110625,1.89369921875,5.28465625,-0.97198046875,-2.63285546875,0.00527343750000009,-3.81053515625,1.35706640625,-3.6523671875,-2.55253515625,4.93506640625,4.724171875,0.796671875,-0.350218750000003,1.29546484375,7.0483046875,3.39896875,0.1308203125,-30.95298828125,2.8953359375,6.2601484375,2.21470703125,6.611234375,10.28702734375
37.2396875,13.87978125,29.425328125,18.1168671875,-3.3994296875,1.11494921875,-2.1320625,3.69169921875,5.12265625,-1.22998046875,-1.62785546875,1.1562734375,0.96646484375,0.92406640625,-3.1273671875,-1.60853515625,6.39506640625,3.948171875,0.429671875,0.336781249999994,1.63046484375,8.5043046875,2.78896875,-0.1941796875,-31.93798828125,1.5233359375,5.8711484375,1.51370703125,6.074234375,10.35202734375
37.8236875,15.65378125,30.721328125,18.2008671875,-3.3564296875,1.41594921875,-1.5110625,4.87469921875,4.28565625,-1.54798046875,-0.72585546875,2.3812734375,6.24946484375,0.03106640625,-2.7293671875,-0.709535156249999,6.62606640625,2.525171875,-0.132328125,0.495781249999997,1.45646484375,8.1113046875,1.94796875,-0.6621796875,-33.81098828125,0.2753359375,5.3111484375,1.05470703125,5.535234375,10.27902734375
36.4436875,15.53578125,29.990328125,17.6238671875,-3.6804296875,1.47794921875,-1.2520625,5.32769921875,3.14665625,-1.71798046875,0.00614453124999992,3.5322734375,10.79146484375,-1.00093359375,-2.5193671875,0.0484648437500006,5.72906640625,0.987171875,-0.705328125,0.191781249999995,1.13946484375,6.1923046875,1.14596875,-1.0721796875,-36.20998828125,-0.3476640625,4.6441484375,0.83870703125,5.038234375,10.04402734375
33.4106875,13.67478125,27.457328125,16.5998671875,-4.2434296875,1.20494921875,-1.4210625,5.01169921875,2.04865625,-1.76598046875,0.31414453125,4.2482734375,13.34646484375,-1.97693359375,-2.7193671875,0.38946484375,3.93106640625,-0.273828125,-1.266328125,-0.561218750000005,0.87746484375,3.3323046875,0.46496875,-1.4631796875,-38.90098828125,-0.1776640625,3.8211484375,0.63770703125,4.508234375,9.55602734375
29.4686875,10.67978125,23.844328125,15.3468671875,-4.9434296875,0.50594921875,-2.0730625,3.98469921875,1.23665625,-1.85298046875,-0.04885546875,4.1502734375,13.03646484375,-2.77493359375,-3.5083671875,0.0424648437500004,1.65606640625,-1.045828125,-1.867328125,-1.71321875000001,0.65246484375,0.2033046875,-0.12403125,-1.9991796875,-41.76498828125,0.6183359375,2.8251484375,0.23270703125,3.925234375,8.82202734375
25.6406875,7.53578125,20.241328125,14.1058671875,-5.6654296875,-0.54905078125,-3.1020625,2.46469921875,0.86365625,-2.10998046875,-1.12085546875,3.0972734375,9.70546484375,-3.25193359375,-4.8193671875,-1.03453515625,-0.46593359375,-1.211828125,-2.498328125,-3.06121875000001,0.35646484375,-2.4696953125,-0.60303125,-2.7741796875,-44.66498828125,1.6823359375,1.8111484375,-0.34829296875,3.453234375,8.05002734375
22.9626875,5.34378125,17.786328125,13.1408671875,-6.2634296875,-1.70205078125,-4.1640625,0.85869921875,0.96265625,-2.55698046875,-2.66085546875,1.3092734375,4.14046484375,-3.26393359375,-6.3163671875,-2.58153515625,-1.80593359375,-0.715828125,-3.041328125,-4.26821875000001,-0.0725351562500001,-3.9666953125,-0.85103125,-3.7091796875,-47.35898828125,2.6213359375,1.0831484375,-0.79529296875,3.401234375,7.59002734375
22.1276875,4.92278125,17.255328125,12.6468671875,-6.6294296875,-2.62305078125,-4.8270625,-0.35430078125,1.41465625,-3.12298046875,-4.25885546875,-0.6877265625,-2.00553515625,-2.78593359375,-7.5513671875,-4.13453515625,-2.04293359375,0.368171875,-3.352328125,-5.01021875,-0.57853515625,-3.8106953125,-0.72303125,-4.6001796875,-49.52798828125,3.1553359375,0.9201484375,-0.70829296875,4.028234375,7.75302734375
23.1916875,6.46478125,18.754328125,12.6038671875,-6.7894296875,-3.07005078125,-4.8280625,-0.81730078125,1.94065625,-3.69498046875,-5.50885546875,-2.2647265625,-6.68353515625,-2.01093359375,-8.1843671875,-5.23253515625,-1.30493359375,1.727171875,-3.387328125,-5.15521875,-1.00653515625,-2.0856953125,-0.20603125,-5.2431796875,-50.90298828125,3.2313359375,1.3911484375,0.12070703125,5.334234375,8.62502734375
25.5226875,9.42178125,21.658328125,12.7498671875,-6.9134296875,-2.99705078125,-4.2080625,-0.37830078125,2.18065625,-4.17798046875,-6.16585546875,-2.9357265625,-8.25653515625,-1.33593359375,-8.1223671875,-5.61653515625,-0.01993359375,2.820171875,-3.246328125,-4.82921875000001,-1.19253515625,0.4223046875,0.49496875,-5.5451796875,-51.38198828125,3.0393359375,2.2911484375,1.51870703125,6.965234375,9.99002734375
28.0606875,12.70578125,24.843328125,12.6978671875,-7.1784296875,-2.53405078125,-3.2190625,0.95169921875,1.83065625,-4.52098046875,-6.20385546875,-2.5517265625,-6.32053515625,-1.18793359375,-7.5273671875,-5.31853515625,1.37106640625,3.074171875,-3.128328125,-4.34521875,-1.05753515625,2.5003046875,1.02796875,-5.5431796875,-51.09198828125,2.9073359375,3.2261484375,2.96170703125,8.313234375,11.37702734375
29.7366875,15.12878125,27.115328125,12.1328671875,-7.6404296875,-1.90905078125,-2.1520625,3.02969921875,0.81065625,-4.69498046875,-5.77585546875,-1.3477265625,-1.94453515625,-1.77993359375,-6.6803671875,-4.62253515625,2.60106640625,2.199171875,-3.188328125,-4.03521875000001,-0.65553515625,3.1093046875,1.09596875,-5.3441796875,-50.32698828125,3.1113359375,3.8091484375,3.80970703125,8.757234375,12.23702734375
29.8426875,15.86778125,27.645328125,10.9628671875,-8.2164296875,-1.33105078125,-1.2510625,5.52969921875,-0.66834375,-4.65898046875,-5.10485546875,0.1762734375,2.89646484375,-2.95893359375,-5.8323671875,-3.91753515625,3.55506640625,0.388171875,-3.439328125,-4.11421875000001,-0.14853515625,1.9493046875,0.64496875,-5.0461796875,-49.42198828125,3.7093359375,3.8561484375,3.62370703125,7.943234375,12.15902734375
28.2196875,14.72978125,26.212328125,9.3618671875,-8.7554296875,-0.93705078125,-0.6940625,7.93869921875,-2.17334375,-4.36498046875,-4.39585546875,1.4502734375,6.33046484375,-4.28093359375,-5.1163671875,-3.53453515625,4.15506640625,-1.753828125,-3.745328125,-4.62921875,0.24446484375,-0.4376953125,-0.11203125,-4.7041796875,-48.61998828125,4.4823359375,3.4311484375,2.36270703125,5.931234375,11.01802734375
25.2236875,12.10878125,23.179328125,7.7168671875,-9.1304296875,-0.79205078125,-0.5560625,9.71369921875,-3.24234375,-3.83098046875,-3.79685546875,2.0262734375,7.35346484375,-5.26493359375,-4.5853671875,-3.64853515625,4.29206640625,-3.544828125,-3.944328125,-5.49421875000001,0.30946484375,-3.0866953125,-0.86003125,-4.3591796875,-47.99998828125,5.0243359375,2.7511484375,0.36070703125,3.146234375,8.99602734375
21.5306875,8.73978125,19.258328125,6.4558671875,-9.2924296875,-0.90805078125,-0.7690625,10.50469921875,-3.57734375,-3.17998046875,-3.39885546875,1.7052734375,5.95246484375,-5.65493359375,-4.2633671875,-4.23753515625,3.89906640625,-4.558828125,-3.979328125,-6.55821875000001,-0.08453515625,-5.1666953125,-1.39503125,-4.0661796875,-47.46098828125,4.9413359375,2.0251484375,-1.86629296875,0.183234375,6.48302734375
17.8376875,5.39078125,15.204328125,5.8388671875,-9.3064296875,-1.25805078125,-1.1810625,10.25669921875,-3.13834375,-2.59998046875,-3.22385546875,0.5762734375,2.79146484375,-5.51793359375,-4.1653671875,-5.10153515625,3.02906640625,-4.761828125,-3.942328125,-7.64821875000001,-0.92853515625,-6.2936953125,-1.71003125,-3.8891796875,-46.78198828125,4.0663359375,1.3501484375,-3.83529296875,-2.419765625,3.92402734375
14.6086875,2.61378125,11.552328125,5.8168671875,-9.3414296875,-1.77105078125,-1.6530625,9.17369921875,-2.12134375,-2.26698046875,-3.23985546875,-1.0417265625,-1.18553515625,-5.15193359375,-4.2773671875,-5.93553515625,1.86506640625,-4.408828125,-4.016328125,-8.60221875000001,-2.05253515625,-6.4706953125,-1.94803125,-3.8691796875,-45.75398828125,2.5743359375,0.711148437499999,-5.24729296875,-4.329765625,1.67902734375
12.0016875,0.64078125,8.514328125,6.1088671875,-9.5744296875,-2.34805078125,-2.0920625,7.63969921875,-0.85834375,-2.27398046875,-3.40285546875,-2.7417265625,-4.98253515625,-4.90793359375,-4.5523671875,-6.46953515625,0.65106640625,-3.856828125,-4.352328125,-9.28421875,-3.19653515625,-5.8856953125,-2.28203125,-4.0041796875,-44.33598828125,0.9103359375,0.0391484374999997,-6.03029296875,-5.474765625,-0.0419726562500005
9.97468750000001,-0.57621875,6.060328125,6.4108671875,-10.0424296875,-2.86205078125,-2.4150625,6.11669921875,0.32465625,-2.58698046875,-3.67185546875,-4.1637265625,-7.67653515625,-5.00793359375,-4.9143671875,-6.57853515625,-0.35193359375,-3.391828125,-4.962328125,-9.60121875,-4.09753515625,-4.7626953125,-2.81003125,-4.2491796875,-42.70398828125,-0.4196640625,-0.7018515625,-6.31129296875,-6.007765625,-1.17297265625
8.41868750000001,-1.23521875,4.091328125,6.5818671875,-10.5834296875,-3.17905078125,-2.5440625,4.98669921875,1.23265625,-3.03198046875,-3.99285546875,-5.0597265625,-8.56453515625,-5.43293359375,-5.2593671875,-6.31553515625,-0.87093359375,-3.129828125,-5.688328125,-9.53121875,-4.56153515625,-3.3336953125,-3.50403125,-4.5261796875,-41.16098828125,-1.0846640625,-1.4538515625,-6.32129296875,-6.189765625,-1.73797265625
7.1836875,-1.60621875,2.509328125,6.6378671875,-10.9274296875,-3.19805078125,-2.4750625,4.38469921875,1.82565625,-3.35398046875,-4.28285546875,-5.3237265625,-7.35753515625,-5.95993359375,-5.4853671875,-5.86953515625,-0.68393359375,-3.042828125,-6.276328125,-9.15421875000001,-4.51753515625,-1.8876953125,-4.23003125,-4.7351796875,-39.99598828125,-1.1106640625,-2.0878515625,-6.28829296875,-6.280765625,-1.81597265625
6.00368750000001,-2.03821875,1.147328125,6.6348671875,-10.8584296875,-2.91805078125,-2.3100625,4.14269921875,2.13165625,-3.36798046875,-4.47085546875,-5.0197265625,-4.37853515625,-6.32593359375,-5.5573671875,-5.50253515625,0.20706640625,-3.061828125,-6.537328125,-8.67621875,-4.06953515625,-0.8216953125,-4.85003125,-4.8211796875,-39.38798828125,-0.8986640625,-2.4998515625,-6.37629296875,-6.474765625,-1.55597265625
4.45168750000001,-2.97421875,-0.346671874999998,6.5478671875,-10.3564296875,-2.49405078125,-2.2120625,3.89469921875,2.12165625,-3.10298046875,-4.57185546875,-4.4117265625,-0.60053515625,-6.42093359375,-5.5583671875,-5.47953515625,1.41106640625,-3.209828125,-6.481328125,-8.38321875,-3.50453515625,-0.6146953125,-5.31803125,-4.8171796875,-39.39098828125,-1.0356640625,-2.7028515625,-6.66929296875,-6.876765625,-1.19697265625
2.03068750000001,-4.84321875,-2.444671875,6.2488671875,-9.6284296875,-2.18705078125,-2.3250625,3.25269921875,1.70465625,-2.78898046875,-4.67785546875,-3.8947265625,2.63246484375,-6.34893359375,-5.6503671875,-5.95753515625,2.21106640625,-3.602828125,-6.307328125,-8.51921875,-3.19653515625,-1.6616953125,-5.68203125,-4.8341796875,-39.89898828125,-1.9426640625,-2.8168515625,-7.15629296875,-7.473765625,-0.978972656250001
-1.57731249999999,-7.82721875,-5.478671875,5.5908671875,-9.0354296875,-2.22505078125,-2.7100625,1.99869921875,0.82765625,-2.68098046875,-4.86885546875,-3.8327265625,4.18646484375,-6.30593359375,-5.9443671875,-6.88653515625,1.91606640625,-4.348828125,-6.241328125,-9.11621875000001,-3.41553515625,-4.0236953125,-6.00503125,-4.9711796875,-40.58798828125,-3.5696640625,-2.9518515625,-7.71229296875,-8.103765625,-1.01197265625
-6.21931249999999,-11.63921875,-9.321671875,4.5288671875,-8.9044296875,-2.65805078125,-3.2800625,0.25269921875,-0.41034375,-2.87898046875,-5.12285546875,-4.3687265625,3.67646484375,-6.41893359375,-6.3973671875,-7.97653515625,0.28006640625,-5.407828125,-6.367328125,-9.91921875000001,-4.16553515625,-7.2506953125,-6.27203125,-5.2141796875,-40.92898828125,-5.3696640625,-3.0928515625,-8.11129296875,-8.485765625,-1.18397265625
-11.1353125,-15.50221875,-13.259671875,3.1938671875,-9.3424296875,-3.32305078125,-3.7500625,-1.46930078125,-1.75734375,-3.26898046875,-5.30285546875,-5.3357265625,1.56846484375,-6.64593359375,-6.8253671875,-8.79153515625,-2.28193359375,-6.538828125,-6.569328125,-10.45121875,-5.13953515625,-10.4486953125,-6.38703125,-5.4231796875,-40.33298828125,-6.5846640625,-3.0828515625,-8.10429296875,-8.322765625,-1.22897265625
-15.1583125,-18.38821875,-16.209671875,1.8398671875,-10.1804296875,-3.92905078125,-3.7360625,-2.44330078125,-2.90134375,-3.61698046875,-5.23785546875,-6.3007265625,-1.21353515625,-6.82493359375,-7.0113671875,-8.92553515625,-4.84493359375,-7.366828125,-6.624328125,-10.23021875,-5.83753515625,-12.6336953125,-6.22003125,-5.4091796875,-38.41198828125,-6.6376640625,-2.7108515625,-7.51929296875,-7.425765625,-0.882972656250001
-17.2043125,-19.43821875,-17.179671875,0.702867187500001,-11.1034296875,-4.22505078125,-3.0060625,-2.15530078125,-3.60434375,-3.72098046875,-4.84185546875,-6.7787265625,-3.83853515625,-6.78993359375,-6.8563671875,-8.20053515625,-6.39693359375,-7.557828125,-6.373328125,-9.03121875,-5.81753515625,-13.1856953125,-5.70403125,-5.0681796875,-35.20698828125,-5.3946640625,-1.8558515625,-6.34029296875,-5.806765625,-0.0369726562500006
-16.7503125,-18.32321875,-15.735671875,-0.1161328125,-11.8554296875,-4.14705078125,-1.7020625,-0.64430078125,-3.80734375,-3.56098046875,-4.23085546875,-6.5037265625,-5.81553515625,-6.52393359375,-6.4853671875,-6.80453515625,-6.28893359375,-7.010828125,-5.879328125,-7.07721875,-4.94753515625,-12.1336953125,-4.92703125,-4.5151796875,-31.25198828125,-3.1726640625,-0.6268515625,-4.75329296875,-3.710765625,1.20002734375
-14.0243125,-15.34121875,-12.170671875,-0.641132812499999,-12.3424296875,-3.86705078125,-0.3030625,1.52069921875,-3.66734375,-3.35398046875,-3.73885546875,-5.6057265625,-6.85953515625,-6.22293359375,-6.2403671875,-5.28153515625,-4.48493359375,-5.962828125,-5.451328125,-5.00821875,-3.50253515625,-10.0896953125,-4.15603125,-4.1001796875,-27.40998828125,-0.5736640625,0.6161484375,-3.12029296875,-1.576765625,2.53402734375
-9.85131249999999,-11.23621875,-7.341671875,-0.9531328125,-12.6174296875,-3.70105078125,0.6259375,3.58269921875,-3.48234375,-3.45598046875,-3.78785546875,-4.5417265625,-6.68353515625,-6.21993359375,-6.5313671875,-4.32353515625,-1.54593359375,-4.901828125,-5.499328125,-3.60121875,-2.01753515625,-7.8726953125,-3.75003125,-4.2591796875,-24.50598828125,1.7723359375,1.3951484375,-1.85729296875,0.102234375,3.62202734375
-5.33931249999999,-6.89821875,-2.312671875,-1.1561328125,-12.8204296875,-3.93005078125,0.6879375,4.96669921875,-3.54034375,-4.14398046875,-4.64385546875,-3.8147265625,-5.06053515625,-6.78793359375,-7.5933671875,-4.43053515625,1.58606640625,-4.307828125,-6.277328125,-3.38721875000001,-0.98253515625,-6.0556953125,-3.95103125,-5.2481796875,-22.94098828125,3.4293359375,1.3711484375,-1.24929296875,0.991234375,4.24702734375
-1.5723125,-3.11521875,1.945328125,-1.3761328125,-13.0944296875,-4.64805078125,-0.2140625,5.46869921875,-3.95734375,-5.41698046875,-6.23385546875,-3.6917265625,-2.14553515625,-7.94793359375,-9.3143671875,-5.66553515625,3.90906640625,-4.388828125,-7.692328125,-4.38821875,-0.59053515625,-4.7276953125,-4.72003125,-6.9431796875,-22.51198828125,4.2673359375,0.5601484375,-1.30629296875,1.074234375,4.44102734375
0.675687500000009,-0.43021875,4.744328125,-1.7231328125,-13.4894296875,-5.71505078125,-1.8380625,5.25269921875,-4.61234375,-6.96598046875,-8.12985546875,-4.1107265625,1.31746484375,-9.41393359375,-11.2433671875,-7.61853515625,4.71106640625,-4.969828125,-9.301328125,-6.12221875000001,-0.70253515625,-3.5756953125,-5.72903125,-8.8511796875,-22.50798828125,4.4503359375,-0.6608515625,-1.78229296875,0.667234375,4.46802734375
1.14968750000001,0.94378125,5.793328125,-2.2281328125,-13.8984296875,-6.80505078125,-3.6590625,4.70669921875,-5.22934375,-8.31298046875,-9.72485546875,-4.7787265625,4.21646484375,-10.70393359375,-12.7763671875,-9.60053515625,3.84706640625,-5.620828125,-10.509328125,-7.84321875000001,-0.99553515625,-2.2066953125,-6.51303125,-10.3171796875,-22.03598828125,4.3013359375,-1.7358515625,-2.32129296875,0.245234375,4.67102734375
0.146687500000006,1.14378125,5.250328125,-2.8291328125,-14.1174296875,-7.54005078125,-5.0760625,4.21669921875,-5.53534375,-9.01298046875,-10.47085546875,-5.3607265625,5.61346484375,-11.34893359375,-13.3933671875,-10.92153515625,1.81006640625,-5.906828125,-10.836328125,-8.85821875000001,-1.15453515625,-0.4826953125,-6.69803125,-10.8171796875,-20.36998828125,4.1343359375,-2.1858515625,-2.63529296875,0.200234375,5.25702734375
-1.68231249999999,0.54378125,3.633328125,-3.4141328125,-13.9894296875,-7.64005078125,-5.6840625,3.96469921875,-5.41234375,-8.84598046875,-10.09685546875,-5.6367265625,5.14546484375,-11.09393359375,-12.8513671875,-11.14153515625,-0.49393359375,-5.619828125,-10.129328125,-8.77121875000001,-1.02453515625,1.3163046875,-6.16703125,-10.1601796875,-17.22098828125,4.0983359375,-1.8188515625,-2.63129296875,0.635234375,6.14102734375
-3.65431249999999,-0.43421875,1.602328125,-3.8831328125,-13.5084296875,-7.04605078125,-5.4300625,3.90669921875,-4.94434375,-7.88998046875,-8.71385546875,-5.5887265625,2.99046484375,-10.00493359375,-11.2713671875,-10.21853515625,-2.15293359375,-4.871828125,-8.618328125,-7.58821875000001,-0.67253515625,2.6003046875,-5.10703125,-8.5451796875,-12.83098828125,4.1093359375,-0.7888515625,-2.42829296875,1.320234375,6.94702734375
-5.32131249999999,-1.48421875,-0.277671874999999,-4.1661328125,-12.8044296875,-5.92905078125,-4.5580625,3.92369921875,-4.34234375,-6.46798046875,-6.74385546875,-5.3507265625,-0.44953515625,-8.41493359375,-9.0613671875,-8.47453515625,-2.61093359375,-3.986828125,-6.786328125,-5.63021875,-0.32053515625,2.7833046875,-3.89103125,-6.4331796875,-7.86598828125,3.9313359375,0.5031484375,-2.26429296875,1.832234375,7.20102734375
-6.54131249999999,-2.41721875,-1.634671875,-4.2281328125,-12.0434296875,-4.58205078125,-3.4060625,3.98769921875,-3.78034375,-4.94598046875,-4.68585546875,-5.0417265625,-4.73253515625,-6.71493359375,-6.7063671875,-6.38153515625,-1.83593359375,-3.263828125,-5.105328125,-3.33221875000001,-0.16553515625,1.6143046875,-2.85103125,-4.3001796875,-3.12398828125,3.3823359375,1.6461484375,-2.30729296875,1.829234375,6.60502734375
-7.38531249999999,-3.06021875,-2.269671875,-4.0441328125,-11.3224296875,-3.24305078125,-2.2500625,4.19869921875,-3.26534375,-3.53598046875,-2.85285546875,-4.6167265625,-9.22653515625,-5.14593359375,-4.5403671875,-4.28953515625,-0.22493359375,-2.778828125,-3.796328125,-1.02321875000001,-0.21253515625,-0.6546953125,-2.06303125,-2.4071796875,0.817011718750003,2.5233359375,2.4441484375,-2.48529296875,1.290234375,5.23402734375
-7.94631249999999,-3.20521875,-2.108671875,-3.5831328125,-10.6244296875,-1.99505078125,-1.2140625,4.70669921875,-2.64834375,-2.24298046875,-1.28785546875,-3.8817265625,-12.88053515625,-3.73393359375,-2.6663671875,-2.31553515625,1.60306640625,-2.366828125,-2.767328125,1.16278124999999,-0.27053515625,-3.3606953125,-1.32203125,-0.7401796875,3.78701171875,1.6723359375,2.9901484375,-2.48629296875,0.554234375,3.51402734375
-8.23031249999999,-2.68521875,-1.236671875,-2.8121328125,-9.8364296875,-0.83005078125,-0.2960625,5.59769921875,-1.80134375,-0.99798046875,0.10314453125,-2.7117265625,-14.33353515625,-2.42293359375,-1.0683671875,-0.45753515625,3.03006640625,-1.801828125,-1.762328125,3.20878125,-0.13153515625,-5.6896953125,-0.33603125,0.8428203125,5.94401171875,1.2113359375,3.5271484375,-1.96429296875,0.111234375,1.96902734375
-8.18131249999999,-1.52221875,0.0633281250000017,-1.7621328125,-8.8624296875,0.20994921875,0.5079375,6.76469921875,-0.77434375,0.15201953125,1.31014453125,-1.2897265625,-12.49553515625,-1.24293359375,0.1996328125,1.19146484375,3.60506640625,-0.999828125,-0.613328125,5.04878124999999,0.21746484375,-6.9736953125,1.00696875,2.3828203125,7.52101171875,1.3383359375,4.2211484375,-0.81729296875,0.281234375,0.925027343749999
-7.81431249999999,0.0027812500000004,1.353328125,-0.609132812499999,-7.7644296875,0.95194921875,1.0569375,7.82669921875,0.18665625,0.99001953125,2.11814453125,-0.1297265625,-7.29453515625,-0.36693359375,0.9296328125,2.33446484375,3.14106640625,-0.0898281249999999,0.602671875,6.47178125,0.53846484375,-6.9056953125,2.50396875,3.6838203125,8.60401171875,1.9313359375,5.0101484375,0.66370703125,1.005234375,0.36102734375
-7.31331249999999,1.42578125,2.168328125,0.3518671875,-6.7994296875,1.14094921875,1.0719375,8.22769921875,0.79465625,1.23901953125,2.19914453125,0.1432734375,0.01246484375,0.00306640624999999,0.858632812500001,2.58346484375,1.73906640625,0.667171875,1.576671875,7.17778124999999,0.47846484375,-5.6406953125,3.71296875,4.3788203125,9.10501171875,2.6073359375,5.6231484375,1.91970703125,1.864234375,-0.0129726562500005
-7.00931249999999,2.25778125,2.160328125,0.8448671875,-6.2774296875,0.59094921875,0.3329375,7.51869921875,0.89965625,0.73401953125,1.33414453125,-0.8667265625,7.23546484375,-0.22693359375,-0.1393671875,1.69246484375,-0.28093359375,1.004171875,1.925671875,6.95478124999999,-0.22553515625,-3.7526953125,4.16596875,4.1218203125,8.88501171875,2.9043359375,5.7191484375,2.40770703125,2.320234375,-0.53397265625
-7.27731249999999,2.15078125,1.173328125,0.750867187500001,-6.3934296875,-0.68705078125,-1.1050625,5.61569921875,0.54465625,-0.47098046875,-0.41085546875,-3.0707265625,12.13846484375,-0.99093359375,-1.9173671875,-0.24453515625,-2.50393359375,0.738171875,1.383671875,5.83278124999999,-1.59553515625,-2.0216953125,3.57996875,2.7788203125,7.93001171875,2.4783359375,5.0631484375,1.87970703125,1.995234375,-1.36897265625
-8.43231249999999,0.98778125,-0.753671874999998,0.1048671875,-7.1574296875,-2.46505078125,-2.9180625,2.84369921875,-0.11234375,-2.10698046875,-2.65885546875,-5.8747265625,13.31746484375,-2.10893359375,-4.0733671875,-2.75953515625,-4.53493359375,-0.191828125,-0.0833281250000004,4.12378125,-3.40253515625,-1.1166953125,1.95996875,0.5068203125,6.44601171875,1.2413359375,3.6231484375,0.49770703125,0.846234375,-2.44697265625
-10.6373125,-1.10121875,-3.419671875,-0.9881328125,-8.4304296875,-4.38605078125,-4.6930625,-0.22630078125,-0.93834375,-3.81498046875,-4.86385546875,-8.4177265625,10.63746484375,-3.38393359375,-6.1093671875,-5.19153515625,-6.07393359375,-1.700828125,-2.255328125,2.31978124999999,-5.25653515625,-1.2986953125,-0.42703125,-2.3041796875,4.81701171875,-0.6016640625,1.5871484375,-1.26629296875,-0.848765625,-3.52297265625
-13.7873125,-3.78821875,-6.508671875,-2.4101328125,-9.9694296875,-6.10405078125,-6.0970625,-2.97330078125,-1.89434375,-5.30398046875,-6.54685546875,-9.9467265625,5.12646484375,-4.67393359375,-7.6453671875,-6.96953515625,-6.97793359375,-3.552828125,-4.749328125,0.898781249999995,-6.76753515625,-2.3006953125,-3.16303125,-5.1641796875,3.45701171875,-2.6356640625,-0.7198515625,-2.87529296875,-2.636765625,-4.32697265625
-17.4283125,-6.58921875,-9.608671875,-4.0111328125,-11.4554296875,-7.39505078125,-6.9230625,-4.89730078125,-3.00834375,-6.45398046875,-7.48185546875,-10.1297265625,-1.52553515625,-5.90193359375,-8.5623671875,-7.84453515625,-7.28893359375,-5.389828125,-7.145328125,0.151781249999996,-7.67053515625,-3.4776953125,-5.79403125,-7.6241796875,2.65601171875,-4.3756640625,-2.9388515625,-3.96329296875,-4.096765625,-4.69197265625
-20.7983125,-8.92721875,-12.221671875,-5.5811328125,-12.5654296875,-8.18505078125,-7.1080625,-5.74930078125,-4.26734375,-7.28898046875,-7.72285546875,-9.1287265625,-7.58353515625,-6.99993359375,-8.9853671875,-7.91253515625,-7.17393359375,-6.813828125,-9.095328125,0.115781249999994,-7.84953515625,-4.1416953125,-7.91803125,-9.3571796875,2.50801171875,-5.4166640625,-4.7508515625,-4.42829296875,-4.956765625,-4.58197265625
-23.0333125,-10.22621875,-13.821671875,-6.8631328125,-13.0714296875,-8.48605078125,-6.7210625,-5.59630078125,-5.51034375,-7.85598046875,-7.47485546875,-7.4187265625,-11.74653515625,-7.83793359375,-9.1343671875,-7.44953515625,-6.79293359375,-7.473828125,-10.361328125,0.638781249999994,-7.29153515625,-3.8986953125,-9.21903125,-10.1601796875,2.97101171875,-5.4866640625,-5.8788515625,-4.34529296875,-5.087765625,-4.01997265625
-23.4503125,-10.04621875,-13.977671875,-7.5691328125,-12.8754296875,-8.31005078125,-5.8960625,-4.70930078125,-6.41334375,-8.11598046875,-6.93285546875,-5.5037265625,-13.34353515625,-8.17993359375,-9.1413671875,-6.69453515625,-6.18193359375,-7.163828125,-10.790328125,1.54278124999999,-6.01053515625,-2.8036953125,-9.48103125,-9.9281796875,3.98001171875,-4.4456640625,-6.0778515625,-3.78129296875,-4.427765625,-2.99697265625
-21.7673125,-8.21421875,-12.495671875,-7.4091328125,-11.9624296875,-7.63005078125,-4.7120625,-3.37130078125,-6.59434375,-7.92498046875,-6.18785546875,-3.7077265625,-12.28053515625,-7.73693359375,-8.9623671875,-5.72453515625,-5.25093359375,-5.868828125,-10.289328125,2.75978124999999,-4.04453515625,-1.2606953125,-8.62003125,-8.6541796875,5.51101171875,-2.2946640625,-5.1558515625,-2.70029296875,-2.933765625,-1.45697265625
-18.2253125,-4.90421875,-9.528671875,-6.2181328125,-10.3824296875,-6.43805078125,-3.2040625,-1.79430078125,-5.81334375,-7.13398046875,-5.26285546875,-2.1617265625,-8.92553515625,-6.31693359375,-8.4433671875,-4.50953515625,-3.89593359375,-3.782828125,-8.854328125,4.32978124999999,-1.53053515625,0.2263046875,-6.73403125,-6.4731796875,7.54301171875,0.7463359375,-3.0848515625,-1.04029296875,-0.650765625,0.58402734375
-13.5943125,-0.65921875,-5.628671875,-4.1661328125,-8.3444296875,-4.85505078125,-1.5270625,-0.22330078125,-4.17134375,-5.75998046875,-4.22785546875,-0.9287265625,-4.13453515625,-4.02093359375,-7.4933671875,-3.07853515625,-2.15693359375,-1.320828125,-6.676328125,6.25078124999999,1.19146484375,1.2653046875,-4.16703125,-3.7381796875,9.91901171875,4.1523359375,-0.1368515625,1.08670703125,2.164234375,2.89402734375
-9.0053125,3.68278125,-1.681671875,-1.8731328125,-6.2974296875,-3.21005078125,-0.0640625000000004,0.97269921875,-2.17534375,-4.10198046875,-3.29585546875,-0.1587265625,0.73546484375,-1.36393359375,-6.2453671875,-1.66153515625,-0.29293359375,0.918171875,-4.206328125,8.32678124999999,3.56246484375,1.6223046875,-1.51203125,-1.0051796875,12.27201171875,7.1223359375,3.0811484375,3.26770703125,5.006234375,4.98102734375
-5.5663125,7.22578125,1.338328125,-0.2131328125,-4.7944296875,-1.94105078125,0.7159375,1.41669921875,-0.57434375,-2.68198046875,-2.76285546875,-0.0697265624999996,4.13846484375,0.86806640625,-5.0343671875,-0.64353515625,1.28806640625,2.293171875,-2.050328125,10.18678125,4.98346484375,1.1773046875,0.55196875,1.1338203125,14.11901171875,8.8463359375,5.8101484375,4.92270703125,7.288234375,6.29202734375
-3.88831249999999,9.40378125,2.782328125,0.1498671875,-4.1764296875,-1.33605078125,0.5749375,0.96269921875,0.0306562500000001,-1.94998046875,-2.79785546875,-0.7397265625,5.05446484375,2.00606640625,-4.1563671875,-0.29353515625,2.24306640625,2.417171875,-0.682328125,11.52278125,5.15646484375,-0.0346953125,1.59296875,2.3598203125,15.16001171875,8.8943359375,7.5161484375,5.66170703125,8.659234375,6.55402734375
-3.81531249999999,10.27878125,2.664328125,-0.8181328125,-4.3234296875,-1.30105078125,-0.2740625,-0.16630078125,-0.43234375,-1.94998046875,-3.21885546875,-1.8897265625,3.61846484375,1.92606640625,-3.5973671875,-0.48153515625,2.49806640625,1.457171875,-0.129328125,12.34078125,4.33046484375,-1.6326953125,1.72396875,2.8568203125,15.53901171875,7.4903359375,8.2071484375,5.59370703125,9.223234375,6.00502734375
-4.55831249999999,10.50078125,1.659328125,-2.4381328125,-4.6544296875,-1.36505078125,-1.2240625,-1.46830078125,-1.41034375,-2.23398046875,-3.50285546875,-2.8867265625,1.09246484375,1.18406640625,-2.9723671875,-0.65153515625,2.27406640625,0.187171875,0.090671875,13.00078125,3.22646484375,-2.7676953125,1.61796875,3.2588203125,15.82001171875,5.4363359375,8.4391484375,5.30770703125,9.481234375,5.29502734375
-5.14131249999999,10.91178125,0.718328124999999,-3.6671328125,-4.4284296875,-0.95105078125,-1.5580625,-2.39030078125,-2.03434375,-2.12198046875,-3.06985546875,-3.0607265625,-0.89253515625,0.72506640625,-1.7703671875,-0.12753515625,1.89806640625,-0.337828125,0.702671875,13.99378125,2.62146484375,-2.3596953125,2.14596875,4.2888203125,16.64201171875,3.6983359375,8.9671484375,5.49070703125,9.988234375,5.09702734375
-4.92231249999999,12.03778125,0.561328124999999,-3.6781328125,-3.1554296875,0.24894921875,-0.8090625,-2.60130078125,-1.62134375,-1.13598046875,-1.64585546875,-2.1197265625,-1.27753515625,1.33806640625,0.285632812500001,1.45746484375,1.53506640625,0.652171875,2.229671875,15.61978125,2.90046484375,0.3023046875,3.85696875,6.3218203125,18.28401171875,2.9103359375,10.2711484375,6.48270703125,11.001234375,5.68302734375
-3.88731249999999,13.82578125,1.344328125,-2.3471328125,-0.925429687499999,2.06994921875,0.9649375,-2.18530078125,-0.0853437499999999,0.69601953125,0.55014453125,-0.3587265625,-0.0855351562500001,3.20506640625,2.9976328125,3.90446484375,1.07306640625,3.188171875,4.653671875,17.77178125,3.85046484375,4.9493046875,6.62396875,9.1428203125,20.46401171875,3.0973359375,12.2641484375,8.05270703125,12.322234375,6.75302734375
-2.62131249999999,15.70278125,2.644328125,-0.346132812499999,1.5805703125,3.92994921875,3.1639375,-1.62930078125,2.01365625,2.83701953125,2.89514453125,1.4502734375,1.76146484375,5.79806640625,5.7306328125,6.51746484375,0.21106640625,6.487171875,7.385671875,19.94478125,4.82846484375,10.2003046875,9.66096875,12.0248203125,22.47301171875,3.7353359375,14.3271484375,9.54070703125,13.424234375,7.58602734375
-1.95431249999999,16.91278125,3.692328125,1.2338671875,3.4315703125,5.11694921875,4.9589375,-1.54530078125,3.77565625,4.51401953125,4.64614453125,2.4342734375,3.09446484375,8.16506640625,7.6816328125,8.42146484375,-1.31593359375,9.331171875,9.538671875,21.45378125,5.13346484375,14.1053046875,11.90696875,14.0618203125,23.54701171875,4.0863359375,15.6261484375,10.22370703125,13.745234375,7.41702734375
-2.51031249999999,16.91078125,3.762328125,1.4958671875,3.9555703125,5.15294921875,5.7549375,-2.27730078125,4.45665625,5.11401953125,5.27614453125,2.0512734375,3.24746484375,9.44206640625,8.2556328125,8.96846484375,-3.50293359375,10.690171875,10.365671875,21.76278125,4.39446484375,15.1513046875,12.55296875,14.6018203125,23.25201171875,3.6103359375,15.5481484375,9.71270703125,13.005234375,5.84502734375
-4.37331249999999,15.66178125,2.536328125,0.228867187500001,3.1055703125,4.06094921875,5.4989375,-3.70030078125,3.89165625,4.51501953125,4.72514453125,0.3832734375,2.48046484375,9.30206640625,7.3726328125,8.06146484375,-5.91993359375,10.245171875,9.638671875,20.76978125,2.78446484375,13.1073046875,11.45996875,13.5618203125,21.70801171875,2.2523359375,14.0171484375,8.15970703125,11.376234375,3.08802734375
-7.06831249999999,13.67178125,0.283328125000001,-2.0061328125,1.4415703125,2.38194921875,4.6309375,-5.31030078125,2.56965625,3.15601953125,3.43114453125,-1.8737265625,1.80446484375,8.08606640625,5.5286328125,6.20546484375,-7.75493359375,8.482171875,7.739671875,18.87778125,0.96646484375,9.1423046875,9.19496875,11.4538203125,19.52701171875,0.4373359375,11.5251484375,6.16070703125,9.386234375,-0.0839726562500003
-9.83031249999999,11.70778125,-2.302671875,-4.2091328125,-0.195429687499999,0.90294921875,3.8119375,-6.49730078125,1.32865625,1.77901953125,2.10714453125,-3.7377265625,2.24246484375,6.53406640625,3.5506328125,4.26146484375,-8.11193359375,6.328171875,5.437671875,16.78478125,-0.24053515625,5.1153046875,6.68296875,9.0908203125,17.49101171875,-1.2306640625,8.8441484375,4.39970703125,7.617234375,-2.71497265625
-12.0113125,10.37078125,-4.515671875,-5.4641328125,-1.1124296875,0.24794921875,3.6059375,-6.79230078125,0.86165625,1.02301953125,1.38414453125,-4.3997265625,4.02546484375,5.34206640625,2.1936328125,3.01846484375,-6.49793359375,4.599171875,3.476671875,15.12878125,-0.29753515625,2.5323046875,4.69696875,7.1648203125,16.15701171875,-2.3506640625,6.5981484375,3.27770703125,6.370234375,-4.13797265625
-13.4113125,9.76378125,-6.033671875,-5.3691328125,-1.0664296875,0.56994921875,4.2529375,-6.04730078125,1.36965625,1.11801953125,1.52914453125,-3.5617265625,6.31146484375,4.82806640625,1.8106328125,2.83646484375,-3.19593359375,3.637171875,2.256671875,14.17978125,0.75946484375,1.8493046875,3.51496875,5.9458203125,15.61401171875,-2.9266640625,4.9881484375,2.74970703125,5.545234375,-4.28097265625
-14.3673125,9.46078125,-7.076671875,-4.1951328125,-0.339429687499999,1.50194921875,5.5539375,-4.53530078125,2.52265625,1.84501953125,2.36714453125,-1.5227265625,7.65046484375,4.88106640625,2.2576328125,3.51446484375,0.71906640625,3.273171875,1.729671875,13.76378125,2.32446484375,2.4273046875,2.90396875,5.2478203125,15.51101171875,-3.2886640625,3.7931484375,2.43570703125,4.754234375,-3.64197265625
-15.5583125,8.75578125,-8.244671875,-2.7151328125,0.448570312500001,2.37394921875,6.9579375,-2.87130078125,3.67565625,2.71101953125,3.39514453125,0.9752734375,6.88946484375,5.12606640625,3.0326328125,4.42346484375,3.77406640625,3.041171875,1.516671875,13.40778125,3.50046484375,3.0493046875,2.35996875,4.6188203125,15.29101171875,-3.8156640625,2.5931484375,1.88770703125,3.577234375,-2.98997265625
-17.6143125,7.05678125,-10.137671875,-1.7991328125,0.697570312500001,2.54594921875,7.8549375,-1.72330078125,4.18565625,3.19301953125,4.01214453125,3.0382734375,3.90746484375,5.15106640625,3.5356328125,4.80746484375,4.72206640625,2.464171875,1.148671875,12.63278125,3.52246484375,2.6143046875,1.42296875,3.6268203125,14.49901171875,-4.6726640625,1.0561484375,0.83370703125,1.796234375,-2.96397265625
-20.7313125,4.24578125,-12.957671875,-2.0151328125,0.138570312500001,1.71294921875,7.8849375,-1.48830078125,3.69465625,2.96401953125,3.78814453125,3.9572734375,-0.27353515625,4.71006640625,3.3366328125,4.12646484375,3.14206640625,1.287171875,0.302671875,11.22678125,2.12046484375,0.7073046875,-0.0830312499999999,2.0928203125,13.01501171875,-5.7106640625,-0.8558515625,-0.69529296875,-0.482765625,-3.78997265625
-24.5053125,0.82178125,-16.302671875,-3.3971328125,-1.0714296875,0.0399492187499999,7.0709375,-2.14530078125,2.29365625,2.02601953125,2.65314453125,3.4652734375,-4.00753515625,3.83006640625,2.3606328125,2.30246484375,-0.28093359375,-0.399828125,-1.051328125,9.36378125,-0.35353515625,-2.1686953125,-1.96503125,0.1868203125,11.12901171875,-6.5746640625,-2.8558515625,-2.39129296875,-2.862765625,-5.23197265625
-28.0653125,-2.25921875,-19.300671875,-5.4541328125,-2.4784296875,-1.92805078125,5.7339375,-3.30630078125,0.48165625,0.68301953125,0.91714453125,1.8082734375,-5.78453515625,2.78106640625,0.882632812500001,-0.25153515625,-4.01293359375,-2.203828125,-2.656328125,7.50978124999999,-3.09553515625,-4.8096953125,-3.76603125,-1.6541796875,9.40101171875,-6.9346640625,-4.4768515625,-3.82529296875,-4.811765625,-6.76197265625
-30.4423125,-4.01821875,-21.031671875,-7.3931328125,-3.5724296875,-3.54505078125,4.3349375,-4.38030078125,-1.08134375,-0.63798046875,-0.90185546875,-0.4087265625,-4.84953515625,1.91806640625,-0.6463671875,-2.83253515625,-6.42793359375,-3.630828125,-4.123328125,6.20378125,-5.24353515625,-5.9386953125,-5.01303125,-2.9401796875,8.39401171875,-6.6966640625,-5.3178515625,-4.63529296875,-5.893765625,-7.83797265625
-31.0193125,-3.92821875,-21.007671875,-8.4761328125,-4.0114296875,-4.37705078125,3.2909375,-4.78930078125,-1.91834375,-1.62198046875,-2.33485546875,-2.4967265625,-1.45053515625,1.46006640625,-1.8403671875,-4.75353515625,-6.64193359375,-4.369828125,-5.140328125,5.81678124999999,-6.24753515625,-4.9926953125,-5.48003125,-3.3741796875,8.40101171875,-6.0436640625,-5.2458515625,-4.67629296875,-5.956765625,-8.14197265625
-29.8383125,-2.18821875,-19.407671875,-8.4071328125,-3.7804296875,-4.38305078125,2.7949375,-4.21630078125,-1.96234375,-2.19898046875,-3.15585546875,-3.9347265625,3.30446484375,1.35306640625,-2.5453671875,-5.61353515625,-4.89593359375,-4.498828125,-5.629328125,6.40978125,-6.04053515625,-2.5606953125,-5.31203125,-2.9881796875,9.32901171875,-5.2996640625,-4.4448515625,-4.05529296875,-5.196765625,-7.68997265625
-27.5893125,0.37778125,-16.961671875,-7.5021328125,-3.1864296875,-3.88305078125,2.7479375,-2.75830078125,-1.54934375,-2.50898046875,-3.41085546875,-4.5127265625,7.87946484375,1.31106640625,-2.8593671875,-5.41453515625,-2.27693359375,-4.444828125,-5.759328125,7.72578124999999,-4.96553515625,-0.1326953125,-4.94103125,-2.1161796875,10.76401171875,-4.7086640625,-3.3218515625,-3.06729296875,-4.065765625,-6.77397265625
-25.2673125,2.70878125,-14.577671875,-6.5131328125,-2.6524296875,-3.34305078125,2.8689375,-0.85530078125,-1.16734375,-2.75898046875,-3.34085546875,-4.3337265625,10.83746484375,1.01206640625,-3.0153671875,-4.51453515625,-0.01593359375,-4.710828125,-5.817328125,9.29878124999999,-3.55353515625,0.7483046875,-4.84403125,-1.2261796875,12.17401171875,-4.3106640625,-2.3238515625,-2.08729296875,-3.073765625,-5.79397265625
-23.6923125,3.97478125,-12.936671875,-6.1861328125,-2.4424296875,-3.13405078125,2.9199375,0.93769921875,-1.14934375,-3.05998046875,-3.23385546875,-3.7247265625,11.22146484375,0.32506640625,-3.2163671875,-3.45353515625,1.14606640625,-5.543828125,-6.020328125,10.64578125,-2.30253515625,-0.5956953125,-5.27803125,-0.7021796875,13.12501171875,-3.9796640625,-1.7748515625,-1.44629296875,-2.585765625,-5.08097265625
-23.1963125,3.90478125,-12.246671875,-6.8711328125,-2.5124296875,-3.37205078125,2.8269375,2.18069921875,-1.47334375,-3.35798046875,-3.29585546875,-3.0647265625,8.75646484375,-0.56493359375,-3.5123671875,-2.72253515625,1.19606640625,-6.753828125,-6.390328125,11.44578125,-1.52253515625,-3.6016953125,-6.13903125,-0.6791796875,13.43201171875,-3.5796640625,-1.7608515625,-1.33229296875,-2.702765625,-4.78097265625
-23.6103125,2.81878125,-12.264671875,-8.4041328125,-2.6034296875,-3.91105078125,2.6309375,2.64169921875,-1.81334375,-3.47198046875,-3.57685546875,-2.6077265625,3.90446484375,-1.23793359375,-3.7953671875,-2.57453515625,0.65506640625,-7.815828125,-6.751328125,11.62478125,-1.27453515625,-6.8476953125,-7.02303125,-1.0201796875,13.18201171875,-3.1166640625,-2.1368515625,-1.72029296875,-3.277765625,-4.85997265625
-24.4803125,1.37578125,-12.533671875,-10.2621328125,-2.4304296875,-4.46205078125,2.3989375,2.34069921875,-1.76734375,-3.23998046875,-4.00085546875,-2.3957265625,-2.19353515625,-1.27293359375,-3.8933671875,-2.96253515625,0.12006640625,-8.184828125,-6.856328125,11.33878125,-1.42153515625,-8.8826953125,-7.45303125,-1.4161796875,12.64101171875,-2.7796640625,-2.6298515625,-2.40729296875,-4.049765625,-5.19497265625
-25.3343125,0.23478125,-12.656671875,-11.8331328125,-1.8354296875,-4.75305078125,2.2189375,1.56369921875,-1.11834375,-2.63798046875,-4.43585546875,-2.2807265625,-7.91653515625,-0.47693359375,-3.6853671875,-3.60853515625,-0.13393359375,-7.587828125,-6.521328125,10.86978125,-1.71653515625,-8.9276953125,-7.13003125,-1.5491796875,12.09801171875,-2.8246640625,-2.9808515625,-3.12629296875,-4.803765625,-5.66097265625
-25.8343125,-0.17721875,-12.418671875,-12.6681328125,-0.821429687499999,-4.62005078125,2.2359375,0.77269921875,0.0616562500000001,-1.77098046875,-4.73085546875,-2.0177265625,-11.55153515625,1.03106640625,-3.1423671875,-4.11253515625,-0.23793359375,-6.121828125,-5.692328125,10.52078125,-1.88853515625,-7.0886953125,-6.06103125,-1.2081796875,11.77501171875,-3.3486640625,-3.0318515625,-3.66429296875,-5.438765625,-6.15397265625
-25.8193125,0.28378125,-11.748671875,-12.6151328125,0.480570312500001,-4.01405078125,2.6329375,0.41869921875,1.49165625,-0.75898046875,-4.70285546875,-1.3527265625,-11.77053515625,2.91406640625,-2.2763671875,-4.06653515625,-0.46193359375,-4.146828125,-4.407328125,10.53878125,-1.68953515625,-4.0976953125,-4.50403125,-0.3261796875,11.81501171875,-4.1356640625,-2.7268515625,-3.90729296875,-5.913765625,-6.54797265625
-25.2723125,1.54778125,-10.626671875,-11.8181328125,1.8875703125,-2.96005078125,3.5629375,0.76269921875,2.84165625,0.35401953125,-4.16185546875,-0.1347265625,-8.09653515625,4.77706640625,-1.0983671875,-3.17753515625,-0.86393359375,-2.096828125,-2.755328125,11.06578125,-0.94753515625,-0.8736953125,-2.82503125,1.0278203125,12.29801171875,-4.6956640625,-2.0728515625,-3.81929296875,-6.148765625,-6.67697265625
-24.2983125,3.37478125,-9.095671875,-10.6091328125,3.2455703125,-1.56505078125,5.0809375,1.81369921875,3.85265625,1.56001953125,-3.02385546875,1.5842734375,-1.19153515625,6.28006640625,0.3406328125,-1.41453515625,-1.15893359375,-0.359828125,-0.876328125,12.08778125,0.35246484375,1.8373046875,-1.37303125,2.6568203125,13.21501171875,-4.5296640625,-1.1468515625,-3.41729296875,-6.015765625,-6.40997265625
-23.1313125,5.38578125,-7.344671875,-9.3611328125,4.4505703125,-0.0340507812499999,7.0759375,3.35969921875,4.38365625,2.77201953125,-1.44185546875,3.5042734375,7.18646484375,7.18506640625,1.8766328125,0.89646484375,-0.90293359375,0.785171875,0.988671875,13.41778125,2.00346484375,3.6263046875,-0.40303125,4.2578203125,14.41701171875,-3.4426640625,-0.1208515625,-2.79429296875,-5.433765625,-5.76297265625
-22.1413125,7.10978125,-5.765671875,-8.3871328125,5.4315703125,1.33394921875,9.1929375,4.98869921875,4.42365625,3.78601953125,0.18514453125,5.1542734375,14.63446484375,7.38106640625,3.2216328125,3.14846484375,0.17006640625,1.202171875,2.510671875,14.72478125,3.61246484375,4.4253046875,-0.03403125,5.4898203125,15.60101171875,-1.7076640625,0.7451484375,-2.11329296875,-4.483765625,-4.96997265625
-21.7293125,8.12278125,-4.856671875,-7.8711328125,6.1295703125,2.21994921875,10.8469375,6.15969921875,4.08865625,4.34101953125,1.33914453125,6.0502734375,18.88146484375,6.91306640625,4.0486328125,4.66446484375,1.90906640625,0.935171875,3.362671875,15.63478125,4.71646484375,4.3933046875,-0.24903125,6.0778203125,16.35401171875,0.0233359374999997,1.1671484375,-1.57429296875,-3.450765625,-4.40797265625
-22.1333125,8.21078125,-5.025671875,-7.8391328125,6.5315703125,2.38394921875,11.4409375,6.38169921875,3.57165625,4.23201953125,1.58514453125,5.8562734375,18.57346484375,5.96206640625,4.1166328125,4.94746484375,3.75006640625,0.177171875,3.356671875,15.86078125,4.94346484375,3.7113046875,-0.92603125,5.8958203125,16.25601171875,1.0223359375,0.9281484375,-1.34329296875,-2.723765625,-4.43797265625
-23.2703125,7.48478125,-6.367671875,-8.1691328125,6.7055703125,1.75694921875,10.6489375,5.42969921875,3.05165625,3.41101953125,0.75114453125,4.4922734375,13.74546484375,4.77606640625,3.3826328125,3.85846484375,4.96806640625,-0.834828125,2.527671875,15.29378125,4.13246484375,2.4223046875,-1.90903125,4.9898203125,15.00501171875,0.816335937499999,-0.0448515624999999,-1.50229296875,-2.633765625,-5.22797265625
-24.7743125,6.34178125,-8.570671875,-8.6681328125,6.7825703125,0.49394921875,8.5999375,3.45069921875,2.63065625,2.04601953125,-0.96485546875,2.2002734375,5.84446484375,3.60106640625,2.0516328125,1.67646484375,5.03806640625,-1.907828125,1.148671875,14.06378125,2.42946484375,0.4693046875,-3.03103125,3.5788203125,12.58301171875,-0.5806640625,-1.6178515625,-2.01029296875,-3.282765625,-6.66697265625
-26.1843125,5.28778125,-10.990671875,-9.1521328125,6.8885703125,-1.03205078125,5.8449375,0.92069921875,2.34465625,0.52501953125,-3.00085546875,-0.4467265625,-2.65853515625,2.64506640625,0.5596328125,-0.943535156249999,3.89106640625,-2.885828125,-0.326328125,12.53378125,0.27946484375,-2.0286953125,-4.08003125,2.0198203125,9.35801171875,-2.6716640625,-3.4518515625,-2.69529296875,-4.463765625,-8.39397265625
-27.1813125,4.69678125,-12.919671875,-9.4881328125,7.1185703125,-2.33605078125,3.2029375,-1.48430078125,2.19565625,-0.67498046875,-4.61985546875,-2.6897265625,-9.00753515625,2.04806640625,-0.5743671875,-3.18353515625,1.91006640625,-3.605828125,-1.414328125,11.20978125,-1.71353515625,-4.5286953125,-4.79903125,0.7278203125,6.02901171875,-4.7146640625,-5.0928515625,-3.31229296875,-5.729765625,-9.95397265625
-27.7293125,4.62778125,-13.915671875,-9.6111328125,7.5205703125,-3.02405078125,1.4839375,-3.07830078125,2.14165625,-1.20098046875,-5.22685546875,-3.8637265625,-11.09553515625,1.82106640625,-0.984367187499999,-4.36153515625,-0.32593359375,-3.930828125,-1.798328125,10.55478125,-3.04553515625,-6.1686953125,-4.97803125,0.0158203124999998,3.35401171875,-6.0896640625,-6.1668515625,-3.65829296875,-6.610765625,-11.02097265625
-28.0853125,4.81978125,-14.001671875,-9.5741328125,8.0445703125,-2.98505078125,1.1619375,-3.42530078125,2.06165625,-1.01498046875,-4.66085546875,-3.6977265625,-8.31553515625,1.78906640625,-0.649367187499999,-4.21053515625,-2.34693359375,-3.837828125,-1.480328125,10.78278125,-3.52853515625,-6.2316953125,-4.59003125,-0.0571796875000001,1.81401171875,-6.5656640625,-6.5608515625,-3.70129296875,-6.866765625,-11.56797265625
-28.6503125,4.86878125,-13.601671875,-9.5761328125,8.5105703125,-2.43805078125,2.1419375,-2.55030078125,1.76565625,-0.40498046875,-3.25485546875,-2.4157265625,-1.90053515625,1.63606640625,0.101632812500001,-2.95653515625,-3.91293359375,-3.474828125,-0.782328125,11.76178125,-3.32453515625,-4.6166953125,-3.85603125,0.3018203125,1.43401171875,-6.3246640625,-6.4648515625,-3.59629296875,-6.602765625,-11.85297265625
-29.7093125,4.50478125,-13.258671875,-9.8841328125,8.6965703125,-1.76905078125,3.8539375,-0.88530078125,1.10165625,0.18701953125,-1.62385546875,-0.6037265625,5.53146484375,1.06506640625,0.798632812500001,-1.15653515625,-4.91093359375,-3.085828125,-0.152328125,13.11978125,-2.77253515625,-1.9186953125,-3.15603125,0.7598203125,1.84901171875,-5.7456640625,-6.2308515625,-3.57729296875,-6.169765625,-12.21297265625
-31.2173125,3.76878125,-13.316671875,-10.6451328125,8.5335703125,-1.28105078125,5.6409375,1.02269921875,0.0926562500000001,0.42301953125,-0.30785546875,1.1072734375,11.09346484375,-0.00493359375000002,1.1246328125,0.60146484375,-5.17793359375,-2.857828125,0.0816718749999996,14.47578125,-2.14453515625,0.9213046875,-2.81503125,1.0708203125,2.57901171875,-5.1196640625,-6.1388515625,-3.78329296875,-5.925765625,-12.79997265625
-32.8043125,2.99978125,-13.775671875,-11.7531328125,8.2495703125,-0.99605078125,7.1469375,2.80969921875,-0.99734375,0.27501953125,0.52514453125,2.3492734375,12.88246484375,-1.34393359375,1.1116328125,1.98646484375,-4.45193359375,-2.790828125,-0.113328125,15.65578125,-1.45753515625,3.1353046875,-2.90703125,1.2348203125,3.30501171875,-4.4896640625,-6.2218515625,-4.15129296875,-6.016765625,-13.44997265625
-34.0293125,2.60778125,-14.382671875,-12.8861328125,8.2795703125,-0.65605078125,8.3909375,4.37269921875,-1.74234375,0.0600195312499999,1.15514453125,3.1692734375,10.69446484375,-2.47093359375,1.1346328125,3.05346484375,-2.50993359375,-2.699828125,-0.475328125,16.75578125,-0.46053515625,4.4163046875,-3.20503125,1.4858203125,3.99801171875,-3.6806640625,-6.2448515625,-4.42829296875,-6.313765625,-13.77797265625
-34.7423125,2.75978125,-14.918671875,-13.7031328125,9.0155703125,0.0879492187499999,9.5659375,5.74969921875,-1.76134375,0.27301953125,2.09914453125,3.9122734375,5.86046484375,-2.87993359375,1.6806328125,4.11346484375,0.60906640625,-2.367828125,-0.618328125,18.01578125,1.15346484375,4.8423046875,-3.31703125,2.1318203125,4.80601171875,-2.4886640625,-5.8808515625,-4.33129296875,-6.530765625,-13.43897265625
-35.2633125,3.16678125,-15.441671875,-14.0421328125,10.5615703125,1.40294921875,10.7719375,6.98469921875,-0.95334375,1.26701953125,3.72414453125,4.8982734375,0.39346484375,-2.31493359375,3.0226328125,5.41946484375,4.45906640625,-1.755828125,-0.271328125,19.59278125,3.41946484375,4.5623046875,-2.96903125,3.3068203125,5.79901171875,-0.9046640625,-4.9628515625,-3.72729296875,-6.444765625,-12.36797265625
-36.2613125,3.16878125,-16.318671875,-14.0121328125,12.6365703125,3.10494921875,11.8809375,8.03269921875,0.39365625,3.00201953125,5.94914453125,6.1172734375,-3.94053515625,-0.93893359375,5.0096328125,6.88846484375,8.22606640625,-1.104828125,0.542671875,21.39378125,5.90246484375,3.5513046875,-2.20803125,4.8378203125,6.79201171875,0.7813359375,-3.6478515625,-2.73529296875,-6.057765625,-10.86797265625
-38.3963125,2.07678125,-17.990671875,-13.9421328125,14.6715703125,4.71994921875,12.5509375,8.70569921875,1.71365625,5.04001953125,8.24514453125,7.1892734375,-6.14753515625,0.73606640625,7.1206328125,8.08946484375,10.94106640625,-0.811828125,1.521671875,23.09278125,7.82046484375,1.6793046875,-1.37803125,6.3058203125,7.41501171875,2.0783359375,-2.3538515625,-1.65229296875,-5.593765625,-9.47197265625
-41.9153125,-0.40721875,-20.655671875,-14.2161328125,16.0435703125,5.72594921875,12.3949375,8.72669921875,2.43765625,6.77101953125,9.91614453125,7.5942734375,-6.02153515625,2.09906640625,8.7386328125,8.49846484375,11.77506640625,-1.144828125,2.279671875,24.32078125,8.45446484375,-0.9636953125,-0.86703125,7.2988203125,7.38701171875,2.5373359375,-1.5088515625,-0.76529296875,-5.329765625,-8.67597265625
-46.4343125,-3.98321875,-24.088671875,-15.0521328125,16.3885703125,5.82694921875,11.2439375,7.91169921875,2.27065625,7.72601953125,10.47814453125,7.0102734375,-3.91453515625,2.73306640625,9.4636328125,7.84946484375,10.31806640625,-2.022828125,2.586671875,24.90478125,7.56046484375,-3.8216953125,-0.82803125,7.6638203125,6.79901171875,2.0003359375,-1.2828515625,-0.19029296875,-5.393765625,-8.70397265625
-51.0213125,-7.85521875,-27.691671875,-16.3561328125,15.8045703125,5.10594921875,9.3319375,6.36469921875,1.33765625,7.80001953125,9.90414453125,5.5222734375,-0.50253515625,2.59806640625,9.2956328125,6.34546484375,6.78106640625,-3.018828125,2.504671875,24.99278125,5.53346484375,-5.9976953125,-1.06803125,7.6058203125,6.17801171875,0.7183359375,-1.4808515625,0.17870703125,-5.667765625,-9.42897265625
-54.5593125,-11.06021875,-30.709671875,-17.7491328125,14.8195703125,3.98194921875,7.2269375,4.50269921875,0.12865625,7.29301953125,8.64314453125,3.5982734375,3.35146484375,2.02606640625,8.6026328125,4.60346484375,2.07106640625,-3.587828125,2.352671875,24.98278125,3.23046484375,-6.7176953125,-1.16503125,7.5608203125,6.26001171875,-0.7356640625,-1.6658515625,0.55770703125,-5.863765625,-10.46097265625
-56.2213125,-12.85621875,-32.507671875,-18.7741328125,14.1355703125,3.02094921875,5.5369375,2.87169921875,-0.72834375,6.76401953125,7.40214453125,1.8712734375,6.70446484375,1.55106640625,7.9276328125,3.37946484375,-2.38393359375,-3.337828125,2.531671875,25.29378125,1.57046484375,-5.7656953125,-0.72803125,7.9458203125,7.60001171875,-1.7236640625,-1.4248515625,1.10770703125,-5.717765625,-11.35797265625
-55.7873125,-12.98121875,-32.811671875,-19.1131328125,14.3075703125,2.67694921875,4.6329375,1.91869921875,-0.75234375,6.74601953125,6.80314453125,0.8472734375,8.69946484375,1.65206640625,7.7226328125,3.20646484375,-5.11393359375,-2.203828125,3.301671875,26.11378125,1.12246484375,-3.5736953125,0.38096875,8.9318203125,10.22501171875,-1.8496640625,-0.6178515625,1.80070703125,-5.175765625,-11.83897265625
-53.7033125,-11.71921875,-31.816671875,-18.7281328125,15.5305703125,3.10094921875,4.5469375,1.86169921875,0.15865625,7.48001953125,7.10814453125,0.7062734375,8.83346484375,2.52106640625,8.1516328125,4.13946484375,-5.23993359375,-0.443828125,4.629671875,27.28878125,1.89946484375,-0.9326953125,1.97496875,10.3568203125,13.56801171875,-1.1416640625,0.5421484375,2.41470703125,-4.440765625,-11.89797265625
-50.9033125,-9.76721875,-30.122671875,-17.8891328125,17.5595703125,4.10194921875,5.0209375,2.61969921875,1.68265625,8.81501953125,8.15314453125,1.2872734375,7.17046484375,3.97306640625,9.0546328125,5.76446484375,-2.90493359375,1.487171875,6.204671875,28.40778125,3.42546484375,1.4143046875,3.65496875,11.8308203125,16.70401171875,-0.0166640625000003,1.6251484375,2.68470703125,-3.848765625,-11.76997265625
-48.4973125,-7.98021875,-28.534671875,-17.0821328125,19.7915703125,5.26894921875,5.6179375,3.79969921875,3.22965625,10.33101953125,9.50414453125,2.2342734375,4.33546484375,5.55506640625,10.0906328125,7.43046484375,0.78706640625,3.133171875,7.590671875,29.02778125,5.01246484375,3.0443046875,5.02896875,12.9398203125,18.76601171875,0.949335937499999,2.2611484375,2.48170703125,-3.671765625,-11.77397265625
-47.4063125,-7.09621875,-27.785671875,-16.8171328125,21.5135703125,6.18794921875,5.8919375,4.84869921875,4.22365625,11.57501953125,10.70414453125,3.1812734375,1.25246484375,6.78206640625,10.9316328125,8.56446484375,4.31606640625,4.210171875,8.448671875,28.91278125,6.06546484375,3.9243046875,5.89896875,13.4408203125,19.28701171875,1.2923359375,2.3421484375,1.91770703125,-3.955765625,-12.12697265625
-48.0313125,-7.50521875,-28.295671875,-17.3881328125,22.2295703125,6.61494921875,5.5839375,5.32469921875,4.34865625,12.25401953125,11.44114453125,3.8642734375,-1.24853515625,7.37006640625,11.3986328125,8.88246484375,6.43506640625,4.684171875,8.678671875,28.12878125,6.26746484375,4.3053046875,6.30596875,13.3378203125,18.31701171875,0.8493359375,2.0461484375,1.29170703125,-4.521765625,-12.83997265625
-50.1133125,-9.11821875,-30.020671875,-18.7201328125,21.8545703125,6.52494921875,4.6979375,5.11769921875,3.64765625,12.29501953125,11.59214453125,4.1752734375,-2.75253515625,7.31506640625,11.4736328125,8.42046484375,6.62506640625,4.704171875,8.409671875,26.96578125,5.62746484375,4.5033046875,6.42296875,12.8098203125,16.31701171875,-0.2326640625,1.6591484375,0.89770703125,-5.105765625,-13.76397265625
-52.8533125,-11.38521875,-32.463671875,-20.4311328125,20.6795703125,6.04794921875,3.4129375,4.43469921875,2.44165625,11.78801953125,11.18514453125,4.1542734375,-3.35953515625,6.82306640625,11.2406328125,7.44446484375,5.15906640625,4.436171875,7.869671875,25.74378125,4.42546484375,4.6733046875,6.37496875,12.0758203125,13.93401171875,-1.6246640625,1.3531484375,0.81870703125,-5.544765625,-14.72197265625
-55.2663125,-13.49421875,-34.849671875,-22.0381328125,19.1665703125,5.37494921875,1.9359375,3.64669921875,1.14265625,10.90001953125,10.35014453125,3.9632734375,-3.48353515625,6.14506640625,10.8116328125,6.31746484375,2.84506640625,3.929171875,7.253671875,24.67978125,3.08246484375,4.6853046875,6.13796875,11.3068203125,11.78301171875,-2.9776640625,1.0921484375,0.86670703125,-5.868765625,-15.61497265625
-56.5603125,-14.67121875,-36.400671875,-23.1521328125,17.7775703125,4.69594921875,0.4759375,3.14469921875,0.0626562500000001,9.82401953125,9.30814453125,3.8182734375,-3.47353515625,5.46606640625,10.3026328125,5.38346484375,0.62506640625,3.125171875,6.687671875,23.86978125,2.01746484375,4.2413046875,5.59996875,10.6268203125,10.31101171875,-4.0246640625,0.7261484375,0.72470703125,-6.213765625,-16.41197265625
-56.3743125,-14.43821875,-36.582671875,-23.5801328125,16.8925703125,4.18994921875,-0.7050625,3.24669921875,-0.66734375,8.79001953125,8.35714453125,3.9162734375,-3.28753515625,4.89706640625,9.8596328125,4.91646484375,-0.77393359375,1.997171875,6.279671875,23.39478125,1.54146484375,3.1753046875,4.73996875,10.1838203125,9.76501171875,-4.5776640625,0.2151484375,0.21570703125,-6.635765625,-17.03497265625
-54.7973125,-12.71521875,-35.226671875,-23.3091328125,16.7585703125,4.02594921875,-1.3210625,4.09669921875,-1.04434375,8.06901953125,7.83914453125,4.3862734375,-2.48453515625,4.54706640625,9.6796328125,5.10846484375,-1.01993359375,0.707171875,6.170671875,23.37678125,1.83746484375,1.7263046875,3.76696875,10.1688203125,10.21601171875,-4.4826640625,-0.2388515625,-0.50629296875,-6.976765625,-17.28497265625
-52.2493125,-9.78021875,-32.550671875,-22.4611328125,17.4245703125,4.32094921875,-1.2030625,5.58469921875,-1.10434375,7.89701953125,8.01514453125,5.2572734375,-0.58753515625,4.53306640625,9.9466328125,6.02046484375,-0.18993359375,-0.406828125,6.477671875,23.91978125,2.95346484375,0.4733046875,3.04296875,10.7248203125,11.56101171875,-3.6626640625,-0.2948515625,-1.02829296875,-6.943765625,-16.90097265625
-49.3473125,-6.20621875,-29.133671875,-21.2701328125,18.6655703125,5.01694921875,-0.4410625,7.36669921875,-0.92334375,8.27501953125,8.85614453125,6.3942734375,2.39146484375,4.86006640625,10.6436328125,7.46746484375,1.28906640625,-1.064828125,7.122671875,24.91578125,4.72646484375,-0.1056953125,2.79896875,11.7358203125,13.45501171875,-2.2536640625,0.2181484375,-0.99629296875,-6.374765625,-15.77497265625
-46.8053125,-2.78421875,-25.839671875,-20.0921328125,19.9735703125,5.77694921875,0.5769375,8.96469921875,-0.69134375,8.82301953125,9.90514453125,7.4472734375,5.64646484375,5.28006640625,11.3946328125,8.92846484375,2.76106640625,-1.306828125,7.710671875,25.90378125,6.67346484375,-0.0856953125,2.87596875,12.7228203125,15.24801171875,-0.7096640625,1.0311484375,-0.43329296875,-5.490765625,-14.14797265625
-45.3303125,-0.37221875,-23.622671875,-19.3801328125,20.6845703125,6.05194921875,1.2459375,9.89669921875,-0.71934375,8.88001953125,10.39114453125,7.9152734375,7.82146484375,5.31106640625,11.5386328125,9.64046484375,3.55506640625,-1.515828125,7.627671875,26.16178125,8.03146484375,-0.0926953125,2.75196875,12.9768203125,16.10101171875,0.2943359375,1.4851484375,0.22170703125,-4.879765625,-12.58797265625
-45.4513125,0.35378125,-23.211671875,-19.5501328125,20.2495703125,5.35294921875,0.9579375,9.81669921875,-1.29834375,7.86101953125,9.61314453125,7.3532734375,7.71546484375,4.48506640625,10.4596328125,8.92346484375,3.28106640625,-2.139828125,6.376671875,25.04578125,8.05446484375,-0.8046953125,1.88696875,11.9368203125,15.31601171875,0.1873359375,0.913148437499999,0.39870703125,-5.177765625,-11.72997265625
-47.2933125,-0.83021875,-24.807671875,-20.7541328125,18.5475703125,3.54994921875,-0.5970625,8.68769921875,-2.49234375,5.62101953125,7.33714453125,5.6082734375,4.97946484375,2.66206640625,7.9666328125,6.54646484375,2.03106640625,-3.326828125,3.923671875,22.38478125,6.40946484375,-2.3776953125,0.12196875,9.5378203125,12.69301171875,-1.1486640625,-0.9268515625,-0.21029296875,-6.671765625,-11.93197265625
-50.4263125,-3.56421875,-27.962671875,-22.7161328125,16.0435703125,0.99594921875,-3.2070625,6.88069921875,-4.03134375,2.59001953125,3.96414453125,2.9442734375,0.33646484375,0.18106640625,4.4646328125,2.90446484375,0.32506640625,-4.774828125,0.796671875,18.65378125,3.41746484375,-4.2396953125,-2.17103125,6.2918203125,8.69601171875,-3.2476640625,-3.6668515625,-1.43829296875,-9.095765625,-13.08897265625
-53.9293125,-6.96921875,-31.700671875,-24.7831328125,13.6065703125,-1.62505078125,-6.1850625,5.05069921875,-5.37934375,-0.41798046875,0.38114453125,-0.0177265624999996,-4.78053515625,-2.25193359375,0.798632812500001,-1.10953515625,-1.18293359375,-5.872828125,-2.130328125,14.81078125,-0.0415351562500001,-5.4026953125,-4.25803125,3.0578203125,4.30101171875,-5.2516640625,-6.4988515625,-2.73429296875,-11.730765625,-14.70297265625
-56.7183125,-9.94021875,-34.881671875,-26.2181328125,12.0825703125,-3.61505078125,-8.7100625,3.79369921875,-5.97234375,-2.56598046875,-2.42285546875,-2.5157265625,-8.88853515625,-3.87493359375,-2.1033671875,-4.45953515625,-2.06293359375,-6.058828125,-4.040328125,11.87578125,-2.91653515625,-5.0486953125,-5.41803125,0.6548203125,0.588011718750003,-6.3336640625,-8.5878515625,-3.48729296875,-13.744765625,-16.15697265625
-57.9993125,-11.58321875,-36.664671875,-26.5711328125,11.8705703125,-4.57705078125,-10.2160625,3.34069921875,-5.50834375,-3.38198046875,-3.78485546875,-3.9587265625,-11.02053515625,-4.23193359375,-3.6373671875,-6.40553515625,-2.36293359375,-5.154828125,-4.542328125,10.48478125,-4.48053515625,-3.0386953125,-5.31403125,-0.4711796875,-1.70598828125,-6.1486640625,-9.4788515625,-3.38229296875,-14.582765625,-17.03097265625
-57.6073125,-11.60021875,-36.857671875,-25.9031328125,12.7755703125,-4.56705078125,-10.5850625,3.51169921875,-4.15334375,-2.94998046875,-3.62285546875,-4.1647265625,-10.94653515625,-3.40493359375,-3.7483671875,-6.78153515625,-2.57293359375,-3.529828125,-3.829328125,10.65078125,-4.63553515625,-0.0786953125,-4.17303125,-0.4001796875,-2.46598828125,-5.0466640625,-9.2908515625,-2.59429296875,-14.211765625,-17.31197265625
-56.0293125,-10.36421875,-35.925671875,-24.7271328125,14.1995703125,-3.98005078125,-10.0630625,3.92769921875,-2.49334375,-1.80998046875,-2.39385546875,-3.4007265625,-9.05853515625,-1.94293359375,-2.8613671875,-5.98253515625,-3.27693359375,-1.930828125,-2.513328125,11.86878125,-3.84753515625,2.5583046875,-2.65503125,0.3938203125,-2.12098828125,-3.8866640625,-8.5678515625,-1.68129296875,-13.084765625,-17.34597265625
-54.0823125,-8.61921875,-34.613671875,-23.6821328125,15.5345703125,-3.23405078125,-9.0400625,4.30469921875,-1.19134375,-0.57498046875,-0.73885546875,-2.1447265625,-6.04253515625,-0.49993359375,-1.5373671875,-4.63853515625,-4.65893359375,-1.035828125,-1.228328125,13.50578125,-2.75853515625,3.6863046875,-1.45303125,1.3778203125,-1.25998828125,-3.5046640625,-7.8638515625,-1.21929296875,-11.819765625,-17.56097265625
-52.4333125,-7.01221875,-33.472671875,-23.1401328125,16.5185703125,-2.46705078125,-7.8060625,4.64769921875,-0.56234375,0.45801953125,0.91814453125,-0.7737265625,-2.54553515625,0.57806640625,-0.0973671874999993,-3.21453515625,-6.20793359375,-0.997828125,-0.251328125,15.20178125,-1.74853515625,2.8683046875,-0.86803125,2.2948203125,-0.217988281249998,-4.1746640625,-7.3588515625,-1.40429296875,-10.815765625,-18.13197265625
-51.2993125,-5.80921875,-32.629671875,-22.9901328125,17.3535703125,-1.47605078125,-6.4090625,5.26069921875,-0.39534375,1.41101953125,2.54114453125,0.6052734375,0.99346484375,1.41106640625,1.4966328125,-1.81053515625,-6.93493359375,-1.332828125,0.585671875,16.99478125,-0.77853515625,0.6703046875,-0.66903125,3.2618203125,1.06001171875,-5.4416640625,-6.7758515625,-1.90829296875,-10.064765625,-18.83997265625
-50.5313125,-4.97121875,-31.931671875,-22.8091328125,18.4575703125,0.0219492187500001,-4.7440625,6.51369921875,-0.16734375,2.59201953125,4.30714453125,2.0652734375,4.26446484375,2.35706640625,3.4246328125,-0.289535156249999,-5.98893359375,-1.267828125,1.627671875,19.10078125,0.41746484375,-1.6716953125,-0.33603125,4.5508203125,2.81401171875,-6.4376640625,-5.6678515625,-2.10529296875,-9.289765625,-19.22297265625
-49.9793125,-4.44421875,-31.289671875,-22.2871328125,20.0195703125,2.02594921875,-2.8450625,8.45469921875,0.49965625,4.10801953125,6.26914453125,3.6192734375,6.87746484375,3.58806640625,5.6286328125,1.42346484375,-3.27493359375,-0.305828125,2.970671875,21.52078125,1.98046484375,-2.9396953125,0.48896875,6.2228203125,5.10401171875,-6.4446640625,-3.8408515625,-1.51629296875,-8.264765625,-18.90497265625
-49.8003125,-4.38521875,-30.907671875,-21.6091328125,21.6835703125,4.04794921875,-1.1400625,10.57269921875,1.47365625,5.62001953125,8.10514453125,5.0232734375,8.20446484375,4.78706640625,7.6026328125,3.09346484375,0.38506640625,1.351171875,4.205671875,23.79178125,3.69046484375,-2.5896953125,1.65796875,7.8958203125,7.57101171875,-5.3256640625,-1.6208515625,-0.19529296875,-7.095765625,-17.88297265625
-50.4103125,-5.11521875,-31.216671875,-21.4441328125,22.6435703125,5.25194921875,-0.3750625,11.97469921875,2.09965625,6.39701953125,9.15614453125,5.7852734375,7.47946484375,5.18906640625,8.5096328125,4.16546484375,3.61106640625,2.808171875,4.528671875,25.08378125,4.99746484375,-1.0506953125,2.50096875,8.8208203125,9.47801171875,-3.5776640625,0.2121484375,1.20770703125,-6.257765625,-16.61197265625
-52.1473125,-6.84921875,-32.559671875,-22.5421328125,22.1325703125,4.87594921875,-1.1790625,11.91269921875,1.56665625,5.68401953125,8.75514453125,5.4002734375,4.19046484375,4.00706640625,7.6096328125,4.01546484375,5.13506640625,2.942171875,3.201671875,24.60878125,5.29546484375,0.4973046875,2.19096875,8.2648203125,10.02701171875,-2.0226640625,0.8001484375,1.77870703125,-6.352765625,-15.79497265625
-54.9093125,-9.40521875,-34.866671875,-25.2011328125,19.9555703125,2.70794921875,-3.6050625,10.26169921875,-0.54434375,3.19701953125,6.68314453125,3.6972734375,-1.39253515625,0.98906640625,4.7706328125,2.34746484375,4.38206640625,1.086171875,0.0816718749999996,22.13478125,4.27546484375,0.7773046875,0.29496875,5.9838203125,8.77701171875,-1.3326640625,-0.3098515625,0.89870703125,-7.712765625,-16.00097265625
-58.0753125,-12.15121875,-37.566671875,-28.9701328125,16.7445703125,-0.67205078125,-6.9610625,7.64869921875,-3.88034375,-0.54498046875,3.45514453125,1.0712734375,-7.92653515625,-3.22493359375,0.730632812500001,-0.52753515625,1.69706640625,-2.467828125,-4.104328125,18.26078125,2.16046484375,-0.8246953125,-2.83103125,2.4868203125,5.93601171875,-1.6746640625,-2.8598515625,-1.30029296875,-10.110765625,-17.32497265625
-60.7713125,-14.28121875,-39.846671875,-32.7741328125,13.7605703125,-4.07105078125,-10.0450625,5.18369921875,-7.36634375,-4.32598046875,0.20014453125,-1.5977265625,-13.30253515625,-7.23593359375,-3.1063671875,-3.72653515625,-1.88393359375,-6.480828125,-7.968328125,14.26378125,-0.33853515625,-3.8756953125,-6.10103125,-1.0911796875,2.33101171875,-2.6646640625,-5.9548515625,-3.92529296875,-12.789765625,-19.32697265625
-62.3503125,-15.26821875,-41.100671875,-35.4111328125,12.3365703125,-6.20605078125,-11.6710625,3.92969921875,-9.70034375,-6.74098046875,-1.81985546875,-3.3297265625,-15.57853515625,-9.48593359375,-5.2603671875,-6.15953515625,-5.13693359375,-9.350828125,-10.056328125,11.56078125,-2.33653515625,-7.0916953125,-8.20803125,-3.4851796875,-0.933988281249999,-3.6336640625,-8.4918515625,-5.78729296875,-14.823765625,-21.28797265625
-62.7813125,-15.17421875,-41.261671875,-36.1661328125,13.2195703125,-6.26005078125,-11.2540625,4.34869921875,-9.97634375,-6.81498046875,-1.76285546875,-3.4907265625,-14.06353515625,-8.97793359375,-4.8163671875,-6.97253515625,-7.09593359375,-9.893828125,-9.495328125,11.08078125,-3.16653515625,-9.0316953125,-8.26003125,-3.8361796875,-2.91898828125,-4.0136640625,-9.6698515625,-6.05129296875,-15.584765625,-22.59597265625
-62.7133125,-14.62321875,-40.810671875,-35.1781328125,16.1755703125,-4.16305078125,-9.1660625,5.99269921875,-8.07234375,-4.35098046875,0.51014453125,-2.0297265625,-9.85953515625,-5.67093359375,-1.7333671875,-5.83553515625,-7.20993359375,-7.863828125,-6.306328125,12.92878125,-2.61553515625,-8.8156953125,-6.15603125,-1.9791796875,-3.14898828125,-3.5886640625,-9.2898515625,-4.66929296875,-15.015765625,-23.01997265625
-63.1523125,-14.46021875,-40.471671875,-33.3171328125,20.1255703125,-0.46505078125,-6.5620625,7.69569921875,-4.57734375,0.14601953125,4.53614453125,0.598273437500001,-5.42553515625,-0.36193359375,3.3076328125,-2.92953515625,-5.27893359375,-3.911828125,-1.249328125,16.48478125,-0.90053515625,-6.4456953125,-2.50503125,1.6378203125,-1.64798828125,-2.4686640625,-7.6988515625,-2.32829296875,-13.578765625,-22.72597265625
-64.9143125,-15.32621875,-40.830671875,-31.6371328125,23.7875703125,4.05694921875,-4.7230625,8.23369921875,-0.36834375,5.83901953125,9.58614453125,3.7332734375,-3.29953515625,5.83806640625,9.3556328125,1.24746484375,-1.37793359375,0.918171875,4.671671875,20.84378125,1.54546484375,-2.5706953125,1.79996875,6.2958203125,1.21001171875,-0.9226640625,-5.4858515625,0.00970703124999994,-11.924765625,-22.08697265625
-68.2013125,-17.36921875,-42.070671875,-30.7561328125,26.4095703125,8.77894921875,-4.3030625,7.05469921875,3.86765625,11.98401953125,15.02614453125,6.8562734375,-4.64453515625,12.08306640625,15.6556328125,6.13746484375,4.10606640625,5.792171875,10.694671875,25.29378125,4.30546484375,2.0203046875,6.07396875,11.3598203125,4.91001171875,0.7963359375,-3.1558515625,1.69570703125,-10.522765625,-21.43797265625
-72.5093125,-20.19621875,-43.926671875,-30.5881328125,28.1275703125,13.41694921875,-4.9920625,4.60769921875,7.88865625,18.16201953125,20.49314453125,9.7932734375,-8.54853515625,18.07706640625,21.8606328125,11.27946484375,10.42606640625,10.406171875,16.532671875,29.55778125,7.11246484375,6.7813046875,10.09196875,16.4618203125,8.95001171875,2.5233359375,-0.9358515625,2.73570703125,-9.444765625,-20.91197265625
-72.5093125,-20.19621875,-43.926671875,-30.5881328125,28.1275703125,13.41694921875,-4.9920625,4.60769921875,7.88865625,18.16201953125,20.49314453125,9.7932734375,-8.54853515625,18.07706640625,21.8606328125,11.27946484375,10.42606640625,10.406171875,16.532671875,29.55778125,7.11246484375,6.7813046875,10.09196875,16.4618203125,8.95001171875,2.5233359375,-0.9358515625,2.73570703125,-9.444765625,-20.91197265625
