"Fp1","Fpz","Fp2","F7","F3","Fz","F4","F8","FC5","FC1","FC2","FC6","T7","C3","Cz","C4","T8","CP5","CP1","CP2","CP6","P7","P3","Pz","P4","P8","POz","O1","Oz","O2"
-4.6869765625,3.1780703125,-1.52623046875,1.78791015625,7.6656328125,7.0236953125,13.35698046875,-4.64937109375,10.06638671875,10.40433203125,10.85616015625,0.508265625,4.84817578125,7.35634375,8.8257578125,3.18954296875,-1.61648046875,9.746765625,5.37352734375,4.3406328125,-3.92902734375,9.40921875,5.09433203125,4.53980859375,-1.14681640625,-4.199234375,2.643078125,-1.63681640625,0.276433593750001,-4.33452734375
-5.7039765625,4.9230703125,-2.81223046875,-0.22508984375,4.3406328125,9.0576953125,14.25298046875,-0.57237109375,6.17438671875,8.74733203125,8.50216015625,0.240265624999999,-2.28382421875,5.08134375,6.9477578125,0.371542968750001,3.91551953125,2.191765625,3.56252734375,1.3816328125,-6.65502734375,-5.39578125,2.09833203125,2.74780859375,-2.75281640625,-7.227234375,1.444078125,-0.90481640625,2.93243359375,-3.12752734375
-5.0599765625,6.7720703125,-2.13123046875,-0.30208984375,2.5276328125,10.6236953125,15.62498046875,2.27562890625,3.73438671875,8.14133203125,8.04116015625,1.665265625,-5.07282421875,4.55534375,6.6127578125,0.0435429687499997,8.66551953125,-0.956234374999999,3.64152734375,0.748632812499999,-6.02302734375,-11.53778125,1.57333203125,3.10380859375,-2.02681640625,-5.075234375,2.299078125,0.86318359375,5.61843359375,-1.22452734375
-2.4299765625,8.9860703125,0.66776953125,1.67091015625,2.5476328125,12.0186953125,17.79098046875,4.18662890625,3.28438671875,8.90533203125,9.75516015625,4.901265625,-3.15282421875,5.94934375,8.0657578125,2.59154296875,13.11751953125,0.488765625000001,5.76052734375,2.7616328125,-1.89402734375,-8.86678125,3.65533203125,5.66280859375,1.12418359375,1.724765625,5.174078125,3.66318359375,8.38843359375,1.42647265625
1.7700234375,11.6300703125,4.95376953125,4.96091015625,4.2526328125,13.5816953125,20.78698046875,5.67962890625,4.87138671875,10.99933203125,13.26416015625,9.395265625,2.33417578125,8.81634375,11.0177578125,7.54954296875,17.74451953125,5.230765625,9.39452734375,6.9596328125,4.62697265625,-0.20078125,7.62533203125,9.72980859375,5.92918359375,10.654765625,9.270078125,7.05518359375,11.19443359375,4.56347265625
6.4050234375,14.3870703125,9.50876953125,8.22991015625,7.0586328125,15.3916953125,24.20498046875,7.04562890625,7.91638671875,13.97633203125,17.64016015625,14.112265625,9.29417578125,12.29334375,14.7447578125,13.73554296875,22.46451953125,11.166765625,13.58752734375,12.2666328125,11.63797265625,10.17121875,12.26033203125,14.18880859375,11.08118359375,18.471765625,13.403078125,10.29618359375,13.80343359375,7.66447265625
10.0610234375,16.6610703125,12.97976953125,10.14791015625,10.1266328125,17.2286953125,27.31298046875,8.20262890625,11.41038671875,17.10333203125,21.70516015625,17.890265625,15.54917578125,15.45234375,18.3327578125,19.60154296875,26.57151953125,16.292765625,17.31152734375,17.3246328125,17.14797265625,18.36721875,16.31633203125,17.93880859375,15.23518359375,22.636765625,16.466078125,12.57118359375,15.80843359375,10.11047265625
11.6730234375,17.9010703125,14.40476953125,10.04691015625,12.6666328125,18.7516953125,29.37098046875,8.84462890625,14.37138671875,19.63733203125,24.42016015625,19.834265625,19.60417578125,17.65734375,20.9837578125,23.70254296875,29.19151953125,19.403765625,19.83452734375,20.9166328125,19.76997265625,22.27321875,18.94633203125,20.24780859375,17.49918359375,22.266765625,17.825078125,13.28118359375,16.78343359375,11.41247265625
10.9820234375,17.8880703125,13.59176953125,8.23291015625,14.2116328125,19.7036953125,29.93598046875,8.71862890625,16.25738671875,21.10133203125,25.22816015625,19.585265625,20.96117578125,18.72534375,22.2487578125,25.15154296875,29.88051953125,20.319765625,20.90252734375,22.3256328125,19.15497265625,21.84221875,19.88333203125,20.90680859375,17.70418359375,18.246765625,17.486078125,12.28918359375,16.52143359375,11.41547265625
8.5740234375,16.8090703125,11.14176953125,5.76191015625,14.7286328125,20.0386953125,29.04698046875,7.81862890625,17.08138671875,21.41733203125,24.21416015625,17.386265625,19.96017578125,18.85134375,22.1127578125,23.87454296875,28.91351953125,19.600765625,20.70452734375,21.5256328125,16.02197265625,18.42521875,19.36333203125,20.16680859375,16.35718359375,12.580765625,15.990078125,10.01818359375,15.19743359375,10.36647265625
5.5490234375,15.1600703125,8.13576953125,3.86191015625,14.5266328125,19.9646953125,27.24298046875,6.45662890625,17.21538671875,20.88033203125,22.03716015625,13.957265625,17.40217578125,18.40434375,20.9407578125,20.60554296875,27.11351953125,18.060765625,19.68952734375,19.1386328125,11.81297265625,13.79321875,17.92133203125,18.55680859375,14.35218359375,7.432765625,14.128078125,7.31818359375,13.35343359375,8.82547265625
3.0240234375,13.5360703125,5.65376953125,3.34491015625,14.0766328125,19.8646953125,25.36898046875,5.15062890625,17.08338671875,20.00833203125,19.68816015625,10.273265625,14.26217578125,17.76334375,19.3397578125,16.62454296875,25.41451953125,16.400765625,18.39252734375,16.1996328125,8.12897265625,9.49621875,16.19233203125,16.69980859375,12.61118359375,4.350765625,12.627078125,5.15518359375,11.69443359375,7.45147265625
1.7080234375,12.4160703125,4.36376953125,4.30091015625,13.8066328125,20.0726953125,24.17898046875,4.35362890625,16.92438671875,19.32533203125,18.11516015625,7.268265625,11.48517578125,17.22434375,17.9477578125,13.31054296875,24.39151953125,15.074765625,17.29052734375,13.7906328125,6.13197265625,6.66021875,14.74933203125,15.14880859375,11.77518359375,3.940765625,11.916078125,4.22818359375,10.78843359375,6.75247265625
1.6850234375,11.9860703125,4.31276953125,6.13991015625,13.9016328125,20.6306953125,23.95198046875,4.16762890625,16.65938671875,19.10633203125,17.85116015625,5.536265625,9.72917578125,16.89234375,17.1937578125,11.63554296875,23.98851953125,14.226765625,16.65052734375,12.6196328125,6.10897265625,5.80821875,13.91733203125,14.21680859375,11.99918359375,5.885765625,11.996078125,4.66018359375,10.79243359375,6.86147265625
2.4880234375,12.0970703125,4.99676953125,7.93891015625,14.1726328125,21.2166953125,24.38298046875,4.26462890625,15.94338671875,19.21233203125,18.77816015625,5.159265625,9.08917578125,16.61734375,17.1047578125,11.81454296875,23.59651953125,13.640765625,16.41152734375,12.7436328125,7.40497265625,6.58321875,13.61033203125,13.85280859375,12.89818359375,9.163765625,12.448078125,5.94518359375,11.37343359375,7.48447265625
3.4230234375,12.4100703125,5.67876953125,8.87991015625,14.1606328125,21.3456953125,24.83098046875,4.09962890625,14.40138671875,19.17833203125,20.24216015625,5.760265625,9.06617578125,16.06234375,17.3387578125,13.32254296875,22.51551953125,12.834765625,16.22552734375,13.6216328125,8.86097265625,7.74521875,13.38933203125,13.69980859375,13.74918359375,12.420765625,12.648078125,7.22618359375,11.91743359375,8.07247265625
3.9570234375,12.6290703125,5.79176953125,8.59491015625,13.4696328125,20.7026953125,24.74698046875,3.27562890625,11.97138671875,18.56733203125,21.44816015625,6.770265625,8.98117578125,14.97534375,17.4537578125,15.26154296875,20.55451953125,11.406765625,15.73252734375,14.4896328125,9.55297265625,7.82221875,12.78133203125,13.35580859375,13.90618359375,14.488765625,12.142078125,7.78718359375,11.92543359375,8.18647265625
3.9670234375,12.6710703125,5.21376953125,7.24091015625,12.1286328125,19.3936953125,24.01198046875,1.82762890625,9.14738671875,17.35133203125,21.91516015625,7.750265625,8.57617578125,13.49634375,17.2397578125,16.85954296875,18.28851953125,9.472765625,14.89152734375,14.8376328125,9.36697265625,6.16721875,11.70633203125,12.70380859375,13.19718359375,14.870765625,10.981078125,7.45318359375,11.33643359375,7.77847265625
3.6920234375,12.6780703125,4.24476953125,5.31291015625,10.6836328125,17.9696953125,23.00298046875,0.24162890625,6.91238671875,16.04233203125,21.68016015625,8.564265625,8.29817578125,12.24434375,16.8637578125,17.78754296875,16.78151953125,7.813765625,14.10252734375,14.6746328125,9.00897265625,3.57421875,10.65133203125,12.04180859375,12.04818359375,13.927765625,9.763078125,6.65118359375,10.54243359375,7.20647265625
3.4520234375,12.8620703125,3.30976953125,3.32591015625,9.9356328125,17.1736953125,22.34898046875,-0.84037109375,6.33838671875,15.42733203125,21.14316015625,9.333265625,8.98017578125,12.04234375,16.7297578125,18.14854296875,16.95051953125,7.517765625,13.98352734375,14.4296328125,9.45597265625,1.88021875,10.42333203125,11.92180859375,11.21718359375,12.613765625,9.312078125,6.07318359375,10.08143359375,6.95347265625
3.3170234375,13.2720703125,2.62376953125,1.53191015625,10.4716328125,17.5066953125,22.48198046875,-1.05737109375,8.02138671875,16.07833203125,20.70916015625,10.207265625,11.08417578125,13.41434375,17.1487578125,18.23354296875,19.02451953125,9.244765625,14.93752734375,14.5966328125,11.22397265625,2.73521875,11.60633203125,12.76980859375,11.32518359375,11.845765625,10.181078125,6.21718359375,10.25543359375,7.28547265625
2.9960234375,13.6740703125,2.06776953125,-0.14208984375,12.3056328125,18.8846953125,23.29998046875,-0.58037109375,11.68238671875,17.96133203125,20.50316015625,11.141265625,14.09817578125,16.16234375,18.0817578125,18.23754296875,22.38051953125,12.632765625,16.80452734375,15.3696328125,13.95397265625,6.33721875,14.06933203125,14.55680859375,12.46618359375,11.938765625,12.279078125,7.10318359375,10.94043359375,8.07447265625
2.0730234375,13.6860703125,1.37976953125,-1.85908984375,14.8416328125,20.6786953125,24.23998046875,0.0846289062500003,16.16338671875,20.40833203125,20.36216015625,11.894265625,16.60017578125,19.35234375,19.1357578125,18.16854296875,25.80951953125,16.278765625,18.86152734375,16.5326328125,16.59197265625,11.02321875,16.91033203125,16.75080859375,14.17718359375,12.482765625,14.890078125,8.35118359375,11.72943359375,8.92547265625
0.4180234375,13.0990703125,0.48576953125,-3.51308984375,17.1546328125,22.1216953125,24.71098046875,0.54962890625,19.88338671875,22.46433203125,20.07716015625,12.259265625,17.06617578125,21.76034375,19.8387578125,17.98154296875,28.03751953125,18.441765625,20.20252734375,17.6636328125,18.03397265625,14.13221875,18.90733203125,18.60580859375,15.75318359375,12.747765625,17.050078125,9.48718359375,12.25243359375,9.47147265625
-1.5609765625,12.1370703125,-0.29323046875,-4.54708984375,18.4316328125,22.7596953125,24.52798046875,0.83562890625,21.50938671875,23.38533203125,19.65516015625,12.343265625,14.90117578125,22.51834375,19.9707578125,17.77754296875,28.21451953125,18.070765625,20.26752734375,18.4636328125,17.79297265625,13.69521875,19.22833203125,19.58680859375,16.69318359375,12.308765625,18.062078125,10.25618359375,12.43743359375,9.62247265625
-3.0489765625,11.4020703125,-0.35323046875,-4.15908984375,18.3346328125,22.6206953125,24.00798046875,1.24962890625,20.53038671875,22.98133203125,19.39116015625,12.626265625,10.98017578125,21.56334375,19.7287578125,17.87454296875,26.23151953125,15.490765625,19.17752734375,18.9716328125,16.27697265625,9.83521875,17.91333203125,19.63980859375,16.94618359375,11.434765625,17.815078125,10.71218359375,12.51543359375,9.58547265625
-3.2849765625,11.5360703125,0.81976953125,-1.81608984375,17.0906328125,22.0606953125,23.73398046875,2.03762890625,17.45838671875,21.63333203125,19.68016015625,13.703265625,7.24117578125,19.61634375,19.5837578125,18.62954296875,22.74651953125,12.227765625,17.63252734375,19.4906328125,14.52897265625,4.81121875,15.82533203125,19.13680859375,16.83818359375,10.943765625,16.735078125,11.06318359375,12.78543359375,9.66847265625
-2.0399765625,12.8070703125,3.23176953125,2.23891015625,15.3006328125,21.4866953125,24.17298046875,3.15362890625,13.54238671875,20.01233203125,20.69316015625,15.855265625,5.56117578125,17.72034375,19.9407578125,20.12354296875,18.96851953125,10.080765625,16.44752734375,20.2906328125,13.61097265625,1.62221875,14.08333203125,18.54680859375,16.74318359375,11.613765625,15.430078125,11.40218359375,13.33443359375,10.01147265625
0.1870234375,14.8900703125,6.21976953125,6.82991015625,13.5946328125,21.1066953125,25.35898046875,4.28762890625,10.15438671875,18.71133203125,22.16216015625,18.721265625,6.65517578125,16.65534375,20.8227578125,21.95054296875,16.22751953125,10.059765625,16.05152734375,21.3106328125,14.02297265625,2.17721875,13.39533203125,18.10580859375,16.77418359375,13.575765625,14.306078125,11.56018359375,13.92543359375,10.46347265625
2.3980234375,16.9820703125,8.69476953125,10.23991015625,12.3476328125,20.8216953125,26.78698046875,5.06962890625,8.16138671875,17.98633203125,23.44016015625,21.319265625,9.69717578125,16.58234375,21.7997578125,23.30554296875,15.48151953125,11.891765625,16.27352734375,22.1036328125,15.48897265625,6.24621875,13.70133203125,17.69880859375,16.71318359375,16.176765625,13.397078125,11.18618359375,14.11343359375,10.68947265625
3.6390234375,18.2240703125,9.69876953125,11.01791015625,11.5856328125,20.3296953125,27.65398046875,5.32662890625,7.64038671875,17.72733203125,23.84116015625,22.513265625,12.84617578125,17.08334375,22.2317578125,23.39354296875,16.98551953125,14.317765625,16.53352734375,22.1066328125,17.23997265625,11.71921875,14.32533203125,17.01280859375,16.22918359375,18.405765625,12.477078125,9.98818359375,13.52143359375,10.40947265625
3.5730234375,18.2260703125,8.94976953125,8.78691015625,11.1246328125,19.4256953125,27.38098046875,5.24662890625,8.08738671875,17.66733203125,23.09016015625,21.708265625,14.34617578125,17.55234375,21.6917578125,21.95954296875,20.28251953125,15.929765625,16.29652734375,21.0716328125,18.57397265625,15.89221875,14.50233203125,15.85280859375,15.21118359375,19.561765625,11.348078125,7.99318359375,12.09243359375,9.61247265625
2.6830234375,17.3170703125,7.01776953125,4.53991015625,10.8086328125,18.2666953125,26.05998046875,5.30062890625,8.90238671875,17.64133203125,21.56316015625,19.285265625,13.50317578125,17.64134375,20.3067578125,19.54854296875,24.44751953125,16.026765625,15.47852734375,19.3436328125,19.27197265625,16.99721875,13.93133203125,14.37680859375,13.97118359375,19.680765625,10.081078125,5.64618359375,10.16743359375,8.59247265625
1.9110234375,16.3050703125,4.99076953125,0.16891015625,10.6386328125,17.2956953125,24.40398046875,5.87662890625,9.75738671875,17.66333203125,20.08816015625,16.367265625,10.96917578125,17.44434375,18.7157578125,17.23254296875,28.37251953125,14.943765625,14.50452734375,17.7186328125,19.52397265625,15.10421875,12.96733203125,13.07280859375,13.09518359375,19.402765625,9.037078125,3.66318359375,8.33343359375,7.78547265625
1.9560234375,15.8770703125,3.82476953125,-2.53108984375,10.6796328125,16.8616953125,23.18998046875,6.85662890625,10.58338671875,17.78833203125,19.39216015625,14.058265625,8.17417578125,17.29734375,17.6547578125,15.93954296875,30.94651953125,13.676765625,13.98152734375,16.9426328125,19.48597265625,11.90321875,12.32533203125,12.46580859375,13.02818359375,19.378765625,8.636078125,2.69818359375,7.13143359375,7.50547265625
2.7520234375,16.0880703125,3.80776953125,-2.79508984375,10.8626328125,16.8896953125,22.68598046875,7.54262890625,11.30938671875,17.89533203125,19.59216015625,12.760265625,6.35517578125,17.38634375,17.4707578125,15.86254296875,31.24551953125,13.096765625,14.22852734375,17.2196328125,18.91697265625,9.53221875,12.53033203125,12.77080859375,13.71718359375,19.649765625,9.056078125,3.02318359375,6.79243359375,7.75947265625
3.5210234375,16.3370703125,4.47476953125,-1.21408984375,10.8986328125,16.8996953125,22.51798046875,7.05762890625,11.64538671875,17.66133203125,20.12016015625,12.057265625,5.81017578125,17.50934375,17.9047578125,16.40254296875,28.81751953125,13.290765625,15.01652734375,18.1006328125,17.27397265625,9.14521875,13.50533203125,13.73780859375,14.59118359375,19.473765625,10.086078125,4.41118359375,7.17543359375,8.28147265625
3.3450234375,15.8110703125,4.99276953125,0.68691015625,10.4076328125,16.3186953125,21.97698046875,4.95362890625,11.11738671875,16.74433203125,20.10116015625,11.163265625,5.79817578125,17.14434375,18.2907578125,16.61354296875,23.98851953125,13.442765625,15.68552734375,18.7936328125,14.17997265625,10.06621875,14.55333203125,14.78680859375,14.91018359375,17.753765625,11.236078125,6.30718359375,7.93843359375,8.74447265625
1.8140234375,14.0340703125,4.73776953125,1.31691015625,9.1496328125,14.8286953125,20.48798046875,1.57862890625,9.32438671875,15.04333203125,18.89516015625,9.506265625,5.08117578125,15.76234375,17.9777578125,15.79754296875,17.90951953125,12.336765625,15.51652734375,18.6346328125,9.85797265625,10.13821875,14.73833203125,15.31080859375,14.21818359375,13.852765625,12.001078125,8.10618359375,8.75343359375,8.97947265625
-0.6829765625,11.1880703125,3.64176953125,-0.15408984375,7.1906328125,12.5626953125,17.95398046875,-2.04537109375,6.24238671875,12.82233203125,16.45016015625,7.075265625,2.76817578125,13.20934375,16.6967578125,13.85654296875,12.18351953125,9.211765625,14.15452734375,17.4316328125,5.22797265625,7.25221875,13.44133203125,14.97280859375,12.61218359375,8.257765625,12.117078125,9.37118359375,9.41343359375,9.01347265625
-3.2159765625,8.0130703125,2.12876953125,-3.47408984375,4.9116328125,10.0766953125,14.83598046875,-4.75337109375,2.38738671875,10.64533203125,13.30116015625,4.385265625,-1.00982421875,9.92534375,14.6877578125,11.25454296875,8.19051953125,4.437765625,11.81752734375,15.5066328125,1.57997265625,1.10621875,10.78533203125,13.85980859375,10.68118359375,2.583765625,11.662078125,9.89118359375,9.79543359375,8.93447265625
-4.8869765625,5.4090703125,0.73376953125,-7.57808984375,2.8986328125,8.1036953125,11.92798046875,-5.85537109375,-1.23661328125,9.15333203125,10.28016015625,2.132265625,-5.04582421875,6.85434375,12.5437578125,8.70754296875,6.45851953125,-0.443234374999999,9.22452734375,13.4786328125,-0.0440273437500007,-6.14178125,7.64933203125,12.41580859375,9.15918359375,-1.212234375,10.994078125,9.67318359375,9.82443359375,8.76247265625
-5.3039765625,3.9990703125,-0.24823046875,-11.17008984375,1.7626328125,7.1946953125,9.95598046875,-5.42737109375,-3.44961328125,8.79733203125,8.09816015625,0.786265625,-7.65482421875,5.07234375,10.8977578125,6.80554296875,6.49151953125,-3.437234375,7.26052734375,11.9246328125,0.60897265625,-10.90178125,5.25633203125,11.21380859375,8.51618359375,-1.924234375,10.577078125,8.93618359375,9.51543359375,8.45947265625
-4.6729765625,3.9090703125,-0.84023046875,-13.23108984375,1.9296328125,7.4656953125,9.24898046875,-4.10337109375,-3.34061328125,9.64233203125,7.05016015625,0.354265625,-7.57082421875,5.28734375,10.1187578125,5.77754296875,7.17451953125,-3.135234375,6.58452734375,11.1356328125,2.85897265625,-10.22478125,4.56133203125,10.68580859375,8.75918359375,0.249765625,10.786078125,8.06818359375,9.03743359375,8.03247265625
-3.5459765625,4.8270703125,-1.23623046875,-13.29708984375,3.4176328125,8.5896953125,9.68098046875,-2.59837109375,-0.694613281250001,11.30733203125,6.93716015625,0.445265624999999,-4.61282421875,7.47934375,10.1797578125,5.49454296875,7.51151953125,0.518765625000002,7.35052734375,11.0546328125,5.46297265625,-3.52278125,5.80233203125,10.95180859375,9.50918359375,3.892765625,11.748078125,7.48618359375,8.66343359375,7.59247265625
-2.5259765625,6.1910703125,-1.61123046875,-11.54408984375,5.7276328125,9.9606953125,10.79698046875,-1.36537109375,3.79138671875,13.07033203125,7.23416015625,0.543265625,0.215175781249998,10.83534375,10.7087578125,5.62454296875,7.15251953125,6.148765625,9.14552734375,11.3706328125,7.24697265625,7.02121875,8.38433203125,11.78380859375,10.26518359375,7.208765625,13.260078125,7.42818359375,8.61143359375,7.29647265625
-2.0759765625,7.3810703125,-2.04123046875,-8.73008984375,7.9536328125,10.8856953125,12.00198046875,-0.61137109375,8.65138671875,14.09333203125,7.35816015625,0.284265625,5.17017578125,14.02334375,11.1747578125,5.80854296875,6.37551953125,11.545765625,11.14652734375,11.6596328125,7.59797265625,17.48421875,11.13033203125,12.68680859375,10.64618359375,8.932765625,14.816078125,7.79918359375,8.86843359375,7.22447265625
-2.4229765625,7.8840703125,-2.52223046875,-5.94508984375,9.1066328125,10.7976953125,12.72998046875,-0.47237109375,12.14638671875,13.72733203125,6.91416015625,-0.397734375000001,8.49517578125,15.70834375,11.1077578125,5.77454296875,5.65251953125,14.616765625,12.42152734375,11.5186328125,6.60397265625,23.98321875,12.74533203125,13.06880859375,10.48618359375,8.833765625,15.751078125,8.17518359375,9.13843359375,7.28847265625
-3.5019765625,7.4560703125,-3.03123046875,-4.17908984375,8.5436328125,9.4916953125,12.64898046875,-1.07337109375,12.94038671875,11.79033203125,5.83216015625,-1.288734375,9.06717578125,15.10134375,10.2877578125,5.38454296875,5.25551953125,14.230765625,12.29052734375,10.6846328125,4.86097265625,24.29721875,12.33933203125,12.45180859375,9.79618359375,7.595765625,15.464078125,7.98218359375,8.95843359375,7.23147265625
-4.9779765625,6.2240703125,-3.55723046875,-3.92708984375,6.3036328125,7.2956953125,11.81898046875,-2.41837109375,10.67038671875,8.70933203125,4.37616015625,-2.013734375,6.74217578125,12.29934375,8.8387578125,4.66654296875,5.23951953125,10.590765625,10.59852734375,9.1366328125,3.15997265625,18.56921875,9.77933203125,10.66680859375,8.69018359375,6.281765625,13.664078125,6.79018359375,7.94043359375,6.74747265625
-6.3799765625,4.6340703125,-4.08823046875,-5.03608984375,3.1686328125,4.9796953125,10.66798046875,-4.26337109375,6.15238671875,5.43433203125,3.02916015625,-2.204734375,2.36417578125,8.25234375,7.1807578125,3.83254296875,5.66051953125,5.058765625,7.79652734375,7.1416328125,2.18797265625,8.98221875,5.74733203125,7.97180859375,7.33618359375,5.739765625,10.549078125,4.58518359375,6.03643359375,5.67747265625
-7.2859765625,3.2580703125,-4.56523046875,-6.84008984375,0.382632812500001,3.4096953125,9.75998046875,-6.10337109375,1.09338671875,3.09233203125,2.28216015625,-1.671734375,-2.51982421875,4.37534375,5.8547578125,3.19654296875,6.66951953125,-0.427234374999999,4.76952734375,5.1866328125,2.29597265625,-1.21678125,1.47833203125,4.99680859375,5.93918359375,6.247765625,6.790078125,1.87318359375,3.65743359375,4.15647265625
-7.4389765625,2.5610703125,-4.86723046875,-8.47808984375,-0.902367187499999,3.1246953125,9.47098046875,-7.30237109375,-2.60261328125,2.50933203125,2.37516015625,-0.519734375000001,-6.15682421875,1.96134375,5.2637578125,3.01254296875,8.33551953125,-4.053234375,2.48652734375,3.7806328125,3.38297265625,-8.78678125,-1.69666796875,2.52680859375,4.70218359375,7.489765625,3.339078125,-0.45781640625,1.56043359375,2.61347265625
-6.7799765625,2.7340703125,-4.86123046875,-9.24708984375,-0.169367187499999,4.1126953125,9.78998046875,-7.31037109375,-3.63361328125,3.82633203125,3.17116015625,0.888265625000001,-7.18282421875,1.68934375,5.4807578125,3.32354296875,10.42651953125,-4.693234375,1.62252734375,3.2586328125,4.98297265625,-11.32078125,-2.79766796875,1.23080859375,3.82518359375,8.873765625,1.110078125,-1.48381640625,0.549433593750001,1.62447265625
-5.4339765625,3.6560703125,-4.46623046875,-8.84408984375,2.2586328125,5.8376953125,10.34298046875,-5.91237109375,-1.81861328125,6.42633203125,4.25516015625,2.143265625,-5.07482421875,3.43734375,6.2557578125,3.98754296875,12.43351953125,-2.185234375,2.36852734375,3.6966328125,6.57497265625,-7.79378125,-1.46166796875,1.45680859375,3.51818359375,9.998765625,0.712078125,-0.61281640625,1.15543359375,1.70447265625
-3.6759765625,4.9610703125,-3.70223046875,-7.42908984375,5.4426328125,7.4966953125,10.61598046875,-3.42337109375,1.92938671875,9.23933203125,5.18316015625,3.034265625,-0.293824218750002,6.43234375,7.1787578125,4.80854296875,13.79451953125,2.713765625,4.42852734375,4.9396328125,7.89197265625,1.15621875,1.97933203125,3.13380859375,3.98518359375,10.948765625,2.254078125,2.16018359375,3.42043359375,3.11847265625
-1.8799765625,6.1870703125,-2.70823046875,-5.51008984375,8.2606328125,8.3516953125,10.22498046875,-0.67037109375,6.08038671875,11.20633203125,5.67516015625,3.608265625,5.88417578125,9.58534375,7.8547578125,5.61054296875,14.10151953125,8.574765625,7.12752734375,6.6176328125,8.92697265625,13.23121875,6.55733203125,5.72980859375,5.25018359375,12.121765625,5.238078125,6.16318359375,6.81443359375,5.71447265625
-0.4639765625,6.9190703125,-1.75123046875,-3.72708984375,9.8096328125,8.0086953125,9.08198046875,1.28762890625,9.11238671875,11.66133203125,5.60016015625,3.994265625,11.72717578125,11.83734375,7.9787578125,6.17354296875,13.14451953125,13.658765625,9.54352734375,8.1476328125,9.66997265625,24.88721875,10.85433203125,8.29880859375,6.95118359375,13.733765625,8.592078125,10.17018359375,10.30843359375,8.84347265625
0.2120234375,6.9080703125,-1.19223046875,-2.62908984375,9.6426328125,6.5116953125,7.35398046875,1.58062890625,10.03838671875,10.49533203125,4.87116015625,4.186265625,15.53017578125,12.43834375,7.3427578125,6.16554296875,10.90251953125,16.367765625,10.72352734375,8.8176328125,9.86297265625,32.25021875,13.36633203125,9.71480859375,8.32418359375,15.420765625,10.951078125,12.75718359375,12.65443359375,11.46847265625
-0.0559765625000002,6.1280703125,-1.34623046875,-2.50108984375,7.8706328125,4.2476953125,5.30198046875,-0.11037109375,8.70238671875,8.12033203125,3.42416015625,4.014265625,16.09917578125,11.15434375,5.8847578125,5.24754296875,7.61151953125,15.734765625,9.99852734375,8.0456328125,9.06997265625,32.44921875,13.04133203125,9.09880859375,8.53118359375,16.310765625,11.190078125,12.84218359375,12.82743359375,12.53447265625
-1.1979765625,4.8070703125,-2.29623046875,-3.26108984375,5.1376328125,1.8086953125,3.18598046875,-3.37737109375,5.83338671875,5.31033203125,1.36416015625,3.343265625,13.17417578125,8.37834375,3.7837578125,3.34654296875,3.84151953125,11.846765625,7.33452734375,5.7166328125,7.02197265625,24.96121875,9.80533203125,6.29480859375,7.15918359375,15.521765625,8.984078125,10.19218359375,10.52043359375,11.46247265625
-2.8079765625,3.4270703125,-3.74523046875,-4.44408984375,2.4646328125,-0.0893046875000003,1.32698046875,-7.16237109375,2.84538671875,3.01133203125,-0.85483984375,2.346265625,7.64017578125,5.11034375,1.5477578125,0.90154296875,0.461519531250001,5.999765625,3.51552734375,2.4116328125,3.99397265625,12.26121875,4.80233203125,2.10480859375,4.59518359375,12.775765625,5.094078125,5.64118359375,6.41543359375,8.53247265625
-4.1949765625,2.6220703125,-5.06223046875,-5.34308984375,0.959632812500001,-0.697304687500001,0.184980468750002,-10.11537109375,1.37438671875,2.10633203125,-2.44283984375,1.585265625,1.35617578125,2.69734375,-0.0472421875000002,-1.14145703125,-1.56148046875,0.382765625000001,-0.0204726562499982,-0.685367187500001,0.898972656250001,-0.86178125,0.0673320312500003,-1.90519140625,1.99518359375,8.747765625,1.142078125,0.82718359375,2.03943359375,4.88147265625
-4.6059765625,2.9220703125,-5.54223046875,-5.29908984375,1.4276328125,0.505695312500002,0.230980468750001,-11.15237109375,2.59038671875,3.13833203125,-2.57483984375,1.757265625,-3.49382421875,2.31934375,-0.252242187500002,-1.71645703125,-1.46448046875,-2.750234375,-1.75947265625,-2.2573671875,-1.04302734375,-9.32078125,-2.34266796875,-4.04019140625,0.77318359375,4.862765625,-1.084921875,-2.52581640625,-0.860566406249999,2.03547265625
-3.5799765625,4.4370703125,-4.76523046875,-4.03008984375,3.9776328125,3.4686953125,1.63998046875,-9.94037109375,6.54238671875,6.02033203125,-0.877839843749999,3.249265625,-5.32182421875,4.38434375,1.2557578125,-0.208457031249999,0.996519531249998,-2.120234375,-0.831472656249998,-1.4863671875,-0.89102734375,-10.09878125,-1.35566796875,-3.27319140625,1.87618359375,2.608765625,-0.482921875000001,-3.41281640625,-1.12756640625,1.18547265625
-1.2249765625,6.7170703125,-2.81423046875,-1.77808984375,7.8836328125,7.4556953125,4.09098046875,-6.97437109375,11.93838671875,9.96833203125,2.27016015625,5.852265625,-3.82882421875,8.24934375,4.1407578125,3.14554296875,5.35551953125,1.955765625,2.54252734375,1.5326328125,1.51597265625,-3.56578125,2.59933203125,0.277808593749999,5.25718359375,2.776765625,2.881078125,-1.93781640625,1.29643359375,2.65247265625
1.7540234375,8.9380703125,-0.214230468749999,0.78891015625,11.8576328125,11.3366953125,6.88898046875,-3.24037109375,16.66238671875,13.78733203125,5.88016015625,8.873265625,-0.0268242187500007,12.50734375,7.5577578125,7.34354296875,10.47751953125,7.771765625,7.21352734375,5.8646328125,5.45597265625,6.94321875,7.90133203125,5.48180859375,9.91418359375,5.119765625,7.896078125,0.94318359375,5.46043359375,5.84147265625
4.3500234375,10.3100703125,2.33876953125,2.88291015625,14.6426328125,14.0876953125,9.27998046875,0.22362890625,18.82938671875,16.39833203125,8.86916015625,11.483265625,4.35817578125,15.70434375,10.6067578125,11.10054296875,14.87251953125,13.129765625,11.72152734375,10.2236328125,9.64797265625,16.93221875,12.64133203125,10.79980859375,14.40618359375,8.562765625,13.036078125,4.07918359375,9.98343359375,9.65547265625
5.7280234375,10.4600703125,4.28176953125,3.93691015625,15.6026328125,15.1986953125,10.76198046875,2.63462890625,17.76238671875,17.32333203125,10.58716015625,13.050265625,7.72517578125,17.04134375,12.7497578125,13.42354296875,17.18351953125,16.368765625,14.98452734375,13.5426328125,12.77297265625,22.78521875,15.52633203125,14.96780859375,17.50218359375,11.755765625,17.042078125,6.69418359375,13.69643359375,13.03347265625
5.6340234375,9.5840703125,5.38276953125,3.83891015625,14.9346328125,14.8336953125,11.24698046875,3.62762890625,14.28938671875,16.83033203125,11.06316015625,13.290265625,9.22717578125,16.65034375,13.9687578125,13.96754296875,16.67551953125,16.976765625,16.64952734375,15.3306328125,13.95097265625,23.11021875,16.31133203125,17.38080859375,18.61918359375,13.619765625,19.297078125,8.53718359375,15.99243359375,15.30547265625
4.4650234375,8.2990703125,5.74776953125,2.95791015625,13.4356328125,13.6966953125,11.04098046875,3.30662890625,10.19138671875,15.70633203125,10.85416015625,12.287265625,8.95717578125,15.36334375,14.6137578125,13.06054296875,13.53851953125,15.553765625,17.03152734375,15.7106328125,13.01497265625,18.88921875,15.63633203125,18.10980859375,17.89318359375,13.684765625,19.827078125,9.69418359375,16.82943359375,16.26547265625
3.0050234375,7.2840703125,5.69976953125,1.90691015625,12.0226328125,12.6606953125,10.60698046875,2.16762890625,7.19138671875,14.80533203125,10.66116015625,10.415265625,7.67717578125,14.16734375,15.0967578125,11.47154296875,8.84551953125,13.284765625,16.76652734375,15.2056328125,10.51397265625,12.60621875,14.49133203125,17.66880859375,15.96718359375,12.152765625,19.071078125,10.33018359375,16.54043359375,16.07247265625
2.0060234375,6.9240703125,5.58976953125,1.22291015625,11.2946328125,12.3086953125,10.25798046875,0.88162890625,6.14338671875,14.62133203125,10.91716015625,8.231265625,6.32617578125,13.68734375,15.6207578125,10.03754296875,4.16751953125,11.260765625,16.43352734375,14.4216328125,7.45597265625,6.90121875,13.66033203125,16.69780859375,13.66118359375,9.734765625,17.614078125,10.57318359375,15.61543359375,15.10347265625
1.8530234375,7.1650703125,5.65476953125,1.15691015625,11.3456328125,12.6716953125,10.00398046875,0.0556289062499999,6.82338671875,15.08933203125,11.59316015625,6.350265625,5.55817578125,13.93634375,16.0787578125,9.32254296875,1.01151953125,10.044765625,16.29752734375,13.7866328125,4.92597265625,3.49521875,13.40333203125,15.71480859375,11.66918359375,7.349765625,15.977078125,10.52018359375,14.51643359375,13.79847265625
2.4200234375,7.6070703125,5.91876953125,1.64291015625,11.7956328125,13.2946953125,9.65098046875,0.0646289062500003,8.28238671875,15.67233203125,12.25316015625,5.295265625,5.51817578125,14.40434375,16.1377578125,9.42254296875,0.321519531250001,9.586765625,16.23952734375,13.4126328125,3.71197265625,2.82721875,13.47433203125,14.95780859375,10.36518359375,5.838765625,14.483078125,10.23418359375,13.50943359375,12.49147265625
3.1180234375,7.7200703125,6.14576953125,2.35691015625,12.0186328125,13.5186953125,8.97798046875,0.95162890625,9.42738671875,15.62833203125,12.30916015625,5.284265625,5.86217578125,14.34834375,15.4157578125,9.95454296875,2.20451953125,9.446765625,15.84052734375,13.0926328125,4.02397265625,4.34021875,13.33133203125,14.35080859375,9.72018359375,5.691765625,13.175078125,9.70718359375,12.56543359375,11.28847265625
3.1460234375,7.0410703125,5.91976953125,2.83191015625,11.4386328125,12.8026953125,7.83898046875,2.38562890625,9.49338671875,14.37033203125,11.30016015625,6.038265625,5.97817578125,13.13934375,13.6787578125,10.21054296875,5.91051953125,9.080765625,14.59952734375,12.4176328125,5.39497265625,6.99621875,12.43633203125,13.57680859375,9.34218359375,6.857765625,11.866078125,8.86718359375,11.43643359375,10.07447265625
1.9200234375,5.3500703125,4.85676953125,2.65691015625,9.8246328125,10.9586953125,6.18998046875,3.76462890625,8.28138671875,11.75833203125,9.11516015625,6.809265625,5.33117578125,10.55134375,10.9857578125,9.45754296875,10.04751953125,8.086765625,12.20252734375,10.9856328125,6.81697265625,9.70121875,10.49733203125,12.26080859375,8.65718359375,8.711765625,10.284078125,7.65718359375,9.87343359375,8.67447265625
-0.5459765625,2.7750703125,2.87076953125,1.70591015625,7.4116328125,8.2736953125,4.13798046875,4.46062890625,6.14938671875,8.20733203125,6.05816015625,6.721265625,3.75917578125,6.89734375,7.7067578125,7.29554296875,13.00651953125,6.332765625,8.74352734375,8.6206328125,7.16497265625,11.51621875,7.60533203125,10.18780859375,7.18718359375,10.284765625,8.267078125,6.13718359375,7.84043359375,7.01647265625
-3.5609765625,-0.2119296875,0.29876953125,0.22691015625,4.8186328125,5.4206953125,1.98198046875,4.07462890625,3.82938671875,4.54533203125,2.75916015625,5.257265625,1.57917578125,2.97334375,4.4207578125,3.91854296875,13.55251953125,3.992765625,4.76652734375,5.5236328125,5.73097265625,11.79221875,4.21233203125,7.45280859375,4.81318359375,10.706765625,5.869078125,4.48518359375,5.55943359375,5.19247265625
-6.0859765625,-2.9569296875,-2.20923046875,-1.30308984375,2.8126328125,3.1676953125,0.158980468750002,2.58162890625,2.15638671875,1.71233203125,-0.0338398437499983,2.578265625,-0.56282421875,-0.17865625,1.7357578125,0.130542968749999,11.37451953125,1.526765625,1.13152734375,2.2556328125,2.62497265625,10.35321875,1.00833203125,4.49780859375,1.89018359375,9.642765625,3.376078125,2.93118359375,3.39843359375,3.40847265625
-7.2359765625,-4.8599296875,-3.95023046875,-2.43008984375,2.0306328125,2.0586953125,-0.897019531249999,0.36962890625,1.79038671875,0.41333203125,-1.69983984375,-0.546734375,-1.98682421875,-1.60965625,0.108757812499999,-2.92845703125,7.30851953125,-0.397234374999998,-1.26747265625,-0.416367187500001,-1.19802734375,7.69921875,-1.25966796875,2.00080859375,-0.850816406249999,7.449765625,1.231078125,1.69618359375,1.70843359375,1.90747265625
-6.6629765625,-5.5569296875,-4.42723046875,-2.86208984375,2.7376328125,2.2446953125,-0.888019531249999,-1.82637109375,2.97138671875,0.880332031250003,-1.94383984375,-3.098734375,-2.22082421875,-0.804656249999999,-0.274242187500001,-4.24845703125,3.01951953125,-1.076234375,-1.81047265625,-1.7863671875,-4.34502734375,4.95521875,-1.99066796875,0.636808593749999,-2.59281640625,4.945765625,-0.0999218749999997,0.95918359375,0.702433593750001,0.916472656250001
-4.6339765625,-5.0139296875,-3.51423046875,-2.49308984375,4.6946328125,3.4956953125,0.25898046875,-3.14237109375,5.39838671875,2.78133203125,-0.885839843749999,-4.253734375,-1.13082421875,2.07134375,0.451757812499999,-3.38845703125,0.275519531249998,-0.0532343749999988,-0.411472656249998,-1.4813671875,-5.63902734375,3.42321875,-0.94866796875,0.784808593749998,-2.78381640625,2.926765625,-0.306921875,0.817183593749999,0.414433593750001,0.599472656250001
-1.8619765625,-3.5339296875,-1.49223046875,-1.39108984375,7.2196328125,5.2916953125,2.29398046875,-2.99637109375,8.31438671875,5.33533203125,0.975160156250002,-3.694734375,1.05617578125,6.15334375,1.8667578125,-0.68445703125,0.16951953125,2.607765625,2.40252734375,0.350632812499999,-4.66202734375,3.90921875,1.56633203125,2.31480859375,-1.38981640625,1.796765625,0.601078125000001,1.23018359375,0.69543359375,0.990472656250001
0.7960234375,-1.6839296875,1.03676953125,0.17891015625,9.4446328125,6.9496953125,4.60498046875,-1.46337109375,10.80438671875,7.59333203125,2.91816015625,-1.705734375,3.75917578125,10.13034375,3.3837578125,2.86554296875,2.66251953125,6.208765625,5.65052734375,3.0556328125,-1.89702734375,6.24721875,4.72133203125,4.58380859375,1.08218359375,1.542765625,2.252078125,1.97318359375,1.26043359375,1.93247265625
2.6250234375,-0.128929687499999,3.30976953125,1.75891015625,10.6676328125,7.8606953125,6.37598046875,0.67062890625,12.19138671875,8.80533203125,4.24016015625,0.980265624999999,6.13117578125,12.72634375,4.4407578125,5.98054296875,6.58851953125,9.600765625,8.24552734375,5.6826328125,1.54897265625,9.33821875,7.39833203125,6.67480859375,3.79518359375,1.968765625,4.013078125,2.67318359375,1.76543359375,3.08347265625
3.2430234375,0.597070312500001,4.61276953125,2.78291015625,10.6036328125,7.7666953125,6.95398046875,2.27762890625,12.27538671875,8.70433203125,4.51016015625,3.473265625,7.27917578125,13.18234375,4.7097578125,7.58554296875,10.10451953125,11.617765625,9.39052734375,7.3286328125,4.43097265625,11.69521875,8.60533203125,7.76680859375,5.89418359375,2.857765625,5.232078125,2.92718359375,1.90643359375,4.00247265625
2.6730234375,0.290070312500001,4.51076953125,2.78391015625,9.4746328125,6.8936953125,6.18098046875,2.47662890625,11.30538671875,7.58133203125,3.73316015625,5.058265625,6.61617578125,11.53734375,4.2267578125,7.22454296875,11.46051953125,11.568765625,8.85552734375,7.4766328125,5.81897265625,12.19821875,7.89633203125,7.47280859375,6.79918359375,3.923765625,5.497078125,2.46718359375,1.50643359375,4.30347265625
1.2960234375,-0.843929687499999,3.05276953125,1.66791015625,7.8706328125,5.8026953125,4.48498046875,1.11762890625,9.72838671875,6.11433203125,2.34016015625,5.441265625,4.16717578125,8.56534375,3.3637578125,5.22554296875,9.80651953125,9.536765625,7.03152734375,6.1936328125,5.38897265625,10.64221875,5.56433203125,5.99080859375,6.37218359375,4.720765625,4.807078125,1.28718359375,0.56643359375,3.81247265625
-0.3119765625,-2.2949296875,0.82576953125,-0.10408984375,6.4716328125,5.0686953125,2.66998046875,-1.10937109375,7.91338671875,5.01433203125,0.97016015625,4.809265625,0.646175781249999,5.40234375,2.6197578125,2.54054296875,5.62151953125,6.298765625,4.70652734375,4.0706328125,3.45897265625,7.72821875,2.49733203125,3.96780859375,4.92218359375,4.745765625,3.552078125,-0.31881640625,-0.730566406249999,2.65047265625
-1.6099765625,-3.4749296875,-1.25123046875,-1.62508984375,5.7226328125,4.9866953125,1.55498046875,-3.00837109375,6.02138671875,4.66833203125,0.137160156250001,3.691265625,-2.82282421875,3.03434375,2.3297578125,0.30554296875,0.46951953125,2.901765625,2.68352734375,1.9356328125,0.79397265625,4.51221875,-0.25666796875,2.16780859375,3.04418359375,3.726765625,2.303078125,-1.83381640625,-2.05856640625,1.19547265625
-2.2989765625,-3.9949296875,-2.34323046875,-2.00608984375,5.6686328125,5.4546953125,1.60698046875,-3.51137109375,4.09338671875,4.97033203125,-0.0118398437499998,2.690265625,-5.19182421875,1.92334375,2.4677578125,-0.647457031249999,-3.76348046875,0.167765625000001,1.43752734375,0.478632812499999,-1.73002734375,1.73021875,-1.97366796875,1.11380859375,1.36418359375,1.861765625,1.532078125,-2.70381640625,-3.03856640625,-0.0605273437499996
-2.3929765625,-3.8369296875,-2.09323046875,-0.95408984375,6.0076328125,6.0306953125,2.68898046875,-2.22637109375,2.23138671875,5.41533203125,0.253160156250001,2.219265625,-5.90982421875,1.94334375,2.6817578125,-0.11145703125,-5.70548046875,-1.559234375,0.980527343750001,-0.0233671875000017,-3.45002734375,-0.45178125,-2.50366796875,0.89180859375,0.30718359375,-0.204234374999999,1.406078125,-2.57381640625,-3.37956640625,-0.694527343749999
-2.1169765625,-3.3239296875,-0.76323046875,0.98291015625,6.2856328125,6.1416953125,4.06998046875,0.39862890625,0.687386718749998,5.38533203125,0.41516015625,2.336265625,-5.04582421875,2.58634375,2.5047578125,1.46154296875,-4.99248046875,-2.316234375,0.979527343750002,0.238632812499999,-4.12102734375,-2.12178125,-2.18366796875,1.19480859375,-0.0378164062500002,-1.698234375,1.756078125,-1.49081640625,-3.03856640625,-0.525527343749999
-1.7419765625,-2.8979296875,0.95076953125,2.75891015625,6.1056328125,5.3796953125,4.76498046875,3.38162890625,-0.236613281250001,4.45933203125,-0.0238398437500003,2.740265625,-3.07282421875,3.29034375,1.6387578125,3.19454296875,-2.26048046875,-2.244234375,1.02452734375,0.766632812499999,-3.94302734375,-3.12478125,-1.51966796875,1.54580859375,0.10018359375,-2.135234375,2.211078125,0.0801835937500002,-2.27156640625,0.329472656250001
-1.4499765625,-2.8399296875,2.29776953125,3.53191015625,5.2856328125,3.7426953125,4.07398046875,5.71362890625,-0.354613281250002,2.60633203125,-1.27683984375,2.954265625,-0.526824218750001,3.68834375,0.154757812499998,4.19154296875,1.22751953125,-1.395234375,0.877527343750002,1.0406328125,-3.41302734375,-2.91178125,-0.87766796875,1.58280859375,0.332183593750001,-1.560234375,2.438078125,1.47918359375,-1.49756640625,1.55247265625
-1.3139765625,-3.1349296875,2.82576953125,3.17191015625,3.9496328125,1.6546953125,1.96998046875,6.75262890625,0.309386718749998,0.213332031250001,-3.11783984375,2.642265625,2.23417578125,3.68834375,-1.4902421875,3.96354296875,4.09351953125,0.224765625000002,0.577527343750001,0.787632812499998,-3.03702734375,-0.89778125,-0.362667968749999,1.24280859375,0.33118359375,-0.455234375,2.330078125,2.19718359375,-1.05256640625,2.81747265625
-1.3339765625,-3.5549296875,2.52076953125,2.24991015625,2.4996328125,-0.2493046875,-0.873019531249998,6.36762890625,1.54738671875,-2.08466796875,-4.93783984375,1.832265625,5.02117578125,3.37134375,-2.6502421875,2.65154296875,5.31151953125,2.429765625,0.322527343750002,0.0656328124999987,-3.05502734375,2.92621875,0.0523320312499997,0.71880859375,-0.0268164062499991,0.604765625000001,2.011078125,2.07218359375,-1.04956640625,3.89647265625
-1.4989765625,-3.8839296875,1.67276953125,1.57791015625,1.4266328125,-1.4263046875,-3.43301953125,4.88262890625,3.02138671875,-3.69366796875,-6.02983984375,0.899265625,7.60417578125,2.79434375,-2.8422421875,0.89154296875,4.47751953125,4.654765625,0.215527343750001,-0.866367187500002,-3.35502734375,7.59021875,0.26933203125,0.204808593749998,-0.680816406249999,1.264765625,1.622078125,1.20918359375,-1.46756640625,4.59547265625
-1.8509765625,-4.1309296875,0.56676953125,1.64691015625,1.0616328125,-1.6643046875,-4.87701953125,2.87062890625,4.31938671875,-4.34666796875,-5.99383984375,0.287265625,9.51717578125,1.84534375,-2.0702421875,-0.61445703125,1.80451953125,5.956765625,0.0345273437500015,-1.8303671875,-3.65102734375,11.28921875,-0.10466796875,-0.38119140625,-1.55381640625,1.436765625,1.069078125,-0.26981640625,-2.36656640625,4.62147265625
-2.5099765625,-4.5849296875,-0.75823046875,2.30891015625,1.4076328125,-1.1923046875,-5.01501953125,0.87462890625,5.04038671875,-4.23166796875,-5.02283984375,0.144265625000001,10.08117578125,0.28934375,-0.933242187500003,-1.55445703125,-2.08648046875,5.356765625,-0.743472656249999,-2.9313671875,-3.81702734375,12.09321875,-1.65766796875,-1.46219140625,-2.71781640625,1.112765625,-0.0459218749999994,-2.38081640625,-3.98256640625,3.58747265625
-3.6229765625,-5.6669296875,-2.49923046875,2.88991015625,2.1576328125,-0.6093046875,-4.43401953125,-0.82937109375,4.93738671875,-3.87166796875,-3.89083984375,0.153265625,8.71717578125,-2.02465625,-0.397242187500002,-2.18845703125,-6.38748046875,2.359765625,-2.66547265625,-4.5123671875,-4.07502734375,8.91621875,-4.81266796875,-3.57519140625,-4.38481640625,0.215765625000001,-2.197921875,-5.18981640625,-6.57756640625,1.22447265625
-5.2229765625,-7.6329296875,-4.84023046875,2.65491015625,2.8526328125,-0.614304687499999,-4.17101953125,-2.25637109375,4.03238671875,-3.85066796875,-3.60083984375,-0.325734375,5.37117578125,-4.93965625,-1.3402421875,-3.14845703125,-10.22748046875,-2.634234375,-5.91847265625,-6.8843671875,-4.86702734375,2.20721875,-9.44566796875,-6.97219140625,-6.72381640625,-1.319234375,-5.568921875,-8.59181640625,-10.14756640625,-2.34952734375
-7.0979765625,-10.3059296875,-7.65823046875,1.32591015625,3.0576328125,-1.6263046875,-5.08001953125,-3.52737109375,2.57838671875,-4.53666796875,-4.86883984375,-1.820734375,0.74817578125,-7.93665625,-4.0812421875,-4.97745703125,-12.76648046875,-8.336234375,-10.10547265625,-9.9913671875,-6.44802734375,-6.10478125,-14.73966796875,-11.33219140625,-9.59981640625,-3.286234375,-9.791921875,-12.15281640625,-14.21556640625,-6.50852734375
-8.7749765625,-13.0369296875,-10.42323046875,-0.68208984375,2.5206328125,-3.5523046875,-7.28901953125,-4.65937109375,0.909386718749998,-5.94966796875,-7.71783984375,-4.318734375,-3.87482421875,-10.32165625,-8.1632421875,-7.70145703125,-13.37348046875,-13.067234375,-14.33247265625,-13.2823671875,-8.54302734375,-13.39878125,-19.44266796875,-15.77119140625,-12.46081640625,-5.076234375,-13.985921875,-15.15081640625,-17.89256640625,-10.27152734375
-9.6909765625,-14.9679296875,-12.38523046875,-2.47108984375,1.2606328125,-5.8473046875,-10.09801953125,-5.49337109375,-0.699613281250002,-7.79766796875,-11.40583984375,-7.131734375,-7.16282421875,-11.53465625,-12.5022421875,-10.72145703125,-11.85748046875,-15.479234375,-17.54447265625,-15.8763671875,-10.37502734375,-17.50878125,-22.39466796875,-19.17519140625,-14.49281640625,-5.908234375,-17.090921875,-16.81281640625,-20.20056640625,-12.64152734375
-9.4629765625,-15.4389296875,-12.89923046875,-3.15508984375,-0.403367187499999,-7.7813046875,-12.33001953125,-5.75137109375,-2.02961328125,-9.61466796875,-14.73683984375,-9.192734375,-8.26882421875,-11.37065625,-15.8212421875,-13.08545703125,-8.57348046875,-15.105234375,-18.94847265625,-16.9633671875,-11.09602734375,-17.57878125,-23.00866796875,-20.66619140625,-14.99781640625,-5.320234375,-18.312921875,-16.63881640625,-20.49056640625,-13.00152734375
-8.0739765625,-14.2779296875,-11.72923046875,-2.33408984375,-1.9343671875,-8.7203046875,-12.90301953125,-5.14137109375,-2.79661328125,-10.90366796875,-16.56483984375,-9.586734375,-7.08482421875,-9.99065625,-17.1382421875,-13.95545703125,-4.30148046875,-12.421234375,-18.28047265625,-16.1923671875,-10.30802734375,-14.19278125,-21.45066796875,-19.96819140625,-13.75781640625,-3.548234375,-17.451921875,-14.65581640625,-18.74156640625,-11.37252734375
-5.8759765625,-11.8559296875,-9.14123046875,-0.28608984375,-2.7553671875,-8.3073046875,-11.31601953125,-3.50337109375,-2.65161328125,-11.25566796875,-16.23383984375,-7.989734375,-4.12282421875,-7.76465625,-16.0842421875,-12.97645703125,0.00751953125000071,-8.466234375,-15.82547265625,-13.8143671875,-8.30402734375,-8.82678125,-18.43666796875,-17.47019140625,-11.17081640625,-1.452234375,-14.953921875,-11.48781640625,-15.60656640625,-8.43152734375
-3.4559765625,-8.9279296875,-5.81523046875,2.15891015625,-2.4883671875,-6.5943046875,-7.89701953125,-1.02737109375,-1.39761328125,-10.46666796875,-13.79983984375,-4.834734375,-0.226824218750002,-5.12065625,-12.9802421875,-10.40745703125,3.43251953125,-4.345234375,-12.26247265625,-10.5703671875,-5.92502734375,-3.09378125,-14.89166796875,-14.03419140625,-8.09881640625,-0.0782343749999992,-11.711921875,-8.20181640625,-12.18556640625,-5.27352734375
-1.4439765625,-6.3869296875,-2.65423046875,3.98891015625,-1.1833671875,-4.1013046875,-3.72301953125,1.59162890625,0.705386718749999,-8.67366796875,-10.00783984375,-1.180734375,3.66017578125,-2.52965625,-8.7442421875,-7.04545703125,5.14851953125,-0.952234374999998,-8.48647265625,-7.4403671875,-4.21702734375,1.69921875,-11.69966796875,-10.70319140625,-5.58081640625,-0.212234375,-8.753921875,-5.98181640625,-9.63656640625,-3.03252734375
-0.3539765625,-4.9899296875,-0.55023046875,4.46891015625,0.589632812500001,-1.7123046875,-0.230019531250001,3.29162890625,2.85638671875,-6.45066796875,-6.09383984375,1.631265625,6.59417578125,-0.55965625,-4.6822421875,-4.00745703125,4.52051953125,1.018765625,-5.46047265625,-5.3783671875,-4.04702734375,4.57221875,-9.61166796875,-8.43519140625,-4.51581640625,-2.160234375,-6.954921875,-5.71581640625,-8.77956640625,-2.47752734375
-0.4309765625,-5.0999296875,-0.11623046875,3.49191015625,1.9246328125,-0.363304687499998,1.35798046875,3.15462890625,4.00038671875,-4.68566796875,-3.40283984375,2.495265625,7.71917578125,0.17834375,-2.1362421875,-2.35945703125,1.38551953125,1.035765625,-4.02447265625,-5.0323671875,-5.73802734375,4.76921875,-9.16766796875,-7.83719140625,-5.35181640625,-5.631234375,-6.771921875,-7.62281640625,-9.77956640625,-3.71752734375
-1.5269765625,-6.5279296875,-1.41923046875,1.64391015625,2.0136328125,-0.6533046875,0.525980468749999,0.97762890625,3.37238671875,-4.21466796875,-2.88583984375,1.060265625,6.48817578125,-0.72265625,-2.0142421875,-2.66445703125,-3.54148046875,-1.146234375,-4.59747265625,-6.4713671875,-8.79902734375,1.92021875,-10.51066796875,-8.91919140625,-7.82181640625,-9.685234375,-8.041921875,-11.03581640625,-12.02056640625,-6.10852734375
-3.0919765625,-8.5869296875,-3.88523046875,-0.0890898437500001,0.598632812500002,-2.5723046875,-2.33401953125,-2.50837109375,0.916386718749999,-5.38766796875,-4.66583984375,-2.037734375,2.98717578125,-3.16765625,-4.3792421875,-4.66345703125,-8.60148046875,-5.209234375,-6.92547265625,-9.0633671875,-11.98602734375,-3.55378125,-13.20166796875,-11.00819140625,-10.92181640625,-12.885234375,-9.967921875,-14.55781640625,-14.29056640625,-8.46852734375
-4.3799765625,-10.3869296875,-6.52123046875,-0.82408984375,-1.8893671875,-5.4783046875,-6.08701953125,-5.98037109375,-2.67961328125,-7.84666796875,-7.94683984375,-5.458734375,-1.91182421875,-6.47765625,-8.3652421875,-7.36345703125,-11.78948046875,-10.142234375,-10.09347265625,-11.6753671875,-13.82202734375,-10.20978125,-16.24666796875,-12.97619140625,-13.27081640625,-13.838234375,-11.432921875,-16.64081640625,-15.32856640625,-9.60552734375
-4.8059765625,-11.2399296875,-8.38823046875,-0.23808984375,-4.5653671875,-8.3373046875,-9.32901953125,-8.21937109375,-6.34361328125,-10.68466796875,-11.35783984375,-7.854734375,-6.78582421875,-9.62365625,-12.4982421875,-9.51845703125,-11.81748046875,-14.480234375,-12.87047265625,-13.1593671875,-13.35102734375,-15.87378125,-18.44266796875,-13.73619140625,-13.74581640625,-11.937234375,-11.522921875,-16.34681640625,-14.45856640625,-8.90552734375
-4.2549765625,-10.9379296875,-9.01723046875,1.27591015625,-6.5303671875,-10.1583046875,-10.94101953125,-8.70237109375,-9.11561328125,-12.84566796875,-13.52483984375,-8.527734375,-10.28682421875,-11.65265625,-15.2772421875,-10.21645703125,-8.91248046875,-16.875234375,-14.19847265625,-12.8493671875,-10.66302734375,-18.48778125,-18.85666796875,-12.72919140625,-11.99981640625,-7.785234375,-9.949921875,-13.79981640625,-11.92656640625,-6.58452734375
-3.0719765625,-9.7549296875,-8.48623046875,2.84491015625,-7.2223671875,-10.3833046875,-10.47901953125,-7.69737109375,-10.47761328125,-13.56266796875,-13.58583984375,-7.630734375,-11.77282421875,-12.04865625,-15.7162421875,-9.21845703125,-4.68648046875,-16.669234375,-13.55347265625,-10.7863671875,-6.81402734375,-17.10378125,-17.20466796875,-10.10319140625,-8.57481640625,-2.965234375,-7.115921875,-10.01781640625,-8.66956640625,-3.45352734375
-1.7769765625,-8.1949296875,-7.16923046875,3.61691015625,-6.5573671875,-9.0533046875,-8.23101953125,-5.87137109375,-10.39361328125,-12.61566796875,-11.43783984375,-5.844734375,-11.53682421875,-10.85665625,-13.6482421875,-6.90745703125,-1.20348046875,-14.158234375,-11.05247265625,-7.5913671875,-3.20102734375,-12.43078125,-13.92766796875,-6.55719140625,-4.55881640625,0.736765625,-3.830921875,-6.26281640625,-5.70156640625,-0.376527343749999
-0.7739765625,-6.7089296875,-5.45123046875,3.16891015625,-4.8883671875,-6.7143046875,-5.01801953125,-3.80637109375,-9.14761328125,-10.37366796875,-7.72483984375,-3.895734375,-10.51282421875,-8.58165625,-9.7392421875,-4.02345703125,0.0935195312499992,-10.400234375,-7.35147265625,-4.1553671875,-0.84102734375,-6.54878125,-9.98466796875,-3.01219140625,-1.09081640625,2.175765625,-0.936921874999999,-3.40281640625,-3.59656640625,2.12747265625
-0.3149765625,-5.6469296875,-3.68623046875,1.55691015625,-2.8923671875,-4.2363046875,-1.96801953125,-1.86137109375,-7.19461328125,-7.68966796875,-3.66883984375,-2.322734375,-9.71782421875,-6.02265625,-5.3122421875,-1.42345703125,-1.09348046875,-6.758234375,-3.48947265625,-1.3853671875,-0.0390273437499999,-1.88078125,-6.52966796875,-0.354191406250001,0.99318359375,1.263765625,0.922078125000001,-1.71281640625,-2.41056640625,3.87547265625
-0.6599765625,-5.3549296875,-2.33923046875,-0.94508984375,-1.4063671875,-2.6423046875,-0.298019531249999,-0.38137109375,-5.08661328125,-5.67466796875,-0.756839843749997,-1.566734375,-9.78982421875,-4.08965625,-2.0002421875,0.0465429687499999,-4.08448046875,-4.398234375,-0.688472656249999,-0.0903671875000018,-0.573027343750001,0.00721874999999983,-4.59766796875,0.688808593749998,1.24218359375,-1.211234375,1.330078125,-1.10481640625,-1.99756640625,4.76447265625
-2.1219765625,-6.1939296875,-2.01523046875,-4.08208984375,-1.1943671875,-2.8103046875,-0.969019531249998,0.15162890625,-3.40761328125,-5.34066796875,-0.259839843749997,-2.031734375,-10.78182421875,-3.59065625,-1.2442421875,-0.276457031250001,-7.71748046875,-3.925234375,-0.0604726562499991,-0.8623671875,-2.07502734375,-0.88678125,-4.82766796875,-0.35219140625,-0.433816406249999,-4.124234375,0.100078125,-1.42481640625,-2.29356640625,4.59847265625
-4.8239765625,-8.2979296875,-3.18823046875,-7.56208984375,-2.6593671875,-5.0383046875,-4.16201953125,-0.65337109375,-2.64461328125,-7.17966796875,-2.66083984375,-3.865734375,-12.21482421875,-4.94865625,-3.7312421875,-2.57545703125,-10.77348046875,-5.238234375,-2.20247265625,-3.8473671875,-4.19002734375,-3.18378125,-7.24966796875,-3.51119140625,-3.74381640625,-6.501234375,-2.637921875,-2.51381640625,-3.32356640625,3.21947265625
-8.3969765625,-11.2959296875,-5.81423046875,-10.86508984375,-5.6403671875,-8.7553046875,-8.96801953125,-2.65937109375,-3.03261328125,-10.89466796875,-7.31383984375,-6.640734375,-13.36982421875,-8.00465625,-9.0222421875,-6.31045703125,-12.21248046875,-7.663234375,-6.87447265625,-8.5253671875,-6.45702734375,-5.07078125,-11.22766796875,-8.22019140625,-7.95281640625,-7.700234375,-6.337921875,-4.09581640625,-4.97756640625,0.79547265625
-11.9819765625,-14.3459296875,-9.17923046875,-13.24008984375,-9.4323671875,-12.7133046875,-13.68201953125,-5.06837109375,-4.51361328125,-15.49066796875,-12.64683984375,-9.343734375,-13.75382421875,-12.06565625,-15.6632421875,-10.32245703125,-11.40748046875,-10.326234375,-12.99947265625,-13.7753671875,-8.22602734375,-5.40378125,-15.67666796875,-13.39819140625,-11.99181640625,-7.366234375,-10.105921875,-5.72581640625,-6.87856640625,-2.05552734375
-14.6289765625,-16.5459296875,-12.20223046875,-14.02708984375,-13.0953671875,-15.6323046875,-16.65601953125,-6.83037109375,-6.83161328125,-19.73866796875,-16.88183984375,-10.850734375,-13.49682421875,-16.22565625,-21.7812421875,-13.36145703125,-8.44648046875,-12.590234375,-19.06247265625,-18.3063671875,-8.88702734375,-4.25078125,-19.49666796875,-17.82619140625,-14.83781640625,-5.456234375,-13.029921875,-6.96081640625,-8.50356640625,-4.48252734375
-15.8059765625,-17.4039296875,-13.96623046875,-13.06808984375,-15.8843671875,-16.8463046875,-17.13901953125,-7.30537109375,-9.67061328125,-22.72166796875,-18.86783984375,-10.597734375,-13.38782421875,-19.74065625,-25.8612421875,-14.71745703125,-4.29048046875,-14.302234375,-23.70347265625,-21.2223671875,-8.30802734375,-2.65478125,-21.98166796875,-20.65319140625,-15.99881640625,-2.414234375,-14.571921875,-7.57981640625,-9.46056640625,-5.81052734375
-15.5959765625,-17.0019296875,-14.11723046875,-10.87208984375,-17.5403671875,-16.5233046875,-15.56901953125,-6.65437109375,-12.72161328125,-24.14566796875,-18.51783984375,-8.931734375,-14.44682421875,-22.23065625,-27.2522421875,-14.50945703125,-0.53948046875,-15.711234375,-26.15247265625,-22.3463671875,-7.07802734375,-1.89278125,-22.98166796875,-21.67619140625,-15.74581640625,0.731765625000001,-14.771921875,-7.61881640625,-9.64156640625,-5.82552734375
-14.4829765625,-15.7829296875,-12.85623046875,-8.38108984375,-18.2523671875,-15.3963046875,-13.17101953125,-5.66937109375,-15.63161328125,-24.24166796875,-16.60083984375,-6.873734375,-17.26082421875,-23.60065625,-26.1922421875,-13.45345703125,1.18851953125,-17.126234375,-26.32347265625,-22.0863671875,-6.26802734375,-2.79578125,-22.75766796875,-21.24319140625,-14.90181640625,2.655765625,-14.095921875,-7.18881640625,-9.13856640625,-4.73952734375
-12.9309765625,-14.1889296875,-10.63323046875,-6.49908984375,-18.3513671875,-14.2453046875,-11.19401953125,-5.17937109375,-17.92761328125,-23.42466796875,-14.12983984375,-5.462734375,-21.47582421875,-23.82665625,-23.4232421875,-12.28545703125,-0.00948046874999875,-18.560234375,-24.58047265625,-20.9903671875,-6.79202734375,-5.37278125,-21.66666796875,-19.88319140625,-14.29081640625,2.405765625,-13.060921875,-6.25481640625,-8.05756640625,-2.94552734375
-11.1189765625,-12.4349296875,-7.83723046875,-5.68808984375,-17.9993671875,-13.4433046875,-10.26401953125,-5.45037109375,-19.01961328125,-21.96566796875,-11.78183984375,-5.162734375,-25.78182421875,-22.80065625,-19.7382421875,-11.28945703125,-3.79448046875,-19.556234375,-21.42847265625,-19.3323671875,-8.77102734375,-8.76778125,-19.87866796875,-17.94819140625,-14.21181640625,0.0467656250000008,-11.909921875,-4.63381640625,-6.44856640625,-0.80852734375
-9.0089765625,-10.5339296875,-4.73523046875,-5.89408984375,-17.0943671875,-12.8173046875,-10.20101953125,-6.00337109375,-18.38061328125,-19.89966796875,-9.70683984375,-5.692734375,-28.47282421875,-20.38465625,-15.7132421875,-10.22245703125,-8.59548046875,-19.368234375,-17.33447265625,-17.0303671875,-11.36002734375,-11.55478125,-17.32566796875,-15.49119140625,-14.27081640625,-3.226234375,-10.549921875,-2.19081640625,-4.38956640625,1.39347265625
-6.6149765625,-8.5119296875,-1.60023046875,-6.79308984375,-15.4113671875,-11.8743046875,-10.35701953125,-6.00237109375,-15.79961328125,-17.15866796875,-7.71483984375,-6.333734375,-28.27482421875,-16.61665625,-11.7032421875,-8.63145703125,-12.25148046875,-17.404234375,-12.71947265625,-13.8773671875,-13.18302734375,-12.34878125,-13.87366796875,-12.41319140625,-13.64981640625,-5.637234375,-8.715921875,0.94618359375,-2.06156640625,3.44647265625
-4.2129765625,-6.5679296875,1.19176953125,-8.11308984375,-12.8053671875,-10.1783046875,-10.12801953125,-4.87937109375,-11.54461328125,-13.74366796875,-5.55983984375,-6.378734375,-24.96382421875,-11.85765625,-7.9302421875,-6.22545703125,-13.02148046875,-13.626234375,-8.00547265625,-9.8483671875,-13.07002734375,-10.48178125,-9.58066796875,-8.68319140625,-11.59081640625,-5.696234375,-6.197921875,4.36518359375,0.286433593750001,5.21847265625
-2.2689765625,-5.0439296875,3.23476953125,-9.75208984375,-9.3563671875,-7.6053046875,-9.24001953125,-2.73037109375,-6.33261328125,-9.82366796875,-3.09283984375,-5.412734375,-19.42382421875,-6.75665625,-4.5302421875,-3.02345703125,-10.40448046875,-8.632234375,-3.59647265625,-5.2173671875,-10.60302734375,-6.32878125,-4.81066796875,-4.47419140625,-7.79181640625,-2.856234375,-2.991921875,7.50018359375,2.43343359375,6.67647265625
-1.1869765625,-4.2199296875,4.29176953125,-11.64908984375,-5.4363671875,-4.3483046875,-7.70101953125,-0.19337109375,-1.17061328125,-5.74666796875,-0.274839843749998,-3.352734375,-13.19982421875,-2.06065625,-1.5632421875,0.71654296875,-5.28148046875,-3.413234375,0.195527343750001,-0.475367187500002,-6.22702734375,-1.08878125,-0.16966796875,-0.151191406250001,-2.55581640625,2.290765625,0.655078125000001,9.80618359375,4.20343359375,7.83447265625
-1.0409765625,-4.1299296875,4.42276953125,-13.58808984375,-1.6783671875,-0.843304687499998,-5.66201953125,1.96662890625,2.84638671875,-2.00866796875,2.81816015625,-0.396734374999999,-7.87082421875,1.57334375,0.945757812499998,4.63254296875,0.615519531250001,1.029765625,3.17052734375,3.8206328125,-1.00502734375,3.77321875,3.66833203125,3.80580859375,3.28218359375,8.230765625,4.265078125,10.88218359375,5.40743359375,8.65447265625
-1.4769765625,-4.5309296875,3.97876953125,-15.12608984375,1.1756328125,2.2966953125,-3.41101953125,3.22162890625,4.78338671875,0.825332031249999,5.93516015625,2.996265625,-4.54182421875,3.70834375,2.9377578125,8.29854296875,5.54851953125,3.980765625,5.21652734375,7.1556328125,3.75997265625,7.09221875,6.13833203125,6.90780859375,8.59418359375,13.028765625,7.233078125,10.54218359375,5.81943359375,8.99747265625
-1.8369765625,-5.0189296875,3.46076953125,-15.71808984375,2.5326328125,4.3936953125,-1.41401953125,3.41962890625,4.19238671875,2.28533203125,8.61916015625,6.151265625,-3.63482421875,4.20234375,4.2827578125,11.23654296875,8.47851953125,5.133765625,6.28752734375,9.1346328125,6.92897265625,8.26621875,6.93933203125,8.78780859375,12.32118359375,14.998765625,9.008078125,8.85718359375,5.27943359375,8.70947265625
-1.4549765625,-5.1729296875,3.34576953125,-14.95208984375,2.2066328125,4.9666953125,-0.202019531249999,2.77662890625,1.38838671875,2.22433203125,10.32916015625,8.347265625,-4.91082421875,3.26434375,4.8727578125,13.01454296875,9.32251953125,4.582765625,6.43252734375,9.6086328125,7.90897265625,7.25821875,6.14833203125,9.33080859375,13.86218359375,13.387765625,9.316078125,6.15918359375,3.84643359375,7.77647265625
0.0260234375000001,-4.6989296875,3.93776953125,-12.76808984375,0.5276328125,4.0056953125,-0.12501953125,1.77862890625,-2.55461328125,0.950332031249999,10.70316015625,9.094265625,-7.62282421875,1.44934375,4.7527578125,13.44554296875,8.70551953125,2.775765625,5.85352734375,8.7916328125,6.89997265625,4.53421875,4.26033203125,8.76780859375,13.34518359375,8.790765625,8.312078125,2.98318359375,1.88543359375,6.41047265625
2.4560234375,-3.5409296875,5.26276953125,-9.54308984375,-1.7863671875,2.0036953125,-1.16101953125,0.95062890625,-6.19961328125,-0.873667968749999,9.76816015625,8.388265625,-10.69382421875,-0.49565625,4.1547578125,12.73154296875,7.42151953125,0.428765625000002,4.89852734375,7.2586328125,4.84797265625,1.04221875,2.07233203125,7.61280859375,11.59218359375,3.021765625,6.551078125,-0.0498164062500006,-0.0285664062499986,4.99347265625
5.2090234375,-1.9649296875,7.04676953125,-5.99008984375,-3.9663671875,-0.3073046875,-2.95101953125,0.56162890625,-8.37061328125,-2.56466796875,7.93416015625,6.726265625,-12.98882421875,-1.93865625,3.3337578125,11.39954296875,5.95351953125,-1.672234375,3.89852734375,5.6936328125,3.02397265625,-1.99478125,0.36633203125,6.40980859375,9.70018359375,-1.635234375,4.731078125,-2.41181640625,-1.37656640625,3.88647265625
7.4040234375,-0.550929687499998,8.72876953125,-2.94608984375,-5.5693671875,-2.3593046875,-4.99701953125,0.43262890625,-8.69961328125,-3.80666796875,5.73316015625,4.833265625,-13.67382421875,-2.69365625,2.3177578125,10.00254296875,4.27751953125,-3.015234375,2.91852734375,4.5006328125,2.37697265625,-3.60678125,-0.50566796875,5.39480859375,8.44118359375,-3.480234375,3.302078125,-3.87881640625,-1.97356640625,3.21247265625
8.2070234375,-0.0469296874999987,9.55476953125,-1.16808984375,-6.6673671875,-4.0103046875,-6.89201953125,0.0216289062500001,-7.75261328125,-4.83066796875,3.48416015625,3.220265625,-12.59082421875,-3.16665625,0.782757812499998,8.75454296875,1.97251953125,-3.665234375,1.61952734375,3.5136328125,2.98297265625,-3.66778125,-0.866667968750001,4.30480859375,7.81618359375,-2.226234375,2.225078125,-4.62681640625,-2.07556640625,2.74447265625
7.1300234375,-1.0889296875,8.82376953125,-1.15808984375,-7.6943671875,-5.5513046875,-8.48801953125,-1.23437109375,-6.66961328125,-6.21466796875,1.14616015625,1.897265625,-10.38882421875,-4.13165625,-1.7592421875,7.39254296875,-1.42648046875,-4.257234375,-0.562472656249998,2.0806328125,3.95197265625,-3.03078125,-1.53566796875,2.54980859375,7.09518359375,0.899765625000001,1.052078125,-5.12081640625,-2.20856640625,2.03247265625
4.2760234375,-3.8539296875,6.26176953125,-2.98208984375,-9.0163671875,-7.4093046875,-9.87501953125,-3.48937109375,-6.47561328125,-8.38866796875,-1.49483984375,0.485265625,-8.25782421875,-6.19665625,-5.5222421875,5.41254296875,-5.93548046875,-5.594234375,-3.95747265625,-0.467367187500001,3.94797265625,-3.05478125,-3.28466796875,-0.327191406250002,5.35918359375,3.862765625,-0.665921875,-5.79181640625,-2.80056640625,0.717472656250001
0.4150234375,-7.8199296875,2.33876953125,-6.13708984375,-10.5463671875,-9.6983046875,-11.16501953125,-6.24537109375,-7.47161328125,-11.16466796875,-4.43683984375,-1.352734375,-7.30782421875,-9.29565625,-10.0242421875,2.54354296875,-10.78848046875,-8.072234375,-8.19947265625,-4.2393671875,2.03497265625,-4.77478125,-6.24566796875,-4.16019140625,2.19118359375,4.909765625,-2.958921875,-6.72381640625,-3.85856640625,-1.17352734375
-3.2059765625,-11.8279296875,-1.76723046875,-9.59008984375,-11.6713671875,-11.9213046875,-12.24201953125,-8.50737109375,-9.04561328125,-13.63766796875,-7.19883984375,-3.502734375,-7.91082421875,-12.52565625,-14.0482421875,-0.90945703125,-14.60248046875,-11.276234375,-12.14747265625,-8.5053671875,-1.69702734375,-8.17378125,-9.65366796875,-8.03119140625,-1.93881640625,3.393765625,-5.274921875,-7.54781640625,-4.91356640625,-3.15952734375
-5.3439765625,-14.5139296875,-4.62223046875,-12.10708984375,-11.5723671875,-13.1133046875,-12.73601953125,-9.31437109375,-9.99361328125,-14.57066796875,-8.92283984375,-5.392734375,-9.40782421875,-14.49865625,-16.0732421875,-4.11545703125,-16.10348046875,-14.012234375,-14.28647265625,-11.9333671875,-6.16602734375,-11.97778125,-12.11466796875,-10.57619140625,-5.84881640625,-0.0662343749999987,-6.701921875,-7.65681640625,-5.28656640625,-4.51652734375
-5.2789765625,-14.9239296875,-5.20123046875,-12.74808984375,-9.7113671875,-12.4043046875,-12.29401953125,-8.33437109375,-9.18561328125,-13.05866796875,-8.83383984375,-6.399734375,-10.42982421875,-14.03165625,-15.0122421875,-6.14745703125,-14.93248046875,-14.826234375,-13.45047265625,-13.2253671875,-9.90902734375,-14.18278125,-12.27566796875,-10.62719140625,-8.23781640625,-4.071234375,-6.431921875,-6.57581640625,-4.49456640625,-4.64452734375
-3.1149765625,-12.9509296875,-3.39023046875,-11.27308984375,-6.2443671875,-9.6293046875,-10.92101953125,-6.09937109375,-6.20861328125,-9.10566796875,-6.76783984375,-6.327734375,-9.71882421875,-10.82765625,-10.8502421875,-6.52545703125,-11.94448046875,-12.796234375,-9.48047265625,-11.8093671875,-11.84202734375,-13.16378125,-9.54866796875,-7.82419140625,-8.33181640625,-7.176234375,-4.219921875,-4.28381640625,-2.56756640625,-3.38252734375
0.2950234375,-9.3759296875,-0.0742304687499997,-8.21408984375,-2.1063671875,-5.5523046875,-9.13201953125,-3.75437109375,-1.70861328125,-3.79266796875,-3.42383984375,-5.607734375,-6.97082421875,-5.77065625,-4.8352421875,-5.51945703125,-8.79148046875,-8.151234375,-3.47347265625,-8.2003671875,-11.70502734375,-8.78278125,-4.51866796875,-2.92419140625,-6.24781640625,-8.490234375,-0.604921875,-1.31681640625,-0.0995664062500001,-1.13852734375
3.7020234375,-5.5269296875,3.23676953125,-4.64608984375,1.2966328125,-1.6043046875,-7.77401953125,-2.52437109375,2.77538671875,1.08633203125,-0.135839843749999,-5.068734375,-3.14582421875,-0.63865625,0.935757812499999,-4.01845703125,-7.06948046875,-2.342234375,2.57152734375,-3.8283671875,-10.02702734375,-2.73378125,1.20833203125,2.42480859375,-2.90481640625,-7.917234375,3.239078125,1.40818359375,1.97843359375,1.23247265625
5.9240234375,-2.7299296875,5.07376953125,-1.74108984375,2.7366328125,0.755695312500002,-7.62101953125,-3.18737109375,5.49938671875,3.81933203125,1.76816015625,-5.446734375,0.0161757812499985,2.69934375,4.4077578125,-3.02245703125,-7.53648046875,2.592765625,6.60152734375,-0.377367187500001,-7.70002734375,2.22621875,5.71033203125,6.37380859375,0.44518359375,-6.024234375,6.009078125,2.98618359375,2.83243359375,2.77947265625
6.2770234375,-1.7609296875,4.68276953125,-0.29608984375,1.8096328125,0.737695312500001,-8.90501953125,-5.70437109375,5.40738671875,3.60133203125,1.68316015625,-6.893734375,1.04317578125,3.22134375,4.5307578125,-3.04045703125,-9.77048046875,5.060765625,7.47952734375,1.0516328125,-5.46302734375,3.83021875,7.67333203125,7.74480859375,2.81718359375,-3.677234375,6.898078125,2.97818359375,2.15743359375,2.89147265625
4.8260234375,-2.5359296875,2.35076953125,-0.407089843750001,-0.811367187499998,-1.3653046875,-11.08601953125,-9.19237109375,2.72138671875,0.93633203125,0.0401601562499998,-8.837734375,-0.337824218750001,1.27634375,1.7597578125,-3.81745703125,-12.46848046875,4.741765625,5.51652734375,0.460632812499998,-3.61402734375,1.61521875,7.02433203125,6.57280859375,3.88518359375,-1.663234375,5.968078125,1.65218359375,0.35243359375,1.56847265625
2.3280234375,-4.2189296875,-0.80923046875,-1.49608984375,-3.7513671875,-4.3633046875,-13.10601953125,-12.33937109375,-1.19261328125,-2.67166796875,-2.01283984375,-10.314734375,-3.01882421875,-1.67065625,-2.2332421875,-4.58945703125,-14.29048046875,2.647765625,2.21652734375,-1.1733671875,-2.14102734375,-2.87778125,4.84433203125,3.97580859375,3.93218359375,-0.532234375,4.027078125,-0.17381640625,-1.70956640625,-0.631527343749999
-0.1319765625,-5.7079296875,-3.47123046875,-2.68608984375,-5.7103671875,-6.8953046875,-14.06401953125,-14.09537109375,-4.61161328125,-5.56966796875,-3.36483984375,-10.585734375,-5.22182421875,-3.91965625,-5.4942421875,-4.68545703125,-14.71248046875,0.402765625000001,-0.60447265625,-2.5783671875,-1.08102734375,-7.17178125,2.62233203125,1.43280859375,3.46518359375,-0.619234375,2.081078125,-1.60881640625,-3.15656640625,-2.93052734375
-1.5929765625,-6.1889296875,-4.68323046875,-3.27708984375,-6.1213671875,-8.1943046875,-13.80601953125,-14.13637109375,-6.34861328125,-6.78466796875,-3.60483984375,-9.575734375,-5.58582421875,-4.46165625,-6.7542421875,-3.98345703125,-14.25748046875,-0.738234374999999,-1.75847265625,-2.9133671875,-0.682027343750001,-9.34278125,1.39733203125,-0.01919140625,2.84118359375,-2.015234375,0.793078125000001,-2.13581640625,-3.52356640625,-4.68252734375
-1.5179765625,-5.4029296875,-4.13623046875,-3.01308984375,-5.3033671875,-8.3463046875,-12.95001953125,-12.77537109375,-6.16561328125,-6.34466796875,-3.13583984375,-7.830734375,-3.87182421875,-3.34365625,-5.8822421875,-2.88345703125,-13.87148046875,-0.453234374999999,-1.11347265625,-2.0783671875,-1.15202734375,-8.87978125,1.36633203125,-0.15619140625,2.19318359375,-4.411234375,0.292078125,-1.75381640625,-2.83756640625,-5.56152734375
0.1180234375,-3.5769296875,-2.09623046875,-2.07208984375,-4.0773671875,-7.9683046875,-12.36801953125,-10.49337109375,-4.56461328125,-4.99566796875,-2.75283984375,-6.099734375,-0.918824218750002,-1.37465625,-3.6692421875,-1.92445703125,-13.97748046875,0.769765625000002,0.630527343750002,-0.5323671875,-2.27502734375,-6.49678125,2.10233203125,0.604808593749999,1.59918359375,-6.988234375,0.367078125000001,-0.79581640625,-1.42556640625,-5.52952734375
2.8830234375,-1.2009296875,0.81676953125,-0.89608984375,-3.1883671875,-7.6753046875,-12.59901953125,-7.60937109375,-2.26961328125,-3.63166796875,-3.05483984375,-4.890734375,1.98917578125,0.503343750000001,-1.2382421875,-1.38545703125,-14.00548046875,2.175765625,2.50252734375,1.1136328125,-3.32902734375,-3.30178125,3.05333203125,1.64880859375,1.24518359375,-8.653234375,0.768078125000001,0.38218359375,0.33943359375,-4.70252734375
6.0050234375,1.1450703125,3.81376953125,0.00591015624999969,-2.9113671875,-7.7553046875,-13.60801953125,-4.33637109375,0.169386718749999,-2.83766796875,-4.10983984375,-4.301734375,3.81917578125,1.69734375,0.486757812499999,-1.20345703125,-12.79348046875,3.238765625,3.76552734375,2.3796328125,-3.47602734375,-0.109781249999999,3.88733203125,2.50380859375,1.36618359375,-8.590234375,1.367078125,1.58018359375,2.15843359375,-3.26752734375
8.5810234375,2.9010703125,6.11076953125,0.25291015625,-3.0543671875,-8.1573046875,-14.93801953125,-0.99237109375,2.43638671875,-2.76166796875,-5.53483984375,-4.144734375,4.17617578125,2.08434375,1.0347578125,-1.17945703125,-9.52348046875,3.801765625,4.09352734375,2.9826328125,-2.31702734375,2.69921875,4.50533203125,2.93580859375,2.02118359375,-6.740234375,2.077078125,2.71318359375,3.77043359375,-1.50052734375
9.8720234375,3.6220703125,7.10476953125,-0.24308984375,-3.2593671875,-8.6453046875,-16.03201953125,1.92562890625,4.27038671875,-3.26766796875,-6.83383984375,-4.195734375,3.30317578125,1.81834375,0.366757812499998,-1.24545703125,-4.45648046875,3.926765625,3.49652734375,2.7766328125,-0.19602734375,4.91321875,4.86933203125,2.86180859375,2.93718359375,-3.852234375,2.703078125,3.66418359375,4.85643359375,0.161472656250001
9.5890234375,3.0860703125,6.56376953125,-1.20908984375,-3.3303671875,-9.0123046875,-16.52001953125,3.86962890625,5.29438671875,-4.16866796875,-7.71383984375,-4.354734375,1.82417578125,1.07234375,-1.2572421875,-1.54345703125,1.00051953125,3.670765625,2.13752734375,1.7166328125,1.96397265625,6.19121875,4.86033203125,2.25680859375,3.56918359375,-1.074234375,2.897078125,4.18418359375,5.06243359375,1.15047265625
7.9870234375,1.3600703125,4.71776953125,-2.13408984375,-3.3843671875,-9.2583046875,-16.37401953125,4.41962890625,5.04338671875,-5.37366796875,-8.20583984375,-4.677734375,0.385175781249998,-0.118656249999999,-3.4482421875,-2.31745703125,4.87551953125,2.952765625,0.199527343750001,-0.1313671875,3.13497265625,6.01021875,4.27533203125,1.12580859375,3.35018359375,0.569765625,2.287078125,3.94318359375,4.13743359375,0.948472656250001
5.7080234375,-1.2209296875,2.16376953125,-2.52208984375,-3.7733671875,-9.6333046875,-15.88101953125,3.41462890625,3.17538671875,-6.92066796875,-8.60683984375,-5.309734375,-0.679824218750001,-1.85865625,-5.8422421875,-3.72445703125,5.46951953125,1.580765625,-2.17047265625,-2.5813671875,2.64297265625,3.91321875,2.93733203125,-0.498191406250001,1.94718359375,0.506765625000002,0.673078125,2.70418359375,2.10843359375,-0.662527343749999
3.4550234375,-4.1409296875,-0.403230468749999,-2.12208984375,-4.8663671875,-10.4813046875,-15.45401953125,1.05562890625,-0.250613281250002,-8.88766796875,-9.30183984375,-6.391734375,-1.46282421875,-4.24065625,-8.1962421875,-5.73845703125,2.10351953125,-0.587234374999998,-4.83147265625,-5.3503671875,0.397972656249999,-0.0727812500000002,0.84333203125,-2.51719140625,-0.58981640625,-1.317234375,-1.831921875,0.50418359375,-0.65156640625,-3.44352734375
1.7120234375,-6.8179296875,-2.46423046875,-1.02408984375,-6.7853671875,-11.9813046875,-15.39601953125,-2.04537109375,-4.62761328125,-11.24066796875,-10.55383984375,-7.958734375,-2.26282421875,-7.14865625,-10.3922421875,-8.13545703125,-4.52048046875,-3.412234375,-7.56847265625,-8.0903671875,-3.13602734375,-5.10678125,-1.71666796875,-4.73019140625,-3.83081640625,-4.493234375,-4.769921875,-2.24881640625,-3.49356640625,-6.73152734375
0.6540234375,-8.7419296875,-3.81923046875,0.42291015625,-9.2433671875,-13.9753046875,-15.78801953125,-4.98037109375,-8.91761328125,-13.71566796875,-12.34483984375,-9.872734375,-3.16982421875,-10.15265625,-12.3432421875,-10.57745703125,-12.47748046875,-6.365234375,-10.02547265625,-10.4363671875,-7.15402734375,-9.63378125,-4.17066796875,-6.80519140625,-7.10281640625,-8.248234375,-7.449921875,-4.85081640625,-5.70256640625,-9.65852734375
0.2340234375,-9.6019296875,-4.52623046875,1.79691015625,-11.5823671875,-15.9923046875,-16.51801953125,-6.82037109375,-11.99861328125,-15.81466796875,-14.35983984375,-11.810734375,-3.80682421875,-12.59165625,-13.9122421875,-12.71545703125,-19.29648046875,-8.644234375,-11.75847265625,-12.0843671875,-10.81502734375,-11.99478125,-5.84966796875,-8.34419140625,-9.72181640625,-11.631234375,-9.177921875,-6.53581640625,-6.75456640625,-11.46252734375
0.3140234375,-9.3669296875,-4.75323046875,2.80191015625,-13.0403671875,-17.4323046875,-17.35701953125,-6.96637109375,-13.08461328125,-16.97566796875,-16.11183984375,-13.346734375,-3.47382421875,-13.82465625,-14.9002421875,-14.28845703125,-22.91548046875,-9.513234375,-12.38947265625,-12.8693671875,-13.48102734375,-11.20078125,-6.25966796875,-9.02419140625,-11.22681640625,-13.796234375,-9.526921875,-6.79681640625,-6.52356640625,-11.76152734375
0.7030234375,-8.2919296875,-4.65223046875,3.34991015625,-13.0923671875,-17.8103046875,-18.03301953125,-5.41837109375,-12.02061328125,-16.81866796875,-17.13383984375,-14.067734375,-1.64082421875,-13.51065625,-15.1302421875,-15.15345703125,-22.51548046875,-8.654234375,-11.79547265625,-12.8123671875,-14.82602734375,-7.42978125,-5.31766796875,-8.74919140625,-11.51681640625,-14.288234375,-8.521921875,-5.63781640625,-5.33756640625,-10.67752734375
1.1290234375,-6.8539296875,-4.34923046875,3.45291015625,-11.7023671875,-16.9993046875,-18.33501953125,-2.81737109375,-9.34161328125,-15.35366796875,-17.15383984375,-13.707734375,1.53817578125,-11.78865625,-14.5762421875,-15.26345703125,-18.80248046875,-6.372234375,-10.21547265625,-12.0973671875,-14.79102734375,-2.02778125,-3.42866796875,-7.71519140625,-10.81981640625,-13.194234375,-6.644921875,-3.59881640625,-3.83756640625,-8.76952734375
1.2560234375,-5.6049296875,-3.97023046875,3.05391015625,-9.3633671875,-15.3283046875,-18.20001953125,-0.17237109375,-6.07461328125,-13.03466796875,-16.18383984375,-12.234734375,5.03117578125,-9.27965625,-13.4342421875,-14.64645703125,-13.57948046875,-3.582234375,-8.22047265625,-10.9993671875,-13.48702734375,2.88921875,-1.38666796875,-6.36019140625,-9.54781640625,-11.071234375,-4.649921875,-1.51981640625,-2.69256640625,-6.79152734375
0.8270234375,-4.9559296875,-3.63723046875,2.00891015625,-6.9173671875,-13.4193046875,-17.68701953125,1.67362890625,-3.37661328125,-10.61866796875,-14.50683984375,-9.839734375,7.26917578125,-6.89365625,-12.0812421875,-13.40445703125,-8.82948046875,-1.522234375,-6.53247265625,-9.7893671875,-11.11402734375,5.12821875,-0.0976679687500006,-5.19919140625,-8.13081640625,-8.723234375,-3.271921875,-0.15581640625,-2.31456640625,-5.38252734375
-0.1339765625,-4.9809296875,-3.41123046875,0.28591015625,-5.2273671875,-11.8353046875,-16.85501953125,2.49562890625,-2.12161328125,-8.86666796875,-12.54683984375,-6.860734375,6.94417578125,-5.48765625,-10.9072421875,-11.71745703125,-5.79348046875,-1.237234375,-5.73947265625,-8.6473671875,-7.93302734375,3.28321875,-0.190667968750001,-4.60319140625,-6.86681640625,-6.913234375,-2.943921875,0.15118359375,-2.70256640625,-4.83552734375
-1.2489765625,-5.3909296875,-3.23323046875,-1.82408984375,-4.8013671875,-10.8003046875,-15.69701953125,2.73562890625,-2.58061328125,-8.21566796875,-10.69283984375,-3.683734375,3.85117578125,-5.49065625,-10.1222421875,-9.82245703125,-4.57648046875,-3.031234375,-6.03247265625,-7.6163671875,-4.30202734375,-2.49278125,-1.69166796875,-4.62219140625,-5.86181640625,-6.106234375,-3.631921875,-0.42381640625,-3.51156640625,-5.03752734375
-1.9599765625,-5.7319296875,-2.95923046875,-3.72808984375,-5.5783671875,-10.1883046875,-14.21001953125,3.08762890625,-4.33261328125,-8.59266796875,-9.15183984375,-0.693734375,-0.802824218750001,-6.71365625,-9.6812421875,-7.98045703125,-4.43148046875,-6.233234375,-7.10747265625,-6.6303671875,-0.723027343749999,-10.30178125,-3.96866796875,-4.97819140625,-5.06381640625,-6.304234375,-4.891921875,-1.35481640625,-4.28656640625,-5.61152734375
-1.8599765625,-5.6779296875,-2.46423046875,-4.82808984375,-6.9813671875,-9.7053046875,-12.52601953125,3.96062890625,-6.46961328125,-9.48166796875,-7.93583984375,1.737265625,-4.93482421875,-8.44265625,-9.3652421875,-6.45345703125,-4.52048046875,-9.475234375,-8.33247265625,-5.6373671875,2.13997265625,-17.19078125,-6.03666796875,-5.27519140625,-4.40681640625,-7.117234375,-6.133921875,-2.08881640625,-4.73256640625,-6.17752734375
-0.9509765625,-5.2239296875,-1.75823046875,-4.82008984375,-8.2273671875,-9.0953046875,-10.92701953125,5.18862890625,-7.99061328125,-10.19966796875,-6.94783984375,3.279265625,-6.67582421875,-9.79865625,-8.9792421875,-5.49045703125,-4.59448046875,-11.367234375,-9.09347265625,-4.7413671875,3.53597265625,-20.43178125,-7.07266796875,-5.28519140625,-3.97181640625,-8.057234375,-6.947921875,-2.34681640625,-4.84756640625,-6.56652734375
0.3760234375,-4.6429296875,-0.98423046875,-3.77508984375,-8.6653671875,-8.2513046875,-9.73401953125,6.15462890625,-8.17961328125,-10.20266796875,-6.09983984375,3.725265625,-5.33082421875,-10.12465625,-8.4842421875,-5.27545703125,-5.11548046875,-11.126234375,-9.08947265625,-4.2233671875,2.89097265625,-18.71478125,-6.80466796875,-5.09919140625,-4.01381640625,-8.874234375,-7.284921875,-2.22881640625,-4.86156640625,-6.84952734375
1.6000234375,-4.2619296875,-0.302230468749999,-1.96508984375,-8.0033671875,-7.2563046875,-9.17801953125,6.18962890625,-6.82561328125,-9.29566796875,-5.38483984375,3.101265625,-1.62982421875,-9.22865625,-7.9982421875,-5.82545703125,-6.72548046875,-8.857234375,-8.42247265625,-4.3763671875,0.19797265625,-12.65978125,-5.59366796875,-5.03019140625,-4.78081640625,-9.622234375,-7.387921875,-2.08981640625,-5.03756640625,-7.20852734375
2.3580234375,-4.2569296875,0.224769531250001,0.31291015625,-6.4093671875,-6.3643046875,-9.34001953125,4.99962890625,-4.27261328125,-7.71066796875,-4.93083984375,1.669265625,2.73617578125,-7.43465625,-7.7292421875,-6.95245703125,-9.54748046875,-5.442234375,-7.49447265625,-5.3053671875,-3.77702734375,-4.55178125,-4.22166796875,-5.39419140625,-6.29081640625,-10.435234375,-7.599921875,-2.33281640625,-5.51256640625,-7.77852734375
2.5020234375,-4.6269296875,0.58276953125,2.70791015625,-4.5153671875,-5.9703046875,-10.21201953125,2.85762890625,-1.35561328125,-6.08366796875,-5.04683984375,-0.224734375000001,5.89417578125,-5.48965625,-7.9382421875,-8.39245703125,-12.90948046875,-2.222234375,-6.86947265625,-6.8853671875,-7.76502734375,2.48221875,-3.58166796875,-6.37919140625,-8.28181640625,-11.323234375,-8.202921875,-3.24281640625,-6.28056640625,-8.59052734375
1.9580234375,-5.3369296875,0.68076953125,4.66791015625,-3.2913671875,-6.5283046875,-11.79101953125,0.43762890625,0.765386718749998,-5.31966796875,-6.18183984375,-2.367734375,6.46817578125,-4.36465625,-8.9242421875,-10.02245703125,-15.70548046875,-0.572234374999999,-7.12247265625,-8.9113671875,-10.66902734375,5.61221875,-4.37866796875,-8.03819140625,-10.40681640625,-12.223234375,-9.363921875,-4.89581640625,-7.26256640625,-9.59152734375
0.6040234375,-6.4439296875,0.30376953125,5.42291015625,-3.7023671875,-8.4113046875,-14.10001953125,-1.54537109375,0.955386718749999,-6.26866796875,-8.70283984375,-4.721734375,4.01217578125,-4.91565625,-10.9262421875,-11.92745703125,-17.03848046875,-1.411234375,-8.65247265625,-11.2513671875,-12.15902734375,3.47321875,-6.86666796875,-10.33319140625,-12.44481640625,-13.176234375,-11.116921875,-7.11881640625,-8.34656640625,-10.67052734375
-1.6589765625,-8.0579296875,-0.73323046875,4.30191015625,-6.2473671875,-11.6943046875,-17.04501953125,-2.64537109375,-1.40761328125,-9.30666796875,-12.56583984375,-7.228734375,-0.821824218750001,-7.49865625,-13.9232421875,-14.23445703125,-16.69348046875,-4.778234375,-11.47147265625,-13.8433671875,-12.72202734375,-3.13778125,-10.68566796875,-13.10319140625,-14.35881640625,-14.339234375,-13.325921875,-9.49681640625,-9.38956640625,-11.67552734375
-4.6799765625,-10.1399296875,-2.36623046875,1.20991015625,-10.6423671875,-15.9433046875,-20.21101953125,-2.74237109375,-6.07161328125,-14.04366796875,-17.11683984375,-9.571734375,-6.46082421875,-11.72765625,-17.4872421875,-16.86145703125,-15.18148046875,-9.751234375,-15.10647265625,-16.5483671875,-13.15502734375,-11.57178125,-14.93466796875,-16.02919140625,-16.16581640625,-15.757234375,-15.687921875,-11.51281640625,-10.22956640625,-12.45852734375
-7.9079765625,-12.3379296875,-4.20923046875,-3.08208984375,-15.8453671875,-20.2193046875,-22.84001953125,-1.95737109375,-11.89661328125,-19.36066796875,-21.24883984375,-11.174734375,-10.98982421875,-16.56265625,-20.8322421875,-19.41845703125,-13.41748046875,-14.807234375,-18.72047265625,-19.0543671875,-13.93302734375,-18.60878125,-18.50766796875,-18.65519140625,-17.78781640625,-17.138234375,-17.819921875,-12.76681640625,-10.75756640625,-12.95252734375
-10.4809765625,-14.0429296875,-5.69623046875,-7.11208984375,-20.4073671875,-23.3853046875,-24.10301953125,-0.58237109375,-17.23361328125,-23.77566796875,-23.85083984375,-11.494734375,-12.92582421875,-20.67665625,-23.0892421875,-21.35545703125,-12.30148046875,-18.465234375,-21.39747265625,-20.9233671875,-14.92202734375,-21.98978125,-20.55066796875,-20.51519140625,-19.01881640625,-17.912234375,-19.382921875,-13.16181640625,-10.99456640625,-13.21452734375
-11.5619765625,-14.6639296875,-6.33423046875,-9.33808984375,-22.9753671875,-24.5693046875,-23.50601953125,0.95962890625,-20.52361328125,-25.97066796875,-24.27683984375,-10.372734375,-11.80582421875,-22.94365625,-23.6322421875,-22.23345703125,-12.41748046875,-19.855234375,-22.46547265625,-21.7633671875,-15.57902734375,-21.31778125,-20.77566796875,-21.28319140625,-19.62781640625,-17.580234375,-20.204921875,-12.93681640625,-11.07856640625,-13.37252734375
-10.7329765625,-13.9399296875,-5.91423046875,-8.87608984375,-22.7593671875,-23.4943046875,-21.10101953125,2.25062890625,-20.83861328125,-25.26466796875,-22.58183984375,-8.162734375,-8.29482421875,-22.81165625,-22.3052421875,-21.90945703125,-13.88148046875,-18.959234375,-21.69947265625,-21.3933671875,-15.41402734375,-17.92178125,-19.47266796875,-20.88719140625,-19.49081640625,-16.097234375,-20.305921875,-12.50381640625,-11.16156640625,-13.52152734375
-8.2189765625,-12.0819296875,-4.56523046875,-5.93908984375,-19.7873671875,-20.5103046875,-17.40601953125,3.10262890625,-18.15961328125,-21.83366796875,-19.40883984375,-5.533734375,-3.80082421875,-20.42665625,-19.4302421875,-20.52845703125,-16.27248046875,-16.455234375,-19.33747265625,-19.8943671875,-14.31402734375,-13.88278125,-17.23966796875,-19.48019140625,-18.62381640625,-13.960234375,-19.805921875,-12.18981640625,-11.25856640625,-13.61452734375
-4.8179765625,-9.6829296875,-2.66423046875,-1.75008984375,-14.8523671875,-16.4193046875,-13.18501953125,3.64862890625,-13.32661328125,-16.61366796875,-15.66183984375,-3.141734375,0.143175781249999,-16.50465625,-15.6542421875,-18.39145703125,-18.68248046875,-13.311234375,-15.93647265625,-17.5333671875,-12.56802734375,-10.86178125,-14.63566796875,-17.33019140625,-17.13181640625,-11.981234375,-18.788921875,-12.02081640625,-11.16856640625,-13.43152734375
-1.6039765625,-7.4919296875,-0.68323046875,2.03691015625,-9.2413671875,-12.2443046875,-9.28301953125,4.18262890625,-7.76461328125,-10.98066796875,-12.19783984375,-1.426734375,2.40817578125,-12.08965625,-11.7532421875,-15.85145703125,-19.98848046875,-10.404234375,-12.20047265625,-14.6933671875,-10.70402734375,-9.43778125,-12.02766796875,-14.75119140625,-15.18481640625,-10.936234375,-17.261921875,-11.72581640625,-10.57756640625,-12.70252734375
0.4490234375,-6.1559296875,0.92376953125,4.06191015625,-4.3833671875,-8.9983046875,-6.51601953125,4.86162890625,-3.11761328125,-6.36266796875,-9.67283984375,-0.643734374999999,2.47117578125,-8.30465625,-8.5052421875,-13.33745703125,-19.40148046875,-8.382234375,-8.88347265625,-11.8753671875,-9.29702734375,-9.27578125,-9.69366796875,-12.13619140625,-13.08881640625,-11.293234375,-15.282921875,-10.98281640625,-9.33756640625,-11.35252734375
0.7730234375,-6.0219296875,1.76476953125,3.77291015625,-1.5183671875,-7.4233046875,-5.49901953125,5.51962890625,-0.828613281250002,-3.86766796875,-8.50983984375,-0.963734375,0.363175781249998,-6.13165625,-6.5712421875,-11.36545703125,-16.97148046875,-7.697234375,-6.71147265625,-9.6713671875,-8.78602734375,-9.81578125,-8.01666796875,-10.01119140625,-11.31681640625,-13.036234375,-13.149921875,-9.74981640625,-7.71456640625,-9.71052734375
-0.5989765625,-7.0049296875,1.59676953125,1.53691015625,-1.3243671875,-7.7373046875,-6.39901953125,5.74762890625,-1.64661328125,-3.95066796875,-8.83683984375,-2.449734375,-3.39782421875,-6.11565625,-6.3032421875,-10.39745703125,-13.68948046875,-8.549234375,-6.19447265625,-8.5883671875,-9.27402734375,-10.75678125,-7.45366796875,-8.90719140625,-10.35281640625,-15.602234375,-11.381921875,-8.36381640625,-6.34056640625,-8.43852734375
-2.9809765625,-8.5719296875,0.47976953125,-1.60408984375,-3.5883671875,-9.4993046875,-8.76701953125,5.17962890625,-5.19161328125,-6.17666796875,-10.34783984375,-4.865734375,-7.77882421875,-8.05265625,-7.5022421875,-10.54045703125,-11.01748046875,-10.647234375,-7.32247265625,-8.7543671875,-10.35002734375,-11.89778125,-8.19466796875,-9.05519140625,-10.37881640625,-17.981234375,-10.444921875,-7.31581640625,-5.83956640625,-8.13652734375
-5.1989765625,-9.8769296875,-1.09923046875,-4.35108984375,-7.1203671875,-11.7033046875,-11.57401953125,3.83462890625,-9.88061328125,-9.26566796875,-12.25283984375,-7.530734375,-11.29382421875,-10.89165625,-9.3342421875,-11.34145703125,-10.08048046875,-13.015234375,-9.37947265625,-9.7163671875,-11.12302734375,-12.66978125,-9.80766796875,-10.13019140625,-11.04381640625,-19.032234375,-10.409921875,-6.86481640625,-6.38456640625,-8.91952734375
-6.0389765625,-10.0519296875,-2.31823046875,-5.58008984375,-10.1543671875,-13.0903046875,-13.52501953125,2.28162890625,-13.46861328125,-11.52766796875,-13.47483984375,-9.438734375,-12.39382421875,-13.07265625,-10.5872421875,-11.90945703125,-10.99448046875,-14.215234375,-11.13347265625,-10.5723671875,-10.53702734375,-12.09878125,-11.23766796875,-11.30919140625,-11.54181640625,-17.951234375,-10.857921875,-6.83981640625,-7.53956640625,-10.28652734375
-4.7899765625,-8.5539296875,-2.36023046875,-4.68508984375,-11.1193671875,-12.6553046875,-13.55301953125,1.47762890625,-14.07061328125,-11.59566796875,-13.08483984375,-9.654734375,-10.14582421875,-13.23565625,-10.2212421875,-11.34545703125,-12.73248046875,-13.038234375,-11.40247265625,-10.4113671875,-7.89802734375,-9.49178125,-11.31166796875,-11.67619140625,-11.02481640625,-14.685234375,-11.118921875,-6.75481640625,-8.50256640625,-11.40052734375
-1.6209765625,-5.4439296875,-0.84623046875,-1.78108984375,-9.3863671875,-10.1253046875,-11.31201953125,2.27462890625,-11.13761328125,-9.07266796875,-10.76183984375,-7.798734375,-4.83082421875,-10.92965625,-7.9182421875,-9.24245703125,-13.66148046875,-9.270234375,-9.68547265625,-8.8223671875,-3.34102734375,-5.25778125,-9.43666796875,-10.73219140625,-9.10981640625,-10.103234375,-10.687921875,-6.13381640625,-8.56456640625,-11.57952734375
2.4800234375,-1.4489296875,1.90776953125,2.31391015625,-5.5683671875,-6.1763046875,-7.39101953125,4.88762890625,-5.76461328125,-4.75466796875,-6.99883984375,-4.332734375,2.00917578125,-6.88965625,-4.3252421875,-5.95745703125,-12.50248046875,-3.962234375,-6.47047265625,-6.1563671875,2.03497265625,-0.98278125,-6.00966796875,-8.69019140625,-6.17181640625,-5.794234375,-9.521921875,-4.81581640625,-7.49956640625,-10.66652734375
6.1550234375,2.2800703125,4.95076953125,6.37291015625,-1.2073671875,-2.1663046875,-3.06901953125,8.67062890625,-0.145613281250002,-0.273667968749997,-2.95983984375,-0.461734375000001,8.20417578125,-2.68965625,-0.8032421875,-2.50545703125,-9.16548046875,1.042765625,-3.01347265625,-3.3963671875,6.50397265625,1.52021875,-2.23966796875,-6.38319140625,-3.23681640625,-3.498234375,-8.060921875,-3.05981640625,-5.67856640625,-9.09052734375
8.3040234375,4.6380703125,7.08276953125,9.24291015625,1.9786328125,0.499695312500002,0.260980468749999,12.35162890625,3.54838671875,2.65733203125,0.00416015625000199,2.326265625,11.92717578125,0.0213437499999998,1.1997578125,-0.135457031250001,-4.92148046875,4.043765625,-0.735472656249998,-1.7063671875,8.42097265625,1.43821875,0.48433203125,-4.83519140625,-1.51581640625,-4.351234375,-6.982921875,-1.41781640625,-3.86356640625,-7.61352734375
8.5170234375,5.0060703125,7.37176953125,10.28191015625,2.8836328125,0.9926953125,1.66598046875,14.54262890625,4.18538671875,3.00933203125,0.91816015625,2.892265625,12.44017578125,0.28634375,0.818757812499999,0.221542968750001,-1.77148046875,4.264765625,-0.568472656249998,-1.8823671875,6.96097265625,-0.57378125,1.24533203125,-4.78119140625,-1.82281640625,-8.280234375,-6.865921875,-0.453816406250001,-2.84056640625,-6.93752734375
7.1480234375,3.4530703125,5.55876953125,9.52791015625,1.4416328125,-0.655304687499999,0.957980468750002,14.28662890625,2.03538671875,0.826332031250001,-0.41883984375,0.930265625000001,10.19417578125,-1.82765625,-1.8542421875,-1.63845703125,-1.37648046875,2.042765625,-2.59547265625,-4.0133671875,2.52997265625,-3.05578125,-0.08266796875,-6.36919140625,-4.19581640625,-13.910234375,-7.949921875,-0.51081640625,-3.08856640625,-7.40852734375
5.0220234375,0.6180703125,2.14476953125,7.54991015625,-1.4833671875,-3.6593046875,-1.33601953125,11.42662890625,-1.64161328125,-2.90866796875,-3.39683984375,-2.907734375,6.36717578125,-5.40965625,-5.8602421875,-5.11745703125,-4.19148046875,-1.596234375,-6.12447265625,-7.4753671875,-3.36402734375,-4.90178125,-2.95366796875,-9.17919140625,-7.92281640625,-19.118234375,-10.088921875,-1.61581640625,-4.64056640625,-8.94052734375
3.0000234375,-2.6009296875,-1.84423046875,5.13191015625,-4.6173671875,-6.8513046875,-4.25701953125,6.69162890625,-5.39361328125,-6.78966796875,-6.90083984375,-7.321734375,2.20717578125,-9.22165625,-9.8282421875,-9.09245703125,-9.29248046875,-5.527234375,-10.05347265625,-11.2373671875,-8.75102734375,-6.02178125,-6.48766796875,-12.45419140625,-11.90981640625,-22.003234375,-12.844921875,-3.51681640625,-7.12056640625,-11.10752734375
1.6320234375,-5.3889296875,-5.29323046875,2.95691015625,-6.8673671875,-9.1453046875,-6.82101953125,1.42862890625,-8.23761328125,-9.58766796875,-9.78683984375,-10.958734375,-1.38582421875,-12.20765625,-12.5412421875,-12.40745703125,-14.87948046875,-8.908234375,-13.31747265625,-14.3023671875,-12.05602734375,-7.02578125,-9.79466796875,-15.38319140625,-15.18081640625,-21.755234375,-15.613921875,-5.75981640625,-9.86156640625,-13.30052734375
1.0340234375,-7.2299296875,-7.39823046875,1.41691015625,-7.7013671875,-9.9383046875,-8.40101953125,-2.94537109375,-9.85161328125,-10.65866796875,-11.31183984375,-13.021734375,-3.91782421875,-13.78865625,-13.3562421875,-14.33945703125,-19.10048046875,-11.232234375,-15.19947265625,-16.0743671875,-12.74702734375,-8.39178125,-12.17066796875,-17.32419140625,-17.22381640625,-18.936234375,-17.757921875,-7.77381640625,-12.07556640625,-14.87452734375
0.9980234375,-7.9639296875,-7.89623046875,0.60291015625,-7.2163671875,-9.2643046875,-8.90701953125,-5.49937109375,-10.38461328125,-10.05166796875,-11.33183984375,-13.552734375,-5.13782421875,-13.89065625,-12.3382421875,-14.82845703125,-20.78048046875,-12.234234375,-15.45547265625,-16.4953671875,-11.45702734375,-9.92478125,-13.18966796875,-17.94219140625,-18.06081640625,-15.067234375,-18.742921875,-8.97681640625,-13.05556640625,-15.30952734375
1.2340234375,-7.6939296875,-7.06123046875,0.41791015625,-5.9573671875,-7.6453046875,-8.66201953125,-6.09337109375,-10.16661328125,-8.34266796875,-10.23583984375,-13.253734375,-4.90482421875,-12.80965625,-10.1212421875,-14.36545703125,-19.80848046875,-11.855234375,-14.26547265625,-15.9293671875,-9.53602734375,-10.92878125,-12.73366796875,-17.23619140625,-18.04681640625,-11.783234375,-18.284921875,-8.92081640625,-12.39456640625,-14.37152734375
1.5940234375,-6.6469296875,-5.49123046875,0.71791015625,-4.6093671875,-5.7733046875,-8.13201953125,-5.28937109375,-9.52361328125,-6.30666796875,-8.66283984375,-12.960734375,-3.21482421875,-11.00765625,-7.5632421875,-13.63145703125,-17.04448046875,-10.271234375,-12.07747265625,-14.8553671875,-8.29502734375,-10.76878125,-10.95966796875,-15.46419140625,-17.55081640625,-10.032234375,-16.422921875,-7.41881640625,-10.12756640625,-12.19252734375
2.1470234375,-5.0779296875,-3.80823046875,1.38991015625,-3.6783671875,-4.2413046875,-7.70801953125,-3.98437109375,-8.73161328125,-4.58366796875,-7.18383984375,-13.129734375,-0.310824218750001,-8.93665625,-5.3852421875,-13.08345703125,-13.80448046875,-7.866234375,-9.39647265625,-13.5773671875,-8.35002734375,-9.26578125,-8.21466796875,-12.98319140625,-16.70781640625,-9.733234375,-13.472921875,-4.62381640625,-6.72956640625,-9.23252734375
3.0950234375,-3.2299296875,-2.41923046875,2.36291015625,-3.3163671875,-3.4023046875,-7.63001953125,-2.97037109375,-8.00261328125,-3.48566796875,-6.12183984375,-13.639734375,3.25617578125,-6.93365625,-3.9432421875,-12.75845703125,-11.21248046875,-5.148234375,-6.64347265625,-12.1143671875,-9.41702734375,-6.71578125,-4.95266796875,-10.13719140625,-15.40381640625,-10.042234375,-9.917921875,-1.02081640625,-2.96056640625,-6.12652734375
4.5860234375,-1.3289296875,-1.46423046875,3.55291015625,-3.3573671875,-3.3263046875,-7.98401953125,-2.64837109375,-7.45861328125,-2.99066796875,-5.55583984375,-14.004734375,6.67417578125,-5.20965625,-3.2102421875,-12.37945703125,-9.80748046875,-2.646234375,-4.11947265625,-10.3343671875,-10.62502734375,-3.74678125,-1.70266796875,-7.23319140625,-13.47981640625,-10.002234375,-6.312921875,2.65218359375,0.36843359375,-3.49652734375
6.5430234375,0.431070312500001,-0.89923046875,4.79691015625,-3.4813671875,-3.8083046875,-8.67601953125,-2.97737109375,-7.07361328125,-2.85766796875,-5.40283984375,-13.752734375,9.10217578125,-3.87965625,-2.8952421875,-11.60845703125,-9.55248046875,-0.802234374999999,-2.03047265625,-8.1693671875,-11.07702734375,-1.11378125,0.980332031250001,-4.55719140625,-10.95781640625,-9.100234375,-3.190921875,5.59718359375,2.66843359375,-1.74752734375
8.6340234375,1.9200703125,-0.59823046875,5.82591015625,-3.3613671875,-4.4413046875,-9.40701953125,-3.59537109375,-6.63261328125,-2.73866796875,-5.44483984375,-12.677734375,10.00717578125,-2.95565625,-2.6002421875,-10.24845703125,-10.08348046875,0.183765625000001,-0.478472656249998,-5.7213671875,-10.26902734375,0.61721875,2.65933203125,-2.34819140625,-8.10081640625,-7.433234375,-0.927921874999999,7.23918359375,3.78043359375,-0.918527343749999
10.3830234375,3.0760703125,-0.41023046875,6.30491015625,-2.7803671875,-4.7513046875,-9.70701953125,-3.99837109375,-5.81161328125,-2.29566796875,-5.34483984375,-10.846734375,9.37017578125,-2.35765625,-1.9702421875,-8.28845703125,-10.97448046875,0.447765625000001,0.548527343750001,-3.2323671875,-8.22902734375,1.34421875,3.19033203125,-0.742191406250001,-5.31481640625,-5.554234375,0.362078125,7.44218359375,3.98343359375,-0.689527343749999
11.3270234375,3.8530703125,-0.22423046875,5.92691015625,-1.7453671875,-4.3813046875,-9.08201953125,-3.71637109375,-4.44561328125,-1.36166796875,-4.75783984375,-8.490734375,7.56217578125,-2.00565625,-0.868242187500002,-5.90345703125,-11.93848046875,0.325765625000001,1.10252734375,-1.0153671875,-5.42702734375,1.34221875,2.73833203125,0.217808593749998,-3.03581640625,-4.224234375,0.791078125,6.48118359375,3.74943359375,-0.626527343749999
11.1480234375,4.1690703125,-0.0472304687499996,4.54591015625,-0.561367187499998,-3.2433046875,-7.24801953125,-2.48837109375,-2.78761328125,-0.0896679687499997,-3.52083984375,-5.914734375,5.03217578125,-1.93665625,0.511757812499999,-3.41745703125,-12.88148046875,0.0737656250000018,1.16252734375,0.5956328125,-2.53902734375,0.85621875,1.63933203125,0.50980859375,-1.63581640625,-4.132234375,0.534078125000001,4.79418359375,3.39443359375,-0.506527343749999
9.7790234375,3.9280703125,-0.0102304687499997,2.32091015625,0.295632812500001,-1.5703046875,-4.30201953125,-0.37637109375,-1.50161328125,1.08633203125,-1.76783984375,-3.427734375,2.13117578125,-2.29565625,1.7257578125,-1.19045703125,-13.71948046875,-0.297234374999999,0.647527343750001,1.3646328125,-0.111027343749999,-0.17978125,0.236332031249999,0.13480859375,-1.27981640625,-5.535234375,-0.272921875,2.73318359375,2.89843359375,-0.477527343749999
7.5040234375,3.1460703125,-0.22823046875,-0.19908984375,0.459632812500001,0.190695312500001,-0.693019531249998,2.27362890625,-1.30061328125,1.70333203125,0.16816015625,-1.220734375,-0.777824218750002,-3.16465625,2.3607578125,0.59054296875,-14.11348046875,-0.870234374999999,-0.412472656249999,1.3416328125,1.78297265625,-1.95778125,-1.14866796875,-0.761191406250001,-1.74881640625,-7.923234375,-1.464921875,0.506183593749999,2.04543359375,-0.886527343749999
4.9680234375,2.0830703125,-0.61223046875,-2.14508984375,-0.0833671874999986,1.6246953125,3.03298046875,5.03462890625,-2.47861328125,1.55733203125,1.99116015625,0.741265625,-3.16482421875,-4.38265625,2.3147578125,2.05554296875,-13.40348046875,-1.557234375,-1.71247265625,0.959632812499999,3.59297265625,-4.31478125,-2.17066796875,-1.79219140625,-2.39781640625,-10.077234375,-2.733921875,-1.69381640625,0.735433593750001,-1.91752734375
2.9840234375,1.2170703125,-0.83323046875,-2.64808984375,-1.0083671875,2.5566953125,6.49998046875,7.62262890625,-4.69161328125,0.798332031250002,3.58116015625,2.691265625,-4.42482421875,-5.56565625,1.8557578125,3.56854296875,-10.91248046875,-2.034234375,-2.73847265625,0.876632812499999,5.95997265625,-6.50778125,-2.51566796875,-2.44219140625,-2.42081640625,-10.639234375,-3.647921875,-3.58281640625,-0.809566406249999,-3.34252734375
2.1530234375,1.0130703125,-0.51423046875,-1.31108984375,-1.9343671875,3.0386953125,9.51698046875,9.92562890625,-7.15861328125,-0.233667968749998,4.93716015625,4.839265625,-4.24482421875,-6.34865625,1.3887578125,5.40954296875,-6.44048046875,-1.981234375,-3.07047265625,1.5836328125,9.14897265625,-7.59578125,-2.09266796875,-2.37419140625,-1.31081640625,-8.905234375,-3.878921875,-4.84781640625,-2.15256640625,-4.61552734375
2.5070234375,1.6150703125,0.49776953125,1.44491015625,-2.7033671875,3.1336953125,11.87498046875,11.86162890625,-9.14061328125,-1.27566796875,5.99716015625,7.105265625,-2.91382421875,-6.65965625,1.1297578125,7.46354296875,-0.56848046875,-1.435234375,-2.71047265625,3.0446328125,12.72697265625,-7.16278125,-1.20466796875,-1.72619140625,0.78218359375,-5.253234375,-3.483921875,-5.36381640625,-2.96656640625,-5.23152734375
3.4580234375,2.7350703125,1.98576953125,4.51391015625,-3.4603671875,2.7666953125,13.21798046875,13.26762890625,-10.31661328125,-2.27766796875,6.55916015625,9.079265625,-1.25782421875,-6.76565625,0.963757812499999,9.19654296875,5.42551953125,-0.873234374999999,-2.14047265625,4.6646328125,15.73297265625,-5.72178125,-0.49666796875,-1.12319140625,3.07318359375,-0.931234374999999,-2.983921875,-5.34981640625,-3.32256640625,-5.09552734375
4.1410234375,3.8490703125,3.47676953125,6.71291015625,-4.4383671875,1.8326953125,13.21898046875,13.97362890625,-10.80061328125,-3.29666796875,6.40316015625,10.261265625,-0.169824218750001,-7.02765625,0.604757812499999,9.95854296875,9.99151953125,-0.902234374999999,-2.02647265625,5.6436328125,17.25697265625,-4.36778125,-0.60766796875,-1.32719140625,4.55918359375,2.638765625,-3.109921875,-5.31681640625,-3.67756640625,-4.59952734375
3.9460234375,4.5650703125,4.52876953125,7.47191015625,-5.6503671875,0.4256953125,11.89798046875,13.97762890625,-10.83761328125,-4.28666796875,5.52516015625,10.415265625,-0.0888242187500019,-7.56465625,-0.0942421875000008,9.42954296875,11.92451953125,-1.797234375,-2.75947265625,5.4816328125,17.02797265625,-3.97378125,-1.75066796875,-2.73119140625,4.59818359375,4.603765625,-4.342921875,-5.76081640625,-4.54456640625,-4.33552734375
2.8960234375,4.8500703125,4.99076953125,7.11791015625,-6.7353671875,-1.0823046875,9.74998046875,13.51662890625,-10.50861328125,-4.99566796875,4.24116015625,9.745265625,-0.820824218750001,-8.10065625,-0.949242187500001,7.86054296875,10.93551953125,-3.265234375,-4.17047265625,4.2936328125,15.61297265625,-4.62178125,-3.52066796875,-5.04819140625,3.28818359375,5.050765625,-6.540921875,-6.80681640625,-6.07556640625,-4.64452734375
1.6240234375,4.9770703125,5.04976953125,6.58191015625,-7.1473671875,-2.2273046875,7.51798046875,12.94062890625,-9.69661328125,-5.10866796875,3.02416015625,8.763265625,-1.79082421875,-8.16265625,-1.5602421875,5.92854296875,7.84751953125,-4.626234375,-5.63347265625,2.6986328125,14.09397265625,-5.68078125,-5.10866796875,-7.42819140625,1.39118359375,4.803765625,-8.949921875,-8.07881640625,-7.90056640625,-5.37552734375
0.9530234375,5.2430703125,5.02476953125,6.78291015625,-6.5893671875,-2.7643046875,5.76398046875,12.46462890625,-8.35961328125,-4.55066796875,2.16116015625,7.919265625,-2.48882421875,-7.47965625,-1.6652421875,4.27754296875,4.18951953125,-5.263234375,-6.50147265625,1.3766328125,13.40197265625,-6.36878125,-5.78766796875,-8.95619140625,-0.15381640625,4.800765625,-10.627921875,-8.94081640625,-9.36556640625,-6.05752734375
1.3450234375,5.6930703125,5.07076953125,8.05791015625,-5.3673671875,-2.8733046875,4.53298046875,11.96162890625,-6.82361328125,-3.69166796875,1.49216015625,7.280265625,-2.79682421875,-6.29365625,-1.4362421875,3.08854296875,1.36651953125,-5.020234375,-6.55647265625,0.597632812499999,13.69197265625,-6.31778125,-5.34666796875,-9.19819140625,-0.81681640625,5.436765625,-11.008921875,-8.91181640625,-9.97956640625,-6.30852734375
2.6120234375,6.0360703125,5.03376953125,9.96691015625,-4.3163671875,-3.1073046875,3.32598046875,10.96462890625,-5.79361328125,-3.23566796875,0.486160156250001,6.475265625,-2.98482421875,-5.29365625,-1.4492421875,1.99554296875,-0.0884804687499994,-4.280234375,-6.12847265625,0.0846328124999989,14.17097265625,-5.79278125,-4.18866796875,-8.40719140625,-0.767816406249999,6.288765625,-10.181921875,-7.93281640625,-9.68556640625,-6.11052734375
4.0450234375,5.8300703125,4.57876953125,11.55991015625,-4.3113671875,-4.0783046875,1.43098046875,8.94362890625,-5.97661328125,-3.80166796875,-1.36883984375,4.958265625,-3.42982421875,-5.20265625,-2.3062421875,0.39254296875,-0.706480468750001,-3.696234375,-5.81847265625,-0.7183671875,13.51497265625,-5.46578125,-3.02366796875,-7.28719140625,-0.68281640625,6.415765625,-8.744921875,-6.30281640625,-8.79756640625,-5.74052734375
4.9020234375,4.8120703125,3.49976953125,11.98291015625,-5.6833671875,-6.0103046875,-1.55001953125,5.74762890625,-7.59061328125,-5.48966796875,-4.13983984375,2.422265625,-4.25082421875,-6.28465625,-4.1682421875,-2.08545703125,-1.60248046875,-3.751234375,-6.03547265625,-2.1613671875,10.68897265625,-5.86778125,-2.38466796875,-6.49619140625,-1.21381640625,5.066765625,-7.353921875,-4.42781640625,-7.73056640625,-5.47352734375
4.8960234375,3.1660703125,1.95276953125,11.05491015625,-7.9553671875,-8.4513046875,-5.29201953125,1.89862890625,-10.09161328125,-7.71666796875,-7.27683984375,-0.925734374999999,-5.09682421875,-8.09165625,-6.5372421875,-5.24545703125,-3.60948046875,-4.397234375,-6.68747265625,-4.0563671875,5.65897265625,-6.84878125,-2.26466796875,-6.22819140625,-2.50681640625,2.308765625,-6.326921875,-2.59481640625,-6.78056640625,-5.34252734375
4.3710234375,1.5010703125,0.43976953125,9.41491015625,-10.0703671875,-10.4023046875,-8.81301953125,-1.55737109375,-12.35861328125,-9.45866796875,-9.84783984375,-4.418734375,-5.26682421875,-9.63565625,-8.4482421875,-8.40445703125,-6.62448046875,-5.015234375,-7.22247265625,-5.7293671875,-0.48402734375,-7.43078125,-2.12666796875,-6.15619140625,-4.09881640625,-0.931234374999999,-5.538921875,-0.92181640625,-6.06956640625,-5.14152734375
4.0170234375,0.5250703125,-0.477230468749999,8.11891015625,-10.9593671875,-10.8853046875,-11.02801953125,-3.62037109375,-13.24661328125,-9.79666796875,-11.05183984375,-7.312734375,-4.12582421875,-9.91965625,-9.0012421875,-10.80645703125,-9.68648046875,-4.771234375,-6.99747265625,-6.4573671875,-6.12402734375,-6.29078125,-1.27066796875,-5.73619140625,-5.27081640625,-3.492234375,-4.642921875,0.54918359375,-5.60956640625,-4.61752734375
4.3520234375,0.6340703125,-0.52923046875,7.99391015625,-10.1373671875,-9.5833046875,-11.43201953125,-3.93537109375,-12.18161328125,-8.43666796875,-10.69183984375,-9.226734375,-1.60282421875,-8.50565625,-7.8972421875,-12.09845703125,-11.73548046875,-3.172234375,-5.72647265625,-5.9823671875,-10.05702734375,-2.67678125,0.665332031249999,-4.64719140625,-5.57981640625,-4.805234375,-3.408921875,1.76218359375,-5.36256640625,-3.69252734375
5.3470234375,1.7150703125,0.10576953125,9.23591015625,-7.9623671875,-7.1433046875,-10.47001953125,-3.04137109375,-9.45661328125,-5.90866796875,-9.30683984375,-10.300734375,1.59417578125,-5.78965625,-5.6472421875,-12.51545703125,-12.44848046875,-0.476234374999999,-3.69047265625,-4.7203671875,-12.07702734375,2.81521875,3.40333203125,-3.03619140625,-5.14681640625,-5.202234375,-1.918921875,2.66318359375,-5.23356640625,-2.53152734375
6.4340234375,3.2650703125,0.94976953125,11.45791015625,-5.3993671875,-4.9783046875,-9.39501953125,-2.13037109375,-6.03261328125,-3.31066796875,-7.87483984375,-10.988734375,4.19017578125,-2.80665625,-3.3232421875,-12.65045703125,-12.49048046875,2.334765625,-1.59447265625,-3.5323671875,-12.85502734375,8.15821875,6.11333203125,-1.41019140625,-4.50281640625,-5.481234375,-0.483921875,3.31018359375,-5.01556640625,-1.41552734375
6.8390234375,4.6960703125,1.54176953125,14.05191015625,-3.4673671875,-4.6953046875,-9.72201953125,-2.51937109375,-3.00761328125,-1.76466796875,-7.29583984375,-11.677734375,4.88217578125,-0.71065625,-2.0172421875,-13.02045703125,-13.05748046875,4.004765625,-0.16547265625,-3.2253671875,-13.33102734375,10.66721875,7.81733203125,-0.292191406250002,-4.17581640625,-6.186234375,0.598078125000001,3.95018359375,-4.39156640625,-0.53952734375
6.0060234375,5.6090703125,1.67076953125,16.52891015625,-2.7363671875,-7.4073046875,-12.55501953125,-5.07237109375,-1.09061328125,-1.91166796875,-7.99283984375,-12.479734375,2.91117578125,-0.23265625,-2.3442421875,-13.79745703125,-15.13548046875,3.632765625,0.199527343750001,-4.1683671875,-14.14302734375,8.28521875,7.86033203125,0.0728085937499987,-4.39081640625,-7.280234375,1.219078125,4.93518359375,-3.05056640625,0.0964726562500005
3.8690234375,5.9160703125,1.39076953125,18.67591015625,-3.1783671875,-13.1823046875,-18.04501953125,-9.82937109375,-0.371613281250001,-3.69166796875,-9.84083984375,-13.315734375,-1.59582421875,-1.40565625,-4.2442421875,-14.86845703125,-18.97548046875,1.110765625,-0.444472656249999,-6.2173671875,-15.46402734375,0.71321875,6.21433203125,-0.238191406250001,-5.06881640625,-8.438234375,1.464078125,6.46818359375,-0.902566406249999,0.607472656250001
0.8770234375,5.8170703125,0.88076953125,20.52791015625,-4.3293671875,-20.9053046875,-25.25601953125,-15.97737109375,-0.414613281250002,-6.46066796875,-12.34883984375,-14.136734375,-7.64682421875,-3.61565625,-7.0942421875,-16.07245703125,-24.01548046875,-2.797234375,-1.69847265625,-8.9043671875,-17.16502734375,-10.21978125,3.49533203125,-0.952191406250002,-6.01281640625,-9.526234375,1.492078125,8.40918359375,1.77443359375,1.08147265625
0.8770234375,5.8170703125,0.88076953125,20.52791015625,-4.3293671875,-20.9053046875,-25.25601953125,-15.97737109375,-0.414613281250002,-6.46066796875,-12.34883984375,-14.136734375,-7.64682421875,-3.61565625,-7.0942421875,-16.07245703125,-24.01548046875,-2.797234375,-1.69847265625,-8.9043671875,-17.16502734375,-10.21978125,3.49533203125,-0.952191406250002,-6.01281640625,-9.526234375,1.492078125,8.40918359375,1.77443359375,1.08147265625
