"Fp1","Fpz","Fp2","F7","F3","Fz","F4","F8","FC5","FC1","FC2","FC6","T7","C3","Cz","C4","T8","CP5","CP1","CP2","CP6","P7","P3","Pz","P4","P8","POz","O1","Oz","O2"
4.37630078125,6.2893515625,2.76542578125,5.4050390625,4.7773359375,5.894984375,8.43453515625,8.72331640625,5.5861796875,8.19161328125,5.8065078125,7.69321875,4.98456640625,-2.707453125,5.53175,7.21621875,9.70034765625,-1.34430859375,0.504953125,6.72142578125,9.24666796875,7.51658203125,-1.2092265625,-11.07606640625,3.04578515625,22.35005078125,-18.54299609375,-0.93120703125,-7.18377734375,9.2121015625
2.33430078125,4.6163515625,2.76542578125,6.3730390625,6.1203359375,6.572984375,6.93553515625,8.12031640625,6.6971796875,7.91761328125,4.5785078125,4.80721875,5.73956640625,-2.367453125,5.49875,4.69721875,8.88234765625,3.19069140625,1.054953125,5.64642578125,7.95766796875,9.45658203125,2.7527734375,-8.94006640625,3.31678515625,19.91805078125,-15.42799609375,1.30679296875,-5.54477734375,11.9961015625
1.44930078125,3.3813515625,2.69142578125,7.5570390625,6.8773359375,7.061984375,5.65153515625,7.57531640625,7.4681796875,7.84961328125,3.7365078125,2.61021875,6.96456640625,-1.604453125,5.52675,2.76321875,8.43634765625,7.55969140625,2.388953125,5.23242578125,6.82766796875,12.91058203125,7.3527734375,-5.82506640625,3.81578515625,17.68105078125,-10.87999609375,5.50979296875,-3.38177734375,13.2671015625
1.70030078125,2.4243515625,2.15842578125,8.7440390625,6.9293359375,7.135984375,4.47253515625,6.87731640625,7.7491796875,7.70261328125,3.0065078125,0.94321875,8.54756640625,-0.595453125,5.34675,1.19121875,8.01934765625,11.45169140625,4.191953125,5.14242578125,5.64866796875,17.29258203125,12.1257734375,-2.12006640625,4.18878515625,15.40205078125,-5.38499609375,11.23279296875,-1.01977734375,12.7881015625
2.68830078125,1.5013515625,0.77142578125,9.6090390625,6.3493359375,6.581984375,3.20553515625,5.70931640625,7.4841796875,7.13661328125,1.9985078125,-0.52778125,10.10056640625,0.342546875,4.66775,-0.39678125,7.15034765625,14.50069140625,5.853953125,4.77942578125,4.13766796875,21.40058203125,16.2787734375,1.35593359375,3.93778515625,12.75505078125,-0.0079960937500001,17.28679296875,0.93322265625,10.6971015625
3.83530078125,0.4903515625,-1.55457421875,9.8970390625,5.4103359375,5.321984375,1.71853515625,3.82931640625,6.7591796875,6.01661328125,0.4815078125,-2.04678125,11.09656640625,0.953546875,3.41075,-2.24778125,5.53334765625,16.44069140625,6.835953125,3.66942578125,2.12466796875,24.08658203125,19.1147734375,3.78493359375,2.73178515625,9.55205078125,4.18400390625,22.35879296875,1.89622265625,7.3951015625
4.58230078125,-0.5436484375,-4.43757421875,9.5460390625,4.4853359375,3.485984375,0.00153515625000011,1.25131640625,5.7871796875,4.52461328125,-1.4784921875,-3.66178125,11.17056640625,1.178546875,1.78375,-4.31978125,3.24134765625,17.25669140625,6.955953125,1.72842578125,-0.34633203125,24.83658203125,20.3967734375,4.73993359375,0.61178515625,5.90005078125,6.65100390625,25.60879296875,1.66222265625,3.4911015625
4.51230078125,-1.4676484375,-7.14057421875,8.6790390625,3.8693359375,1.357984375,-1.86746484375,-1.71368359375,4.8191796875,3.05461328125,-3.6144921875,-5.30678125,10.46056640625,1.135546875,0.15175,-6.36978125,0.59734765625,17.23469140625,6.433953125,-0.72157421875,-3.04333203125,24.00158203125,20.4297734375,4.34293359375,-2.01721484375,2.18705078125,7.57500390625,26.97779296875,0.58022265625,-0.2438984375
3.42830078125,-2.2466484375,-8.94157421875,7.4880390625,3.6043359375,-0.765015625,-3.83346484375,-4.61468359375,4.0141796875,1.97661328125,-5.6644921875,-6.97978125,9.65756640625,0.994546875,-1.20125,-8.15778125,-2.16465234375,16.84369140625,5.708953125,-3.17257421875,-5.69633203125,22.57258203125,19.8437734375,3.14393359375,-4.59921484375,-1.10294921875,7.67400390625,27.08979296875,-0.55377734375,-3.0148984375
1.41230078125,-3.0156484375,-9.55257421875,6.1260390625,3.4263359375,-2.712015625,-5.92946484375,-7.10768359375,3.3691796875,1.41661328125,-7.5304921875,-8.83778125,9.59756640625,0.831546875,-2.26025,-9.62078125,-5.16265234375,16.49169140625,5.135953125,-5.23357421875,-8.12633203125,21.63958203125,19.1967734375,1.80193359375,-6.71421484375,-3.61994921875,7.74800390625,26.79379296875,-0.88777734375,-4.2768984375
-1.13769921875,-4.0076484375,-9.32357421875,4.6710390625,2.9223359375,-4.469015625,-8.22846484375,-9.09868359375,2.7571796875,1.19061328125,-9.2834921875,-11.10278125,10.61856640625,0.568546875,-3.27125,-10.90178125,-8.80665234375,16.26169140625,4.756953125,-6.81757421875,-10.27833203125,21.78858203125,18.6457734375,0.75793359375,-8.26421484375,-5.28494921875,8.23600390625,26.61779296875,0.0332226562500004,-3.9868984375
-3.58669921875,-5.3716484375,-9.05457421875,3.1650390625,1.8073359375,-6.087015625,-10.66346484375,-10.67368359375,2.0251796875,0.92561328125,-11.0204921875,-13.83078125,12.22656640625,0.020546875,-4.53625,-12.18878125,-13.38165234375,15.80769140625,4.284953125,-8.08857421875,-12.13033203125,22.75858203125,17.8767734375,0.0759335937499994,-9.44421484375,-6.22694921875,9.02100390625,26.47679296875,2.04622265625,-2.6358984375
-5.24469921875,-6.9956484375,-9.49957421875,1.6820390625,0.1543359375,-7.528015625,-12.86646484375,-11.86668359375,1.0661796875,0.31861328125,-12.6654921875,-16.68778125,13.36456640625,-0.982453125,-6.12725,-13.47378125,-18.55665234375,14.51169140625,3.320953125,-9.22457421875,-13.55333203125,23.55258203125,16.3207734375,-0.48306640625,-10.51721484375,-6.57094921875,9.57600390625,25.81079296875,4.46922265625,-1.0208984375
-5.61969921875,-8.4466484375,-10.83357421875,0.372039062500001,-1.5586640625,-8.560015625,-14.14846484375,-12.45768359375,-0.1388203125,-0.62338671875,-13.8564921875,-18.90378125,13.07056640625,-2.461453125,-7.71425,-14.40578125,-23.14965234375,11.82869140625,1.655953125,-10.18057421875,-14.24133203125,22.92858203125,13.5147734375,-1.23606640625,-11.57521484375,-6.23594921875,9.30900390625,24.00079296875,6.42722265625,0.1171015625
-4.58869921875,-9.0836484375,-12.43357421875,-0.537960937499999,-2.6166640625,-8.774015625,-13.73046484375,-11.94168359375,-1.4898203125,-1.51538671875,-14.0194921875,-19.50578125,11.01556640625,-4.224453125,-8.64325,-14.37178125,-25.41065234375,7.63269140625,-0.544046875,-10.65957421875,-13.78533203125,19.99858203125,9.3857734375,-2.37906640625,-12.46021484375,-4.94694921875,7.84300390625,20.74179296875,7.17222265625,0.3791015625
-2.43769921875,-8.3426484375,-13.13957421875,-0.799960937499999,-2.3736640625,-7.750015625,-11.12246484375,-9.75968359375,-2.7478203125,-1.76838671875,-12.6394921875,-17.74178125,7.58856640625,-5.913453125,-8.25125,-12.80178125,-23.79465234375,2.33569140625,-2.793046875,-10.31257421875,-11.88533203125,14.60858203125,4.3067734375,-3.92206640625,-12.90521484375,-2.48994921875,5.10100390625,16.14679296875,6.25122265625,-0.2228984375
0.258300781249999,-6.0286484375,-11.86057421875,-0.2699609375,-0.584664062500001,-5.305015625,-6.46246484375,-5.66468359375,-3.6018203125,-0.92738671875,-9.5754921875,-13.48278125,3.59256640625,-7.152453125,-6.25925,-9.51678125,-17.86665234375,-3.26630859375,-4.543046875,-9.02257421875,-8.56233203125,7.36258203125,-1.0772265625,-5.76106640625,-12.76121484375,0.996050781249999,1.22600390625,10.59479296875,3.56022265625,-1.4208984375
2.82930078125,-2.4566484375,-8.18857421875,0.969039062500001,2.4113359375,-1.680015625,-0.59946484375,-0.02368359375,-3.8328203125,1.03161328125,-5.2274921875,-7.39078125,-0.156433593749999,-7.724453125,-2.99225,-4.90778125,-8.75765234375,-8.33630859375,-5.458046875,-7.06357421875,-4.24033203125,-0.613417968749999,-6.1162265625,-7.78006640625,-12.11321484375,4.93905078125,-3.51399609375,4.54279296875,-0.65177734375,-2.8968984375
4.72530078125,1.6473515625,-2.70157421875,2.5840390625,5.7783359375,2.473984375,5.18253515625,6.17831640625,-3.4728203125,3.65261328125,-0.4364921875,-0.72178125,-3.08343359375,-7.654453125,0.72475,0.17121875,1.19734765625,-12.26230859375,-5.542046875,-4.99357421875,0.36966796875,-8.01541796875,-10.3282265625,-9.87706640625,-11.20821484375,8.55905078125,-8.74999609375,-1.52920703125,-5.76277734375,-4.4028984375
5.67130078125,5.4253515625,3.23142578125,4.0950390625,8.5593359375,6.347984375,9.66653515625,11.68031640625,-2.8258203125,6.21461328125,3.8285078125,5.13321875,-4.92943359375,-7.134453125,3.93375,4.72321875,9.47934765625,-14.75530859375,-5.061046875,-3.35757421875,4.51166796875,-13.68241796875,-13.4132265625,-11.92206640625,-10.25721484375,11.24205078125,-13.98299609375,-7.04520703125,-10.83277734375,-5.7398984375
5.70630078125,8.1933515625,8.02242578125,5.0760390625,10.1163359375,9.308984375,12.18153515625,15.45731640625,-2.2988203125,8.10461328125,6.8525078125,9.13221875,-5.71343359375,-6.351453125,5.97575,7.97621875,14.46834765625,-15.76530859375,-4.335046875,-2.39657421875,7.62266796875,-16.82541796875,-15.1602265625,-13.70006640625,-9.29521484375,12.78905078125,-18.56999609375,-11.27820703125,-14.79177734375,-6.6778984375
5.10130078125,9.6503515625,10.53742578125,5.3200390625,10.4253359375,11.121984375,12.80053515625,17.13131640625,-2.1578203125,9.09361328125,8.4215078125,10.90021875,-5.63043359375,-5.336453125,6.73575,9.63721875,15.98334765625,-15.35330859375,-3.526046875,-1.93557421875,9.48466796875,-17.14641796875,-15.3722265625,-14.88506640625,-8.15121484375,13.44205078125,-21.78199609375,-13.42120703125,-16.72277734375,-6.9188984375
4.23730078125,9.9083515625,10.52842578125,4.9150390625,10.0453359375,11.974984375,12.19653515625,17.06531640625,-2.3678203125,9.40261328125,8.8265078125,10.75621875,-4.88443359375,-3.937453125,6.60375,9.93521875,15.07034765625,-13.59730859375,-2.547046875,-1.51057421875,10.25766796875,-14.81741796875,-13.8602265625,-15.09106640625,-6.55221484375,13.71205078125,-22.92799609375,-12.81120703125,-16.10977734375,-6.1428984375
3.47430078125,9.3723515625,8.62642578125,4.2030390625,9.8173359375,12.292984375,11.24853515625,16.09731640625,-2.5988203125,9.51261328125,8.6325078125,9.48021875,-3.52143359375,-1.939453125,6.20275,9.42721875,13.26734765625,-10.59230859375,-1.170046875,-0.66957421875,10.36566796875,-10.36641796875,-10.5412265625,-14.00506640625,-4.28821484375,14.11805078125,-21.57599609375,-9.20520703125,-12.97677734375,-4.1348984375
3.05430078125,8.5133515625,5.94842578125,3.6290390625,10.4033359375,12.467984375,10.60953515625,15.05031640625,-2.4218203125,9.84861328125,8.3415078125,7.95321875,-1.42643359375,0.717546875,6.02175,8.68821875,11.81534765625,-6.50930859375,0.749953125,0.71642578125,10.27866796875,-4.53641796875,-5.5772265625,-11.59006640625,-1.40621484375,14.94105078125,-17.79799609375,-2.99720703125,-7.90577734375,-0.9638984375
3.01830078125,7.6613515625,3.56842578125,3.5230390625,11.9123359375,12.611984375,10.43653515625,14.27631640625,-1.5738203125,10.50861328125,8.1285078125,6.78821875,1.43156640625,3.763546875,6.14975,8.02021875,11.19034765625,-1.69030859375,3.052953125,2.31142578125,10.26566796875,1.82358203125,0.507773437499999,-8.25206640625,1.67978515625,16.08005078125,-12.31799609375,4.75379296875,-1.93677734375,2.8581015625
3.15930078125,6.8973515625,2.11742578125,3.9320390625,13.8143359375,12.499984375,10.39353515625,13.53131640625,-0.1558203125,11.18861328125,7.7955078125,6.11821875,4.72456640625,6.590546875,6.24675,7.33921875,11.11734765625,3.31069140625,5.248953125,3.43742578125,10.24866796875,7.83458203125,6.8497734375,-4.80206640625,4.25278515625,17.07705078125,-6.41299609375,12.55579296875,3.64222265625,6.4001015625
3.10230078125,6.0973515625,1.65742578125,4.6170390625,15.2213359375,11.748984375,9.92253515625,12.25531640625,1.4161796875,11.38561328125,6.9815078125,5.62621875,7.75356640625,8.495546875,5.79375,6.31221875,10.92234765625,7.80069140625,6.740953125,3.45142578125,9.87966796875,12.67858203125,12.4737734375,-2.14906640625,5.57278515625,17.31605078125,-1.48599609375,18.94479296875,7.68022265625,8.6211015625
2.52530078125,5.1143515625,1.80742578125,5.2450390625,15.4123359375,10.162984375,8.64053515625,10.07731640625,2.6651796875,10.74861328125,5.4835078125,4.83621875,9.81656640625,9.057546875,4.49775,4.67021875,9.97734765625,11.15569140625,7.208953125,2.17842578125,8.81766796875,15.76858203125,16.6687734375,-0.82606640625,5.28478515625,16.31805078125,1.53300390625,23.02679296875,9.60922265625,8.8651015625
1.43330078125,3.9643515625,2.00942578125,5.6410390625,14.2503359375,7.982984375,6.63753515625,7.17631640625,3.3511796875,9.36561328125,3.5075078125,3.49021875,10.65956640625,8.433546875,2.60275,2.50021875,7.98634765625,13.05269140625,6.877953125,0.14142578125,7.03566796875,16.94858203125,19.2987734375,-0.62706640625,3.70478515625,13.98805078125,2.66900390625,24.84979296875,9.73722265625,7.2501015625
0.264300781249999,2.8843515625,1.78942578125,5.9120390625,12.2493359375,5.859984375,4.47453515625,4.24331640625,3.5871796875,7.77461328125,1.6425078125,1.75421875,10.63456640625,7.333546875,0.86675,0.30821875,5.06134765625,13.59069140625,6.487953125,-1.59957421875,4.90866796875,16.58758203125,20.8327734375,-0.63806640625,1.75978515625,10.67605078125,2.92600390625,25.33279296875,9.12822265625,4.6481015625
-0.325699218750001,2.2043515625,0.92742578125,6.3620390625,10.2663359375,4.544984375,2.87453515625,2.10231640625,3.7281796875,6.67161328125,0.5555078125,0.11021875,10.38656640625,6.663546875,0.18175,-1.23878125,1.68734765625,13.19969140625,6.886953125,-1.97357421875,3.02866796875,15.44158203125,22.0347734375,0.27493359375,0.55778515625,7.01805078125,3.75800390625,25.73479296875,9.05322265625,2.2381015625
0.130300781249999,2.1213515625,-0.49557421875,7.2560390625,9.0533359375,4.471984375,2.30153515625,1.25031640625,4.1271796875,6.50161328125,0.5885078125,-0.99078125,10.34856640625,7.030546875,1.04875,-1.69878125,-1.38465234375,12.37969140625,8.516953125,-0.48957421875,1.85466796875,14.27558203125,23.4837734375,2.81193359375,0.80178515625,3.63905078125,6.26200390625,26.91979296875,10.26822265625,0.9001015625
1.59030078125,2.5563515625,-2.14757421875,8.6140390625,8.9253359375,5.511984375,2.70553515625,1.61031640625,4.9121796875,7.19661328125,1.5465078125,-1.41578125,10.44356640625,8.430546875,3.26075,-1.11978125,-3.34965234375,11.43969140625,11.100953125,2.46142578125,1.46966796875,13.46658203125,25.1867734375,6.79093359375,2.41378515625,0.91005078125,10.55900390625,28.83779296875,12.56022265625,0.7911015625
3.51730078125,3.1983515625,-3.56657421875,10.1540390625,9.6993359375,7.041984375,3.58253515625,2.62331640625,5.9111796875,8.21961328125,2.8105078125,-1.37678125,10.20856640625,10.286546875,5.99275,0.0162187499999997,-3.65765234375,10.38269140625,13.754953125,5.78942578125,1.62166796875,12.82458203125,26.5407734375,11.21893359375,4.58978515625,-1.11394921875,15.72800390625,30.55379296875,14.83022265625,1.3231015625
5.18230078125,3.6913515625,-4.30857421875,11.4120390625,10.8833359375,8.276984375,4.30453515625,3.60831640625,6.7511796875,8.88161328125,3.6905078125,-1.20378125,9.19256640625,11.785546875,8.22875,1.11421875,-2.29765234375,9.01469140625,15.436953125,8.24442578125,1.99166796875,11.79058203125,26.6607734375,14.79193359375,6.25978515625,-2.55894921875,20.31000390625,30.81379296875,15.70722265625,1.5401015625
6.04030078125,3.8383515625,-4.08157421875,11.9680390625,11.9663359375,8.668984375,4.49553515625,4.15731640625,7.0621796875,8.72261328125,3.7955078125,-1.06878125,7.30256640625,12.292546875,9.26475,1.79821875,0.16934765625,7.16269140625,15.454953125,9.00542578125,2.45666796875,9.85858203125,24.8767734375,16.52693359375,6.64578515625,-3.51494921875,23.03100390625,28.80479296875,14.33322265625,0.7021015625
5.96130078125,3.7043515625,-2.83357421875,11.6400390625,12.6153359375,8.157984375,4.22553515625,4.31931640625,6.6541796875,7.73661328125,3.2045078125,-0.85878125,4.85656640625,11.611546875,8.99375,2.09021875,2.91734765625,4.85469140625,13.746953125,8.01242578125,3.15566796875,6.91758203125,21.0967734375,16.15393359375,5.61378515625,-3.90494921875,23.33300390625,24.61779296875,10.81522265625,-1.2868984375
5.24530078125,3.5963515625,-0.75757421875,10.5690390625,12.7413359375,7.156984375,3.94653515625,4.49031640625,5.5701796875,6.33061328125,2.4195078125,-0.24378125,2.37356640625,10.009546875,7.88075,2.34821875,5.31334765625,2.32869140625,10.858953125,5.92042578125,4.33066796875,3.28858203125,15.8437734375,14.11393359375,3.64778515625,-3.53094921875,21.45800390625,19.15379296875,6.10922265625,-3.8448984375
4.47330078125,3.9123515625,1.77942578125,9.1500390625,12.4653359375,6.325984375,4.23153515625,5.14331640625,4.0531796875,5.09861328125,2.1285078125,1.13521875,0.303566406250001,8.050546875,6.70575,3.05521875,7.22534765625,-0.102308593750001,7.660953125,3.75842578125,6.10966796875,-0.51341796875,9.9987734375,11.25393359375,1.54078515625,-2.22994921875,18.13900390625,13.56779296875,1.44122265625,-6.0828984375
4.26830078125,4.9373515625,4.36442578125,7.8500390625,12.0483359375,6.284984375,5.49353515625,6.59631640625,2.4521796875,4.54161328125,2.9005078125,3.45421875,-1.13443359375,6.354546875,6.22275,4.57321875,8.96734765625,-2.21630859375,4.992953125,2.46042578125,8.37866796875,-4.09041796875,4.4317734375,8.40293359375,-0.000214843750000249,-0.0369492187500002,14.13300390625,8.63979296875,-2.33077734375,-7.3148984375
5.04130078125,6.6643515625,6.64742578125,6.9970390625,11.7853359375,7.353984375,7.77753515625,8.88431640625,1.1031796875,4.87361328125,4.9275078125,6.55321875,-1.92843359375,5.353546875,6.85975,6.94021875,10.92234765625,-3.95630859375,3.357953125,2.47842578125,10.78666796875,-7.30741796875,-0.288226562500001,6.03393359375,-0.65521484375,2.75705078125,9.87000390625,4.43679296875,-5.05477734375,-7.4248984375
6.78530078125,8.7473515625,8.38542578125,6.6410390625,11.8803359375,9.416984375,10.72053515625,11.73131640625,0.2111796875,5.96661328125,7.9115078125,9.90121875,-2.16643359375,5.141546875,8.56575,9.80021875,13.13334765625,-5.36230859375,2.800953125,3.61242578125,12.85566796875,-10.20641796875,-3.9742265625,4.14893359375,-0.57721484375,5.66005078125,5.37900390625,0.47179296875,-7.16177734375,-6.8818984375
9.02830078125,10.6313515625,9.44642578125,6.5810390625,12.3523359375,11.969984375,13.67653515625,14.61931640625,-0.2068203125,7.44161328125,11.1665078125,12.72421875,-1.96343359375,5.473546875,10.85075,12.51221875,15.14334765625,-6.42930859375,2.999953125,5.16542578125,14.15966796875,-12.76141796875,-6.7202265625,2.42193359375,-0.23921484375,8.13905078125,0.48900390625,-3.75520703125,-9.22277734375,-6.4368984375
11.01430078125,11.7933515625,9.80642578125,6.5240390625,13.0763359375,14.344984375,15.95553515625,16.95231640625,-0.2518203125,8.87061328125,13.8895078125,14.28221875,-1.45143359375,5.941546875,13.02175,14.40621875,16.19434765625,-7.01630859375,3.488953125,6.33042578125,14.48866796875,-14.69841796875,-8.6852265625,0.48693359375,-0.14921484375,9.80105078125,-4.85999609375,-8.21320703125,-11.48077734375,-6.6708984375
12.01730078125,11.9743515625,9.57342578125,6.2660390625,13.8923359375,15.992984375,17.08053515625,18.26331640625,-0.0178203125,9.96761328125,15.4885078125,14.18821875,-0.77043359375,6.213546875,14.49875,15.08521875,15.64134765625,-6.90030859375,3.900953125,6.60642578125,13.94166796875,-15.53141796875,-9.9102265625,-1.77006640625,-0.56321484375,10.54305078125,-10.39399609375,-12.14520703125,-13.66377734375,-7.6728984375
11.66330078125,11.2643515625,9.01742578125,5.7890390625,14.6843359375,16.673984375,16.92953515625,18.34331640625,0.4601796875,10.69161328125,15.7845078125,12.60321875,0.00356640625000004,6.201546875,15.04775,14.59321875,13.36234765625,-5.93830859375,4.088953125,6.01642578125,12.86766796875,-14.81441796875,-10.2792265625,-4.12106640625,-1.37221484375,10.57305078125,-15.50299609375,-14.38020703125,-15.14977734375,-9.0188984375
10.08930078125,10.0263515625,8.49942578125,5.2270390625,15.3813359375,16.464984375,15.70653515625,17.24231640625,1.1681796875,11.18661328125,15.0165078125,10.17221875,0.94856640625,6.050546875,14.81775,13.35721875,9.93434765625,-4.20830859375,4.108953125,5.00142578125,11.70866796875,-12.43641796875,-9.6152265625,-6.11106640625,-2.18221484375,10.31605078125,-19.43099609375,-13.94020703125,-15.33677734375,-10.0168984375
7.90030078125,8.7023515625,8.31442578125,4.7790390625,15.9203359375,15.641984375,13.79353515625,15.18631640625,2.0561796875,11.64161328125,13.6455078125,7.74521875,2.26256640625,6.002546875,14.17275,11.93421875,6.47434765625,-2.00130859375,4.109953125,4.09242578125,10.81466796875,-8.76241796875,-7.8302265625,-7.30506640625,-2.54521484375,10.20105078125,-21.54299609375,-10.54220703125,-13.95877734375,-10.0468984375
5.90830078125,7.6143515625,8.50042578125,4.6300390625,16.2463359375,14.518984375,11.57153515625,12.53431640625,3.0331796875,12.12761328125,12.0905078125,6.00721875,4.06956640625,6.233546875,13.43375,10.72721875,4.15234765625,0.309691406249999,4.206953125,3.56442578125,10.33766796875,-4.48841796875,-5.0062265625,-7.50506640625,-2.20121484375,10.44705078125,-21.53399609375,-4.70220703125,-11.17777734375,-8.8148984375
4.76530078125,6.8663515625,8.77542578125,4.8540390625,16.3083359375,13.312984375,9.31053515625,9.75631640625,3.9931796875,12.52661328125,10.5435078125,5.23821875,6.16256640625,6.751546875,12.67875,9.82921875,3.62234765625,2.43569140625,4.430953125,3.28842578125,10.22466796875,-0.319417968750001,-1.3842265625,-6.80306640625,-1.21321484375,10.93805078125,-19.49799609375,2.57379296875,-7.46877734375,-6.4478984375
4.66730078125,6.3743515625,8.67542578125,5.3640390625,16.0403359375,12.089984375,7.17453515625,7.39631640625,4.8111796875,12.56461328125,8.9605078125,5.28921875,7.93056640625,7.405546875,11.71875,9.07121875,4.69134765625,4.24069140625,4.752953125,2.86442578125,10.29766796875,3.34358203125,2.7207734375,-5.49006640625,0.0897851562499996,11.28705078125,-15.86099609375,10.24479296875,-3.39877734375,-3.4338984375
5.27930078125,5.9723515625,7.81142578125,5.9160390625,15.3433359375,10.781984375,5.29653515625,5.95631640625,5.3511796875,11.95161328125,7.2055078125,5.75521875,8.62656640625,7.977546875,10.25175,8.19421875,6.46434765625,5.72669140625,5.143953125,1.91642578125,10.34466796875,6.48458203125,7.0007734375,-3.88906640625,1.28978515625,11.06305078125,-11.24099609375,17.51379296875,0.52222265625,-0.4548984375
5.95430078125,5.5163515625,6.09742578125,6.2160390625,14.1163359375,9.292984375,3.83253515625,5.73831640625,5.4741796875,10.55861328125,5.2305078125,6.19821875,7.85556640625,8.295546875,8.11075,7.03321875,7.85334765625,6.96969140625,5.623953125,0.35342578125,10.17766796875,9.30958203125,11.1987734375,-2.22006640625,2.08278515625,10.01205078125,-6.29199609375,23.85079296875,3.92822265625,1.8371015625
6.09330078125,4.9313515625,3.83742578125,6.0550390625,12.3343359375,7.596984375,2.93853515625,6.70131640625,5.1021796875,8.53861328125,3.1765078125,6.31021875,5.92256640625,8.310546875,5.44275,5.59921875,8.11934765625,8.07969140625,6.265953125,-1.54257421875,9.66566796875,11.97458203125,15.1317734375,-0.53206640625,2.38878515625,8.16305078125,-1.53799609375,28.89579296875,6.64422265625,3.0851015625
5.44930078125,4.2123515625,1.62742578125,5.4130390625,10.1173359375,5.786984375,2.67453515625,8.42131640625,4.2601796875,6.31561328125,1.3625078125,5.98121875,3.76656640625,8.112546875,2.72075,4.08921875,7.14434765625,9.19769140625,7.188953125,-3.21657421875,8.76466796875,14.47558203125,18.7067734375,1.29593359375,2.36878515625,5.79005078125,2.78200390625,32.47179296875,8.74722265625,3.4151015625
4.21530078125,3.4043515625,0.12842578125,4.4450390625,7.7413359375,4.061984375,2.91353515625,10.19731640625,3.1001796875,4.43961328125,0.1545078125,5.28221875,2.52356640625,7.879546875,0.58275,2.80621875,5.37034765625,10.48669140625,8.513953125,-4.07957421875,7.57066796875,16.72758203125,21.9447734375,3.49693359375,2.34978515625,3.31705078125,6.77900390625,34.68379296875,10.56322265625,3.3931015625
2.87230078125,2.5673515625,-0.20257421875,3.3850390625,5.5643359375,2.662984375,3.35453515625,11.29131640625,1.8651796875,3.37061328125,-0.2034921875,4.37421875,2.97756640625,7.775546875,-0.43825,2.03621875,3.48234765625,12.06869140625,10.272953125,-3.75457421875,6.32766796875,18.70858203125,24.9217734375,6.27493359375,2.67878515625,1.20605078125,10.79100390625,35.94379296875,12.52022265625,3.7241015625
1.91630078125,1.7583515625,0.67242578125,2.4130390625,3.8913359375,1.780984375,3.60753515625,11.19031640625,0.7731796875,3.28761328125,0.2705078125,3.42021875,5.19856640625,7.825546875,-0.16225,1.92321875,2.06034765625,13.87769140625,12.289953125,-2.26257421875,5.36566796875,20.47458203125,27.6417734375,9.61993359375,3.55378515625,-0.139949218750001,15.10700390625,36.75879296875,14.89022265625,4.8401015625
1.59230078125,1.0383515625,2.32642578125,1.5580390625,2.8343359375,1.450984375,3.34053515625,9.76831640625,-0.1038203125,4.00261328125,1.2795078125,2.54021875,8.51556640625,7.830546875,1.13675,2.39921875,1.33534765625,15.56469140625,14.123953125,-0.0315742187500001,4.95866796875,22.01358203125,29.8987734375,13.19093359375,4.92778515625,-0.45094921875,19.68400390625,37.40879296875,17.61422265625,6.6541015625
1.78030078125,0.4983515625,4.03242578125,0.700039062500001,2.2603359375,1.508984375,2.40253515625,7.30031640625,-0.8898203125,5.02861328125,2.3675078125,1.81521875,11.79256640625,7.411546875,2.82975,3.23021875,1.18334765625,16.54869140625,15.171953125,2.25942578125,5.21066796875,23.10058203125,31.2627734375,16.36693359375,6.53778515625,0.368050781249999,24.07900390625,37.74579296875,20.31222265625,8.6551015625
2.06130078125,0.2413515625,5.07042578125,-0.316960937499999,1.8883359375,1.648984375,0.90753515625,4.36431640625,-1.7868203125,5.77461328125,3.1015078125,1.29121875,13.85556640625,6.202546875,4.19975,4.11221875,1.29334765625,16.26869140625,14.918953125,3.95842578125,6.02566796875,23.31458203125,31.2447734375,18.49693359375,8.05878515625,2.24405078125,27.62700390625,37.29479296875,22.49522265625,10.2421015625
1.92930078125,0.3203515625,5.02642578125,-1.5399609375,1.4913359375,1.584984375,-0.78646484375,1.66631640625,-2.8788203125,5.79961328125,3.2445078125,0.94821875,13.89756640625,4.101546875,4.72875,4.77721875,1.38534765625,14.49369140625,13.212953125,4.69142578125,7.16266796875,22.24258203125,29.5707734375,19.20393359375,9.25778515625,4.95005078125,29.75400390625,35.57979296875,23.79122265625,11.0391015625
1.06330078125,0.6933515625,3.94542578125,-2.8339609375,1.0433359375,1.213984375,-2.18246484375,-0.17168359375,-3.9998203125,5.01261328125,2.8345078125,0.70621875,11.76056640625,1.411546875,4.28975,5.08421875,1.36834765625,11.50669140625,10.398953125,4.48142578125,8.33066796875,19.73658203125,26.3837734375,18.55993359375,10.06878515625,8.10005078125,30.21900390625,32.45379296875,24.03222265625,10.9451015625
-0.454699218750001,1.2453515625,2.28942578125,-3.9099609375,0.7413359375,0.689984375,-2.79746484375,-0.79068359375,-4.7748203125,3.72761328125,2.1705078125,0.50721875,7.99856640625,-1.216453125,3.17775,5.07421875,1.40834765625,8.04169140625,7.223953125,3.69942578125,9.29266796875,16.05458203125,22.2667734375,17.03293359375,10.55778515625,11.17205078125,29.16100390625,28.22579296875,23.19022265625,9.9931015625
-2.08969921875,1.8753515625,0.74042578125,-4.4469609375,0.8953359375,0.377984375,-2.29546484375,-0.17068359375,-4.8108203125,2.53861328125,1.7145078125,0.46721875,3.68756640625,-3.034453125,1.98175,5.00121875,1.90234765625,4.98869140625,4.562953125,2.90142578125,9.96066796875,11.79158203125,18.0477734375,15.24993359375,10.84978515625,13.62905078125,26.97100390625,23.52979296875,21.32822265625,8.2921015625
-3.05769921875,2.5693515625,-0.0425742187500002,-4.2349609375,1.7533359375,0.694984375,-0.56446484375,1.46131640625,-3.9128203125,2.06961328125,1.9235078125,0.93021875,0.0685664062500004,-3.517453125,1.36275,5.25821875,3.31234765625,3.02069140625,3.077953125,2.61342578125,10.45166796875,7.64158203125,14.4977734375,13.71693359375,11.07778515625,15.11705078125,24.09100390625,19.03979296875,18.63722265625,6.1621015625
-2.70669921875,3.4083515625,0.36642578125,-3.2769609375,3.3503359375,1.906984375,2.24953515625,3.78631640625,-2.2258203125,2.68161328125,3.0865078125,2.33621875,-1.87543359375,-2.607453125,1.78175,6.22321875,5.84034765625,2.32769140625,2.978953125,3.12942578125,11.03166796875,4.14058203125,12.0557734375,12.62393359375,11.32978515625,15.59805078125,20.86000390625,15.23479296875,15.52222265625,4.2481015625
-0.890699218750001,4.4853515625,2.02842578125,-1.7999609375,5.4013359375,3.957984375,5.75153515625,6.50731640625,-0.2278203125,4.27161328125,5.1785078125,4.91821875,-1.74443359375,-0.776453125,3.29775,8.03421875,9.12834765625,2.58369140625,3.968953125,4.37642578125,11.95366796875,1.52658203125,10.7087734375,11.81593359375,11.59478515625,15.31705078125,17.43800390625,12.32679296875,12.54122265625,3.3301015625
1.88830078125,5.7963515625,4.62242578125,-0.170960937499999,7.3433359375,6.437984375,9.33353515625,9.34431640625,1.4501796875,6.26461328125,7.8195078125,8.43021875,0.13956640625,1.139546875,5.50175,10.43521875,12.28434765625,3.15269140625,5.375953125,5.90142578125,13.25566796875,-0.238417968749999,10.0677734375,10.89093359375,11.70778515625,14.59605078125,13.82000390625,10.31279296875,10.14922265625,3.8261015625
4.69430078125,7.1633515625,7.52042578125,1.2340390625,8.5163359375,8.718984375,12.29853515625,11.97331640625,2.2851796875,7.81061328125,10.3425078125,12.11321875,2.84356640625,2.259546875,7.63275,12.79321875,14.32534765625,3.40969140625,6.400953125,7.02642578125,14.66666796875,-1.35841796875,9.5897734375,9.38193359375,11.36878515625,13.64005078125,9.89800390625,9.04279296875,8.43322265625,5.4211015625
6.58930078125,8.2773515625,9.96142578125,2.1470390625,8.4503359375,10.207984375,14.06253515625,14.02031640625,2.0761796875,8.14661328125,12.0235078125,14.97721875,5.24956640625,2.012546875,8.87775,14.34221875,14.77334765625,2.99869140625,6.392953125,7.13242578125,15.71566796875,-2.05841796875,8.8267734375,6.96393359375,10.28078515625,12.49505078125,5.59100390625,8.28579296875,7.06422265625,7.1751015625
7.06130078125,8.8413515625,11.31042578125,2.4630390625,7.0773359375,10.589984375,14.36053515625,15.14831640625,1.0001796875,6.95061328125,12.3785078125,16.25921875,6.61456640625,0.365546875,8.70875,14.54521875,13.93334765625,1.93969140625,5.085953125,5.94942578125,15.97266796875,-2.44541796875,7.6057734375,3.61993359375,8.35278515625,11.13905078125,0.993003906249999,7.80879296875,5.55622265625,8.0771015625
6.19830078125,8.7293515625,11.28542578125,2.2230390625,4.7823359375,9.927984375,13.34253515625,15.18131640625,-0.4878203125,4.52061328125,11.3925078125,15.76821875,6.95656640625,-2.168453125,7.11575,13.36421875,12.62634765625,0.578691406249999,2.688953125,3.70142578125,15.26566796875,-2.42641796875,6.0697734375,-0.30506640625,5.81878515625,9.58905078125,-3.55499609375,7.49079296875,3.62722265625,7.6311015625
4.54730078125,8.0373515625,10.03942578125,1.5680390625,2.2463359375,8.598984375,11.47253515625,14.15331640625,-1.8188203125,1.66961328125,9.5175078125,13.89121875,6.95956640625,-4.746453125,4.60175,11.25021875,11.60434765625,-0.548308593750001,-0.208046875,1.00042578125,13.73366796875,-1.73641796875,4.5807734375,-4.19706640625,3.18378515625,7.92505078125,-7.52699609375,7.39979296875,1.42822265625,6.1031015625
2.79030078125,6.9913515625,8.03942578125,0.680039062500001,0.187335937499999,7.095984375,9.28453515625,12.23531640625,-2.4948203125,-0.632386718749999,7.4405078125,11.29121875,7.46856640625,-6.534453125,1.95875,8.88121875,11.06834765625,-0.919308593750001,-2.873046875,-1.43057421875,11.71466796875,-0.0824179687500006,3.5417734375,-7.37506640625,1.01478515625,6.24405078125,-10.38099609375,7.78079296875,-0.51677734375,4.3171015625
1.44830078125,5.8083515625,5.82842578125,-0.239960937499999,-0.8916640625,5.816984375,7.14153515625,9.62031640625,-2.2338203125,-1.66438671875,5.7685078125,8.53121875,8.93156640625,-7.027453125,-0.0472500000000002,6.81921875,10.60434765625,-0.217308593750001,-4.704046875,-3.04757421875,9.55766796875,2.63558203125,3.2227734375,-9.29906640625,-0.288214843750001,4.62605078125,-11.72999609375,8.91779296875,-1.58577734375,3.2191015625
0.734300781249999,4.6213515625,3.80642578125,-0.9879609375,-0.8456640625,4.943984375,5.13153515625,6.47431640625,-1.0738203125,-1.23838671875,4.7955078125,5.87221875,11.14556640625,-6.208453125,-0.94025,5.28821875,9.53734765625,1.53769140625,-5.402046875,-3.64157421875,7.48466796875,6.15658203125,3.6717734375,-9.71406640625,-0.60921484375,3.15105078125,-11.43199609375,10.93079296875,-1.40277734375,3.4121015625
0.576300781249999,3.4753515625,2.15642578125,-1.3649609375,0.1083359375,4.440984375,3.13153515625,3.02331640625,0.6421796875,0.28561328125,4.4445078125,3.32121875,13.40456640625,-4.509453125,-0.65425,4.17321875,7.41834765625,3.99569140625,-4.992046875,-3.33857421875,5.56866796875,9.85758203125,4.7447734375,-8.67606640625,-0.0942148437500006,1.92605078125,-9.59399609375,13.64979296875,-0.0577773437499998,4.9041015625
0.720300781249999,2.3893515625,0.90042578125,-1.2149609375,1.5193359375,4.137984375,0.97253515625,-0.35568359375,2.3991796875,2.20761328125,4.3765078125,0.82221875,14.90256640625,-2.581453125,0.49575,3.17021875,4.33534765625,6.61369140625,-3.729046875,-2.47457421875,3.81166796875,12.96758203125,6.2247734375,-6.47906640625,0.97278515625,1.08705078125,-6.50299609375,16.65279296875,1.93322265625,7.1231015625
0.861300781249999,1.4123515625,-0.00157421875000052,-0.483960937499999,2.8773359375,3.846984375,-1.38546484375,-3.16668359375,3.7211796875,3.80061328125,4.1885078125,-1.55378125,15.12356640625,-1.003453125,1.97875,2.01121875,0.91034765625,8.86669140625,-1.948046875,-1.43557421875,2.25066796875,14.87358203125,7.9567734375,-3.52906640625,2.31578515625,0.77105078125,-2.52199609375,19.44679296875,3.89122265625,9.2091015625
0.764300781249999,0.6663515625,-0.60957421875,0.727039062500001,3.7983359375,3.451984375,-3.75346484375,-4.97068359375,4.3471796875,4.59361328125,3.6145078125,-3.52778125,14.02156640625,-0.0734531249999999,3.25875,0.64021875,-1.99665234375,10.41969140625,0.054953125,-0.50457421875,1.03266796875,15.35158203125,9.8997734375,-0.20306640625,3.77578515625,1.08605078125,2.00900390625,21.64979296875,5.33222265625,10.4471015625
0.374300781249999,0.3153515625,-1.03457421875,2.1720390625,4.1473359375,2.967984375,-5.71146484375,-5.57268359375,4.3141796875,4.49861328125,2.6665078125,-4.68678125,11.93256640625,0.247546875,3.99575,-0.72478125,-3.70065234375,11.18869140625,2.087953125,0.23042578125,0.42666796875,14.59858203125,12.0697734375,3.23093359375,5.37078515625,2.09305078125,6.84200390625,23.09579296875,6.22022265625,10.6581015625
-0.130699218750001,0.4883515625,-1.43857421875,3.5450390625,4.0803359375,2.545984375,-6.73746484375,-5.06768359375,3.9141796875,3.77961328125,1.6225078125,-4.66378125,9.35756640625,0.253546875,4.16575,-1.66578125,-4.04265234375,11.30569140625,4.054953125,0.87942578125,0.75566796875,13.09658203125,14.4457734375,6.62293359375,7.25678515625,3.78205078125,11.83100390625,23.84279296875,6.98322265625,10.3231015625
-0.390699218750001,1.1903515625,-1.91857421875,4.6110390625,3.9433359375,2.389984375,-6.42946484375,-3.74568359375,3.5441796875,2.88461328125,0.8985078125,-3.32378125,6.76956640625,0.328546875,4.03175,-1.73478125,-3.45465234375,11.03769140625,5.923953125,1.67642578125,2.27166796875,11.41558203125,16.9097734375,9.88893359375,9.61878515625,6.03305078125,16.88300390625,24.13779296875,8.24122265625,10.3271015625
-0.0226992187500008,2.2813515625,-2.33657421875,5.3080390625,4.0783359375,2.639984375,-4.72046484375,-1.93068359375,3.5111796875,2.24861328125,0.8595078125,-0.86078125,4.57556640625,0.803546875,3.99575,-0.64378125,-2.63365234375,10.70269140625,7.685953125,2.84442578125,5.00166796875,10.03858203125,19.2437734375,12.94293359375,12.50778515625,8.60405078125,21.86700390625,24.30679296875,10.37822265625,11.3941015625
1.17630078125,3.5313515625,-2.26457421875,5.7670390625,4.6343359375,3.294984375,-1.96546484375,0.14331640625,3.8851796875,2.15161328125,1.6615078125,2.25721875,3.16256640625,1.829546875,4.38275,1.58421875,-1.96765234375,10.55769140625,9.310953125,4.46842578125,8.63966796875,9.22458203125,21.1617734375,15.63793359375,15.72078515625,11.16405078125,26.51000390625,24.57879296875,13.19622265625,13.5801015625
3.08330078125,4.7193515625,-1.17557421875,6.2250390625,5.5053359375,4.216984375,1.16653515625,2.38431640625,4.4851796875,2.65261328125,3.1675078125,5.44421875,2.88356640625,3.307546875,5.26475,4.57221875,-1.13565234375,10.68969140625,10.686953125,6.41542578125,12.55966796875,8.92358203125,22.3387734375,17.73793359375,18.78878515625,13.38805078125,30.34500390625,24.88979296875,15.89022265625,16.1651015625
5.23230078125,5.7203515625,1.19042578125,6.8830390625,6.4063359375,5.194984375,3.93753515625,4.79331640625,4.9801796875,3.59861328125,4.9815078125,8.17821875,3.85956640625,4.887546875,6.39275,7.68121875,0.74834765625,10.94169140625,11.598953125,8.33142578125,15.95866796875,8.76758203125,22.4337734375,18.94993359375,21.10978515625,15.03905078125,32.77700390625,24.83579296875,17.40722265625,18.0271015625
6.97330078125,6.5223515625,4.55642578125,7.7480390625,7.0213359375,6.004984375,5.80753515625,7.35631640625,5.0301796875,4.67561328125,6.5795078125,10.16321875,5.74656640625,6.059546875,7.29675,10.23421875,4.47234765625,10.96069140625,11.763953125,9.75242578125,18.12566796875,8.19558203125,21.1687734375,19.01393359375,22.15778515625,16.00805078125,33.27100390625,23.84579296875,17.00122265625,18.2741015625
7.73230078125,7.1863515625,8.14242578125,8.5830390625,7.1303359375,6.436984375,6.59153515625,9.93531640625,4.4041796875,5.48461328125,7.5055078125,11.39421875,7.73256640625,6.331546875,7.48675,11.76921875,10.00234765625,10.36169140625,10.935953125,10.28142578125,18.69166796875,6.68858203125,18.4257734375,17.80493359375,21.69978515625,16.29805078125,31.57900390625,21.49979296875,14.65022265625,16.7011015625
7.25930078125,7.7453515625,11.00542578125,8.9920390625,6.6723359375,6.312984375,6.45653515625,12.23731640625,3.0641796875,5.63861328125,7.5285078125,12.07921875,8.91156640625,5.435546875,6.67975,12.19021875,16.23234765625,8.94169140625,9.014953125,9.74942578125,17.75266796875,4.05458203125,14.3627734375,15.40693359375,19.89078515625,15.99405078125,27.87600390625,17.79979296875,11.06922265625,13.8281015625
5.74530078125,8.1233515625,12.44442578125,8.6150390625,5.7303359375,5.508984375,5.77353515625,13.88931640625,1.1841796875,4.88161328125,6.6985078125,12.44821875,8.80156640625,3.472546875,4.93275,11.71921875,21.37834765625,6.85769140625,6.129953125,8.29842578125,15.76466796875,0.61758203125,9.4657734375,12.10893359375,17.21978515625,15.21905078125,22.72500390625,13.23879296875,7.33922265625,10.5251015625
3.72030078125,8.1293515625,12.24642578125,7.3370390625,4.4463359375,3.996984375,4.89753515625,14.52731640625,-0.8918203125,3.19461328125,5.2815078125,12.55021875,7.62256640625,0.909546875,2.62775,10.70221875,23.76234765625,4.62469140625,2.657953125,6.31042578125,13.28166796875,-2.80741796875,4.4907734375,8.33493359375,14.29578515625,14.09105078125,16.89100390625,8.61079296875,4.35522265625,7.4681015625
1.81630078125,7.5573515625,10.67242578125,5.3770390625,2.9413359375,1.872984375,4.00353515625,13.90031640625,-2.7678203125,0.81961328125,3.6115078125,12.18321875,6.07756640625,-1.602453125,0.29875,9.40021875,22.56034765625,2.92369140625,-0.841046875,4.23942578125,10.68166796875,-5.23841796875,0.257773437499999,4.53393359375,11.61378515625,12.69105078125,11.10800390625,4.67079296875,2.40922265625,4.7941015625
0.509300781249999,6.3113515625,8.27942578125,3.2220390625,1.3213359375,-0.607015625,3.06053515625,11.97531640625,-4.1238203125,-1.78038671875,1.9695078125,11.03521875,4.82656640625,-3.488453125,-1.56025,7.90221875,18.18534765625,2.28769140625,-3.760046875,2.44142578125,8.08066796875,-6.01041796875,-2.6302265625,1.08793359375,9.42178515625,11.11805078125,5.91000390625,1.80679296875,1.16622265625,2.1821015625
0.00230078124999933,4.5273515625,5.71042578125,1.4370390625,-0.211664062500001,-2.999015625,1.98153515625,9.07231640625,-4.7658203125,-4.00138671875,0.5715078125,8.97921875,4.06356640625,-4.420453125,-2.60525,6.23321875,12.17534765625,2.85269140625,-5.585046875,1.13542578125,5.48266796875,-5.13841796875,-3.9732265625,-1.72506640625,7.77878515625,9.58105078125,1.60700390625,-0.0552070312499993,0.00622265625000029,-0.6678984375
0.281300781249999,2.6213515625,3.55442578125,0.484039062500001,-1.2446640625,-4.691015625,0.85153515625,5.90631640625,-4.6148203125,-5.18038671875,-0.3314921875,6.34621875,3.52056640625,-4.306453125,-2.61125,4.56221875,6.61134765625,4.34669140625,-5.963046875,0.47242578125,3.02366796875,-3.30941796875,-3.9672265625,-3.66606640625,6.72678515625,8.45505078125,-1.61299609375,-1.27520703125,-1.47677734375,-3.5478984375
1.23930078125,1.2113515625,2.28142578125,0.598039062500001,-1.1906640625,-5.032015625,0.0535351562500002,3.42031640625,-3.6548203125,-4.72238671875,-0.3744921875,3.94321875,2.86156640625,-3.170453125,-1.42025,3.32121875,3.26834765625,6.30669140625,-4.737046875,0.62242578125,1.09366796875,-1.47541796875,-3.0242265625,-4.49906640625,6.40678515625,8.18105078125,-3.59499609375,-2.17620703125,-3.18777734375,-5.6788984375
2.74630078125,0.8913515625,2.17842578125,1.7460390625,0.4543359375,-3.570015625,0.15753515625,2.42231640625,-1.9328203125,-2.30438671875,0.8385078125,2.73421875,2.09256640625,-1.066453125,1.02275,3.07121875,2.86534765625,8.34269140625,-1.973046875,1.73342578125,0.19166796875,-0.33741796875,-1.5712265625,-4.03806640625,6.99878515625,9.01005078125,-4.24699609375,-2.81820703125,-4.61877734375,-6.1568984375
4.59330078125,1.9463515625,3.27042578125,3.6370390625,3.7753359375,-0.302015625,1.60553515625,3.20631640625,0.4041796875,1.90161328125,3.4745078125,3.34521875,1.65856640625,1.875546875,4.53675,4.18321875,4.84334765625,10.28469140625,1.979953125,3.78642578125,0.61466796875,-0.0254179687500002,0.0727734374999986,-2.30006640625,8.52978515625,10.78905078125,-3.65599609375,-3.00920703125,-5.21777734375,-4.6118984375
6.42430078125,4.1843515625,5.27342578125,5.7800390625,8.2423359375,4.209984375,4.41953515625,5.38731640625,3.0431796875,7.16161328125,7.2425078125,5.71021875,2.13956640625,5.343546875,8.61975,6.54921875,7.80334765625,12.13069140625,6.486953125,6.48042578125,2.20666796875,-0.12441796875,1.7157734375,0.39593359375,10.73778515625,12.95305078125,-2.14699609375,-2.49320703125,-4.72677734375,-1.5568984375
7.76730078125,6.9943515625,7.63042578125,7.6090390625,12.8043359375,8.959984375,8.09753515625,8.04031640625,5.4931796875,12.36161328125,11.3885078125,9.08621875,3.80556640625,8.802546875,12.53475,9.56921875,10.31734765625,13.90469140625,10.764953125,9.30542578125,4.38866796875,0.0425820312499994,3.2867734375,3.49793359375,13.12978515625,14.76705078125,-0.16799609375,-1.14220703125,-3.27377734375,1.8451015625
8.24030078125,9.6133515625,9.68042578125,8.6580390625,16.2703359375,12.822984375,11.79853515625,10.09431640625,7.1901796875,16.39661328125,14.9785078125,12.42121875,6.38356640625,11.618546875,15.55775,12.42921875,11.62134765625,15.55669140625,14.134953125,11.78242578125,6.44366796875,1.06758203125,4.8287734375,6.47093359375,15.22078515625,15.67305078125,1.96100390625,0.989792968750001,-1.17177734375,4.4531015625
7.79130078125,11.4133515625,10.89042578125,8.7260390625,17.7903359375,14.962984375,14.68653515625,10.80931640625,7.7071796875,18.57261328125,17.2805078125,14.83121875,9.17156640625,13.300546875,17.28375,14.50121875,11.83834765625,16.98369140625,16.268953125,13.71142578125,7.89666796875,3.18858203125,6.4817734375,9.07193359375,16.81078515625,15.56205078125,4.24800390625,3.73279296875,1.33522265625,5.8031015625
6.78130078125,12.0783515625,11.05542578125,7.9340390625,17.1743359375,15.111984375,16.24553515625,10.08231640625,6.9571796875,18.81461328125,18.0325078125,15.91421875,11.40556640625,13.690546875,17.77475,15.58921875,11.71434765625,18.08869140625,17.280953125,15.22942578125,8.71966796875,6.16658203125,8.3877734375,11.42993359375,18.07778515625,14.79505078125,7.00300390625,6.86279296875,4.18022265625,6.2981015625
5.79930078125,11.6293515625,10.34742578125,6.6330390625,14.9073359375,13.604984375,16.40853515625,8.45431640625,5.2361796875,17.58061328125,17.4495078125,15.77221875,12.61456640625,12.990546875,17.47575,15.90621875,12.06734765625,18.81069140625,17.594953125,16.64442578125,9.24466796875,9.32758203125,10.5517734375,13.87893359375,19.43778515625,13.98405078125,10.58300390625,10.06779296875,7.33922265625,6.8201015625
5.31530078125,10.3423515625,9.18542578125,5.2330390625,11.8813359375,11.171984375,15.48153515625,6.79531640625,3.0901796875,15.58161328125,16.0135078125,14.82221875,12.73156640625,11.620546875,16.92175,15.83721875,13.25534765625,19.09569140625,17.663953125,18.13742578125,9.87166796875,11.76158203125,12.7327734375,16.62293359375,21.22078515625,13.64005078125,15.04200390625,12.86879296875,10.58522265625,8.0521015625
5.41430078125,8.6193515625,8.02042578125,4.0640390625,9.0273359375,8.613984375,13.94553515625,5.86331640625,1.0921796875,13.47061328125,14.2175078125,13.52821875,11.97256640625,10.015546875,16.43775,15.65821875,14.98834765625,18.88269140625,17.706953125,19.58342578125,10.77966796875,12.63658203125,14.4967734375,19.48793359375,23.40478515625,13.89605078125,19.94200390625,14.62679296875,13.37722265625,9.9821015625
5.79530078125,6.8693515625,7.14442578125,3.3210390625,7.0103359375,6.524984375,12.25653515625,5.95831640625,-0.3278203125,11.67861328125,12.3905078125,12.23121875,10.62156640625,8.497546875,16.00775,15.40321875,16.55534765625,18.16369140625,17.634953125,20.58642578125,11.82066796875,11.55358203125,15.4397734375,21.94693359375,25.57378515625,14.45905078125,24.45900390625,14.73679296875,15.02322265625,11.9001015625
6.00130078125,5.4153515625,6.64442578125,3.0880390625,6.0723359375,5.164984375,10.71353515625,6.82631640625,-0.9598203125,10.40061328125,10.6885078125,11.09221875,8.90056640625,7.254546875,15.37975,14.92221875,17.28234765625,17.07469140625,17.194953125,20.72342578125,12.63466796875,8.78858203125,15.4347734375,23.40093359375,27.13678515625,14.80105078125,27.77200390625,12.97879296875,15.04422265625,12.8741015625
5.69930078125,4.4373515625,6.47242578125,3.3710390625,6.0353359375,4.486984375,9.42953515625,7.84131640625,-0.8068203125,9.68161328125,9.1735078125,10.12421875,6.95456640625,6.364546875,14.30275,14.05321875,16.88934765625,15.93769140625,16.208953125,19.81042578125,12.86466796875,5.24658203125,14.7227734375,23.53493359375,27.64978515625,14.46805078125,29.47400390625,9.76279296875,13.50722265625,12.3711015625
4.83030078125,3.9533515625,6.54242578125,4.1130390625,6.4453359375,4.276984375,8.37153515625,8.33331640625,-0.0398203125000001,9.48661328125,7.8905078125,9.24921875,4.87656640625,5.820546875,12.74775,12.75521875,15.54734765625,15.15169140625,14.734953125,18.03042578125,12.33066796875,2.06058203125,13.7637734375,22.50293359375,27.02078515625,13.31405078125,29.73400390625,6.03579296875,11.06922265625,10.6421015625
3.58930078125,3.8333515625,6.76742578125,5.1590390625,6.7943359375,4.305984375,7.44453515625,7.89131640625,1.0451796875,9.72261328125,6.8845078125,8.36421875,2.76156640625,5.524546875,10.96675,11.14221875,13.69134765625,14.98769140625,13.053953125,15.85342578125,11.08966796875,0.0245820312500005,12.9377734375,20.82593359375,25.50178515625,11.54405078125,29.10400390625,2.85479296875,8.70122265625,8.6361015625
2.30930078125,3.8793515625,7.02442578125,6.2280390625,6.7203359375,4.401984375,6.58453515625,6.50731640625,2.0661796875,10.23661328125,6.1915078125,7.43621875,0.78656640625,5.297546875,9.37475,9.44621875,11.75434765625,15.41869140625,11.515953125,13.82342578125,9.38466796875,-0.780417968749999,12.3167734375,19.10193359375,23.51978515625,9.59505078125,28.15300390625,0.880792968750001,7.24322265625,7.5011015625
1.32530078125,3.9203515625,7.11642578125,6.9270390625,6.0803359375,4.441984375,5.81653515625,4.52331640625,2.5891796875,10.81061328125,5.8245078125,6.54921875,-0.74243359375,4.915546875,8.32775,7.93221875,9.98034765625,16.07569140625,10.352953125,12.33342578125,7.53866796875,-0.91441796875,11.6117734375,17.70993359375,21.47078515625,7.94205078125,27.14500390625,0.111792968750001,7.02422265625,7.9401015625
0.833300781249999,3.8593515625,6.79442578125,6.8390390625,4.8943359375,4.270984375,5.21353515625,2.44131640625,2.2141796875,11.15361328125,5.7345078125,5.85921875,-1.46143359375,4.145546875,7.90075,6.79221875,8.40034765625,16.34469140625,9.531953125,11.45942578125,5.82066796875,-1.18141796875,10.3247734375,16.64093359375,19.55678515625,6.91505078125,25.92600390625,-0.0432070312500006,7.71522265625,9.7771015625
0.786300781249999,3.6453515625,5.83142578125,5.6660390625,3.2153359375,3.642984375,4.78553515625,0.69831640625,0.6961796875,10.90561328125,5.7315078125,5.45421875,-1.15843359375,2.766546875,7.78075,6.02921875,6.94634765625,15.56169140625,8.715953125,10.91842578125,4.34466796875,-2.20041796875,7.9807734375,15.51193359375,17.71978515625,6.56105078125,24.01500390625,-0.466207031250001,8.45522265625,12.0001015625
0.886300781249999,3.2143515625,4.14542578125,3.3630390625,1.0293359375,2.248984375,4.37953515625,-0.50368359375,-1.9338203125,9.68861328125,5.4715078125,5.22821875,0.00556640625000071,0.607546875,7.38275,5.42121875,5.59334765625,13.25969140625,7.386953125,10.18542578125,3.04966796875,-4.16341796875,4.3497734375,13.75793359375,15.69478515625,6.63305078125,20.85500390625,-1.94220703125,8.23122265625,13.2641015625
0.736300781249999,2.4713515625,1.90442578125,0.228039062500001,-1.7186640625,-0.154015625,3.70753515625,-1.21968359375,-5.3208203125,7.25361328125,4.5695078125,4.89921875,1.46256640625,-2.377453125,6.15475,4.62921875,4.44934765625,9.39069140625,5.114953125,8.76442578125,1.78966796875,-6.81641796875,-0.391226562500001,10.95493359375,13.20678515625,6.73505078125,16.14000390625,-4.81120703125,6.37822265625,12.6171015625
0.0793007812499993,1.3693515625,-0.44057421875,-3.1059609375,-4.9806640625,-3.545015625,2.49953515625,-1.63268359375,-8.8308203125,3.67561328125,2.8225078125,4.17421875,2.44056640625,-5.991453125,3.92075,3.42621875,3.72934765625,4.42469140625,1.857953125,6.50342578125,0.47566796875,-9.57341796875,-5.6312265625,7.10293359375,10.20778515625,6.55105078125,10.08500390625,-8.77420703125,2.93822265625,10.0201015625
-1.02069921875,-0.00164843749999988,-2.26257421875,-5.7979609375,-8.4406640625,-7.503015625,0.69753515625,-1.85468359375,-11.6828203125,-0.52638671875,0.3835078125,2.95421875,2.35156640625,-9.740453125,1.03675,1.87121875,3.64634765625,-0.755308593750001,-1.909046875,3.75342578125,-0.81233203125,-11.72941796875,-10.4602265625,2.72293359375,6.99978515625,6.03205078125,3.47100390625,-12.95820703125,-1.31877734375,6.3641015625
-2.19569921875,-1.3676484375,-2.99257421875,-7.0499609375,-11.4876640625,-11.241015625,-1.45146484375,-1.83368359375,-13.1558203125,-4.46738671875,-2.2384921875,1.43721875,1.12956640625,-12.912453125,-1.74225,0.32221875,4.24134765625,-5.13730859375,-5.338046875,1.24442578125,-1.83933203125,-12.72241796875,-13.9552265625,-1.33306640625,4.13378515625,5.38805078125,-2.60099609375,-16.25520703125,-5.27977734375,2.9561015625
-2.97969921875,-2.3406484375,-2.39157421875,-6.4309609375,-13.4066640625,-13.855015625,-3.46746484375,-1.44968359375,-12.8248203125,-7.17938671875,-4.3654921875,0.03421875,-0.707433593749999,-14.795453125,-3.61025,-0.74278125,5.29334765625,-7.91530859375,-7.568046875,-0.25757421875,-2.34833203125,-12.35441796875,-15.5132265625,-4.23706640625,2.14178515625,4.91805078125,-7.13099609375,-17.77820703125,-8.02977734375,0.7971015625
-3.04269921875,-2.5686484375,-0.71357421875,-4.1039609375,-13.6926640625,-14.681015625,-4.83146484375,-0.71268359375,-10.7268203125,-7.96838671875,-5.4194921875,-0.82978125,-2.37043359375,-14.929453125,-4.05225,-0.96378125,6.36634765625,-8.72730859375,-8.081046875,-0.30957421875,-2.20933203125,-10.84841796875,-15.0522265625,-5.52306640625,1.28478515625,4.78605078125,-9.59499609375,-17.21220703125,-9.21977734375,0.1011015625
-2.30469921875,-1.9276484375,1.36642578125,-0.7969609375,-12.2936640625,-13.564015625,-5.20446484375,0.13131640625,-7.3428203125,-6.67238671875,-5.1364921875,-0.92478125,-3.29643359375,-13.276453125,-3.00725,-0.26578125,6.99534765625,-7.68330859375,-6.876046875,1.04742578125,-1.50233203125,-8.69241796875,-12.9892265625,-5.20806640625,1.47078515625,4.90805078125,-10.06799609375,-14.86420703125,-9.07577734375,0.3111015625
-0.886699218750001,-0.6186484375,3.06642578125,2.4990390625,-9.6326640625,-10.916015625,-4.56846484375,0.69131640625,-3.4158203125,-3.69838671875,-3.6494921875,-0.31478125,-3.44443359375,-10.204453125,-0.81425,1.12021875,6.89434765625,-5.25330859375,-4.391046875,3.36642578125,-0.46533203125,-6.37541796875,-10.0002265625,-3.69806640625,2.34778515625,5.00005078125,-9.09199609375,-11.44620703125,-8.11177734375,0.5691015625
0.987300781249999,0.8823515625,3.88942578125,4.9630390625,-6.4506640625,-7.558015625,-3.24146484375,0.64431640625,0.3071796875,0.13461328125,-1.4154921875,0.67121875,-3.16643359375,-6.343453125,1.96975,2.77421875,6.03634765625,-2.07930859375,-1.278046875,6.03042578125,0.63466796875,-4.17741796875,-6.7362265625,-1.56206640625,3.50178515625,4.75205078125,-7.37499609375,-7.74520703125,-6.79677734375,0.2811015625
3.03130078125,2.0393515625,3.85842578125,6.2370390625,-3.5646640625,-4.428015625,-1.78346484375,-0.0646835937499999,3.2441796875,3.87261328125,0.9565078125,1.59421875,-2.77743359375,-2.375453125,4.75775,4.25921875,4.57434765625,1.17669140625,1.846953125,8.49242578125,1.61666796875,-2.12641796875,-3.6192265625,0.692933593749999,4.62578515625,4.00905078125,-5.50199609375,-4.37020703125,-5.37977734375,-0.5548984375
4.87930078125,2.5013515625,3.44742578125,6.4440390625,-1.6636640625,-2.290015625,-0.80146484375,-1.12668359375,5.0711796875,6.70161328125,2.8985078125,2.07621875,-2.19343359375,1.145546875,7.06375,5.27321875,2.68534765625,3.95969140625,4.563953125,10.41342578125,2.43166796875,-0.11841796875,-0.795226562500001,2.75393359375,5.58178515625,2.84305078125,-3.78099609375,-1.64920703125,-3.91877734375,-1.4138984375
6.10330078125,2.2423515625,3.25442578125,5.9970390625,-1.1596640625,-1.514015625,-0.71246484375,-1.97868359375,5.7431796875,8.14461328125,4.0355078125,1.93321875,-0.96143359375,3.906546875,8.57275,5.69621875,0.47834765625,5.92569140625,6.690953125,11.67942578125,3.10766796875,1.93458203125,1.7897734375,4.52793359375,6.37778515625,1.48605078125,-2.24499609375,0.347792968749999,-2.41877734375,-1.5988984375
6.33830078125,1.5203515625,3.60242578125,5.3410390625,-2.1206640625,-2.020015625,-1.58846484375,-2.09068359375,5.4771796875,8.11861328125,4.2445078125,1.20721875,1.34156640625,5.849546875,9.16675,5.55521875,-1.95565234375,7.02369140625,8.242953125,12.34742578125,3.64866796875,3.99158203125,4.2697734375,6.09193359375,7.07478515625,0.18105078125,-0.740996093750001,1.73879296875,-0.95777734375,-0.6538984375
5.45430078125,0.6953515625,4.32742578125,4.7770390625,-4.2916640625,-3.390015625,-3.15046484375,-1.30368359375,4.6741796875,6.85661328125,3.6105078125,0.0872187499999999,4.67956640625,7.094546875,8.89675,4.93221875,-4.41965234375,7.49569140625,9.325953125,12.54842578125,3.94266796875,5.88658203125,6.7257734375,7.58893359375,7.71778515625,-0.952949218750001,0.95700390625,2.74879296875,0.29522265625,1.3881015625
3.63230078125,0.0193515625,4.85542578125,4.4060390625,-7.1906640625,-5.100015625,-4.93646484375,0.0273164062499998,3.7801796875,4.73161328125,2.3285078125,-1.22678125,8.44956640625,7.802546875,7.91675,3.87021875,-6.52765234375,7.75969140625,10.026953125,12.39842578125,3.76266796875,7.41458203125,9.0987734375,9.11993359375,8.29378515625,-1.93594921875,3.03000390625,3.61379296875,1.13422265625,4.0131015625
1.27930078125,-0.4826484375,4.50542578125,4.1620390625,-10.2566640625,-6.756015625,-6.54646484375,1.19231640625,3.1131796875,2.07061328125,0.5735078125,-2.63078125,11.75656640625,8.043546875,6.39275,2.34021875,-7.78365234375,8.19169140625,10.327953125,11.94042578125,2.86966796875,8.45258203125,11.1777734375,10.66793359375,8.74078515625,-2.85794921875,5.53900390625,4.48879296875,1.44622265625,6.4701015625
-1.16269921875,-0.9826484375,2.84542578125,3.8940390625,-13.0246640625,-8.248015625,-7.83046484375,1.48031640625,2.7471796875,-0.95138671875,-1.5634921875,-4.13678125,13.79156640625,7.736546875,4.43675,0.29621875,-7.82665234375,8.90769140625,10.090953125,11.14942578125,1.17366796875,9.02058203125,12.6467734375,12.08293359375,8.99278515625,-3.76794921875,8.40200390625,5.40079296875,1.33222265625,8.1451015625
-3.38569921875,-1.7076484375,-0.0715742187500004,3.4420390625,-15.2676640625,-9.764015625,-8.91846484375,0.51431640625,2.4811796875,-4.30238671875,-4.0484921875,-5.77178125,14.03756640625,6.684546875,2.10275,-2.21078125,-6.71665234375,9.63869140625,9.126953125,9.98042578125,-1.14933203125,9.20258203125,13.1627734375,13.12693359375,9.03178515625,-4.60894921875,11.43200390625,6.22279296875,1.13422265625,8.8391015625
-5.24669921875,-2.7886484375,-3.66157421875,2.7030390625,-17.0306640625,-11.663015625,-10.11846484375,-1.60068359375,1.9591796875,-7.98338671875,-6.8224921875,-7.46578125,12.26156640625,4.686546875,-0.57025,-4.95678125,-5.04965234375,9.80569140625,7.292953125,8.43942578125,-3.67533203125,8.96358203125,12.4147734375,13.55993359375,8.89978515625,-5.23794921875,14.37100390625,6.65879296875,1.26722265625,8.7821015625
-6.71069921875,-4.2056484375,-7.00957421875,1.6720390625,-18.5526640625,-14.256015625,-11.73346484375,-4.33668359375,0.8621796875,-11.91838671875,-9.7544921875,-9.02278125,8.45956640625,1.659546875,-3.50325,-7.56878125,-3.76065234375,8.76269140625,4.572953125,6.60342578125,-5.89833203125,8.01258203125,10.1817734375,13.19193359375,8.64078515625,-5.52094921875,16.89000390625,6.26279296875,1.92022265625,8.3931015625
-7.77169921875,-5.8386484375,-9.24357421875,0.4240390625,-20.1036640625,-17.611015625,-13.90946484375,-6.96368359375,-0.9438203125,-15.89338671875,-12.6624921875,-10.20978125,2.88856640625,-2.281453125,-6.56025,-9.68178125,-3.68765234375,6.09469140625,1.088953125,4.58942578125,-7.45933203125,5.85958203125,6.3987734375,11.91393359375,8.22778515625,-5.43594921875,18.59000390625,4.56179296875,2.86922265625,8.0021015625
-8.42369921875,-7.5366484375,-9.93257421875,-0.938960937499999,-21.8456640625,-21.459015625,-16.55346484375,-8.83468359375,-3.3858203125,-19.58238671875,-15.3504921875,-10.90578125,-3.82643359375,-6.811453125,-9.57025,-11.10878125,-5.15765234375,1.81369140625,-2.909046875,2.50142578125,-8.31133203125,2.09358203125,1.2327734375,9.73093359375,7.52578515625,-5.13794921875,19.06900390625,1.29979296875,3.55322265625,7.7381015625
-8.68769921875,-9.1506484375,-9.29357421875,-2.3149609375,-23.7426640625,-25.236015625,-19.33146484375,-9.63268359375,-6.2668203125,-22.62738671875,-17.6464921875,-11.19978125,-10.62343359375,-11.449453125,-12.34525,-11.92478125,-7.85565234375,-3.62330859375,-7.076046875,0.38542578125,-8.73033203125,-3.25441796875,-4.8812265625,6.77793359375,6.32578515625,-4.94294921875,18.06100390625,-3.32320703125,3.37722265625,7.5611015625
-8.65069921875,-10.5326484375,-8.09257421875,-3.5859609375,-25.5546640625,-28.237015625,-21.75546484375,-9.46968359375,-9.3418203125,-24.72538671875,-19.4174921875,-11.36978125,-16.13543359375,-15.645453125,-14.70625,-12.43178125,-11.02065234375,-9.45930859375,-11.020046875,-1.77757421875,-9.16333203125,-9.53341796875,-11.2752265625,3.31093359375,4.42378515625,-5.23094921875,15.55000390625,-8.60620703125,1.99022265625,7.3021015625
-8.46969921875,-11.5346484375,-7.26957421875,-4.5899609375,-26.9076640625,-29.848015625,-23.34546484375,-8.81168359375,-12.3338203125,-25.71438671875,-20.5924921875,-11.77178125,-19.11043359375,-18.919453125,-16.49925,-13.02378125,-13.84065234375,-14.87030859375,-14.381046875,-4.04557421875,-10.01133203125,-15.63341796875,-17.1792265625,-0.368066406250001,1.69278515625,-6.30294921875,11.76200390625,-13.59320703125,-0.61977734375,6.6501015625
-8.34469921875,-12.0556484375,-7.46557421875,-5.1749609375,-27.4526640625,-29.779015625,-23.81946484375,-8.25368359375,-14.9448203125,-25.63438671875,-21.1804921875,-12.66278125,-18.99743359375,-20.994453125,-17.64325,-13.99578125,-15.83765234375,-19.20930859375,-16.928046875,-6.46257421875,-11.43633203125,-20.44041796875,-21.9382265625,-4.01706640625,-1.84821484375,-8.24194921875,7.06900390625,-17.49520703125,-4.22077734375,5.1581015625
-8.44669921875,-12.0966484375,-8.69757421875,-5.3099609375,-27.0526640625,-28.193015625,-23.23046484375,-8.26868359375,-16.9078203125,-24.73838671875,-21.2644921875,-14.06078125,-16.36743359375,-21.898453125,-18.16725,-15.38778125,-17.03265234375,-22.16130859375,-18.620046875,-8.99757421875,-13.28933203125,-23.32141796875,-25.2142265625,-7.51806640625,-5.98921484375,-10.83594921875,1.86400390625,-20.01920703125,-8.45677734375,2.4261015625
-8.83669921875,-11.7766484375,-10.35657421875,-5.1519609375,-25.8566640625,-25.652015625,-21.94446484375,-8.99568359375,-18.0458203125,-23.42438671875,-20.9554921875,-15.69078125,-12.77643359375,-21.931453125,-18.19625,-16.93878125,-17.77665234375,-23.77130859375,-19.582046875,-11.48157421875,-15.15433203125,-24.32041796875,-27.0632265625,-10.83906640625,-10.30621484375,-13.59294921875,-3.45899609375,-21.39820703125,-12.85977734375,-1.5378984375
-9.39269921875,-11.2716484375,-11.56057421875,-4.9799609375,-24.2056640625,-22.868015625,-20.44746484375,-10.17768359375,-18.2888203125,-22.08738671875,-20.3294921875,-17.03678125,-10.02143359375,-21.510453125,-17.89225,-18.16678125,-18.37465234375,-24.31330859375,-20.003046875,-13.59057421875,-16.48933203125,-23.98341796875,-27.8222265625,-13.90706640625,-14.18021484375,-15.84394921875,-8.47399609375,-22.11120703125,-16.77677734375,-6.0238984375
-9.82669921875,-10.7176484375,-11.64957421875,-5.0239609375,-22.4576640625,-20.422015625,-19.08146484375,-11.26768359375,-17.6618203125,-20.98138671875,-19.3954921875,-17.51878125,-9.21743359375,-20.969453125,-17.37325,-18.58478125,-18.78865234375,-24.10430859375,-20.027046875,-14.90657421875,-16.82733203125,-23.00041796875,-27.8932265625,-16.51406640625,-16.92521484375,-16.93994921875,-12.70099609375,-22.54320703125,-19.41777734375,-9.7158984375
-9.80669921875,-10.1456484375,-10.55757421875,-5.3319609375,-20.8526640625,-18.589015625,-17.89146484375,-11.69468359375,-16.3008203125,-20.16638671875,-18.1274921875,-16.73378125,-10.36843359375,-20.448453125,-16.70125,-17.91978125,-18.66065234375,-23.38130859375,-19.709046875,-15.07657421875,-15.98533203125,-21.91541796875,-27.5772265625,-18.35706640625,-18.02421484375,-16.49994921875,-15.72399609375,-22.81720703125,-20.12777734375,-11.2528984375
-9.13569921875,-9.5126484375,-8.80357421875,-5.7539609375,-19.4786640625,-17.353015625,-16.67046484375,-11.11168359375,-14.4558203125,-19.56338671875,-16.5464921875,-14.66878125,-12.64043359375,-19.897453125,-15.91125,-16.25978125,-17.60765234375,-22.27030859375,-19.061046875,-14.00357421875,-14.18233203125,-21.02441796875,-27.0332265625,-19.19806640625,-17.35921484375,-14.59794921875,-17.37799609375,-22.85820703125,-18.76677734375,-9.9598984375
-7.87769921875,-8.7986484375,-7.13557421875,-6.0289609375,-18.3056640625,-16.536015625,-15.17346484375,-9.52268359375,-12.4368203125,-19.05538671875,-14.7894921875,-11.76678125,-15.00943359375,-19.177453125,-15.08125,-14.02478125,-15.54465234375,-20.83030859375,-18.130046875,-11.96057421875,-11.96633203125,-20.37041796875,-26.3172265625,-19.04006640625,-15.31521484375,-11.76394921875,-17.86099609375,-22.53020703125,-15.89577734375,-6.2688984375
-6.34169921875,-8.0816484375,-6.08157421875,-5.9189609375,-17.2296640625,-15.942015625,-13.35146484375,-7.26968359375,-10.5268203125,-18.56038671875,-13.1044921875,-8.79478125,-16.72343359375,-18.163453125,-14.34025,-11.80178125,-12.79765234375,-19.09930859375,-17.031046875,-9.53057421875,-9.98633203125,-19.74841796875,-25.4162265625,-18.15206640625,-12.63921484375,-8.77494921875,-17.66399609375,-21.71320703125,-12.59077734375,-1.5618984375
-4.96669921875,-7.5196484375,-5.71157421875,-5.3299609375,-16.1456640625,-15.472015625,-11.46846484375,-4.93468359375,-8.9198203125,-18.04638671875,-11.7664921875,-6.55378125,-17.39743359375,-16.856453125,-13.83425,-10.11678125,-10.00365234375,-17.16930859375,-15.918046875,-7.39157421875,-8.70933203125,-18.77141796875,-24.2712265625,-16.95306640625,-10.14221484375,-6.34994921875,-17.32599609375,-20.30920703125,-9.94977734375,2.4651015625
-4.17469921875,-7.2606484375,-5.74557421875,-4.3929609375,-15.0086640625,-15.151015625,-10.02746484375,-3.19868359375,-7.7138203125,-17.53138671875,-10.9824921875,-5.58078125,-16.92543359375,-15.426453125,-13.65825,-9.26878125,-7.88765234375,-15.25330859375,-14.929046875,-6.04857421875,-8.27233203125,-17.06941796875,-22.8192265625,-15.81506640625,-8.39321484375,-4.90894921875,-17.17599609375,-18.28820703125,-8.60177734375,4.5591015625
-4.24669921875,-7.3766484375,-5.89257421875,-3.4479609375,-13.8776640625,-15.078015625,-9.55946484375,-2.66368359375,-6.9348203125,-17.08838671875,-10.8474921875,-5.99478125,-15.44643359375,-14.182453125,-13.81625,-9.29978125,-7.02965234375,-13.70730859375,-14.144046875,-5.66457421875,-8.52533203125,-14.57241796875,-21.0642265625,-14.93506640625,-7.55621484375,-4.52894921875,-17.23099609375,-15.78620703125,-8.50377734375,4.4081015625
-5.23769921875,-7.8456484375,-6.13157421875,-2.9249609375,-12.9196640625,-15.360015625,-10.36646484375,-3.66268359375,-6.5718203125,-16.84638671875,-11.3734921875,-7.51278125,-13.36443359375,-13.447453125,-14.23025,-10.06078125,-7.67665234375,-12.92930859375,-13.588046875,-6.06357421875,-9.19233203125,-11.65041796875,-19.1512265625,-14.32106640625,-7.44721484375,-5.03794921875,-17.26499609375,-13.15320703125,-9.09977734375,2.6641015625
-6.93669921875,-8.5926484375,-6.73057421875,-3.1679609375,-12.3746640625,-16.046015625,-12.36146484375,-6.12468359375,-6.6058203125,-16.95838671875,-12.5124921875,-9.59978125,-11.29443359375,-13.396453125,-14.78325,-11.31278125,-9.63865234375,-13.18730859375,-13.247046875,-6.86357421875,-10.04633203125,-8.96841796875,-17.3592265625,-13.86706640625,-7.71121484375,-6.16794921875,-16.98099609375,-10.84520703125,-9.69477734375,0.5141015625
-8.89569921875,-9.5236484375,-7.99657421875,-4.2689609375,-12.4746640625,-17.102015625,-15.06546484375,-9.58068359375,-7.0278203125,-17.51438671875,-14.1494921875,-11.67178125,-9.86843359375,-13.948453125,-15.35525,-12.78578125,-12.31065234375,-14.45230859375,-13.068046875,-7.65057421875,-10.98133203125,-7.12941796875,-15.9872265625,-13.43706640625,-8.00721484375,-7.66294921875,-16.14899609375,-9.20020703125,-9.79977734375,-0.9348984375
-10.58569921875,-10.5426484375,-9.96157421875,-5.9769609375,-13.3066640625,-18.384015625,-17.77546484375,-13.27868359375,-7.8018203125,-18.44738671875,-16.0644921875,-13.27878125,-9.52843359375,-14.771453125,-15.83825,-14.22978125,-14.86665234375,-16.36530859375,-12.966046875,-8.12057421875,-11.97933203125,-6.35541796875,-15.2212265625,-12.92706640625,-8.13021484375,-9.30494921875,-14.68599609375,-8.28420703125,-9.28977734375,-1.1308984375
-11.60269921875,-11.5416484375,-12.25057421875,-7.7499609375,-14.6856640625,-19.642015625,-19.82146484375,-16.39768359375,-8.8008203125,-19.50738671875,-17.9454921875,-14.22878125,-10.43143359375,-15.417453125,-16.14025,-15.45878125,-16.55665234375,-18.35030859375,-12.861046875,-8.17257421875,-13.04333203125,-6.43941796875,-15.0572265625,-12.29206640625,-8.04221484375,-10.90094921875,-12.68799609375,-7.96420703125,-8.34877734375,-0.1948984375
-11.85169921875,-12.3866484375,-14.21257421875,-8.9309609375,-16.1556640625,-20.573015625,-20.80346484375,-18.28968359375,-9.7878203125,-20.33838671875,-19.4704921875,-14.60078125,-12.46243359375,-15.528453125,-16.22125,-16.38178125,-16.99765234375,-19.84530859375,-12.726046875,-7.92857421875,-14.13133203125,-6.94441796875,-15.3572265625,-11.57706640625,-7.84521484375,-12.27094921875,-10.41699609375,-8.11020703125,-7.30277734375,1.3061015625
-11.54469921875,-12.9216484375,-15.23757421875,-9.0099609375,-17.1536640625,-20.914015625,-20.71946484375,-18.69468359375,-10.4898203125,-20.63438671875,-20.4114921875,-14.63778125,-15.24243359375,-14.995453125,-16.11525,-16.99678125,-16.28765234375,-20.50830859375,-12.603046875,-7.66057421875,-15.14033203125,-7.49641796875,-15.9632265625,-10.91906640625,-7.71321484375,-13.26794921875,-8.24399609375,-8.75520703125,-6.45377734375,2.7151015625
-11.03269921875,-13.0156484375,-15.04757421875,-7.8499609375,-17.2536640625,-20.550015625,-19.91846484375,-17.81368359375,-10.7378203125,-20.27738671875,-20.7154921875,-14.58978125,-18.05643359375,-13.993453125,-15.92625,-17.34478125,-14.89965234375,-20.32330859375,-12.580046875,-7.65357421875,-15.92533203125,-7.96041796875,-16.7852265625,-10.50006640625,-7.80821484375,-13.81994921875,-6.53699609375,-10.06120703125,-5.98577734375,3.5421015625
-10.58269921875,-12.6376484375,-13.82557421875,-5.7759609375,-16.3666640625,-19.566015625,-18.93646484375,-16.18568359375,-10.5498203125,-19.38738671875,-20.5174921875,-14.60978125,-19.86543359375,-12.869453125,-15.77725,-17.46078125,-13.45165234375,-19.57130859375,-12.732046875,-8.05457421875,-16.35333203125,-8.44341796875,-17.7942265625,-10.47506640625,-8.21721484375,-13.96894921875,-5.55799609375,-12.14620703125,-5.95977734375,3.5531015625
-10.25869921875,-11.9046484375,-12.10957421875,-3.4859609375,-14.7876640625,-18.240015625,-18.26446484375,-14.43968359375,-10.1208203125,-18.25238671875,-20.0704921875,-14.70778125,-19.58543359375,-11.964453125,-15.74125,-17.35078125,-12.45565234375,-18.69930859375,-13.069046875,-8.79857421875,-16.36933203125,-9.17341796875,-18.9452265625,-10.88306640625,-8.91521484375,-13.85194921875,-5.37099609375,-14.91320703125,-6.36677734375,2.7141015625
-9.95269921875,-11.0266484375,-10.51957421875,-1.7749609375,-13.0906640625,-16.957015625,-18.14746484375,-13.03868359375,-9.6968203125,-17.18238671875,-19.6084921875,-14.76978125,-16.62743359375,-11.460453125,-15.81225,-16.98178125,-12.15065234375,-18.14030859375,-13.508046875,-9.63757421875,-16.03133203125,-10.33241796875,-20.1102265625,-11.60006640625,-9.75921484375,-13.64494921875,-5.82299609375,-18.01020703125,-7.17377734375,1.1001015625
-9.48869921875,-10.1866484375,-9.48357421875,-1.1689609375,-11.8906640625,-16.068015625,-18.47646484375,-12.15668359375,-9.4228203125,-16.37038671875,-19.2284921875,-14.58978125,-11.37943359375,-11.326453125,-15.89925,-16.31378125,-12.43965234375,-18.12730859375,-13.897046875,-10.26657421875,-15.49033203125,-11.92341796875,-21.0712265625,-12.36206640625,-10.54721484375,-13.48594921875,-6.60499609375,-20.91020703125,-8.34377734375,-1.1958984375
-8.70569921875,-9.4456484375,-9.10657421875,-1.6709609375,-11.5576640625,-15.725015625,-18.84046484375,-11.67668359375,-9.2258203125,-15.83738671875,-18.8544921875,-13.94478125,-5.23543359375,-11.369453125,-15.88225,-15.33878125,-12.96565234375,-18.58430859375,-14.077046875,-10.47657421875,-14.91933203125,-13.73441796875,-21.5872265625,-12.88306640625,-11.09721484375,-13.44294921875,-7.39199609375,-23.07420703125,-9.82277734375,-4.0638984375
-7.50469921875,-8.7476484375,-9.21457421875,-2.7629609375,-12.0296640625,-15.803015625,-18.70946484375,-11.31268359375,-8.8678203125,-15.49038671875,-18.3024921875,-12.67878125,-0.0294335937499994,-11.354453125,-15.66425,-14.11778125,-13.31565234375,-19.15930859375,-13.963046875,-10.24657421875,-14.42133203125,-15.41541796875,-21.5052265625,-12.98906640625,-11.32521484375,-13.50094921875,-8.00599609375,-24.14320703125,-11.50177734375,-7.2788984375
-5.90269921875,-7.9796484375,-9.49257421875,-3.6979609375,-12.8166640625,-15.939015625,-17.66446484375,-10.75168359375,-8.1068203125,-15.19538671875,-17.3804921875,-10.78878125,2.81956640625,-11.114453125,-15.21525,-12.75778125,-13.27965234375,-19.39430859375,-13.572046875,-9.71757421875,-13.96633203125,-16.62841796875,-20.8392265625,-12.70006640625,-11.25621484375,-13.58094921875,-8.46799609375,-24.06520703125,-13.16777734375,-10.3558984375
-4.07769921875,-7.0626484375,-9.60757421875,-3.9049609375,-13.2206640625,-15.691015625,-15.57246484375,-9.76768359375,-6.8788203125,-14.82438671875,-15.9704921875,-8.44978125,2.90056640625,-10.600453125,-14.55025,-11.34978125,-12.93765234375,-18.95230859375,-12.996046875,-9.06857421875,-13.38833203125,-17.20341796875,-19.7822265625,-12.19606640625,-10.97821484375,-13.55794921875,-8.93599609375,-23.08820703125,-14.50977734375,-12.5378984375
-2.35469921875,-6.0026484375,-9.28257421875,-3.2649609375,-12.6296640625,-14.723015625,-12.64046484375,-8.27368359375,-5.3698203125,-14.24938671875,-14.0634921875,-5.97478125,0.789566406250001,-9.859453125,-13.68525,-9.92978125,-12.49465234375,-17.78230859375,-12.328046875,-8.38557421875,-12.46833203125,-17.20641796875,-18.6212265625,-11.71206640625,-10.56721484375,-13.29494921875,-9.55399609375,-21.62620703125,-15.22277734375,-13.0378984375
-1.09869921875,-4.9206484375,-8.35057421875,-2.1239609375,-10.7836640625,-12.928015625,-9.33546484375,-6.33868359375,-3.9438203125,-13.34338671875,-11.7754921875,-3.73378125,-2.49843359375,-8.979453125,-12.58925,-8.48778125,-12.01465234375,-16.14230859375,-11.601046875,-7.61157421875,-11.07033203125,-16.89841796875,-17.6132265625,-11.40206640625,-10.04621484375,-12.68694921875,-10.34499609375,-20.07320703125,-15.16977734375,-11.4768984375
-0.543699218750001,-3.9936484375,-6.79957421875,-1.0579609375,-7.8796640625,-10.450015625,-6.21446484375,-4.16868359375,-2.9718203125,-11.99238671875,-9.3124921875,-2.03178125,-6.10843359375,-8.030453125,-11.18425,-7.00178125,-11.31865234375,-14.44130859375,-10.753046875,-6.59557421875,-9.24833203125,-16.59741796875,-16.8502265625,-11.23806640625,-9.36221484375,-11.70494921875,-11.16499609375,-18.66420703125,-14.48277734375,-8.2038984375
-0.658699218750001,-3.3526484375,-4.78457421875,-0.5489609375,-4.5006640625,-7.592015625,-3.71646484375,-2.04668359375,-2.6678203125,-10.14838671875,-6.8954921875,-0.97978125,-9.56543359375,-7.025453125,-9.38125,-5.44878125,-10.13165234375,-13.00430859375,-9.638046875,-5.18457421875,-7.24033203125,-16.50541796875,-16.1842265625,-10.98406640625,-8.39921484375,-10.42894921875,-11.72799609375,-17.43420703125,-13.50877734375,-4.2448984375
-1.13369921875,-2.9906484375,-2.57157421875,-0.742960937499999,-1.3726640625,-4.690015625,-1.99346484375,-0.22168359375,-2.9748203125,-7.87438671875,-4.6704921875,-0.42978125,-12.54543359375,-5.907453125,-7.15025,-3.79078125,-8.36165234375,-11.88330859375,-8.095046875,-3.30257421875,-5.35233203125,-16.58941796875,-15.2642265625,-10.26506640625,-7.03221484375,-9.03794921875,-11.69599609375,-16.26820703125,-12.60477734375,-0.8568984375
-1.50169921875,-2.7496484375,-0.43657421875,-1.4009609375,0.9363359375,-1.989015625,-0.87746484375,1.20731640625,-3.5678203125,-5.35838671875,-2.6644921875,-0.02278125,-14.53043359375,-4.575453125,-4.58125,-1.98578125,-6.24265234375,-10.83130859375,-6.045046875,-1.00057421875,-3.79333203125,-16.56541796875,-13.6772265625,-8.73106640625,-5.20721484375,-7.76294921875,-10.80699609375,-15.00020703125,-11.90577734375,1.0651015625
-1.34469921875,-2.4056484375,1.41042578125,-2.0519609375,2.2283359375,0.374984375,0.00353515625000012,2.31231640625,-3.9968203125,-2.89138671875,-0.8274921875,0.63321875,-14.77243359375,-2.947453125,-1.90325,-0.0257812500000003,-4.26765234375,-9.45630859375,-3.576046875,1.53542578125,-2.60033203125,-15.99641796875,-11.1752265625,-6.25706640625,-3.02021484375,-6.79394921875,-8.99199609375,-13.49920703125,-11.25177734375,1.3361015625
-0.482699218750001,-1.8086484375,2.83142578125,-2.2649609375,2.6803359375,2.321984375,0.99253515625,3.20431640625,-3.9108203125,-0.79838671875,0.8795078125,1.72721875,-12.72343359375,-1.059453125,0.52875,1.98521875,-2.93665234375,-7.48630859375,-0.977046875,3.99442578125,-1.68933203125,-14.50641796875,-7.8762265625,-3.09306640625,-0.75921484375,-6.21194921875,-6.48099609375,-11.75020703125,-10.33977734375,0.4161015625
0.932300781249999,-1.0076484375,3.72042578125,-1.8869609375,2.6573359375,3.749984375,2.18253515625,3.86331640625,-3.2528203125,0.62761328125,2.3845078125,3.09421875,-8.62243359375,0.864546875,2.31075,3.77821875,-2.51565234375,-4.99530859375,1.291953125,5.96142578125,-1.00033203125,-12.05141796875,-4.3642265625,0.11893359375,1.12778515625,-5.99494921875,-3.84099609375,-9.93020703125,-9.03177734375,-0.9848984375
2.46030078125,-0.2746484375,3.97742578125,-1.1399609375,2.4583359375,4.532984375,3.33753515625,4.06331640625,-2.2978203125,1.18961328125,3.4685078125,4.22321875,-3.69943359375,2.426546875,3.10775,4.94521875,-2.94865234375,-2.47330859375,2.705953125,6.99042578125,-0.60133203125,-9.06941796875,-1.5732265625,2.50093359375,2.13778515625,-6.08994921875,-1.88599609375,-8.43620703125,-7.57777734375,-2.3268984375
3.52330078125,0.000351562500000124,3.54242578125,-0.526960937499999,2.1623359375,4.598984375,4.00253515625,3.47931640625,-1.5078203125,0.84061328125,3.8415078125,4.47921875,0.25956640625,3.204546875,2.78975,5.06721875,-3.95065234375,-0.634308593750001,2.862953125,6.75342578125,-0.65833203125,-6.35641796875,-0.443226562500001,3.26593359375,1.88678515625,-6.45994921875,-1.41099609375,-7.74320703125,-6.54377734375,-3.4348984375
3.60530078125,-0.4726484375,2.47342578125,-0.5999609375,1.6513359375,4.025984375,3.74853515625,1.90831640625,-1.2868203125,-0.25838671875,3.3165078125,3.43121875,1.77756640625,2.964546875,1.51875,3.91521875,-5.20665234375,-0.0653085937500006,1.685953125,5.20642578125,-1.31033203125,-4.65741796875,-1.4712265625,2.06893359375,0.296785156249999,-7.07994921875,-2.81699609375,-8.12120703125,-6.48177734375,-4.4348984375
2.45630078125,-1.6876484375,1.02542578125,-1.6829609375,0.790335937499999,3.103984375,2.43253515625,-0.52968359375,-1.7458203125,-1.72638671875,1.9865078125,1.13421875,0.404566406250001,1.838546875,-0.25125,1.62921875,-6.49265234375,-0.888308593750001,-0.446046875,2.70542578125,-2.51133203125,-4.23241796875,-4.3802265625,-0.76606640625,-2.29921484375,-7.87294921875,-5.83499609375,-9.35820703125,-7.54277734375,-5.5278984375
0.222300781249999,-3.2876484375,-0.37457421875,-3.6829609375,-0.371664062500001,2.278984375,0.34553515625,-3.33368359375,-2.6068203125,-3.03238671875,0.2725078125,-1.81678125,-3.11143359375,0.347546875,-1.89325,-1.24478125,-7.66265234375,-2.63030859375,-2.771046875,-0.0515742187500001,-3.97133203125,-4.68441796875,-8.1202265625,-4.29906640625,-5.21121484375,-8.66794921875,-9.52799609375,-10.74220703125,-9.29077734375,-6.7598984375
-2.56769921875,-4.7156484375,-1.24857421875,-6.0879609375,-1.5456640625,1.999984375,-1.85546484375,-5.78568359375,-3.3188203125,-3.65638671875,-1.2274921875,-4.50578125,-7.23343359375,-0.774453125,-2.82025,-3.92178125,-8.57965234375,-4.40230859375,-4.401046875,-2.26157421875,-5.25933203125,-5.16941796875,-11.2332265625,-7.30006640625,-7.63821484375,-9.23194921875,-12.62099609375,-11.35320703125,-10.84777734375,-7.8948984375
-5.17669921875,-5.4876484375,-1.27257421875,-8.1759609375,-2.3696640625,2.504984375,-3.41546484375,-7.27168359375,-3.3468203125,-3.30238671875,-2.0074921875,-6.09878125,-10.33543359375,-0.886453125,-2.72125,-5.69278125,-9.14765234375,-5.30230859375,-4.691046875,-3.35457421875,-6.02433203125,-4.86841796875,-12.4582265625,-8.73206640625,-8.98921484375,-9.39294921875,-14.02099609375,-10.54720703125,-11.30877734375,-8.4868984375
-6.92669921875,-5.4256484375,-0.44057421875,-9.3349609375,-2.6576640625,3.673984375,-3.81846484375,-7.57468359375,-2.4628203125,-2.02738671875,-1.8884921875,-6.21878125,-11.31343359375,0.234546875,-1.69325,-6.23078125,-9.41565234375,-4.85730859375,-3.524046875,-3.24457421875,-6.21633203125,-3.44341796875,-11.2942265625,-8.17206640625,-9.13121484375,-9.16394921875,-13.27299609375,-8.34520703125,-10.21477734375,-8.1338984375
-7.43069921875,-4.7286484375,0.88842578125,-9.3189609375,-2.5336640625,5.071984375,-3.00546484375,-6.95068359375,-0.8528203125,-0.24238671875,-1.0914921875,-5.09278125,-9.87243359375,2.253546875,-0.20325,-5.72278125,-9.58865234375,-3.27830859375,-1.383046875,-2.36257421875,-6.15133203125,-1.25341796875,-8.2402265625,-5.96706640625,-8.43721484375,-8.78294921875,-10.74699609375,-5.51920703125,-7.84777734375,-6.7988984375
-6.68269921875,-3.8516484375,2.11542578125,-8.3109609375,-2.3316640625,6.179984375,-1.37146484375,-5.93868359375,1.0091796875,1.46761328125,-0.0954921874999999,-3.42278125,-6.47543359375,4.407546875,1.12475,-4.74278125,-9.90665234375,-1.38830859375,0.851953125,-1.42657421875,-6.34733203125,0.78858203125,-4.5982265625,-3.05706640625,-7.57021484375,-8.60394921875,-7.44399609375,-3.29520703125,-5.16077734375,-4.9848984375
-4.98769921875,-3.2546484375,2.64242578125,-6.7829609375,-2.3476640625,6.671984375,0.43953515625,-5.06768359375,2.6131796875,2.59361328125,0.6365078125,-2.04478125,-2.08743359375,5.856546875,1.80175,-3.94078125,-10.48165234375,-0.235308593750001,2.322953125,-1.06657421875,-7.21333203125,1.65758203125,-1.8782265625,-0.51106640625,-7.12121484375,-8.91294921875,-4.50099609375,-2.81420703125,-3.32177734375,-3.5708984375
-2.80969921875,-3.1736484375,2.12342578125,-5.2559609375,-2.6336640625,6.580984375,1.81853515625,-4.64768359375,3.6291796875,2.91761328125,0.8875078125,-1.55178125,2.18556640625,6.087546875,1.68575,-3.70778125,-11.20665234375,-0.569308593750001,2.599953125,-1.49657421875,-8.75933203125,0.75358203125,-1.0942265625,0.98593359375,-7.29221484375,-9.75394921875,-2.62299609375,-4.54620703125,-3.09677734375,-3.3328984375
-0.626699218750001,-3.5206484375,0.61142578125,-4.0929609375,-2.9676640625,6.247984375,2.41153515625,-4.71868359375,3.9931796875,2.56461328125,0.7555078125,-2.06178125,5.47256640625,5.134546875,1.01675,-4.02178125,-11.76665234375,-2.45130859375,1.868953125,-2.42957421875,-10.54233203125,-1.74541796875,-2.2962265625,1.43293359375,-7.80821484375,-10.88694921875,-1.77099609375,-7.98420703125,-4.42277734375,-4.4528984375
1.13430078125,-3.9756484375,-1.44257421875,-3.4069609375,-3.0026640625,6.113984375,2.19753515625,-5.13768359375,3.8851796875,1.89261328125,0.5195078125,-3.23378125,7.37156640625,3.532546875,0.26375,-4.53178125,-11.73365234375,-5.22330859375,0.792953125,-3.25457421875,-11.86733203125,-4.93841796875,-4.5892265625,1.42993359375,-8.11121484375,-11.90494921875,-1.26899609375,-11.81120703125,-6.43477734375,-6.3698984375
2.11630078125,-4.1806484375,-3.34057421875,-3.1219609375,-2.5076640625,6.451984375,1.41153515625,-5.70068359375,3.5971796875,1.28961328125,0.4325078125,-4.48378125,7.90556640625,2.018546875,-0.10725,-4.80178125,-10.77165234375,-7.85030859375,0.136953125,-3.37757421875,-12.14833203125,-7.65041796875,-6.6402265625,1.79093359375,-7.69221484375,-12.42194921875,-0.256996093750001,-14.52820703125,-7.94777734375,-8.0928984375
2.08130078125,-3.9286484375,-4.37857421875,-3.0989609375,-1.5376640625,7.214984375,0.38853515625,-6.23968359375,3.3821796875,1.00461328125,0.5865078125,-5.26978125,7.27956640625,1.188546875,0.15675,-4.53578125,-8.85465234375,-9.43130859375,0.398953125,-2.50557421875,-11.17933203125,-9.01541796875,-7.3692265625,3.07893359375,-6.35821484375,-12.22394921875,1.79600390625,-15.19520703125,-8.07677734375,-8.7548984375
1.01230078125,-3.2376484375,-4.12157421875,-3.2439609375,-0.4306640625,8.072984375,-0.57446484375,-6.64768359375,3.3481796875,1.09061328125,0.9075078125,-5.28878125,5.70656640625,1.272546875,1.03675,-3.67578125,-6.36165234375,-9.59130859375,1.617953125,-0.74157421875,-9.20133203125,-8.85141796875,-6.4442265625,5.33393359375,-4.29421484375,-11.30394921875,4.80300390625,-13.85520703125,-6.64577734375,-8.0608984375
-0.778699218750001,-2.3036484375,-2.59157421875,-3.5249609375,0.3933359375,8.617984375,-1.27746484375,-6.83168359375,3.4541796875,1.45461328125,1.2675078125,-4.54478125,3.43056640625,2.126546875,2.29975,-2.36778125,-3.92165234375,-8.56130859375,3.430953125,1.51342578125,-6.73433203125,-7.62241796875,-4.3342265625,8.07393359375,-1.94021484375,-9.80894921875,8.11000390625,-11.38520703125,-4.17477734375,-6.3798984375
-2.66569921875,-1.3756484375,-0.29557421875,-3.9189609375,0.6673359375,8.606984375,-1.60546484375,-6.68368359375,3.5871796875,1.95561328125,1.5995078125,-3.27978125,0.82656640625,3.373546875,3.64475,-0.84978125,-2.13965234375,-6.96030859375,5.275953125,3.76642578125,-4.31933203125,-6.09041796875,-1.9762265625,10.54593359375,0.20578515625,-7.95794921875,10.79900390625,-8.94420703125,-1.52977734375,-4.4888984375
-3.90169921875,-0.6336484375,1.97342578125,-4.3639609375,0.399335937499999,8.073984375,-1.51246484375,-6.11668359375,3.6321796875,2.47861328125,1.9385078125,-1.83578125,-1.61243359375,4.581546875,4.81875,0.64721875,-1.35965234375,-5.47930859375,6.617953125,5.58942578125,-2.32033203125,-4.91741796875,-0.319226562500001,12.01893359375,1.73678515625,-5.99294921875,12.06000390625,-7.39220703125,0.50022265625,-3.1968984375
-3.95569921875,-0.1406484375,3.49042578125,-4.7769609375,-0.1926640625,7.252984375,-1.01646484375,-5.15768359375,3.4801796875,2.91761328125,2.3585078125,-0.51578125,-3.44743359375,5.351546875,5.63875,1.94221875,-1.60565234375,-4.63330859375,7.069953125,6.67142578125,-0.88333203125,-4.46441796875,0.00577343749999937,11.99293359375,2.37978515625,-4.17394921875,11.42000390625,-7.05620703125,1.45022265625,-3.0348984375
-2.78669921875,0.1223515625,3.89142578125,-5.1129609375,-0.850664062500001,6.400984375,-0.20346484375,-4.00268359375,3.0201796875,3.13061328125,2.8665078125,0.49221875,-4.49543359375,5.362546875,5.95275,2.87921875,-2.61065234375,-4.68830859375,6.414953125,6.79742578125,-0.0143320312499997,-4.78841796875,-1.2102265625,10.27193359375,1.98778515625,-2.75994921875,8.80300390625,-7.83820703125,1.23322265625,-4.0758984375
-0.873699218750001,0.1893515625,3.29242578125,-5.3949609375,-1.3986640625,5.668984375,0.81653515625,-2.95968359375,2.1591796875,2.93861328125,3.3545078125,1.15821875,-4.93043359375,4.416546875,5.62875,3.32921875,-3.86365234375,-5.67530859375,4.607953125,5.85742578125,0.32266796875,-5.75441796875,-3.8012265625,6.97793359375,0.55878515625,-1.92494921875,4.49100390625,-9.47120703125,0.0872226562500003,-5.8998984375
1.04730078125,0.0943515625000001,2.15542578125,-5.6819609375,-1.7846640625,5.094984375,1.96553515625,-2.31568359375,0.8971796875,2.22461328125,3.6845078125,1.59621875,-5.18443359375,2.535546875,4.61575,3.24521875,-4.71765234375,-7.41030859375,1.818953125,3.93942578125,0.19166796875,-7.12141796875,-7.3142265625,2.56593359375,-1.67321484375,-1.63194921875,-0.921996093750001,-11.67420703125,-1.47377734375,-7.6898984375
2.36130078125,-0.1016484375,1.05042578125,-6.0059609375,-2.0286640625,4.684984375,3.21353515625,-2.19068359375,-0.5898203125,1.06061328125,3.8265078125,2.01621875,-5.69743359375,0.0655468749999999,3.04275,2.74421875,-4.63665234375,-9.48730859375,-1.521046875,1.41442578125,-0.26833203125,-8.57841796875,-11.1192265625,-2.19106640625,-4.19221484375,-1.59394921875,-6.59299609375,-14.14820703125,-2.75677734375,-8.5078984375
2.82230078125,-0.2906484375,0.42342578125,-6.3329609375,-2.1466640625,4.500984375,4.53053515625,-2.46268359375,-1.9268203125,-0.233386718749999,3.9235078125,2.61121875,-6.65543359375,-2.345453125,1.26675,2.10521875,-3.48865234375,-11.32230859375,-4.758046875,-1.10057421875,-0.81733203125,-9.76141796875,-14.5292265625,-6.35706640625,-6.28621484375,-1.38894921875,-11.59399609375,-16.52020703125,-3.10177734375,-7.6818984375
2.55030078125,-0.3486484375,0.49042578125,-6.5659609375,-2.0936640625,4.676984375,5.81553515625,-2.80868359375,-2.6238203125,-1.17238671875,4.2285078125,3.41521875,-7.87043359375,-3.929453125,-0.20725,1.65621875,-1.62265234375,-12.30830859375,-7.197046875,-2.95757421875,-1.15833203125,-10.31841796875,-16.9562265625,-9.11306640625,-7.30721484375,-0.698949218750001,-15.17199609375,-18.35820703125,-2.20577734375,-5.1728984375
1.86030078125,-0.1616484375,1.24942578125,-6.5649609375,-1.7436640625,5.364984375,6.89353515625,-2.84068359375,-2.2618203125,-1.30038671875,4.9665078125,4.26821875,-8.87143359375,-4.092453125,-0.88425,1.62721875,0.36834765625,-12.03130859375,-8.318046875,-3.72957421875,-1.06733203125,-10.02041796875,-18.0382265625,-10.04206640625,-6.95421484375,0.491050781249999,-17.00099609375,-19.29420703125,-0.39177734375,-1.7108984375
1.08130078125,0.3473515625,2.54942578125,-6.1869609375,-0.9336640625,6.635984375,7.60153515625,-2.25968359375,-0.6798203125,-0.37038671875,6.2285078125,4.92521875,-9.12043359375,-2.645453125,-0.45325,2.06221875,2.01434765625,-10.41730859375,-7.930046875,-3.36057421875,-0.49933203125,-8.82541796875,-17.6892265625,-9.24506640625,-5.42021484375,1.84305078125,-17.25999609375,-19.17020703125,1.41022265625,1.3811015625
0.465300781249999,1.1973515625,4.14042578125,-5.3469609375,0.455335937499999,8.406984375,7.89553515625,-0.99468359375,1.9281796875,1.55561328125,7.9195078125,5.21221875,-8.23643359375,0.134546875,1.09275,2.83621875,3.11334765625,-7.72430859375,-6.179046875,-2.13757421875,0.36166796875,-6.87341796875,-16.0592265625,-7.23906640625,-3.32121484375,2.78505078125,-16.49499609375,-18.10220703125,2.06322265625,2.6941015625
0.142300781249999,2.2803515625,5.65542578125,-4.1089609375,2.3993359375,10.399984375,7.86153515625,0.72831640625,5.0671796875,4.10061328125,9.7525078125,5.06321875,-6.14643359375,3.630546875,3.40975,3.68421875,3.59234765625,-4.38730859375,-3.493046875,-0.56157421875,1.13866796875,-4.40541796875,-13.4502265625,-4.72206640625,-1.46721484375,2.73205078125,-15.35099609375,-16.39520703125,0.82622265625,1.3421015625
0.107300781249999,3.3043515625,6.59442578125,-2.7379609375,4.6413359375,12.146984375,7.59753515625,2.35431640625,8.0851796875,6.65461328125,11.2635078125,4.42921875,-3.12443359375,7.089546875,5.83775,4.23621875,3.27734765625,-0.86130859375,-0.492046875,0.79242578125,1.35066796875,-1.66241796875,-10.2722265625,-2.35606640625,-0.59321484375,1.30205078125,-14.32099609375,-14.37120703125,-2.19777734375,-2.6048984375
0.211300781249999,3.8213515625,6.38942578125,-1.6549609375,6.6753359375,13.064984375,7.07953515625,3.06531640625,10.3461796875,8.51361328125,11.8865078125,3.16021875,0.303566406250001,9.814546875,7.54375,4.06021875,1.80334765625,2.45469140625,2.108953125,1.36242578125,0.53166796875,1.18758203125,-7.0262265625,-0.65106640625,-1.15321484375,-1.55694921875,-13.62299609375,-12.22320703125,-6.03677734375,-8.1148984375
0.204300781249999,3.3743515625,4.59842578125,-1.2799609375,7.8603359375,12.603984375,6.10453515625,1.99931640625,11.3841796875,9.05461328125,11.1055078125,1.01221875,3.53256640625,11.294546875,7.76175,2.75521875,-1.22865234375,5.21369140625,3.631953125,0.69142578125,-1.62733203125,4.05558203125,-4.2612265625,0.0789335937499995,-3.20821484375,-5.54794921875,-13.22799609375,-9.97520703125,-9.26677734375,-13.6098984375
-0.176699218750001,1.6703515625,1.15142578125,-1.8499609375,7.6583359375,10.450984375,4.38053515625,-1.39868359375,11.0321796875,7.92061328125,8.6415078125,-2.19278125,6.02556640625,11.275546875,6.04875,0.10321875,-5.93965234375,7.11869140625,3.606953125,-1.46357421875,-5.13333203125,6.87758203125,-2.4542265625,-0.27806640625,-6.43121484375,-10.11594921875,-12.96899609375,-7.56120703125,-10.61577734375,-17.5898984375
-1.09169921875,-1.2556484375,-3.49257421875,-3.3219609375,5.8823359375,6.695984375,1.71053515625,-7.02068359375,9.4611796875,5.14561328125,4.6045078125,-6.34678125,7.37856640625,9.796546875,2.47975,-3.77778125,-11.90565234375,7.95969140625,1.937953125,-4.99857421875,-9.58533203125,9.53858203125,-1.8592265625,-1.61706640625,-10.18721484375,-14.56694921875,-12.65499609375,-4.95320703125,-9.46877734375,-19.1698984375
-2.49769921875,-4.9886484375,-8.39257421875,-5.3969609375,2.8113359375,1.866984375,-1.82146484375,-13.93468359375,7.1131796875,1.17461328125,-0.4394921875,-10.92078125,7.33956640625,7.187546875,-2.33225,-8.33978125,-18.11865234375,7.69969140625,-1.031046875,-9.39157421875,-14.18233203125,11.83758203125,-2.4252265625,-3.61106640625,-13.68121484375,-18.17594921875,-12.11999609375,-2.25520703125,-6.05777734375,-18.3038984375
-4.13569921875,-8.7856484375,-12.39257421875,-7.6329609375,-0.8706640625,-3.174015625,-5.74546484375,-20.54668359375,4.5481796875,-3.22438671875,-5.5494921875,-15.02178125,5.84456640625,4.035546875,-7.37725,-12.67878125,-23.23465234375,6.50969140625,-4.578046875,-13.76357421875,-17.87933203125,13.51158203125,-3.8182265625,-5.75206640625,-16.15621484375,-20.29394921875,-11.22799609375,0.274792968749999,-1.30577734375,-15.6388984375
-5.61569921875,-11.7616484375,-14.50857421875,-9.5639609375,-4.2866640625,-7.442015625,-9.26246484375,-25.05268359375,2.2841796875,-7.15338671875,-9.6364921875,-17.64878125,3.08056640625,1.076546875,-11.53625,-15.77678125,-26.01065234375,4.73269140625,-7.818046875,-17.12357421875,-19.69033203125,14.27458203125,-5.5592265625,-7.46406640625,-17.09521484375,-20.49694921875,-9.89999609375,2.23879296875,3.56222265625,-12.1248984375
-6.55569921875,-13.1566484375,-14.28057421875,-10.7889609375,-6.6266640625,-10.086015625,-11.45846484375,-26.07068359375,0.7091796875,-9.82638671875,-11.7914921875,-18.06478125,-0.48743359375,-0.987453125,-13.91225,-16.85378125,-25.70465234375,2.76969140625,-9.990046875,-18.68657421875,-19.03033203125,13.86558203125,-7.1872265625,-8.28506640625,-16.38421484375,-18.73894921875,-8.16799609375,3.15179296875,7.42122265625,-8.6148984375
-6.72269921875,-12.5946484375,-11.95457421875,-11.0519609375,-7.3936640625,-10.644015625,-11.63646484375,-23.20168359375,0.0331796875000001,-10.79238671875,-11.6044921875,-16.09078125,-4.17443359375,-1.705453125,-14.11625,-15.67578125,-22.27765234375,0.94069140625,-10.693046875,-18.17457421875,-15.97133203125,12.11958203125,-8.3892265625,-8.02806640625,-14.36621484375,-15.45894921875,-6.21599609375,2.56279296875,9.55422265625,-5.6358984375
-6.09869921875,-10.2376484375,-8.37657421875,-10.3039609375,-6.5526640625,-9.198015625,-9.62346484375,-17.27868359375,0.2651796875,-10.06438671875,-9.3314921875,-12.20278125,-7.21543359375,-1.044453125,-12.37925,-12.66178125,-16.35165234375,-0.593308593750001,-9.994046875,-15.93057421875,-11.28433203125,9.09758203125,-9.0512265625,-6.86606640625,-11.74121484375,-11.51394921875,-4.35099609375,0.25079296875,9.79722265625,-3.3748984375
-4.87369921875,-6.7496484375,-4.65857421875,-8.7179609375,-4.5066640625,-6.347015625,-5.88746484375,-10.11468359375,1.2251796875,-8.09138671875,-5.8234921875,-7.37578125,-8.94243359375,0.610546875,-9.45125,-8.74578125,-9.03165234375,-1.82230859375,-8.377046875,-12.81657421875,-6.20933203125,5.17658203125,-9.2332265625,-5.27006640625,-9.34321484375,-7.93294921875,-2.92199609375,-3.57420703125,8.51822265625,-1.8168984375
-3.37369921875,-3.0716484375,-1.76457421875,-6.6349609375,-1.9036640625,-2.993015625,-1.38446484375,-3.81268359375,2.6001796875,-5.55638671875,-2.2264921875,-2.74978125,-8.98043359375,2.616546875,-6.31025,-5.04678125,-1.68865234375,-2.82630859375,-6.549046875,-9.90557421875,-2.03233203125,1.03358203125,-9.1072265625,-3.84106640625,-7.86921484375,-5.59194921875,-2.20899609375,-8.21820703125,6.43722265625,-0.9068984375
-1.95469921875,-0.0926484374999998,-0.20557421875,-4.4749609375,0.615335937499999,-0.0190156249999998,2.78953515625,0.0433164062499998,4.0321796875,-3.11538671875,0.4475078125,0.76821875,-7.42043359375,4.332546875,-3.81925,-2.47078125,4.33134765625,-3.69830859375,-5.181046875,-8.08657421875,0.36166796875,-2.53341796875,-8.8712265625,-3.08906640625,-7.67521484375,-4.95494921875,-2.34799609375,-12.66520703125,4.36422265625,-0.6198984375
-0.901699218750001,1.6533515625,0.0534257812499996,-2.6369609375,2.6063359375,1.989984375,5.79953515625,0.92231640625,5.2021796875,-1.17738671875,1.6765078125,2.77821875,-4.89643359375,5.346546875,-2.46325,-1.41478125,8.07234765625,-4.49830859375,-4.680046875,-7.73357421875,0.75966796875,-4.86741796875,-8.6712265625,-3.25806640625,-8.68521484375,-5.95194921875,-3.28799609375,-15.90320703125,2.94422265625,-0.8998984375
-0.358699218750001,2.1063515625,-0.51457421875,-1.4229609375,3.8913359375,2.868984375,7.30353515625,-0.59568359375,5.8891796875,0.13661328125,1.5535078125,3.43821875,-2.42843359375,5.573546875,-2.27425,-1.68478125,9.29834765625,-5.24930859375,-5.069046875,-8.58457421875,-0.36733203125,-5.70641796875,-8.5462265625,-4.25006640625,-10.44421484375,-8.04094921875,-4.79299609375,-17.25920703125,2.49122265625,-1.5668984375
-0.311699218750001,1.5863515625,-1.25257421875,-0.9879609375,4.4893359375,2.810984375,7.44853515625,-3.22468359375,5.9911796875,0.89061328125,0.6235078125,3.27521875,-1.05243359375,5.186546875,-2.94025,-2.66378125,8.56634765625,-5.95730859375,-6.042046875,-9.90257421875,-2.12833203125,-5.27041796875,-8.4392265625,-5.70306640625,-12.28021484375,-10.39194921875,-6.52799609375,-16.62220703125,2.93622265625,-2.3118984375
-0.619699218750001,0.5613515625,-1.64357421875,-1.3229609375,4.4653359375,2.159984375,6.65353515625,-5.60268359375,5.5071796875,1.16361328125,-0.4744921875,2.84021875,-1.40343359375,4.442546875,-4.02425,-3.63778125,6.89434765625,-6.64330859375,-7.165046875,-10.85957421875,-3.59733203125,-4.15341796875,-8.2562265625,-7.18606640625,-13.55821484375,-12.18794921875,-8.20799609375,-14.47920703125,3.85522265625,-2.8538984375
-1.06369921875,-0.5716484375,-1.57557421875,-2.2719609375,3.7893359375,1.176984375,5.32953515625,-6.86268359375,4.4821796875,0.93161328125,-1.3414921875,2.42621875,-3.48343359375,3.498546875,-5.19225,-4.12978125,5.21234765625,-7.36230859375,-8.117046875,-10.96257421875,-4.19733203125,-3.07341796875,-7.9782265625,-8.41106640625,-13.93121484375,-12.91694921875,-9.74199609375,-11.77820703125,4.59822265625,-3.1388984375
-1.43569921875,-1.6026484375,-1.38857421875,-3.5749609375,2.3373359375,-0.0750156249999998,3.71453515625,-6.86368359375,3.0011796875,0.0896132812500001,-1.9574921875,1.97421875,-6.71543359375,2.349546875,-6.33425,-4.08378125,3.95234765625,-8.19330859375,-8.837046875,-10.28657421875,-3.87633203125,-2.61841796875,-7.7292265625,-9.35006640625,-13.47021484375,-12.54694921875,-11.25699609375,-9.64520703125,4.51822265625,-3.4068984375
-1.62469921875,-2.4866484375,-1.64157421875,-4.9279609375,0.0693359375,-1.642015625,1.89653515625,-6.04868359375,1.2451796875,-1.40838671875,-2.5784921875,1.21521875,-10.19143359375,0.931546875,-7.52525,-3.79578125,3.03534765625,-9.17030859375,-9.494046875,-9.37757421875,-3.02833203125,-3.06441796875,-7.7372265625,-10.19006640625,-12.58321484375,-11.46494921875,-12.98599609375,-8.98820703125,3.27322265625,-4.0178984375
-1.67769921875,-3.2466484375,-2.71057421875,-6.0629609375,-2.7566640625,-3.479015625,-0.0424648437499999,-5.08668359375,-0.4508203125,-3.39138671875,-3.4684921875,-0.0597812500000003,-12.98443359375,-0.694453125,-8.85425,-3.67678125,2.15334765625,-10.16930859375,-10.292046875,-8.89457421875,-2.19033203125,-4.28641796875,-8.1732265625,-11.13506640625,-11.76021484375,-10.22194921875,-15.04099609375,-10.12620703125,1.02622265625,-5.1678984375
-1.78869921875,-3.8786484375,-4.47957421875,-6.8119609375,-5.5316640625,-5.311015625,-1.90046484375,-4.54868359375,-1.6418203125,-5.42438671875,-4.6514921875,-1.78078125,-14.41243359375,-2.224453125,-10.23725,-3.97178125,1.07434765625,-10.84230859375,-11.258046875,-9.19757421875,-1.74733203125,-5.77141796875,-8.9772265625,-12.20506640625,-11.30021484375,-9.26194921875,-17.25099609375,-12.61420703125,-1.59077734375,-6.7268984375
-2.19169921875,-4.3056484375,-6.32257421875,-7.1329609375,-7.4836640625,-6.656015625,-3.33146484375,-4.72868359375,-1.9438203125,-6.92438671875,-5.8264921875,-3.56978125,-14.20743359375,-3.174453125,-11.36025,-4.60978125,-0.25765234375,-10.69030859375,-12.135046875,-10.14157421875,-1.77433203125,-6.78141796875,-9.7812265625,-13.16406640625,-11.18621484375,-8.76594921875,-19.16399609375,-15.39920703125,-3.76177734375,-8.3108984375
-3.01969921875,-4.4176484375,-7.40357421875,-7.0869609375,-7.9896640625,-7.007015625,-3.95146484375,-5.58868359375,-1.2098203125,-7.38438671875,-6.4964921875,-4.91278125,-12.53443359375,-3.083453125,-11.78725,-5.26578125,-1.77565234375,-9.30430859375,-12.482046875,-11.16257421875,-2.10533203125,-6.65241796875,-10.0392265625,-13.62406640625,-11.16121484375,-8.68494921875,-20.25899609375,-17.28920703125,-4.87977734375,-9.5178984375
-4.16569921875,-4.1596484375,-7.10857421875,-6.7679609375,-6.8436640625,-6.058015625,-3.51246484375,-6.79568359375,0.4011796875,-6.57938671875,-6.2214921875,-5.42478125,-9.84843359375,-1.741453125,-11.19025,-5.55578125,-3.34365234375,-6.64230859375,-11.909046875,-11.60357421875,-2.51233203125,-5.13141796875,-9.2922265625,-13.27106640625,-10.93721484375,-8.87494921875,-20.21999609375,-17.52220703125,-4.83577734375,-10.1768984375
-5.28369921875,-3.5826484375,-5.37757421875,-6.2569609375,-4.3496640625,-3.882015625,-2.06346484375,-7.84968359375,2.4841796875,-4.66238671875,-4.8534921875,-5.02078125,-6.67543359375,0.675546875,-9.55825,-5.25478125,-4.76365234375,-3.16030859375,-10.303046875,-11.06157421875,-2.86933203125,-2.52941796875,-7.4262265625,-12.05806640625,-10.37921484375,-9.23794921875,-19.12999609375,-16.13420703125,-4.04177734375,-10.4338984375
-5.91269921875,-2.8236484375,-2.73957421875,-5.6199609375,-1.2226640625,-0.967015625,0.00553515625000012,-8.28368359375,4.5361796875,-2.10838671875,-2.6224921875,-3.91878125,-3.44743359375,3.642546875,-7.23625,-4.40378125,-5.77065234375,0.304691406249999,-7.915046875,-9.57957421875,-3.19733203125,0.42258203125,-4.7352265625,-10.22906640625,-9.57321484375,-9.75094921875,-17.41399609375,-13.88020703125,-3.14177734375,-10.5958984375
-5.69369921875,-2.0476484375,-0.0615742187500004,-4.9219609375,1.6953359375,1.938984375,2.09153515625,-7.85268359375,6.1491796875,0.47861328125,-0.0364921874999999,-2.48478125,-0.48043359375,6.491546875,-4.77225,-3.26578125,-6.07765234375,2.89769140625,-5.235046875,-7.57957421875,-3.58333203125,2.94558203125,-1.7642265625,-8.16006640625,-8.72621484375,-10.41194921875,-15.57499609375,-11.75320703125,-2.57877734375,-10.8178984375
-4.52369921875,-1.3716484375,1.83042578125,-4.2359609375,3.7563359375,4.113984375,3.63453515625,-6.60768359375,7.1591796875,2.58661328125,2.3415078125,-1.04278125,1.92856640625,8.693546875,-2.66225,-2.17478125,-5.47965234375,4.15369140625,-2.754046875,-5.61257421875,-4.05433203125,4.58458203125,0.981773437499999,-6.12706640625,-8.00821484375,-11.15394921875,-13.89599609375,-10.42820703125,-2.31677734375,-10.9088984375
-2.60469921875,-0.8396484375,2.45142578125,-3.6519609375,4.7053359375,5.139984375,4.35853515625,-4.82468359375,7.6611796875,3.94961328125,4.1025078125,0.23821875,3.41356640625,10.046546875,-1.14625,-1.38278125,-3.93465234375,4.19969140625,-0.775046875,-4.10157421875,-4.51433203125,5.32758203125,3.2417734375,-4.19306640625,-7.45221484375,-11.82094921875,-12.31899609375,-9.98920703125,-1.92177734375,-10.4678984375
-0.358699218750001,-0.4266484375,1.78342578125,-3.2819609375,4.6473359375,5.016984375,4.35453515625,-2.87268359375,7.8691796875,4.54661328125,5.1065078125,1.32421875,3.59756640625,10.653546875,-0.19525,-0.95878125,-1.59965234375,3.63569140625,0.632953125,-3.20057421875,-4.78733203125,5.43058203125,4.9917734375,-2.27006640625,-6.96821484375,-12.22494921875,-10.56699609375,-10.09920703125,-0.94277734375,-9.2778984375
1.70430078125,-0.0886484374999998,0.22042578125,-3.2489609375,3.8663359375,4.073984375,3.97153515625,-1.09368359375,7.9331796875,4.49261328125,5.4555078125,2.22521875,2.32356640625,10.739546875,0.35275,-0.80978125,1.19034765625,3.16169140625,1.533953125,-2.81457421875,-4.72833203125,5.13658203125,6.3057734375,-0.29406640625,-6.44821484375,-12.22994921875,-8.39399609375,-10.38420703125,0.72222265625,-7.5748984375
3.12630078125,0.1913515625,-1.54957421875,-3.6089609375,2.6583359375,2.799984375,3.61153515625,0.26731640625,7.8561796875,3.94961328125,5.3785078125,2.91821875,-0.111433593749999,10.464546875,0.64175,-0.75378125,3.98334765625,3.21469140625,2.014953125,-2.70457421875,-4.30833203125,4.53058203125,7.2177734375,1.66693359375,-5.83321484375,-11.77994921875,-5.76299609375,-10.67220703125,2.78822265625,-5.9238984375
3.60630078125,0.3873515625,-2.71857421875,-4.2839609375,1.2673359375,1.652984375,3.54753515625,1.09031640625,7.5461796875,3.08461328125,5.1215078125,3.35121875,-2.92443359375,9.857546875,0.72375,-0.60578125,6.31234765625,3.79969140625,2.134953125,-2.59057421875,-3.60133203125,3.63358203125,7.7117734375,3.43593359375,-5.11721484375,-10.85394921875,-2.83699609375,-10.93520703125,4.85322265625,-4.7788984375
3.07630078125,0.4763515625,-2.60857421875,-5.0669609375,-0.121664062500001,0.942984375,3.86353515625,1.37731640625,6.9211796875,2.07661328125,4.8895078125,3.53021875,-5.13843359375,8.881546875,0.60175,-0.21578125,7.84334765625,4.56469140625,1.943953125,-2.23057421875,-2.70933203125,2.54958203125,7.7787734375,4.83493359375,-4.30221484375,-9.41894921875,0.11700390625,-11.10220703125,6.69522265625,-4.1528984375
1.73530078125,0.4893515625,-0.96257421875,-5.7239609375,-1.3696640625,0.765984375,4.48253515625,1.23231640625,5.9811796875,1.08561328125,4.8165078125,3.56321875,-6.07343359375,7.527546875,0.28275,0.49921875,8.51234765625,4.99769140625,1.501953125,-1.51257421875,-1.71333203125,1.47658203125,7.4257734375,5.74993359375,-3.41321484375,-7.47694921875,2.78200390625,-11.05020703125,8.30822265625,-3.6958984375
0.0173007812499992,0.5073515625,1.82742578125,-6.1319609375,-2.3836640625,1.017984375,5.22953515625,0.83031640625,4.8331796875,0.19261328125,4.9345078125,3.61721875,-5.78443359375,5.879546875,-0.18825,1.50621875,8.53934765625,4.64469140625,0.836953125,-0.53557421875,-0.70733203125,0.54458203125,6.6277734375,6.08693359375,-2.57021484375,-5.19294921875,4.73400390625,-10.81620703125,9.67322265625,-3.1048984375
-1.55069921875,0.6193515625,4.75742578125,-6.3389609375,-3.1146640625,1.462984375,5.88553515625,0.37631640625,3.6661796875,-0.65038671875,5.1515078125,3.79921875,-5.16943359375,4.104546875,-0.75625,2.62621875,8.29534765625,3.27869140625,-0.0860468750000001,0.37542578125,0.12666796875,-0.34341796875,5.2777734375,5.70493359375,-2.05521484375,-2.97294921875,5.42300390625,-10.78520703125,10.52922265625,-2.4878984375
-2.53569921875,0.8783515625,6.58942578125,-6.5279609375,-3.5666640625,1.822984375,6.24153515625,0.0353164062499998,2.6981796875,-1.59038671875,5.2795078125,4.07721875,-5.59843359375,2.392546875,-1.37925,3.57821875,8.07734765625,0.955691406249999,-1.355046875,0.78942578125,0.52766796875,-1.48541796875,3.2217734375,4.42593359375,-2.24621484375,-1.36694921875,4.30400390625,-11.58420703125,10.40422265625,-2.3538984375
-2.76669921875,1.2893515625,6.41442578125,-6.9039609375,-3.8026640625,1.882984375,6.15953515625,-0.13268359375,2.0851796875,-2.77738671875,5.1365078125,4.32021875,-8.21543359375,0.890546875,-2.03825,4.11521875,7.97834765625,-2.04530859375,-3.026046875,0.37642578125,0.27566796875,-3.18141796875,0.374773437499999,2.14593359375,-3.42721484375,-0.804949218750001,1.11100390625,-13.72520703125,8.90822265625,-3.2648984375
-2.35169921875,1.8253515625,4.11642578125,-7.5729609375,-3.9106640625,1.580984375,5.64353515625,-0.16668359375,1.8421796875,-4.25738671875,4.6605078125,4.42021875,-13.28643359375,-0.358453125,-2.72025,4.17121875,7.93834765625,-5.38930859375,-5.061046875,-0.89457421875,-0.64833203125,-5.50941796875,-3.1752265625,-1.03006640625,-5.58921484375,-1.33994921875,-3.92199609375,-17.24720703125,6.04822265625,-5.3998984375
-1.59869921875,2.4333515625,0.47642578125,-8.4649609375,-3.9676640625,1.040984375,4.86653515625,-0.15068359375,1.8311796875,-5.93738671875,3.9565078125,4.39221875,-19.98343359375,-1.432453125,-3.41425,3.91021875,7.88734765625,-8.82130859375,-7.314046875,-2.70757421875,-1.98933203125,-8.25141796875,-7.1442265625,-4.73906640625,-8.35721484375,-2.56694921875,-10.02899609375,-21.62720703125,2.33922265625,-8.3658984375
-1.59869921875,2.4333515625,0.47642578125,-8.4649609375,-3.9676640625,1.040984375,4.86653515625,-0.15068359375,1.8311796875,-5.93738671875,3.9565078125,4.39221875,-19.98343359375,-1.432453125,-3.41425,3.91021875,7.88734765625,-8.82130859375,-7.314046875,-2.70757421875,-1.98933203125,-8.25141796875,-7.1442265625,-4.73906640625,-8.35721484375,-2.56694921875,-10.02899609375,-21.62720703125,2.33922265625,-8.3658984375
