"Fp1","Fpz","Fp2","F7","F3","Fz","F4","F8","FC5","FC1","FC2","FC6","T7","C3","Cz","C4","T8","CP5","CP1","CP2","CP6","P7","P3","Pz","P4","P8","POz","O1","Oz","O2"
4.396890625,-7.3414375,-9.252703125,-4.15279296875,-9.24993359375,-5.13539453125,-8.75186328125,-9.46266015625,-9.45729296875,-1.32671484375,-2.4076171875,-5.20602734375,6.85384765625,-6.9657265625,-7.74811328125,-7.07605859375,0.5016484375,-7.1403046875,-4.49656640625,4.36129296875,-5.94599609375,11.26034375,-4.0583828125,-1.1793671875,-6.69546484375,-6.7910546875,68.10014453125,-4.532453125,-6.92231640625,-10.8758984375
1.260890625,-6.8654375,-9.457703125,-3.88779296875,-8.18793359375,-5.71039453125,-8.79786328125,-11.37266015625,-7.87629296875,-0.91571484375,-4.1466171875,-5.66902734375,6.95784765625,-7.9937265625,-10.09511328125,-6.97805859375,-0.0263515625000004,-7.8773046875,-4.68756640625,3.47729296875,-6.78499609375,10.79934375,-4.4133828125,-2.0233671875,-6.99646484375,-6.9450546875,65.46814453125,-6.705453125,-8.28031640625,-12.2158984375
-0.939109375,-7.1664375,-10.394703125,-4.33179296875,-8.07193359375,-6.68939453125,-9.19686328125,-12.88866015625,-7.56629296875,-1.46771484375,-5.5836171875,-6.19602734375,6.74084765625,-9.3817265625,-12.90711328125,-7.32805859375,-0.9773515625,-8.7093046875,-5.85056640625,1.99729296875,-7.78499609375,10.91634375,-5.1273828125,-3.6813671875,-7.90746484375,-7.5080546875,63.21114453125,-8.388453125,-9.35531640625,-13.1878984375
-2.303109375,-8.0794375,-12.017703125,-5.41379296875,-8.81593359375,-7.90439453125,-9.77186328125,-14.20366015625,-8.51329296875,-2.83871484375,-6.5266171875,-6.60802734375,6.24284765625,-11.0557265625,-15.95811328125,-8.01505859375,-2.0813515625,-9.6133046875,-7.81656640625,0.0502929687499991,-8.83499609375,11.58834375,-6.1133828125,-6.0283671875,-9.26746484375,-8.3570546875,61.24714453125,-9.352453125,-10.05631640625,-13.6888984375
-3.149109375,-9.1884375,-14.015703125,-6.80879296875,-10.04393359375,-9.02539453125,-10.24586328125,-15.55666015625,-10.28429296875,-4.55071484375,-6.8666171875,-6.76002734375,5.61784765625,-12.7907265625,-18.75711328125,-8.82905859375,-2.8583515625,-10.5033046875,-10.06756640625,-2.02270703125,-9.74499609375,12.59934375,-7.1363828125,-8.6303671875,-10.72446484375,-9.2170546875,59.42514453125,-9.475453125,-10.34131640625,-13.6968984375
-3.789109375,-10.1234375,-16.006703125,-8.13579296875,-11.34093359375,-9.79539453125,-10.50586328125,-16.94966015625,-12.27429296875,-6.08571484375,-6.7006171875,-6.74302734375,5.03584765625,-14.3367265625,-20.79311328125,-9.66205859375,-2.9243515625,-11.2563046875,-12.02956640625,-3.86870703125,-10.36899609375,13.62934375,-7.9453828125,-10.9733671875,-11.97246484375,-9.8200546875,57.70614453125,-8.817453125,-10.23731640625,-13.2988984375
-4.446109375,-10.7664375,-17.738703125,-9.17079296875,-12.47193359375,-10.20039453125,-10.73786328125,-18.07566015625,-13.97229296875,-7.14271484375,-6.3546171875,-6.93002734375,4.60184765625,-15.5527265625,-21.81411328125,-10.58205859375,-2.2363515625,-11.7773046875,-13.33456640625,-5.28670703125,-10.68999609375,14.34334375,-8.4213828125,-12.6733671875,-12.89746484375,-10.0400546875,56.24714453125,-7.642453125,-9.84331640625,-12.6648984375
-5.283109375,-11.2544375,-19.180703125,-9.91779296875,-13.40993359375,-10.47539453125,-11.32086328125,-18.50766015625,-15.12329296875,-7.70571484375,-6.2496171875,-7.76902734375,4.34684765625,-16.4527265625,-21.94311328125,-11.72605859375,-1.1113515625,-12.0543046875,-13.92056640625,-6.25270703125,-10.81399609375,14.47734375,-8.6333828125,-13.5673671875,-13.55246484375,-9.9180546875,55.28714453125,-6.348453125,-9.29331640625,-12.0008984375
-6.356109375,-11.7814375,-20.428703125,-10.50379296875,-14.21593359375,-10.89739453125,-12.52686328125,-17.99166015625,-15.71329296875,-7.93071484375,-6.6526171875,-9.44702734375,4.27284765625,-17.1397265625,-21.55311328125,-13.10205859375,-0.0173515625000005,-12.1483046875,-13.96956640625,-6.83470703125,-10.87099609375,13.91534375,-8.7783828125,-13.6973671875,-14.02646484375,-9.6110546875,54.95214453125,-5.355453125,-8.71331640625,-11.4708984375
-7.533109375,-12.4034375,-21.539703125,-10.99779296875,-14.87893359375,-11.56039453125,-14.25386328125,-16.62766015625,-15.85429296875,-7.98471484375,-7.4956171875,-11.65402734375,4.39584765625,-17.6967265625,-21.02811328125,-14.47705859375,0.7046484375,-12.1553046875,-13.76656640625,-7.09570703125,-10.91999609375,12.73334375,-9.0573828125,-13.2393671875,-14.33346484375,-9.3030546875,55.19314453125,-4.983453125,-8.19031640625,-11.1558984375
-8.501109375,-12.9724375,-22.432703125,-11.31879296875,-15.26793359375,-12.29739453125,-16.00586328125,-14.80366015625,-15.67329296875,-7.94571484375,-8.4126171875,-13.66902734375,4.72484765625,-18.1327265625,-20.58511328125,-15.45505859375,0.9976484375,-12.1563046875,-13.56856640625,-7.06670703125,-10.91699609375,11.15634375,-9.5873828125,-12.4413671875,-14.40546484375,-9.1280546875,55.81814453125,-5.388453125,-7.79131640625,-11.0698984375
-8.953109375,-13.2354375,-22.914703125,-11.29579296875,-15.19993359375,-12.80239453125,-17.14586328125,-12.92966015625,-15.26129296875,-7.80471484375,-8.9506171875,-14.71002734375,5.21184765625,-18.4047265625,-20.25811328125,-15.68405859375,1.0426484375,-12.1993046875,-13.51156640625,-6.79670703125,-10.77599609375,9.43434375,-10.3703828125,-11.5743671875,-14.17146484375,-9.1590546875,56.51214453125,-6.538453125,-7.59331640625,-11.2218984375
-8.740109375,-13.0034375,-22.784703125,-10.79079296875,-14.55993359375,-12.84839453125,-17.24186328125,-11.21766015625,-14.66329296875,-7.52271484375,-8.8416171875,-14.33702734375,5.70984765625,-18.4397265625,-19.98111328125,-15.07605859375,1.0596484375,-12.2783046875,-13.58456640625,-6.39870703125,-10.44799609375,7.75234375,-11.2963828125,-10.8723671875,-13.64246484375,-9.4160546875,56.88214453125,-8.238453125,-7.67531640625,-11.6498984375
-7.914109375,-12.2904375,-21.953703125,-9.81279296875,-13.39993359375,-12.42539453125,-16.29686328125,-9.71566015625,-13.92129296875,-7.08771484375,-8.1516171875,-12.64902734375,6.00284765625,-18.1587265625,-19.68911328125,-13.89205859375,1.1156484375,-12.3133046875,-13.65356640625,-6.04670703125,-9.98799609375,6.22734375,-12.1513828125,-10.4753671875,-12.94246484375,-9.8940546875,56.64514453125,-10.161453125,-8.04431640625,-12.4028984375
-6.696109375,-11.3374375,-20.538703125,-8.57679296875,-11.99593359375,-11.78639453125,-14.75986328125,-8.58766015625,-13.15829296875,-6.58271484375,-7.2686171875,-10.22402734375,5.88684765625,-17.5197265625,-19.41211328125,-12.65405859375,1.0456484375,-12.1783046875,-13.54256640625,-5.91970703125,-9.55399609375,4.96734375,-12.6593828125,-10.3883671875,-12.26946484375,-10.5690546875,55.84614453125,-11.909453125,-8.57731640625,-13.4618984375
-5.482109375,-10.5644375,-18.898703125,-7.51079296875,-10.84893359375,-11.38239453125,-13.34486328125,-8.36166015625,-12.64129296875,-6.23371484375,-6.7566171875,-7.87102734375,5.25684765625,-16.6147265625,-19.32511328125,-11.92005859375,0.5276484375,-11.7873046875,-13.13956640625,-6.13370703125,-9.36899609375,4.10134375,-12.5753828125,-10.5013671875,-11.81846484375,-11.3930546875,54.86714453125,-13.061453125,-9.03231640625,-14.6648984375
-4.804109375,-10.4364375,-17.573703125,-7.17179296875,-10.57293359375,-11.73439453125,-12.78286328125,-9.82066015625,-12.74429296875,-6.39071484375,-7.1396171875,-6.38202734375,4.13684765625,-15.7237265625,-19.71011328125,-12.05805859375,-0.7423515625,-11.1833046875,-12.51056640625,-6.71570703125,-9.64899609375,3.75234375,-11.8063828125,-10.6613671875,-11.72946484375,-12.2920546875,54.19614453125,-13.257453125,-9.12331640625,-15.6988984375
-5.147109375,-11.3174375,-17.125703125,-8.04979296875,-11.67393359375,-13.23139453125,-13.57786328125,-13.48166015625,-13.78529296875,-7.41671484375,-8.6916171875,-6.35402734375,2.65684765625,-15.2707265625,-20.81611328125,-13.11605859375,-2.8643515625,-10.5603046875,-11.93256640625,-7.60670703125,-10.52299609375,3.97534375,-10.4893828125,-10.7663671875,-12.05846484375,-13.1650546875,54.18514453125,-12.286453125,-8.62331640625,-16.1788984375
-6.709109375,-13.3124375,-17.923703125,-10.33579296875,-14.27393359375,-15.92839453125,-15.82586328125,-18.98266015625,-15.82629296875,-9.48971484375,-11.3036171875,-8.05102734375,0.99684765625,-15.6517265625,-22.67311328125,-14.81205859375,-5.6083515625,-10.1903046875,-11.79256640625,-8.68270703125,-11.95399609375,4.67834375,-8.9663828125,-10.8063671875,-12.74946484375,-13.8810546875,54.96614453125,-10.178453125,-7.45431640625,-15.8038984375
-9.277109375,-16.1624375,-19.951703125,-13.76379296875,-17.94593359375,-19.44139453125,-19.12886328125,-24.87466015625,-18.55529296875,-12.42571484375,-14.4606171875,-11.29502734375,-0.64315234375,-17.0237265625,-24.98211328125,-16.63205859375,-8.4243515625,-10.2813046875,-12.38556640625,-9.76870703125,-13.70399609375,5.60034375,-7.6513828125,-10.8183671875,-13.61046484375,-14.2770546875,56.44914453125,-7.264453125,-5.73731640625,-14.4988984375
-12.253109375,-19.2374375,-22.720703125,-17.61379296875,-21.76193359375,-22.98939453125,-22.64686328125,-29.07666015625,-21.31829296875,-15.60871484375,-17.3586171875,-15.38102734375,-2.02515234375,-19.1387265625,-27.14811328125,-17.99305859375,-10.5963515625,-10.8603046875,-13.69056640625,-10.64470703125,-15.36599609375,6.35034375,-6.8493828125,-10.8133671875,-14.33446484375,-14.1880546875,58.32714453125,-4.143453125,-3.78931640625,-12.4808984375
-14.791109375,-21.6844375,-25.342703125,-20.88479296875,-24.59193359375,-25.61439453125,-25.33186328125,-29.84066015625,-23.32029296875,-18.14171484375,-19.1356171875,-19.19302734375,-2.87915234375,-21.3367265625,-28.47011328125,-18.42805859375,-11.4633515625,-11.7253046875,-15.30256640625,-11.07370703125,-16.47899609375,6.54234375,-6.6353828125,-10.7213671875,-14.59246484375,-13.5190546875,60.15914453125,-1.561453125,-2.06131640625,-10.2038984375
-16.053109375,-22.7204375,-26.825703125,-22.64479296875,-25.56293359375,-26.50939453125,-26.28686328125,-26.68066015625,-23.91729296875,-19.17571484375,-19.1606171875,-21.55002734375,-2.96415234375,-22.7587265625,-28.42011328125,-17.73805859375,-10.6543515625,-12.5093046875,-16.56556640625,-10.87170703125,-16.69599609375,5.96434375,-6.8403828125,-10.4123671875,-14.17346484375,-12.3180546875,61.57214453125,-0.200453124999999,-1.01631640625,-8.2088984375
-15.588109375,-21.9644375,-26.494703125,-22.42379296875,-24.44093359375,-25.36939453125,-25.12986328125,-20.64466015625,-22.90629296875,-18.30071484375,-17.3006171875,-21.70102734375,-2.20815234375,-22.7187265625,-26.89411328125,-16.07905859375,-8.2543515625,-12.8593046875,-16.86656640625,-9.99470703125,-15.94499609375,4.68034375,-7.1663828125,-9.7683671875,-13.09446484375,-10.8230546875,62.40614453125,-0.462453125,-0.99731640625,-6.9528984375
-13.626109375,-19.6484375,-24.349703125,-20.48779296875,-21.77193359375,-22.57939453125,-22.19386328125,-13.74566015625,-20.64329296875,-15.78071484375,-14.0366171875,-19.68202734375,-0.84215234375,-21.0567265625,-24.31511328125,-13.94505859375,-4.8543515625,-12.6083046875,-15.93356640625,-8.60570703125,-14.49899609375,3.00034375,-7.3503828125,-8.7733671875,-11.61346484375,-9.4230546875,62.65014453125,-2.319453125,-2.11531640625,-6.6908984375
-11.042109375,-16.5824375,-21.128703125,-17.76079296875,-18.65093359375,-19.12239453125,-18.44086328125,-7.96866015625,-17.95129296875,-12.49371484375,-10.3616171875,-16.31702734375,0.598847656250001,-18.2437265625,-21.48711328125,-12.01705859375,-1.4173515625,-11.8613046875,-13.99056640625,-7.06970703125,-12.89799609375,1.32634375,-7.2953828125,-7.5823671875,-10.15246484375,-8.5450546875,62.29714453125,-5.319453125,-4.19531640625,-7.4378984375
-8.957109375,-13.8474375,-17.998703125,-15.42279296875,-16.27093359375,-16.20639453125,-15.09886328125,-4.50166015625,-15.82129296875,-9.59471484375,-7.4486171875,-12.82302734375,1.46584765625,-15.1977265625,-19.28711328125,-10.92705859375,1.0356484375,-10.9333046875,-11.68856640625,-5.84270703125,-11.75499609375,-0.0196562499999988,-7.0853828125,-6.4953671875,-9.14746484375,-8.4980546875,61.32714453125,-8.737453125,-6.80631640625,-8.9968984375
-8.251109375,-12.3594375,-16.050703125,-14.37379296875,-15.43793359375,-14.79339453125,-13.18586328125,-3.54566015625,-15.05129296875,-8.06671484375,-6.2136171875,-10.24802734375,1.30084765625,-12.9157265625,-18.34111328125,-11.00405859375,1.8106484375,-10.2163046875,-9.84056640625,-5.31270703125,-11.51699609375,-0.89965625,-6.9063828125,-5.8603671875,-8.89846484375,-9.3640546875,59.80914453125,-11.831453125,-9.39031640625,-11.0358984375
-9.247109375,-12.5064375,-15.857703125,-14.85279296875,-16.27793359375,-15.22939453125,-13.13086328125,-4.58766015625,-15.94329296875,-8.35471484375,-6.9666171875,-9.05702734375,0.0768476562500005,-12.1227265625,-18.82911328125,-12.14205859375,0.8026484375,-10.0203046875,-9.10656640625,-5.65270703125,-12.31799609375,-1.38465625,-6.9453828125,-5.9333671875,-9.48146484375,-11.0000546875,57.90314453125,-14.096453125,-11.45331640625,-13.1998984375
-11.634109375,-14.0274375,-17.296703125,-16.38079296875,-18.21293359375,-17.12939453125,-14.64586328125,-6.79566015625,-18.16829296875,-10.23771484375,-9.3086171875,-9.05702734375,-1.78615234375,-13.0487265625,-20.45811328125,-13.86005859375,-1.4973515625,-10.4663046875,-9.75656640625,-6.76870703125,-13.97999609375,-1.69665625,-7.3343828125,-6.7873671875,-10.75646484375,-13.1390546875,55.76714453125,-15.439453125,-12.73931640625,-15.2258984375
-14.575109375,-16.1644375,-19.676703125,-18.02579296875,-20.21393359375,-19.52639453125,-16.89286328125,-9.30266015625,-20.86129296875,-12.94271484375,-12.2986171875,-9.66302734375,-3.64815234375,-15.3787265625,-22.58411328125,-15.52305859375,-4.2413515625,-11.4363046875,-11.60956640625,-8.34570703125,-16.11299609375,-2.11765625,-8.1273828125,-8.2903671875,-12.44246484375,-15.4980546875,53.54714453125,-16.173453125,-13.29131640625,-16.9958984375
-17.025109375,-18.0074375,-22.064703125,-18.86079296875,-21.22493359375,-21.26139453125,-18.83586328125,-11.38866015625,-22.96429296875,-15.45671484375,-14.8316171875,-10.26402734375,-4.97315234375,-18.3787265625,-24.42711328125,-16.59305859375,-6.5733515625,-12.6293046875,-14.12856640625,-9.94170703125,-18.25199609375,-2.86165625,-9.2783828125,-10.1273671875,-14.19046484375,-17.8080546875,51.47014453125,-16.811453125,-13.35131640625,-18.5108984375
-18.165109375,-18.8514375,-23.648703125,-18.38379296875,-20.60193359375,-21.44839453125,-19.63686328125,-12.61266015625,-23.66229296875,-16.89371484375,-16.0496171875,-10.49102734375,-5.56315234375,-21.1417265625,-25.33211328125,-16.78205859375,-7.9343515625,-13.6813046875,-16.58756640625,-11.10770703125,-19.96299609375,-3.94865625,-10.5933828125,-11.8473671875,-15.62946484375,-19.7730546875,49.88014453125,-17.741453125,-13.17331640625,-19.7908984375
-17.720109375,-18.4334375,-23.972703125,-16.71579296875,-18.37293359375,-19.82139453125,-18.92286328125,-12.89966015625,-22.72129296875,-16.78171484375,-15.6196171875,-10.28002734375,-5.59515234375,-22.8717265625,-24.96111328125,-16.08105859375,-8.2073515625,-14.3013046875,-18.27456640625,-11.48870703125,-20.91699609375,-5.16065625,-11.7223828125,-12.9473671875,-16.40946484375,-21.0500546875,49.10414453125,-18.970453125,-12.86031640625,-20.7858984375
-15.981109375,-16.9724375,-23.004703125,-14.50279296875,-15.21193359375,-16.80639453125,-16.87386328125,-12.55666015625,-20.56929296875,-15.19771484375,-13.8046171875,-9.77702734375,-5.47815234375,-23.0957265625,-23.36411328125,-14.71405859375,-7.6823515625,-14.3633046875,-18.70956640625,-10.93070703125,-20.94199609375,-6.12365625,-12.2523828125,-13.0343671875,-16.29846484375,-21.3160546875,49.29414453125,-20.124453125,-12.33331640625,-21.3508984375
-13.603109375,-15.0524375,-21.092703125,-12.62479296875,-12.15893359375,-13.32739453125,-14.12686328125,-12.18566015625,-18.10429296875,-12.72571484375,-11.3286171875,-9.19402734375,-5.63915234375,-21.8097265625,-20.93711328125,-13.05905859375,-6.8683515625,-13.9523046875,-17.81356640625,-9.56470703125,-20.07999609375,-6.50865625,-11.9083828125,-12.0033671875,-15.30446484375,-20.4090546875,50.35814453125,-20.715453125,-11.45231640625,-21.3348984375
-11.378109375,-13.3974375,-18.856703125,-11.87579296875,-10.22693359375,-10.47339453125,-11.54686328125,-12.45166015625,-16.35429296875,-10.24571484375,-9.1146171875,-8.74302734375,-6.34115234375,-19.4867265625,-18.30211328125,-11.56705859375,-6.2633515625,-13.3433046875,-15.95756640625,-7.81570703125,-18.60599609375,-6.22065625,-10.7503828125,-10.1453671875,-13.73346484375,-18.4570546875,51.96214453125,-20.462453125,-10.18231640625,-20.7078984375
-10.020109375,-12.6154375,-17.029703125,-12.68279296875,-10.02793359375,-9.14339453125,-9.93986328125,-13.72266015625,-16.08729296875,-8.63471484375,-7.9896171875,-8.66602734375,-7.59315234375,-16.9367265625,-16.13011328125,-10.66005859375,-6.1863515625,-12.9053046875,-13.83856640625,-6.28070703125,-16.96699609375,-5.42465625,-9.2103828125,-8.0653671875,-12.11446484375,-15.8990546875,53.55414453125,-19.444453125,-8.66931640625,-19.6268984375
-9.943109375,-13.0094375,-16.235703125,-14.96479296875,-11.56393359375,-9.75339453125,-9.79986328125,-15.76166015625,-17.52129296875,-8.44371484375,-8.4276171875,-9.26402734375,-9.16715234375,-15.0087265625,-14.91311328125,-10.62305859375,-6.7073515625,-12.9153046875,-12.20756640625,-5.49870703125,-15.62699609375,-4.40765625,-7.9023828125,-6.4363671875,-10.99046484375,-13.3400546875,54.52514453125,-18.001453125,-7.17231640625,-18.3838984375
-11.073109375,-14.4834375,-16.773703125,-18.14979296875,-14.23393359375,-12.10039453125,-11.16386328125,-17.74966015625,-20.23529296875,-9.70071484375,-10.3996171875,-10.79402734375,-10.70415234375,-14.2627265625,-14.78211328125,-11.50105859375,-7.7003515625,-13.4143046875,-11.58656640625,-5.71670703125,-14.88499609375,-3.39965625,-7.3153828125,-5.7083671875,-10.68146484375,-11.3180546875,54.50014453125,-16.533453125,-5.93031640625,-17.2738984375
-12.871109375,-16.5994375,-18.486703125,-21.39879296875,-17.06893359375,-15.41339453125,-13.59686328125,-18.74666015625,-23.33829296875,-11.90271484375,-13.3556171875,-13.23802734375,-11.85515234375,-14.7647265625,-15.46711328125,-13.06005859375,-8.9283515625,-14.1813046875,-12.08156640625,-6.77870703125,-14.77099609375,-2.49365625,-7.5713828125,-5.9253671875,-11.15346484375,-10.0820546875,53.54514453125,-15.333453125,-5.06731640625,-16.4728984375
-14.561109375,-18.7044375,-20.794703125,-23.89779296875,-19.07693359375,-18.59839453125,-16.31086328125,-18.27966015625,-25.80329296875,-14.18971484375,-16.3856171875,-16.11902734375,-12.40215234375,-16.1087265625,-16.41411328125,-14.81605859375,-10.1263515625,-14.8683046875,-13.37256640625,-8.18970703125,-15.06399609375,-1.69165625,-8.3843828125,-6.7503671875,-12.04946484375,-9.5210546875,52.05014453125,-14.539453125,-4.58931640625,-15.9888984375
-15.401109375,-20.1254375,-22.845703125,-25.06879296875,-19.53893359375,-20.58639453125,-18.39686328125,-16.57966015625,-26.79629296875,-15.62271484375,-18.4906171875,-18.57502734375,-12.28815234375,-17.5907265625,-16.99211328125,-16.17105859375,-11.0553515625,-15.1533046875,-14.85456640625,-9.32670703125,-15.39699609375,-0.967656249999999,-9.2043828125,-7.6283671875,-12.85946484375,-9.2630546875,50.45414453125,-14.147453125,-4.40631640625,-15.6888984375
-14.888109375,-20.3604375,-23.782703125,-24.66379296875,-18.19093359375,-20.65139453125,-19.09186328125,-14.29066015625,-25.91529296875,-15.47471484375,-18.9196171875,-19.68902734375,-11.56315234375,-18.4667265625,-16.69111328125,-16.59305859375,-11.5443515625,-14.8453046875,-15.85856640625,-9.66470703125,-15.40099609375,-0.285656249999999,-9.4473828125,-8.0203671875,-13.13046484375,-8.8860546875,49.07514453125,-14.016453125,-4.35531640625,-15.3758984375
-12.917109375,-19.2164375,-23.021703125,-22.79079296875,-15.25493359375,-18.64439453125,-18.00486328125,-11.94466015625,-23.26929296875,-13.45971484375,-17.4216171875,-18.91002734375,-10.33115234375,-18.2097265625,-15.27411328125,-15.79305859375,-11.5333515625,-13.9263046875,-15.88256640625,-8.95370703125,-14.83799609375,0.429343750000001,-8.7243828125,-7.5903671875,-12.61646484375,-8.1370546875,48.10314453125,-13.886453125,-4.23631640625,-14.8998984375
-9.868109375,-16.8704375,-20.467703125,-19.88379296875,-11.36693359375,-15.02739453125,-15.22186328125,-9.68166015625,-19.42229296875,-9.84671484375,-14.3286171875,-16.32702734375,-8.73915234375,-16.6807265625,-12.86111328125,-13.82205859375,-11.0893515625,-12.5513046875,-14.74856640625,-7.27770703125,-13.68499609375,1.26734375,-7.0053828125,-6.3153671875,-11.34246484375,-7.0410546875,47.57414453125,-13.453453125,-3.89431640625,-14.2358984375
-6.492109375,-13.8064375,-16.562703125,-16.59179296875,-7.39993359375,-10.71539453125,-11.25986328125,-7.38766015625,-15.18429296875,-5.39071484375,-10.4236171875,-12.68402734375,-7.03815234375,-14.1567265625,-9.88411328125,-11.05905859375,-10.3783515625,-11.0193046875,-12.65456640625,-5.02170703125,-12.15399609375,2.25234375,-4.6503828125,-4.4973671875,-9.59646484375,-5.8850546875,47.30114453125,-12.531453125,-3.32531640625,-13.5118984375
-3.592109375,-10.6714375,-12.141703125,-13.57679296875,-4.20993359375,-6.74439453125,-6.91186328125,-5.02466015625,-11.35729296875,-1.09971484375,-6.6466171875,-9.10902734375,-5.61415234375,-11.1907265625,-6.91911328125,-8.09505859375,-9.5893515625,-9.6993046875,-10.10256640625,-2.75170703125,-10.62799609375,3.24934375,-2.2873828125,-2.6853671875,-7.85146484375,-5.0890546875,46.90514453125,-11.226453125,-2.73931640625,-12.9578984375
-1.704109375,-8.0874375,-8.169703125,-11.32979296875,-2.37993359375,-3.94539453125,-3.03286328125,-2.85966015625,-8.52629296875,2.08728515625,-3.7696171875,-6.65702734375,-4.92715234375,-8.4057265625,-4.47511328125,-5.55105859375,-8.8553515625,-8.9213046875,-7.72156640625,-1.06270703125,-9.53599609375,3.96234375,-0.5633828125,-1.4903671875,-6.63446484375,-5.0220546875,45.99414453125,-9.985453125,-2.51431640625,-12.8298984375
-0.978109375,-6.4834375,-5.455703125,-10.07279296875,-2.07193359375,-2.71939453125,-0.320863281249999,-1.43666015625,-6.95629296875,3.59228515625,-2.1716171875,-5.87102734375,-5.33215234375,-6.3167265625,-2.86211328125,-3.88505859375,-8.2113515625,-8.8753046875,-6.05356640625,-0.40770703125,-9.21199609375,4.04334375,0.0986171874999986,-1.3743671875,-6.35646484375,-5.8280546875,44.32814453125,-9.417453125,-3.04031640625,-13.3348984375
-1.234109375,-6.0004375,-4.433703125,-9.77679296875,-3.02393359375,-3.02339453125,0.840136718750003,-1.31366015625,-6.58929296875,3.32828515625,-1.8196171875,-6.61402734375,-6.87015234375,-5.2077265625,-2.17411328125,-3.27605859375,-7.6303515625,-9.5363046875,-5.39956640625,-0.970707031250001,-9.76999609375,3.30334375,-0.352382812500001,-2.4773671875,-7.15446484375,-7.3500546875,41.86514453125,-9.961453125,-4.49731640625,-14.5508984375
-2.090109375,-6.5024375,-5.078703125,-10.21979296875,-4.70393359375,-4.48139453125,0.426136718750001,-2.74166015625,-7.11229296875,1.63128515625,-2.4266171875,-8.23302734375,-9.16615234375,-5.0927265625,-2.38011328125,-3.63205859375,-7.0983515625,-10.6543046875,-5.77856640625,-2.61670703125,-11.04199609375,1.89334375,-1.6283828125,-4.5783671875,-8.83246484375,-9.1610546875,38.78714453125,-11.583453125,-6.70631640625,-16.3548984375
-3.098109375,-7.6734375,-6.970703125,-11.08379296875,-6.54593359375,-6.58839453125,-1.25886328125,-5.44866015625,-8.09629296875,-0.93771484375,-3.6466171875,-9.94002734375,-11.53315234375,-5.7547265625,-3.40211328125,-4.68305859375,-6.6773515625,-11.8293046875,-6.98056640625,-4.95170703125,-12.60199609375,0.30534375,-3.2523828125,-7.1863671875,-10.91446484375,-10.7030546875,35.53414453125,-13.718453125,-9.12931640625,-18.3928984375
-3.928109375,-9.1404375,-9.457703125,-12.06079296875,-8.16293359375,-8.86839453125,-3.67886328125,-8.63266015625,-9.16429296875,-3.81271484375,-5.2016171875,-11.15402734375,-13.25415234375,-6.8837265625,-5.14611328125,-6.08805859375,-6.4913515625,-12.6693046875,-8.66256640625,-7.43670703125,-13.90299609375,-0.826656249999999,-4.7713828125,-9.7163671875,-12.80146484375,-11.4690546875,32.71714453125,-15.506453125,-11.07831640625,-20.1408984375
-4.496109375,-10.5664375,-11.839703125,-12.94179296875,-9.43693359375,-10.96039453125,-6.17386328125,-11.20866015625,-10.10529296875,-6.54271484375,-6.8756171875,-11.63102734375,-13.87915234375,-8.2067265625,-7.43611328125,-7.49705859375,-6.6313515625,-12.9543046875,-10.45356640625,-9.53470703125,-14.46199609375,-1.04465625,-5.9103828125,-11.6723671875,-13.97646484375,-11.1770546875,30.82514453125,-16.179453125,-11.99431640625,-21.0698984375
-4.891109375,-11.6794375,-13.501703125,-13.62579296875,-10.42393359375,-12.59139453125,-8.08686328125,-12.22266015625,-10.86329296875,-8.80571484375,-8.4406171875,-11.38602734375,-13.38115234375,-9.5497265625,-9.91211328125,-8.57505859375,-7.0283515625,-12.7023046875,-12.02256640625,-10.84170703125,-14.03399609375,-0.27765625,-6.6043828125,-12.7783671875,-14.16046484375,-9.8540546875,29.98314453125,-15.394453125,-11.66531640625,-20.8358984375
-5.159109375,-12.2674375,-14.002703125,-14.05579296875,-11.15293359375,-13.52239453125,-8.90186328125,-11.26566015625,-11.41829296875,-10.34471484375,-9.5956171875,-10.49702734375,-12.08615234375,-10.7757265625,-12.00211328125,-9.01605859375,-7.4003515625,-12.1053046875,-13.12256640625,-11.15670703125,-12.68199609375,1.16334375,-6.8993828125,-13.0083671875,-13.34846484375,-7.8110546875,29.97414453125,-13.352453125,-10.25931640625,-19.3958984375
-5.158109375,-12.1664375,-13.174703125,-14.16279296875,-11.46393359375,-13.52139453125,-8.36086328125,-8.68666015625,-11.68129296875,-10.92571484375,-10.0016171875,-8.96202734375,-10.44615234375,-11.7197265625,-13.04211328125,-8.58405859375,-7.3093515625,-11.3853046875,-13.58556640625,-10.48670703125,-10.72699609375,2.80034375,-6.8133828125,-12.5053671875,-11.73546484375,-5.5080546875,30.46614453125,-10.648453125,-8.19731640625,-16.9888984375
-4.614109375,-11.2874375,-11.197703125,-13.85579296875,-11.00893359375,-12.44939453125,-6.54986328125,-5.42266015625,-11.47029296875,-10.37771484375,-9.4106171875,-6.73702734375,-8.81415234375,-12.1607265625,-12.52611328125,-7.19005859375,-6.3623515625,-10.6753046875,-13.30556640625,-9.00270703125,-8.58399609375,4.25534375,-6.2683828125,-11.4533671875,-9.57946484375,-3.3750546875,31.18814453125,-7.951453125,-5.92231640625,-13.9928984375
-3.285109375,-9.6894375,-8.593703125,-13.07079296875,-9.46193359375,-10.37839453125,-3.91686328125,-2.51066015625,-10.60029296875,-8.70471484375,-7.8366171875,-3.93102734375,-7.33615234375,-11.8827265625,-10.33311328125,-4.99305859375,-4.4493515625,-9.9653046875,-12.25856640625,-6.96970703125,-6.59899609375,5.43234375,-5.1653828125,-10.0073671875,-7.10946484375,-1.6730546875,31.95914453125,-5.694453125,-3.71331640625,-10.7668984375
-1.116109375,-7.6384375,-6.085703125,-11.82779296875,-6.79293359375,-7.67939453125,-1.18586328125,-0.593660156249999,-9.01829296875,-6.18971484375,-5.6346171875,-0.97802734375,-5.99015234375,-10.7907265625,-6.83211328125,-2.43805859375,-1.8803515625,-9.1493046875,-10.54656640625,-4.70670703125,-4.95499609375,6.51934375,-3.5283828125,-8.2803671875,-4.51346484375,-0.455054687500001,32.68514453125,-3.925453125,-1.62831640625,-7.5518984375
1.656890625,-5.5804375,-4.351703125,-10.27879296875,-3.44493359375,-4.97839453125,0.857136718750002,0.25033984375,-6.92829296875,-3.41071484375,-3.4206171875,1.39997265625,-4.68615234375,-9.0147265625,-2.81011328125,-0.154058593750001,0.6796484375,-8.1213046875,-8.42556640625,-2.56070703125,-3.70199609375,7.80734375,-1.6043828125,-6.3993671875,-1.99046484375,0.372945312500001,33.33614453125,-2.382453125,0.39968359375,-4.4998984375
4.488890625,-4.0164375,-3.780703125,-8.69679296875,-0.265933593749999,-2.96839453125,1.63313671875,0.283339843749999,-4.78829296875,-1.09871484375,-1.8376171875,2.48897265625,-3.35815234375,-6.9307265625,0.744886718750003,1.24794140625,2.4756484375,-6.8703046875,-6.26956640625,-0.879707031250001,-2.85599609375,9.44734375,0.193617187499999,-4.5423671875,0.192535156249999,0.942945312499999,33.84014453125,-0.744453125,2.37568359375,-1.7588984375
6.672890625,-3.3084375,-4.358703125,-7.40479296875,1.81006640625,-2.16239453125,0.990136718750001,-0.24366015625,-3.14629296875,0.10528515625,-1.3106171875,1.94097265625,-2.00515234375,-5.0507265625,2.94088671875,1.40294140625,2.9816484375,-5.5063046875,-4.48256640625,0.0222929687499995,-2.49699609375,11.30234375,1.4466171875,-2.9413671875,1.68953515625,1.3139453125,33.98114453125,1.090546875,4.12968359375,0.478101562500003
7.618890625,-3.5684375,-5.745703125,-6.67579296875,2.16206640625,-2.69539453125,-0.774863281249999,-1.28766015625,-2.41629296875,-0.12171484375,-1.9096171875,-0.0560273437499994,-0.71215234375,-3.8287265625,3.26588671875,0.289941406249998,2.1016484375,-4.2363046875,-3.41656640625,-0.0797070312500008,-2.76099609375,12.98934375,1.9096171875,-1.8683671875,2.14853515625,1.4439453125,33.45914453125,2.856546875,5.33468359375,2.0041015625
7.084890625,-4.6514375,-7.497703125,-6.66679296875,0.750066406250001,-4.29439453125,-3.08086328125,-2.96566015625,-2.71129296875,-1.69371484375,-3.4036171875,-2.91902734375,0.344847656250001,-3.5117265625,1.72788671875,-1.82605859375,0.1636484375,-3.3113046875,-3.30456640625,-1.27770703125,-3.77699609375,14.06134375,1.5746171875,-1.5803671875,1.34153515625,1.2209453125,32.11414453125,4.015546875,5.66168359375,2.6921015625
5.207890625,-6.2494375,-9.277703125,-7.38579296875,-1.87793359375,-6.41839453125,-5.33386328125,-5.35666015625,-3.83529296875,-4.16771484375,-5.3966171875,-5.96202734375,0.942847656250001,-4.0997265625,-1.18611328125,-4.52505859375,-2.2653515625,-2.9683046875,-4.20056640625,-3.47170703125,-5.55199609375,14.19534375,0.633617187499999,-2.2283671875,-0.688464843750001,0.5509453125,30.05014453125,4.053546875,4.95668359375,2.5761015625
2.415890625,-7.9944375,-10.939703125,-8.66679296875,-4.79793359375,-8.45339453125,-7.12586328125,-8.25066015625,-5.37829296875,-6.90071484375,-7.4566171875,-8.63002734375,0.934847656250001,-5.3797265625,-4.66211328125,-7.35005859375,-4.6183515625,-3.3553046875,-5.92056640625,-6.33270703125,-7.90699609375,13.30634375,-0.610382812500001,-3.7533671875,-3.56346484375,-0.5590546875,27.56014453125,2.807546875,3.35068359375,1.8611015625
-0.676109375,-9.5344375,-12.442703125,-10.17179296875,-7.03893359375,-9.85739453125,-8.27586328125,-11.02866015625,-6.84529296875,-9.22371484375,-9.1586171875,-10.53702734375,0.36684765625,-6.9867265625,-7.76311328125,-9.86405859375,-6.5153515625,-4.4283046875,-8.03156640625,-9.31170703125,-10.46999609375,11.54934375,-1.8123828125,-5.8123671875,-6.63446484375,-1.9750546875,25.00114453125,0.611546875000001,1.24368359375,0.853101562500003
-3.376109375,-10.5694375,-13.716703125,-11.46479296875,-7.88693359375,-10.25439453125,-8.74686328125,-12.83566015625,-7.77529296875,-10.59471484375,-10.0946171875,-11.42802734375,-0.49515234375,-8.4757265625,-9.64111328125,-11.67705859375,-7.8143515625,-5.9153046875,-9.94456640625,-11.74670703125,-12.75399609375,9.24634375,-2.6453828125,-7.8323671875,-9.16346484375,-3.4670546875,22.76214453125,-1.823453125,-0.83031640625,-0.150898437499999
-5.110109375,-10.8864375,-14.584703125,-12.16779296875,-7.09693359375,-9.48339453125,-8.53886328125,-13.02366015625,-7.85629296875,-10.72471484375,-9.9186171875,-11.17402734375,-1.26515234375,-9.4267265625,-9.78511328125,-12.48505859375,-8.5323515625,-7.3893046875,-11.09356640625,-13.04170703125,-14.28799609375,6.77134375,-2.8753828125,-9.1883671875,-10.55346484375,-4.7800546875,21.21714453125,-3.740453125,-2.40731640625,-0.957898437499997
-5.625109375,-10.3794375,-14.787703125,-12.10379296875,-4.91993359375,-7.63739453125,-7.64186328125,-11.58766015625,-7.00129296875,-9.61471484375,-8.4486171875,-9.82702734375,-1.60915234375,-9.5517265625,-8.18511328125,-12.12805859375,-8.7233515625,-8.4253046875,-11.14656640625,-12.85270703125,-14.75199609375,4.45234375,-2.4313828125,-9.4443671875,-10.53046484375,-5.7010546875,20.58314453125,-4.686453125,-3.26931640625,-1.5078984375
-5.024109375,-9.0704375,-14.094703125,-11.33679296875,-1.97593359375,-5.01539453125,-6.05586328125,-9.21866015625,-5.36629296875,-7.53271484375,-5.7706171875,-7.64702734375,-1.38415234375,-8.7607265625,-5.33211328125,-10.63605859375,-8.4133515625,-8.7693046875,-10.11756640625,-11.20570703125,-14.05899609375,2.50434375,-1.4313828125,-8.5263671875,-9.20646484375,-6.1130546875,20.79014453125,-4.698453125,-3.49531640625,-1.8358984375
-3.638109375,-7.1294375,-12.427703125,-10.09679296875,1.00006640625,-2.02039453125,-3.84886328125,-6.91166015625,-3.29629296875,-4.90671484375,-2.2526171875,-5.04002734375,-0.68815234375,-7.1567265625,-2.01211328125,-8.24505859375,-7.6233515625,-8.4103046875,-8.34356640625,-8.48270703125,-12.37099609375,1.02834375,-0.133382812500001,-6.7363671875,-7.01146484375,-6.0180546875,21.56014453125,-4.225453125,-3.36331640625,-2.0038984375
-1.859109375,-4.8394375,-9.942703125,-8.65879296875,3.42306640625,0.968605468749999,-1.18686328125,-5.40966015625,-1.20729296875,-2.19671484375,1.5533828125,-2.43502734375,0.220847656250001,-4.9977265625,1.01288671875,-5.34005859375,-6.4483515625,-7.5453046875,-6.31356640625,-5.28870703125,-10.05099609375,0.0453437500000007,1.1746171875,-4.5783671875,-4.51946484375,-5.5430546875,22.60514453125,-3.854453125,-3.19731640625,-2.0688984375
-0.0431093750000002,-2.5164375,-7.008703125,-7.22879296875,5.03906640625,3.69860546875,1.70813671875,-4.82466015625,0.559707031250001,0.231285156249999,5.0973828125,-0.146027343749999,1.05984765625,-2.6347265625,3.27088671875,-2.34505859375,-5.0883515625,-6.4593046875,-4.44056640625,-2.23170703125,-7.55699609375,-0.448656249999999,2.2906171875,-2.5193671875,-2.24346484375,-4.9020546875,23.73414453125,-3.992453125,-3.20831640625,-2.0788984375
1.556890625,-0.4084375,-4.062703125,-5.90079296875,5.97006640625,6.07960546875,4.62113671875,-4.63866015625,1.85570703125,2.19928515625,8.0163828125,1.71197265625,1.63484765625,-0.416726562500001,4.72488671875,0.389941406249999,-3.8133515625,-5.3923046875,-2.92156640625,0.27529296875,-5.31699609375,-0.449656249999999,3.1516171875,-0.8173671875,-0.48246484375,-4.3230546875,24.82914453125,-4.680453125,-3.42331640625,-2.0808984375
2.840890625,1.3465625,-1.467703125,-4.68779296875,6.56906640625,8.14060546875,7.38613671875,-4.06966015625,2.73570703125,3.70428515625,10.2103828125,3.24397265625,1.85684765625,1.4042734375,5.70088671875,2.66094140625,-2.8683515625,-4.4873046875,-1.74856640625,2.09229296875,-3.61499609375,0.0243437500000017,3.7846171875,0.4806328125,0.70753515625,-3.9530546875,25.83414453125,-5.627453125,-3.71031640625,-2.1268984375
3.810890625,2.6865625,0.549296875,-3.64879296875,7.15306640625,9.92660546875,9.86813671875,-2.61066015625,3.32770703125,4.81928515625,11.7943828125,4.68997265625,1.70184765625,2.6862734375,6.63988671875,4.39294140625,-2.3963515625,-3.8343046875,-0.84356640625,3.29129296875,-2.54599609375,0.85034375,4.2006171875,1.4236328125,1.41753515625,-3.8150546875,26.76514453125,-6.400453125,-3.87031640625,-2.2778984375
4.425890625,3.5535625,1.838296875,-3.00279296875,7.75406640625,11.36760546875,11.91213671875,-0.42266015625,3.64570703125,5.55128515625,12.9483828125,6.25797265625,1.17084765625,3.3422734375,7.78288671875,5.58194140625,-2.4093515625,-3.5493046875,-0.21156640625,4.00129296875,-2.04899609375,1.75134375,4.3066171875,2.0176328125,1.74653515625,-3.8190546875,27.63514453125,-6.659453125,-3.77231640625,-2.6088984375
4.517890625,3.8505625,2.268296875,-3.09379296875,8.06306640625,12.24960546875,13.31213671875,1.69433984375,3.49470703125,5.77628515625,13.7723828125,7.91197265625,0.289847656250001,3.3052734375,8.99388671875,6.22894140625,-2.8113515625,-3.7773046875,0.0164335937499995,4.27929296875,-1.97899609375,2.37034375,3.9396171875,2.1746328125,1.70053515625,-3.8380546875,28.34414453125,-6.298453125,-3.42731640625,-3.1938984375
3.886890625,3.4665625,1.731296875,-4.19579296875,7.60306640625,12.29760546875,13.83213671875,2.75433984375,2.56970703125,5.30628515625,14.2103828125,9.25497265625,-0.88015234375,2.5532734375,9.82288671875,6.28494140625,-3.4663515625,-4.5883046875,-0.344566406249999,4.07329296875,-2.18299609375,2.45134375,2.9956171875,1.7486328125,1.19653515625,-3.8080546875,28.71314453125,-5.475453125,-2.98231640625,-4.0668984375
2.469890625,2.3485625,0.207296875000001,-6.28979296875,6.00806640625,11.32160546875,13.27213671875,2.19333984375,0.674707031250001,4.03328515625,14.0593828125,9.60197265625,-2.22915234375,1.1782734375,9.75788671875,5.64994140625,-4.2483515625,-5.8673046875,-1.39756640625,3.26629296875,-2.56599609375,2.01534375,1.5516171875,0.651632812500001,0.14553515625,-3.7780546875,28.69014453125,-4.500453125,-2.63431640625,-5.1778984375
0.410890625,0.5785625,-2.157703125,-8.97379296875,3.25606640625,9.33660546875,11.59313671875,0.23433984375,-2.07129296875,2.05928515625,13.0723828125,8.32097265625,-3.60015234375,-0.5877265625,8.51588671875,4.25394140625,-5.0603515625,-7.2933046875,-3.04756640625,1.79329296875,-3.09599609375,1.37834375,-0.100382812500001,-1.0363671875,-1.43646484375,-3.8850546875,28.48314453125,-3.672453125,-2.53031640625,-6.3928984375
-1.949109375,-1.5644375,-4.998703125,-11.55979296875,-0.246933593749999,6.62260546875,9.04513671875,-2.18866015625,-5.17129296875,-0.25071484375,11.1473828125,5.26397265625,-4.78615234375,-2.3817265625,6.23788671875,2.18394140625,-5.8193515625,-8.4323046875,-4.96756640625,-0.220707031250001,-3.76299609375,1.00434375,-1.5293828125,-2.9903671875,-3.33646484375,-4.2460546875,28.49114453125,-3.115453125,-2.68931640625,-7.5048984375
-4.086109375,-3.6214375,-7.739703125,-13.28579296875,-3.73793359375,3.71360546875,6.19913671875,-3.92966015625,-7.84929296875,-2.32471484375,8.4883828125,1.02897265625,-5.54115234375,-3.7507265625,3.51988671875,-0.221058593750001,-6.4403515625,-8.8753046875,-6.65156640625,-2.39170703125,-4.49599609375,1.28834375,-2.2783828125,-4.6833671875,-5.13746484375,-4.8300546875,29.14514453125,-2.721453125,-2.97531640625,-8.2768984375
-5.356109375,-5.0614375,-9.715703125,-13.55579296875,-6.32293359375,1.27760546875,3.80513671875,-4.27166015625,-9.30429296875,-3.56071484375,5.6253828125,-3.22202734375,-5.63015234375,-4.2477265625,1.21488671875,-2.40905859375,-6.8433515625,-8.3623046875,-7.56656640625,-4.13670703125,-5.12699609375,2.39434375,-1.9903828125,-5.5423671875,-6.31346484375,-5.4080546875,30.79714453125,-2.233453125,-3.14131640625,-8.4878984375
-5.207109375,-5.4884375,-10.411703125,-12.15379296875,-7.30093359375,-0.117394531250001,2.47213671875,-3.31366015625,-9.01329296875,-3.56271484375,3.2213828125,-6.30902734375,-4.91115234375,-3.5907265625,0.0558867187500027,-3.81805859375,-6.9803515625,-6.8783046875,-7.34356640625,-4.88470703125,-5.42399609375,4.21234375,-0.518382812500001,-5.1803671875,-6.41546484375,-5.6180546875,33.60914453125,-1.400453125,-2.92831640625,-7.9938984375
-3.486109375,-4.8224375,-9.691703125,-9.33279296875,-6.47693359375,-0.26639453125,2.38313671875,-1.86266015625,-6.97329296875,-2.34571484375,1.7613828125,-7.59202734375,-3.42415234375,-1.8357265625,0.290886718750002,-4.12505859375,-6.8573515625,-4.6753046875,-5.94856640625,-4.34370703125,-5.20499609375,6.43334375,1.9956171875,-3.5893671875,-5.26946484375,-5.1310546875,37.38914453125,-0.124453125,-2.17631640625,-6.7828984375
-0.589109375,-3.3794375,-7.891703125,-5.75479296875,-4.29893359375,0.542605468749999,3.18413671875,-0.89166015625,-3.74529296875,-0.37871484375,1.3243828125,-7.19202734375,-1.44415234375,0.5622734375,1.55088671875,-3.40205859375,-6.5453515625,-2.2303046875,-3.74756640625,-2.66670703125,-4.43199609375,8.65534375,5.1286171875,-1.1933671875,-3.10146484375,-3.8390546875,41.52514453125,1.479546875,-0.90931640625,-5.0068984375
2.649890625,-1.7864375,-5.699703125,-2.29479296875,-1.74393359375,1.62460546875,4.16513671875,-0.968660156249999,-0.314292968749999,1.56428515625,1.5643828125,-5.79202734375,0.546847656250001,2.8452734375,3.03988671875,-2.07405859375,-6.1563515625,-0.1193046875,-1.42956640625,-0.440707031250001,-3.25299609375,10.47534375,8.2786171875,1.2626328125,-0.51046484375,-1.9470546875,45.19114453125,3.114546875,0.64268359375,-2.9788984375
5.235890625,-0.755437500000001,-3.902703125,0.17620703125,0.0280664062499998,2.17360546875,4.60513671875,-2.02366015625,2.22470703125,2.67528515625,1.9163828125,-4.19402734375,1.96784765625,4.1782734375,3.90588671875,-0.725058593750001,-5.8223515625,1.1236953125,0.21743359375,1.53329296875,-1.95199609375,11.55234375,10.8306171875,2.9656328125,1.73753515625,0.0729453124999999,47.68814453125,4.399546875,2.09068359375,-1.1338984375
6.320890625,-0.8124375,-3.096703125,1.00320703125,0.10706640625,1.57560546875,4.11613671875,-3.56266015625,3.02970703125,2.38528515625,1.8673828125,-2.94002734375,2.30984765625,3.9142734375,3.59288671875,0.157941406249998,-5.6453515625,1.1416953125,0.58243359375,2.53629296875,-0.860996093749998,11.64334375,12.3216171875,3.3206328125,2.98253515625,1.6699453125,48.65314453125,5.011546875,3.00368359375,0.0811015625000024
5.501890625,-2.0924375,-3.481703125,-0.0767929687500004,-1.78993359375,-0.34739453125,2.79313671875,-5.09566015625,1.83170703125,0.55128515625,1.1643828125,-2.16302734375,1.29284765625,1.8552734375,2.03188671875,0.351941406249999,-5.6563515625,-0.127304687500001,-0.550566406250001,2.19129296875,-0.256996093749999,10.65534375,12.5656171875,2.1676328125,2.91753515625,2.4199453125,48.09114453125,4.820546875,3.07068359375,0.352101562500001
3.048890625,-4.2864375,-4.797703125,-2.80179296875,-5.17193359375,-3.25439453125,1.10013671875,-6.42566015625,-0.940292968749999,-2.49771484375,-0.134617187500002,-1.69702734375,-1.01015234375,-1.5967265625,-0.374113281249997,-0.0630585937500019,-5.7843515625,-2.3843046875,-2.91756640625,0.58629296875,-0.25899609375,8.69234375,11.7046171875,-0.1543671875,1.68853515625,2.1819453125,46.34714453125,3.955546875,2.24768359375,-0.374898437499999
-0.119109375,-6.7564375,-6.450703125,-6.39379296875,-8.93293359375,-6.39839453125,-0.394863281249998,-7.65566015625,-4.30329296875,-6.04171484375,-1.7166171875,-1.31802734375,-4.14415234375,-5.4837265625,-2.92711328125,-0.793058593750002,-5.8573515625,-4.9913046875,-5.83556640625,-1.76770703125,-0.769996093749999,6.08034375,10.1936171875,-2.8983671875,-0.17746484375,1.1239453125,44.07814453125,2.747546875,0.78268359375,-1.8518984375
-2.780109375,-8.7494375,-7.752703125,-9.77579296875,-11.77093359375,-8.90439453125,-1.28186328125,-8.94166015625,-7.08229296875,-9.16371484375,-3.1436171875,-0.919027343750001,-7.35215234375,-8.5627265625,-4.89911328125,-1.46505859375,-5.6483515625,-7.1323046875,-8.39256640625,-4.11670703125,-1.49399609375,3.35134375,8.6956171875,-5.1413671875,-1.97046484375,-0.3600546875,42.06114453125,1.590546875,-0.88031640625,-3.6198984375
-3.905109375,-9.6464375,-8.183703125,-11.91279296875,-12.68893359375,-10.08639453125,-1.44086328125,-10.20466015625,-8.33129296875,-11.01371484375,-3.9956171875,-0.55802734375,-9.77715234375,-9.7297265625,-5.77211328125,-1.77005859375,-4.9563515625,-8.0503046875,-9.72156640625,-5.71470703125,-2.05299609375,1.16034375,7.8876171875,-6.1013671875,-3.07846484375,-1.8220546875,40.86314453125,0.797546875000001,-2.28531640625,-5.1838984375
-3.042109375,-9.1814375,-7.564703125,-12.17979296875,-11.37193359375,-9.67439453125,-1.02786328125,-11.04166015625,-7.65229296875,-11.07871484375,-4.0166171875,-0.39402734375,-10.73715234375,-8.4337265625,-5.39611328125,-1.58805859375,-3.7283515625,-7.3413046875,-9.31056640625,-6.10570703125,-2.16999609375,0.124343750000001,8.2256171875,-5.4303671875,-3.23246484375,-2.9360546875,40.60414453125,0.524546875,-3.12731640625,-6.2148984375
-0.475109375,-7.5594375,-6.121703125,-10.59079296875,-8.30793359375,-7.91239453125,-0.376863281249999,-10.93966015625,-5.33329296875,-9.40271484375,-3.2366171875,-0.572027343749999,-9.99815234375,-4.9467265625,-4.04511328125,-1.04105859375,-2.1243515625,-5.1743046875,-7.24656640625,-5.31270703125,-1.84199609375,0.57934375,9.7286171875,-3.3853671875,-2.62446484375,-3.6130546875,40.97114453125,0.738546875000001,-3.34531640625,-6.6648984375
2.838890625,-5.4154375,-4.412703125,-7.82579296875,-4.63793359375,-5.47939453125,0.120136718750002,-9.69466015625,-2.27229296875,-6.64771484375,-2.0086171875,-1.12502734375,-7.90815234375,-0.362726562500001,-2.36411328125,-0.448058593750002,-0.4833515625,-2.3423046875,-4.25656640625,-3.85870703125,-1.37699609375,2.35734375,11.8946171875,-0.7543671875,-1.81346484375,-3.9900546875,41.36914453125,1.209546875,-3.12931640625,-6.7458984375
5.589890625,-3.5994375,-3.117703125,-4.99579296875,-1.75393359375,-3.27439453125,0.148136718750001,-7.66866015625,0.33670703125,-3.92271484375,-0.895617187500001,-1.92802734375,-5.31315234375,3.7332734375,-1.15711328125,-0.167058593750001,0.8186484375,-0.0393046874999996,-1.49756640625,-2.55170703125,-1.25699609375,4.75134375,13.8196171875,1.4216328125,-1.47246484375,-4.3120546875,41.09114453125,1.553546875,-2.83331640625,-6.7938984375
6.632890625,-2.8574375,-2.763703125,-3.22379296875,-0.79293359375,-2.11039453125,-0.428863281249999,-5.64666015625,1.45270703125,-2.39471484375,-0.4486171875,-2.72802734375,-3.27515234375,5.8272734375,-1.08311328125,-0.444058593750002,1.5446484375,0.584695312499999,-0.14056640625,-2.15570703125,-1.89199609375,6.74034375,14.4996171875,2.2156328125,-2.10046484375,-4.7740546875,39.51914453125,1.359546875,-2.82231640625,-7.0918984375
5.477890625,-3.5564375,-3.510703125,-3.21879296875,-2.19693359375,-2.42639453125,-1.52286328125,-4.39366015625,0.59970703125,-2.84071484375,-0.9836171875,-3.26502734375,-2.67715234375,5.0542734375,-2.38811328125,-1.32705859375,1.6696484375,-1.0923046875,-0.93656640625,-3.09870703125,-3.41399609375,7.37734375,13.2066171875,1.1166328125,-3.85246484375,-5.4230546875,36.37314453125,0.354546875,-3.33931640625,-7.7658984375
2.453890625,-5.5594375,-5.120703125,-5.05279296875,-5.54193359375,-4.15539453125,-2.86086328125,-4.24666015625,-1.96429296875,-5.32971484375,-2.4706171875,-3.41602734375,-3.90815234375,1.5112734375,-4.83411328125,-2.69805859375,1.3396484375,-4.9003046875,-3.93356640625,-5.35270703125,-5.63199609375,6.14134375,9.7766171875,-1.8423671875,-6.52446484375,-6.1610546875,31.83914453125,-1.463453125,-4.44631640625,-8.7898984375
-1.509109375,-8.2814375,-7.079703125,-8.18379296875,-9.70493359375,-6.77139453125,-4.07086328125,-4.99666015625,-5.36629296875,-9.18571484375,-4.5666171875,-3.26002734375,-6.72415234375,-3.7967265625,-7.82311328125,-4.34205859375,0.7586484375,-9.9333046875,-8.44156640625,-8.47170703125,-8.13899609375,3.09534375,4.7266171875,-6.1183671875,-9.65746484375,-6.8190546875,26.45114453125,-3.809453125,-6.05431640625,-10.0518984375
-5.262109375,-10.9054375,-8.783703125,-11.66179296875,-13.30093359375,-9.47939453125,-4.79986328125,-6.04866015625,-8.47629296875,-13.23271484375,-6.7266171875,-3.01702734375,-10.36615234375,-9.3197265625,-10.58911328125,-5.99705859375,0.1036484375,-14.8713046875,-13.25356640625,-11.74570703125,-10.46299609375,-1.16365625,-0.8693828125,-10.8303671875,-12.67546484375,-7.2410546875,20.85214453125,-6.221453125,-7.97831640625,-11.4068984375
-7.798109375,-12.6594375,-9.727703125,-14.43479296875,-15.21093359375,-11.48539453125,-4.81986328125,-6.71966015625,-10.33429296875,-16.23671484375,-8.3796171875,-2.89702734375,-13.86215234375,-13.4857265625,-12.40611328125,-7.37905859375,-0.5083515625,-18.4233046875,-17.04456640625,-14.40470703125,-12.19199609375,-5.70965625,-5.6953828125,-14.9993671875,-15.01946484375,-7.3360546875,15.68214453125,-8.220453125,-9.96431640625,-12.6768984375
-8.557109375,-13.0934375,-9.657703125,-15.69279296875,-15.00093359375,-12.27739453125,-4.12786328125,-6.55266015625,-10.51929296875,-17.37371484375,-9.1116171875,-2.98202734375,-16.40315234375,-15.2207265625,-12.78111328125,-8.22105859375,-1.0173515625,-19.7353046875,-18.80656640625,-15.83570703125,-13.05699609375,-9.56865625,-8.6273828125,-17.7863671875,-16.26746484375,-7.1110546875,11.55614453125,-9.450453125,-11.71231640625,-13.6578984375
-7.621109375,-12.2384375,-8.676703125,-15.17979296875,-13.05493359375,-11.84039453125,-2.99986328125,-5.52566015625,-9.29929296875,-16.52571484375,-8.8136171875,-3.23002734375,-17.62715234375,-14.3007265625,-11.61011328125,-8.35705859375,-1.4123515625,-18.6473046875,-18.17556640625,-15.76970703125,-12.99699609375,-11.98165625,-9.1143828125,-18.6773671875,-16.22346484375,-6.6740546875,8.95414453124999,-9.727453125,-12.91131640625,-14.1478984375
-5.654109375,-10.5864375,-7.218703125,-13.30079296875,-10.35193359375,-10.63839453125,-1.91986328125,-4.05966015625,-7.48229296875,-14.26971484375,-7.7166171875,-3.57902734375,-17.69215234375,-11.3777265625,-9.22511328125,-7.80605859375,-1.7143515625,-15.7023046875,-15.51756640625,-14.34670703125,-12.15999609375,-12.59765625,-7.3433828125,-17.5783671875,-14.95146484375,-6.1970546875,8.04514453124999,-9.025453125,-13.30831640625,-13.9998984375
-3.550109375,-8.8544375,-5.865703125,-10.92779296875,-7.99993359375,-9.36439453125,-1.39486328125,-2.82366015625,-6.01929296875,-11.55171484375,-6.2606171875,-4.02302734375,-17.11115234375,-7.6657265625,-6.24311328125,-6.78205859375,-1.9453515625,-11.8983046875,-11.73256640625,-12.02370703125,-10.83699609375,-11.52865625,-4.1083828125,-14.7913671875,-12.73346484375,-5.8380546875,8.65814453124999,-7.459453125,-12.77031640625,-13.1798984375
-2.009109375,-7.6654375,-5.089703125,-8.96479296875,-6.73293359375,-8.56639453125,-1.70686328125,-2.42766015625,-5.54629296875,-9.21971484375,-4.8656171875,-4.60402734375,-16.45415234375,-4.4287265625,-3.30211328125,-5.60905859375,-2.1143515625,-8.2993046875,-7.86756640625,-9.36470703125,-9.36099609375,-9.28965625,-0.4673828125,-10.8933671875,-9.98146484375,-5.6660546875,10.42214453125,-5.283453125,-11.33231640625,-11.8018984375
-1.297109375,-7.2734375,-5.038703125,-7.91779296875,-6.64093359375,-8.40739453125,-2.76486328125,-3.16366015625,-6.09729296875,-7.66971484375,-3.7456171875,-5.32702734375,-16.07715234375,-2.5127265625,-0.838113281249999,-4.58805859375,-2.2213515625,-5.6693046875,-4.72656640625,-6.84670703125,-8.02899609375,-6.62365625,2.6306171875,-6.5763671875,-7.13246484375,-5.6400546875,12.88514453125,-2.870453125,-9.21031640625,-10.1308984375
-1.240109375,-7.4884375,-5.490703125,-7.68979296875,-7.21493359375,-8.65539453125,-4.11586328125,-4.89366015625,-7.11929296875,-6.77271484375,-2.8706171875,-6.09702734375,-16.00215234375,-2.0907265625,1.01488671875,-3.91005859375,-2.2753515625,-4.2553046875,-2.64056640625,-4.76670703125,-7.07499609375,-4.25865625,4.6036171875,-2.5003671875,-4.59146484375,-5.6510546875,15.51014453125,-0.640453125,-6.77831640625,-8.5288984375
-1.385109375,-7.8284375,-5.981703125,-7.72479296875,-7.67393359375,-8.87339453125,-5.13786328125,-7.09366015625,-7.77429296875,-6.09271484375,-2.0716171875,-6.74702734375,-15.99915234375,-2.7047265625,2.36388671875,-3.64405859375,-2.3233515625,-3.7913046875,-1.50556640625,-3.26970703125,-6.64999609375,-2.67065625,5.3146171875,0.789632812500001,-2.69046484375,-5.5980546875,17.69414453125,1.056546875,-4.48631640625,-7.3338984375
-1.233109375,-7.8044375,-6.070703125,-7.39679296875,-7.36793359375,-8.67739453125,-5.30386328125,-9.09066015625,-7.37429296875,-5.22571484375,-1.2096171875,-7.12102734375,-15.80815234375,-3.5787265625,3.41588671875,-3.76905859375,-2.4283515625,-3.7173046875,-1.00256640625,-2.42970703125,-6.80399609375,-1.97765625,4.9766171875,2.9016328125,-1.66446484375,-5.4440546875,18.90914453125,2.025546875,-2.75131640625,-6.7398984375
-0.516109375,-7.1704375,-5.584703125,-6.42479296875,-6.08693359375,-7.93239453125,-4.40586328125,-10.35166015625,-5.72429296875,-4.05971484375,-0.2786171875,-7.16102734375,-15.32515234375,-4.0337265625,4.30688671875,-4.19605859375,-2.6353515625,-3.4993046875,-0.847566406249999,-2.29470703125,-7.46099609375,-2.00065625,3.9736171875,3.6296328125,-1.59446484375,-5.2150546875,18.84714453125,2.242546875,-1.84731640625,-6.7198984375
0.664890625,-6.0184375,-4.716703125,-5.04579296875,-4.12093359375,-6.80939453125,-2.63686328125,-10.69266015625,-3.21229296875,-2.83071484375,0.591382812499999,-6.91602734375,-14.64315234375,-3.7837265625,5.02088671875,-4.77405859375,-2.9063515625,-2.8913046875,-0.91656640625,-2.84770703125,-8.41099609375,-2.44465625,2.6746171875,2.9856328125,-2.36146484375,-4.9720546875,17.43014453125,1.803546875,-1.85231640625,-7.0738984375
1.949890625,-4.6884375,-3.895703125,-3.83979296875,-2.07693359375,-5.68039453125,-0.529863281249998,-10.26666015625,-0.587292968749999,-1.93971484375,1.2143828125,-6.50102734375,-13.92815234375,-2.9707265625,5.42388671875,-5.31105859375,-3.1053515625,-1.9843046875,-1.23356640625,-3.94070703125,-9.35299609375,-3.05365625,1.3256171875,1.2006328125,-3.64846484375,-4.7570546875,14.78314453125,0.866546875000001,-2.63731640625,-7.5178984375
3.006890625,-3.5714375,-3.532703125,-3.34079296875,-0.560933593749999,-4.93239453125,1.23813671875,-9.40066015625,1.41170703125,-1.69571484375,1.4603828125,-6.01502734375,-13.24915234375,-1.9737265625,5.38988671875,-5.61405859375,-3.0263515625,-1.0493046875,-1.82956640625,-5.26670703125,-9.97499609375,-3.66065625,0.0426171874999994,-1.3063671875,-5.01746484375,-4.5650546875,11.27214453125,-0.374453125,-3.90631640625,-7.7968984375
3.719890625,-2.9054375,-3.798703125,-3.70679296875,0.09506640625,-4.78239453125,2.09013671875,-8.41666015625,2.38970703125,-2.11471484375,1.3323828125,-5.49102734375,-12.49815234375,-1.1507265625,4.92488671875,-5.52805859375,-2.4723515625,-0.303304687500001,-2.59356640625,-6.40970703125,-10.04299609375,-4.15665625,-1.0913828125,-4.0003671875,-6.01746484375,-4.3470546875,7.52714453124999,-1.688453125,-5.26531640625,-7.7408984375
4.185890625,-2.6784375,-4.562703125,-4.65179296875,-0.0599335937499994,-5.20039453125,1.78013671875,-7.52466015625,2.41770703125,-2.90671484375,0.9713828125,-4.87302734375,-11.44615234375,-0.668726562500002,4.21288671875,-4.96205859375,-1.3483515625,0.2566953125,-3.21756640625,-6.96270703125,-9.45899609375,-4.44265625,-1.9233828125,-6.3053671875,-6.31046484375,-4.0530546875,4.27214453124999,-2.819453125,-6.31731640625,-7.2748984375
4.587890625,-2.6714375,-5.483703125,-5.61179296875,-0.69393359375,-5.94739453125,0.485136718750001,-6.77066015625,1.91970703125,-3.63771484375,0.600382812499999,-4.05902734375,-9.90215234375,-0.4537265625,3.55488671875,-3.90505859375,0.2696484375,0.8586953125,-3.28656640625,-6.67070703125,-8.26099609375,-4.42465625,-2.2003828125,-7.7263671875,-5.76046484375,-3.6800546875,2.05214453124999,-3.540453125,-6.76931640625,-6.4128984375
5.096890625,-2.5934375,-6.181703125,-6.03779296875,-1.39693359375,-6.67339453125,-1.26086328125,-6.06166015625,1.42070703125,-3.95271484375,0.408382812499999,-2.95402734375,-7.86915234375,-0.261726562500002,3.24588671875,-2.44605859375,2.1276484375,1.8056953125,-2.49956640625,-5.54170703125,-6.59699609375,-4.04965625,-1.6683828125,-7.9783671875,-4.48446484375,-3.3120546875,1.06214453124999,-3.741453125,-6.52431640625,-5.2598984375
5.774890625,-2.2364375,-6.392703125,-5.64079296875,-1.86993359375,-7.05039453125,-2.77486328125,-5.27566015625,1.28670703125,-3.73271484375,0.4743828125,-1.55102734375,-5.60815234375,0.170273437500001,3.41888671875,-0.792058593750001,3.8646484375,3.2536953125,-0.880566406249999,-3.87870703125,-4.69099609375,-3.36465625,-0.2533828125,-7.1073671875,-2.82246484375,-3.0930546875,1.14414453124999,-3.474453125,-5.72931640625,-4.0258984375
6.512890625,-1.5444375,-6.048703125,-4.49179296875,-2.00093359375,-6.88139453125,-3.47086328125,-4.38066015625,1.61870703125,-3.09271484375,0.7573828125,0.0119726562500002,-3.53215234375,0.9572734375,3.95388671875,0.774941406249999,5.1616484375,5.0596953125,1.17343359375,-2.20070703125,-2.78999609375,-2.52065625,1.8006171875,-5.4953671875,-1.22746484375,-3.1600546875,1.84614453124999,-2.931453125,-4.73831640625,-2.9948984375
7.086890625,-0.5934375,-5.251703125,-2.93179296875,-1.81293359375,-6.14439453125,-3.05986328125,-3.45666015625,2.30470703125,-2.25371484375,1.1643828125,1.46097265625,-2.01115234375,1.9912734375,4.54488671875,1.97894140625,5.9016484375,6.7906953125,3.04343359375,-1.02870703125,-1.08899609375,-1.70665625,3.9656171875,-3.7233671875,-0.0884648437499997,-3.5520546875,2.54314453124999,-2.343453125,-3.97031640625,-2.4428984375
7.326890625,0.4795625,-4.188703125,-1.35579296875,-1.37093359375,-4.96839453125,-1.61186328125,-2.60166015625,3.16670703125,-1.39071484375,1.6393828125,2.48197265625,-1.19715234375,3.0072734375,4.88488671875,2.66694140625,6.2336484375,7.9366953125,4.18043359375,-0.645707031250001,0.342003906250001,-1.03865625,5.6616171875,-2.3153671875,0.432535156249999,-4.1500546875,2.72114453124999,-1.866453125,-3.69031640625,-2.4928984375
7.245890625,1.5405625,-3.065703125,-0.0257929687500003,-0.717933593749999,-3.59039453125,0.489136718750002,-1.81966015625,4.06570703125,-0.56371484375,2.1953828125,2.87497265625,-0.988152343749999,3.7572734375,4.84988671875,2.85694140625,6.4786484375,8.1866953125,4.37843359375,-0.948707031250001,1.57600390625,-0.494656249999998,6.5546171875,-1.4933671875,0.464535156249999,-4.6740546875,2.30614453124999,-1.501453125,-3.85331640625,-3.0228984375
6.967890625,2.4705625,-2.094703125,0.96120703125,0.103066406250001,-2.30939453125,2.67513671875,-1.04066015625,4.92270703125,0.244285156249999,2.8323828125,2.66197265625,-1.10815234375,4.1582734375,4.53388671875,2.70494140625,6.9096484375,7.6056953125,3.87443359375,-1.50670703125,2.73200390625,0.0633437500000014,6.7306171875,-1.0773671875,0.34753515625,-4.7830546875,1.73114453124999,-1.098453125,-4.10831640625,-3.6718984375
6.563890625,3.1585625,-1.493703125,1.59520703125,0.99506640625,-1.44939453125,4.34613671875,-0.24066015625,5.69170703125,1.04728515625,3.4303828125,2.04597265625,-1.23715234375,4.3222734375,4.14088671875,2.38194140625,7.5646484375,6.6096953125,3.20043359375,-1.79870703125,3.85300390625,0.794343750000001,6.6276171875,-0.624367187499999,0.43753515625,-4.2260546875,1.62514453124999,-0.435453125,-3.98131640625,-3.9768984375
5.989890625,3.4965625,-1.445703125,1.88220703125,1.78906640625,-1.28539453125,5.00113671875,0.456339843749999,6.34170703125,1.77828515625,3.7023828125,1.24797265625,-1.10515234375,4.4582734375,3.83188671875,1.95294140625,8.2366484375,5.7556953125,2.89543359375,-1.49170703125,4.85100390625,1.78034375,6.7756171875,0.2836328125,0.93053515625,-2.9600546875,2.41314453124999,0.659546875000001,-3.11231640625,-3.5618984375
5.145890625,3.4025625,-2.032703125,1.82620703125,2.27106640625,-1.95439453125,4.37213671875,0.780339843749999,6.85270703125,2.27728515625,3.3073828125,0.366972656250001,-0.573152343749999,4.6972734375,3.63488671875,1.37294140625,8.6366484375,5.4726953125,3.23443359375,-0.584707031250001,5.56900390625,2.99034375,7.5076171875,1.7816328125,1.78953515625,-1.1730546875,4.12914453124999,2.207546875,-1.42131640625,-2.2888984375
3.945890625,2.8675625,-3.182703125,1.45120703125,2.24806640625,-3.37439453125,2.53913671875,0.441339843750001,7.19870703125,2.34128515625,2.0773828125,-0.595027343749999,0.31984765625,4.9442734375,3.46388671875,0.586941406249998,8.6186484375,5.8526953125,4.13743359375,0.649292968749999,5.92500390625,4.26934375,8.7916171875,3.6466328125,2.82153515625,0.8169453125,6.46214453124999,4.023546875,0.83968359375,-0.301898437499998
2.369890625,2.0065625,-4.656703125,0.81420703125,1.62606640625,-5.20939453125,-0.00386328124999835,-0.671660156250001,7.34270703125,1.82428515625,0.2343828125,-1.56802734375,1.34884765625,4.8812734375,3.21088671875,-0.307058593750002,8.3006484375,6.5986953125,5.25743359375,1.87829296875,6.01000390625,5.36434375,10.2406171875,5.4376328125,3.82653515625,2.7169453125,8.86314453124999,5.743546875,3.17368359375,2.0241015625
0.547890625,1.0765625,-6.081703125,0.0262070312499993,0.503066406250001,-6.88839453125,-2.41486328125,-2.31466015625,7.25670703125,0.776285156249999,-1.5706171875,-2.27302734375,2.16784765625,4.1372734375,2.86788671875,-0.998058593750002,7.9956484375,7.1776953125,6.16343359375,2.91329296875,6.08400390625,5.97234375,11.2666171875,6.6956328125,4.70853515625,4.3429453125,10.67914453125,6.933546875,5.00868359375,4.2141015625
-1.183109375,0.4225625,-7.053703125,-0.73479296875,-0.794933593749999,-7.74039453125,-3.74386328125,-3.86066015625,6.93770703125,-0.47471484375,-2.4816171875,-2.26102734375,2.44284765625,2.5432734375,2.57288671875,-1.06005859375,8.0286484375,7.0766953125,6.49843359375,3.75729296875,6.45300390625,5.83134375,11.2896171875,7.0896328125,5.46353515625,5.5979453125,11.36414453125,7.250546875,5.90068359375,5.8321015625
-2.392109375,0.353562499999999,-7.281703125,-1.24879296875,-1.80093359375,-7.25139453125,-3.29386328125,-4.51066015625,6.41670703125,-1.40771484375,-1.8586171875,-1.15102734375,2.00184765625,0.272273437500001,2.50888671875,-0.183058593750001,8.5436484375,6.0306953125,6.05943359375,4.48629296875,7.29000390625,4.82334375,9.9336171875,6.4646328125,6.08853515625,6.3879453125,10.64714453125,6.595546875,5.67068359375,6.5841015625
-2.787109375,1.0115625,-6.726703125,-1.33079296875,-2.09093359375,-5.32839453125,-0.935863281249999,-3.66566015625,5.75070703125,-1.52171484375,0.350382812499999,1.10397265625,0.93284765625,-2.2087265625,2.75488671875,1.61294140625,9.4426484375,4.1356953125,4.83043359375,5.09729296875,8.51300390625,3.06134375,7.1736171875,4.8306328125,6.49053515625,6.5799453125,8.53814453124999,5.173546875,4.43768359375,6.3841015625
-2.369109375,2.3095625,-5.612703125,-0.89079296875,-1.46393359375,-2.39839453125,2.78713671875,-1.21866015625,5.05770703125,-0.57671484375,3.5103828125,4.10797265625,-0.42215234375,-4.2897265625,3.22188671875,3.93094140625,10.4586484375,1.8226953125,2.99443359375,5.46029296875,9.80700390625,0.916343750000001,3.4036171875,2.3866328125,6.49753515625,6.0559453125,5.27114453124999,3.442546875,2.55868359375,5.3831015625
-1.347109375,3.9655625,-4.312703125,0.0712070312499993,-0.0129335937499988,0.756605468749999,6.84613671875,2.36933984375,4.54470703125,1.29028515625,6.5723828125,7.14397265625,-1.57015234375,-5.3837265625,3.73488671875,6.15494140625,11.3076484375,-0.2723046875,0.93943359375,5.42429296875,10.78300390625,-1.04065625,-0.6113828125,-0.450367187499999,5.96953515625,4.8209453125,1.31514453124999,1.955546875,0.52168359375,3.9451015625
0.0288906249999998,5.6245625,-3.165703125,1.51320703125,1.94106640625,3.32560546875,10.12013671875,6.25233984375,4.47670703125,3.62928515625,8.5363828125,9.47397265625,-2.04915234375,-5.0877265625,4.16088671875,7.73094140625,11.7916484375,-1.5113046875,-0.799566406249999,4.97329296875,11.18500390625,-2.20765625,-3.9393828125,-3.0703671875,4.93253515625,3.0779453125,-2.59985546875001,1.147546875,-1.20031640625,2.5251015625
1.564890625,6.9965625,-2.357703125,3.38620703125,3.98306640625,4.76660546875,11.81813671875,9.50233984375,5.03970703125,5.86528515625,8.8753828125,10.63497265625,-1.60415234375,-3.3147265625,4.45888671875,8.39994140625,11.8146484375,-1.4733046875,-1.68156640625,4.29229296875,11.01200390625,-2.17065625,-5.7953828125,-4.7963671875,3.63953515625,1.1999453125,-5.66285546875001,1.186546875,-2.26631640625,1.5081015625
3.119890625,7.9365625,-1.890703125,5.61620703125,5.73806640625,4.94960546875,11.71513671875,11.42033984375,6.23270703125,7.50328515625,7.6913828125,10.59797265625,-0.28515234375,-0.335726562500001,4.66288671875,8.27694140625,11.3676484375,-0.0883046875000009,-1.34156640625,3.70029296875,10.50200390625,-0.845656249999999,-5.8133828125,-5.0943671875,2.49853515625,-0.390054687499999,-7.29885546875001,1.970546875,-2.52631640625,1.0831015625
4.607890625,8.4325625,-1.655703125,8.07420703125,6.95306640625,4.11660546875,10.12713671875,11.72633984375,7.83370703125,8.28028515625,5.5613828125,9.69397265625,1.57784765625,3.2882734375,4.83788671875,7.72194140625,10.4986484375,2.3726953125,0.270433593750001,3.48029296875,9.99500390625,1.51334375,-4.1313828125,-3.7733671875,1.90453515625,-1.3710546875,-7.36485546875001,3.234546875,-1.98531640625,1.2301015625
5.962890625,8.5315625,-1.544703125,10.52720703125,7.49006640625,2.70060546875,7.65713671875,10.55233984375,9.45970703125,8.19728515625,3.2073828125,8.38397265625,3.50184765625,6.8682734375,5.04488671875,7.08794140625,9.2816484375,5.4266953125,2.85243359375,3.72729296875,9.72600390625,4.42934375,-1.2783828125,-1.0843671875,2.04853515625,-1.6180546875,-6.10385546875001,4.699546875,-0.73531640625,1.7941015625
7.080890625,8.2715625,-1.542703125,12.63920703125,7.30306640625,1.12160546875,4.91813671875,8.28633984375,10.67970703125,7.46228515625,1.1773828125,7.00497265625,5.03084765625,9.7742734375,5.31388671875,6.52794140625,7.7826484375,8.5256953125,5.86643359375,4.28229296875,9.69700390625,7.34734375,2.0426171875,2.3326328125,2.81653515625,-1.2220546875,-4.02385546875001,6.156546875,1.05468359375,2.5711015625
7.815890625,7.6875625,-1.705703125,14.06420703125,6.45506640625,-0.31439453125,2.38213671875,5.38433984375,11.17870703125,6.42128515625,-0.2756171875,5.65297265625,5.87784765625,11.6022734375,5.64888671875,5.95194140625,6.0516484375,11.1946953125,8.71943359375,4.81029296875,9.66800390625,9.76934375,5.1576171875,5.6416328125,3.82253515625,-0.445054687500001,-1.82985546875001,7.448546875,3.12868359375,3.3521015625
8.123890625,6.8865625,-2.047703125,14.62020703125,5.21106640625,-1.37639453125,0.384136718750002,2.27433984375,10.91270703125,5.49728515625,-1.1106171875,4.24997265625,6.00484765625,12.3082734375,6.07588671875,5.16894140625,4.1506484375,13.1076953125,10.95143359375,4.98629296875,9.30700390625,11.32434375,7.5266171875,8.0756328125,4.57653515625,0.372945312500001,-0.301855468750013,8.406546875,5.13368359375,3.9551015625
8.197890625,6.0935625,-2.449703125,14.41220703125,4.07106640625,-1.81739453125,-0.818863281249998,-0.67566015625,10.16570703125,5.11828515625,-1.3226171875,2.71397265625,5.59184765625,12.2192734375,6.69688671875,4.09794140625,2.2046484375,14.1306953125,12.34143359375,4.68329296875,8.38200390625,11.80434375,8.8006171875,9.1786328125,4.70453515625,0.920945312500001,-0.0258554687500094,8.840546875,6.70768359375,4.2431015625
8.422890625,5.6205625,-2.680703125,13.78320703125,3.66506640625,-1.38839453125,-1.03786328125,-3.16466015625,9.42170703125,5.62128515625,-0.847617187500001,1.09897265625,4.93284765625,11.8822734375,7.66888671875,2.91494140625,0.4266484375,14.3016953125,12.91843359375,4.05329296875,6.90500390625,11.16434375,8.8426171875,8.9376328125,4.12053515625,1.0059453125,-1.14785546875001,8.590546875,7.59868359375,4.1601015625
9.136890625,5.7325625,-2.531703125,13.13020703125,4.48706640625,0.032605468749999,-0.225863281249998,-4.95566015625,9.12570703125,7.11328515625,0.397382812499998,-0.38902734375,4.29484765625,11.8102734375,9.11288671875,2.01194140625,-0.9193515625,13.7826953125,12.89143359375,3.45829296875,5.14400390625,9.49834375,7.7466171875,7.7616328125,3.07253515625,0.6049453125,-3.37285546875001,7.635546875,7.76468359375,3.7681015625
10.422890625,6.4915625,-1.948703125,12.69520703125,6.63406640625,2.28160546875,1.42713671875,-5.88866015625,9.45670703125,9.38028515625,2.3713828125,-1.48602734375,3.79284765625,12.2622734375,11.00188671875,1.79094140625,-1.6293515625,12.7966953125,12.53743359375,3.27629296875,3.50800390625,7.03934375,5.8266171875,6.2816328125,2.01053515625,-0.1420546875,-6.15985546875001,6.156546875,7.40168359375,3.2461015625
12.072890625,7.6735625,-1.084703125,12.47520703125,9.67906640625,4.86660546875,3.47913671875,-5.90566015625,10.24970703125,11.90328515625,4.7943828125,-2.00502734375,3.33884765625,13.1502734375,13.10988671875,2.41494140625,-1.6653515625,11.5786953125,12.08843359375,3.70829296875,2.37200390625,4.13834375,3.5436171875,5.0906328125,1.37053515625,-0.9940546875,-8.91485546875001,4.501546875,6.86868359375,2.8551015625
13.661890625,8.8305625,-0.227703124999998,12.24920703125,12.77706640625,7.09060546875,5.33613671875,-5.08866015625,11.08170703125,14.00128515625,7.1703828125,-1.91402734375,2.70984765625,14.1152734375,15.03788671875,3.69594140625,-1.2013515625,10.3266953125,11.68543359375,4.71029296875,1.93700390625,1.21734375,1.3896171875,4.5416328125,1.39753515625,-1.6970546875,-11.12685546875,3.076546875,6.53768359375,2.8461015625
14.685890625,9.4915625,0.354296874999999,11.72320703125,14.97606640625,8.29860546875,6.45613671875,-3.63566015625,11.47470703125,15.07128515625,8.9463828125,-1.33302734375,1.71284765625,14.7282734375,16.34888671875,5.19194140625,-0.5443515625,9.1906953125,11.40843359375,6.06029296875,2.18500390625,-1.30465625,-0.2363828125,4.6976328125,2.10253515625,-2.0620546875,-12.51685546875,2.205546875,6.65868359375,3.3541015625
14.761890625,9.3845625,0.588296875000001,10.73120703125,15.60006640625,8.14160546875,6.54913671875,-1.75966015625,11.14270703125,14.82728515625,9.7363828125,-0.47102734375,0.364847656250001,14.7142734375,16.75788671875,6.43794140625,0.00164843749999966,8.3016953125,11.33843359375,7.50929296875,2.92500390625,-3.08965625,-1.0933828125,5.4086328125,3.31853515625,-2.0100546875,-13.12885546875,2.040546875,7.28968359375,4.3271015625
13.838890625,8.5615625,0.662296874999999,9.39320703125,14.54306640625,6.73260546875,5.66413671875,0.40033984375,10.13170703125,13.41128515625,9.4623828125,0.44797265625,-1.05415234375,14.1062734375,16.27388671875,7.13094140625,0.2566484375,7.7806953125,11.55343359375,8.86729296875,3.87100390625,-3.94165625,-1.1173828125,6.4226328125,4.77653515625,-1.5980546875,-13.23085546875,2.551546875,8.32468359375,5.5311015625
12.235890625,7.3435625,0.931296875000001,8.09420703125,12.30906640625,4.59560546875,4.13913671875,2.72633984375,8.79170703125,11.32828515625,8.3493828125,1.22497265625,-2.10715234375,13.1962734375,15.18788671875,7.18394140625,0.1726484375,7.6896953125,12.07343359375,9.99229296875,4.68900390625,-3.85265625,-0.4033828125,7.4526328125,6.15253515625,-1.0100546875,-13.11585546875,3.561546875,9.56968359375,6.6021015625
10.438890625,6.1425625,1.706296875,7.27020703125,9.77306640625,2.44460546875,2.45813671875,4.97233984375,7.56470703125,9.22728515625,6.8013828125,1.70497265625,-2.41415234375,12.3312734375,13.89888671875,6.66094140625,-0.2133515625,7.9446953125,12.78143359375,10.73329296875,5.03200390625,-3.02865625,0.822617187499999,8.2166328125,7.08853515625,-0.5200546875,-13.00485546875,4.798546875,10.78068359375,7.1671015625
8.822890625,5.2755625,3.072296875,7.15420703125,7.81906640625,0.917605468749999,1.08113671875,6.71333984375,6.75570703125,7.65928515625,5.2453828125,1.76197265625,-1.85915234375,11.7132734375,12.72388671875,5.65994140625,-0.8413515625,8.2846953125,13.41443359375,10.89729296875,4.59100390625,-1.86565625,2.2256171875,8.4546328125,7.24753515625,-0.4120546875,-13.11385546875,5.926546875,11.68668359375,6.9651015625
7.506890625,4.8525625,4.831296875,7.65220703125,6.98406640625,0.385605468749999,0.317136718750001,7.50233984375,6.38370703125,6.88928515625,4.0043828125,1.31897265625,-0.66415234375,11.3022734375,11.77688671875,4.24894140625,-1.6583515625,8.3576953125,13.62643359375,10.30529296875,3.20100390625,-0.85165625,3.4046171875,7.9726328125,6.39953515625,-0.8660546875,-13.68385546875,6.603546875,12.02268359375,5.9511015625
6.368890625,4.7545625,6.592296875,8.37320703125,7.27506640625,0.856605468749999,0.240136718750001,7.15633984375,6.20870703125,6.81028515625,3.2013828125,0.39097265625,0.672847656250001,10.8502734375,10.93988671875,2.47194140625,-2.6123515625,7.8706953125,13.10643359375,8.87029296875,0.94000390625,-0.422656249999999,3.9406171875,6.6806328125,4.52253515625,-1.8600546875,-14.89585546875,6.571546875,11.59068359375,4.3201015625
5.121890625,4.7055625,7.922296875,8.78220703125,8.17406640625,1.98360546875,0.677136718750001,5.95433984375,5.84770703125,6.96928515625,2.7203828125,-0.855027343750001,1.57084765625,9.9862734375,9.91088671875,0.426941406249998,-3.6203515625,6.6976953125,11.66343359375,6.68029296875,-1.82799609375,-0.839656249999999,3.4656171875,4.6166328125,1.86653515625,-3.1300546875,-16.79285546875,5.760546875,10.33768359375,2.4411015625
3.431890625,4.4005625,8.535296875,8.40020703125,8.87006640625,3.17860546875,1.29213671875,4.62833984375,4.95470703125,6.72428515625,2.2453828125,-2.09502734375,1.59784765625,8.3592734375,8.31188671875,-1.65505859375,-4.5243515625,4.9026953125,9.27443359375,4.01829296875,-4.51499609375,-2.12565625,1.7576171875,1.9486328125,-1.07646484375,-4.2310546875,-19.33885546875,4.328546875,8.39168359375,0.726101562500002
1.127890625,3.6615625,8.446296875,7.00220703125,8.62606640625,3.84660546875,1.74513671875,4.13033984375,3.39670703125,5.51928515625,1.4263828125,-2.90802734375,0.667847656250001,5.8162734375,5.89388671875,-3.40105859375,-5.0503515625,2.6936953125,6.10343359375,1.32329296875,-6.45099609375,-4.09365625,-1.1463828125,-1.0453671875,-3.68646484375,-4.6950546875,-22.45085546875,2.589546875,6.05068359375,-0.487898437499998
-1.598109375,2.5535625,8.027296875,4.74820703125,7.12406640625,3.66260546875,1.87613671875,5.21933984375,1.35270703125,3.18328515625,0.110382812499999,-2.92002734375,-0.92015234375,2.5702734375,2.74788671875,-4.36705859375,-4.8303515625,0.3616953125,2.50643359375,-0.890707031250001,-7.06799609375,-6.43365625,-4.8703828125,-4.0043671875,-5.39746484375,-4.2260546875,-25.90485546875,0.891546875,3.71468359375,-1.0248984375
-4.192109375,1.4045625,7.883296875,2.15820703125,4.61406640625,2.73060546875,1.80113671875,8.04933984375,-0.721292968749999,0.0802851562499995,-1.5046171875,-1.95302734375,-2.61115234375,-0.765726562500001,-0.617113281249999,-4.17905859375,-3.5303515625,-1.7703046875,-0.96456640625,-2.14970703125,-6.07799609375,-8.81065625,-8.7313828125,-6.5083671875,-5.85346484375,-2.8130546875,-29.23685546875,-0.503453124999999,1.78768359375,-0.877898437499999
-5.974109375,0.680562499999999,8.586296875,-0.0557929687499996,1.78306640625,1.51160546875,1.83413671875,11.97333984375,-2.26729296875,-3.00271484375,-2.9186171875,-0.10002734375,-3.83215234375,-3.3377265625,-3.41311328125,-2.68005859375,-1.0623515625,-3.3813046875,-3.64956640625,-2.14770703125,-3.56999609375,-10.93365625,-11.9023828125,-8.1283671875,-4.97646484375,-0.736054687499999,-31.84285546875,-1.427453125,0.59368359375,-0.161898437499998
-6.448109375,0.7625625,10.372296875,-1.23179296875,-0.58693359375,0.55960546875,2.26913671875,15.77933984375,-2.86729296875,-5.20071484375,-3.5866171875,2.28997265625,-4.22915234375,-4.3627265625,-4.88411328125,-0.0410585937500016,2.2536484375,-4.1993046875,-4.95656640625,-0.85470703125,0.00800390625000169,-12.57865625,-13.6683828125,-8.5283671875,-2.95346484375,1.5629453125,-33.21085546875,-1.771453125,0.30468359375,0.960101562500002
-5.520109375,1.7415625,12.998296875,-1.00679296875,-1.97293359375,0.224605468749999,3.16313671875,18.25033984375,-2.43429296875,-5.97071484375,-3.2286171875,4.72397265625,-3.79215234375,-3.4537265625,-4.62911328125,3.22794140625,5.7246484375,-4.0623046875,-4.57656640625,1.42729296875,4.00200390625,-13.59665625,-13.6593828125,-7.5773671875,-0.143464843749999,3.6459453125,-33.05985546875,-1.468453125,0.909683593750001,2.3531015625
-3.584109375,3.3455625,15.815296875,0.510207031249999,-2.32693359375,0.48560546875,4.26213671875,18.73433984375,-1.26029296875,-5.31571484375,-2.0096171875,6.70797265625,-2.82615234375,-0.798726562500001,-2.78411328125,6.41794140625,8.5326484375,-2.9783046875,-2.60756640625,4.15129296875,7.76300390625,-13.93365625,-11.9573828125,-5.4133671875,3.02253515625,5.2189453125,-31.37485546875,-0.530453124999999,2.20768359375,3.9441015625
-1.416109375,5.0705625,18.054296875,2.75420703125,-2.02793359375,1.00260546875,5.14013671875,17.43033984375,0.135707031250002,-3.71971484375,-0.442617187500002,7.89397265625,-1.77015234375,2.8992734375,0.0318867187500018,8.86594140625,10.0766484375,-1.1603046875,0.481433593749999,6.71129296875,10.82200390625,-13.63065625,-9.0423828125,-2.4173671875,6.13653515625,6.1849453125,-28.44885546875,0.922546875000001,3.84968359375,5.6881015625
0.130890625,6.4185625,19.166296875,4.93720703125,-1.62493359375,1.35560546875,5.45313671875,15.26733984375,1.27170703125,-1.85771484375,0.8913828125,8.17597265625,-0.98615234375,6.6972734375,2.98088671875,10.17694140625,10.1876484375,1.0186953125,4.00743359375,8.64629296875,12.94900390625,-12.82965625,-5.6303828125,0.8836328125,8.84153515625,6.5949453125,-24.92085546875,2.649546875,5.42168359375,7.4991015625
0.517890625,7.1105625,19.059296875,6.40620703125,-1.52193359375,1.32060546875,5.16113671875,13.48633984375,1.91470703125,-0.281714843750001,1.6383828125,7.73697265625,-0.617152343749999,9.7692734375,5.34088671875,10.32594140625,9.1196484375,3.1296953125,7.26243359375,9.75029296875,14.09700390625,-11.75365625,-2.4663828125,3.9346328125,10.82553515625,6.5519453125,-21.63685546875,4.342546875,6.54268359375,9.1711015625
-0.258109375,7.1695625,18.100296875,6.90220703125,-1.78593359375,0.98660546875,4.58113671875,13.08433984375,2.10470703125,0.75928515625,1.8133828125,6.99897265625,-0.60715234375,11.6332734375,6.73688671875,9.60494140625,7.3746484375,4.7926953125,9.66243359375,10.04529296875,14.31700390625,-10.67965625,-0.1473828125,6.2566328125,11.83353515625,6.1439453125,-19.34685546875,5.684546875,6.95368359375,10.3791015625
-1.757109375,6.8555625,16.906296875,6.59820703125,-2.15593359375,0.67160546875,4.24913671875,14.38933984375,2.01470703125,1.31028515625,1.7273828125,6.50397265625,-0.814152343749999,12.2012734375,7.17188671875,8.48794140625,5.5056484375,5.7496953125,10.87043359375,9.69729296875,13.75100390625,-9.90265625,0.9906171875,7.5566328125,11.73953515625,5.4499453125,-18.44885546875,6.429546875,6.57868359375,10.7921015625
-3.345109375,6.5305625,16.085296875,5.93820703125,-2.22293359375,0.71060546875,4.65413671875,16.99333984375,1.81170703125,1.59228515625,1.7793828125,6.74597265625,-1.12915234375,11.7052734375,6.94188671875,7.48494140625,3.9936484375,5.9186953125,10.86943359375,8.95029296875,12.69100390625,-9.65765625,0.9326171875,7.8046328125,10.66753515625,4.6059453125,-18.93085546875,6.491546875,5.56568359375,10.2701015625
-4.413109375,6.5115625,16.034296875,5.41620703125,-1.64993359375,1.27060546875,5.99813671875,20.08133984375,1.62570703125,1.88228515625,2.2433828125,7.98997265625,-1.49515234375,10.6072734375,6.50488671875,7.01794140625,3.1996484375,5.4366953125,9.98543359375,8.11229296875,11.61000390625,-10.02465625,-0.00738281250000128,7.2726328125,9.06353515625,3.8749453125,-20.41085546875,6.015546875,4.29668359375,9.0381015625
-4.513109375,6.9775625,16.856296875,5.41020703125,-0.326933593749999,2.27760546875,8.07913671875,22.87033984375,1.58570703125,2.44028515625,3.1543828125,10.13797265625,-1.85315234375,9.5152734375,6.34188671875,7.32194140625,3.3486484375,4.6636953125,8.82343359375,7.53029296875,11.09300390625,-10.84365625,-1.2503828125,6.5016328125,7.62553515625,3.6339453125,-22.20185546875,5.401546875,3.32368359375,7.6901015625
-3.499109375,7.9455625,18.369296875,6.09620703125,1.58806640625,3.45960546875,10.36813671875,24.85333984375,1.82970703125,3.45628515625,4.3193828125,12.69997265625,-2.06815234375,9.0472734375,6.80388671875,8.39994140625,4.4916484375,4.0936953125,8.09843359375,7.52529296875,11.61600390625,-11.74165625,-2.1173828125,6.1566328125,7.09353515625,4.2599453125,-23.49885546875,5.200546875,3.19368359375,6.9961015625
-1.612109375,9.2835625,20.184296875,7.42920703125,3.72706640625,4.44460546875,12.21713671875,25.79033984375,2.46370703125,4.99928515625,5.4283828125,14.92997265625,-1.95815234375,9.6532734375,7.97688671875,10.01894140625,6.4406484375,4.1826953125,8.40243359375,8.26829296875,13.31100390625,-12.26565625,-2.0523828125,6.8176328125,7.95953515625,5.9549453125,-23.72085546875,5.893546875,4.23568359375,7.5771015625
0.600890625,10.7415625,21.835296875,9.16420703125,5.64606640625,4.90660546875,13.09513671875,25.60733984375,3.49070703125,6.96228515625,6.1833828125,16.10997265625,-1.39415234375,11.4372734375,9.63888671875,11.77094140625,8.7236484375,5.1576953125,9.97043359375,9.67429296875,15.83600390625,-12.08465625,-0.8233828125,8.7276328125,10.23153515625,8.5869453125,-22.79385546875,7.645546875,6.40968359375,9.6281015625
2.506890625,11.9825625,22.907296875,10.91020703125,6.95106640625,4.67760546875,12.75913671875,24.34333984375,4.75870703125,9.04028515625,6.3863828125,15.85297265625,-0.43515234375,14.0752734375,11.34688671875,13.18694140625,10.6546484375,6.8916953125,12.55843359375,11.38629296875,18.46500390625,-11.12565625,1.3766171875,11.6516328125,13.38053515625,11.6839453125,-21.13385546875,10.196546875,9.31168359375,12.8151015625
3.573890625,12.6465625,23.103296875,12.18420703125,7.38306640625,3.78560546875,11.29513671875,22.14133984375,5.94470703125,10.76828515625,5.9543828125,14.27297265625,0.615847656250001,16.8552734375,12.58888671875,13.87294140625,11.5486484375,8.9036953125,15.49843359375,12.87429296875,20.36500390625,-9.60565625,3.9926171875,14.9206328125,16.51553515625,14.5749453125,-19.39785546875,12.966546875,12.33068359375,16.3941015625
3.453890625,12.4375625,22.274296875,12.51620703125,6.84306640625,2.38860546875,9.04013671875,19.25533984375,6.60770703125,11.62128515625,4.8893828125,11.90397265625,1.28284765625,18.8602734375,12.93888671875,13.61794140625,11.0166484375,10.4766953125,17.90643359375,13.60729296875,20.92300390625,-7.93565625,6.2596171875,17.6506328125,18.71053515625,16.6379453125,-18.26185546875,15.297546875,14.85468359375,19.4771015625
2.033890625,11.2225625,20.434296875,11.60920703125,5.38706640625,0.686605468749999,6.43913671875,16.04233984375,6.33470703125,11.16428515625,3.2583828125,9.44497265625,1.09184765625,19.2662734375,12.16788671875,12.42494140625,9.1536484375,10.8806953125,18.95243359375,13.22529296875,19.97100390625,-6.59165625,7.4046171875,19.0476328125,19.32853515625,17.4939453125,-18.27785546875,16.683546875,16.42168359375,21.3311015625
-0.503109375,9.0875625,17.773296875,9.49420703125,3.21506640625,-1.11939453125,3.89413671875,12.92433984375,4.91770703125,9.22428515625,1.1983828125,7.46597265625,-0.230152343749999,17.6532734375,10.29488671875,10.47794140625,6.5116484375,9.6296953125,18.10643359375,11.62729296875,17.79900390625,-5.98965625,6.8476171875,18.6476328125,18.19853515625,17.0839453125,-19.73885546875,16.868546875,16.79068359375,21.5791015625
-3.686109375,6.3485625,14.659296875,6.55820703125,0.65506640625,-2.81939453125,1.68113671875,10.26733984375,2.48670703125,6.01828515625,-1.0596171875,6.22297265625,-2.59315234375,14.1802734375,7.58688671875,8.07294140625,3.8496484375,6.6796953125,15.30043359375,8.98729296875,14.97200390625,-6.39465625,4.3686171875,16.4336328125,15.61253515625,15.6119453125,-22.57385546875,15.851546875,15.93368359375,20.2741015625
-6.884109375,3.4865625,11.582296875,3.42820703125,-1.87893359375,-4.17839453125,-0.0738632812499986,8.24033984375,-0.50929296875,2.17828515625,-3.1746171875,5.63097265625,-5.51915234375,9.5472734375,4.49788671875,5.57294140625,1.8286484375,2.4716953125,10.97843359375,5.70629296875,12.10000390625,-7.87965625,0.206617187499999,12.8116328125,12.17253515625,13.4309453125,-26.41385546875,13.828546875,14.00168359375,17.8321015625
-9.471109375,1.0415625,9.068296875,0.773207031249999,-3.94093359375,-4.94639453125,-1.33886328125,6.77933984375,-3.42629296875,-1.38471484375,-4.7306171875,5.39397265625,-8.28915234375,4.7652734375,1.58688671875,3.37894140625,0.7786484375,-2.1943046875,5.99743359375,2.34829296875,9.65600390625,-10.30165625,-4.9733828125,8.4816328125,8.61353515625,10.9389453125,-30.80185546875,11.124546875,11.28468359375,14.8831015625
-10.933109375,-0.5304375,7.553296875,-0.879792968750001,-5.13293359375,-4.90539453125,-2.11686328125,5.71233984375,-5.63129296875,-3.75871484375,-5.3156171875,5.20897265625,-10.21815234375,0.840273437499999,-0.570113281249998,1.88794140625,0.6596484375,-6.3983046875,1.37943359375,-0.459707031250001,7.92900390625,-13.30165625,-10.2353828125,4.2496328125,5.61353515625,8.5029453125,-35.32985546875,8.107546875,8.16968359375,12.0781015625
-10.967109375,-0.9654375,7.252296875,-1.25579296875,-5.16893359375,-3.93639453125,-2.38686328125,4.91933984375,-6.68629296875,-4.34271484375,-4.6446171875,4.93397265625,-10.92615234375,-1.5237265625,-1.50911328125,1.41194140625,1.1766484375,-9.3713046875,-1.98056640625,-2.15170703125,7.03600390625,-16.34665625,-14.6333828125,0.843632812500001,3.65453515625,6.4169453125,-39.62485546875,5.120546875,5.08268359375,9.8991015625
-9.592109375,-0.2474375,8.083296875,-0.36979296875,-3.92493359375,-2.08439453125,-2.09486328125,4.40533984375,-6.44629296875,-3.05571484375,-2.6976171875,4.63597265625,-10.44415234375,-2.1017265625,-1.01811328125,2.05594140625,1.9786484375,-10.6973046875,-3.55056640625,-2.38270703125,6.95000390625,-18.83865625,-17.4733828125,-1.2313671875,2.93353515625,4.8709453125,-43.35385546875,2.433546875,2.40268359375,8.5481015625
-7.185109375,1.4275625,9.691296875,1.53020703125,-1.46593359375,0.430605468749999,-1.17886328125,4.24933984375,-5.04229296875,-0.33371484375,0.2153828125,4.51197265625,-9.11915234375,-1.1237265625,0.779886718750003,3.64994140625,2.8086484375,-10.3843046875,-3.25856640625,-1.15770703125,7.52400390625,-20.26965625,-18.4763828125,-1.7933671875,3.34153515625,3.9339453125,-46.33385546875,0.241546875000001,0.37268359375,7.9371015625
-4.328109375,3.7385625,11.590296875,4.08020703125,1.95006640625,3.29060546875,0.379136718750001,4.52233984375,-2.77729296875,3.06428515625,3.5163828125,4.75597265625,-7.39815234375,0.9052734375,3.47888671875,5.76394140625,3.5686484375,-8.7773046875,-1.44656640625,1.12829296875,8.51500390625,-20.37165625,-17.7773828125,-1.0023671875,4.51053515625,3.5529453125,-48.58985546875,-1.326453125,-0.93931640625,7.7971015625
-1.572109375,6.3045625,13.336296875,6.89220703125,5.88206640625,6.16260546875,2.49613671875,5.19933984375,-0.0342929687499982,6.32528515625,6.5273828125,5.44097265625,-5.64215234375,3.4242734375,6.51588671875,7.83894140625,4.2686484375,-6.3873046875,1.27543359375,3.78329296875,9.63700390625,-19.19065625,-15.7903828125,0.6946328125,5.93253515625,3.5669453125,-50.26885546875,-2.199453125,-1.62931640625,7.8211015625
0.700890625,8.7395625,14.629296875,9.58720703125,9.73106640625,8.74260546875,4.94413671875,6.10333984375,2.78170703125,8.80128515625,8.6733828125,6.45797265625,-4.06215234375,5.9472734375,9.31988671875,9.36394140625,4.9256484375,-3.7133046875,4.21143359375,6.02029296875,10.60700390625,-17.05865625,-13.0143828125,2.7156328125,7.09453515625,3.7469453125,-51.52985546875,-2.370453125,-1.89731640625,7.7631015625
2.264890625,10.6865625,15.329296875,11.79620703125,12.83406640625,10.74760546875,7.35313671875,6.91933984375,5.27070703125,10.11628515625,9.6223828125,7.53397265625,-2.75115234375,8.1012734375,11.41588671875,10.01694140625,5.4766484375,-1.1193046875,6.75243359375,7.21429296875,11.18500390625,-14.46965625,-9.8873828125,4.5116328125,7.62053515625,3.8589453125,-52.55185546875,-1.917453125,-1.97631640625,7.4661015625
3.031890625,11.8715625,15.426296875,13.20920703125,14.63306640625,11.93460546875,9.28613671875,7.32233984375,7.10370703125,10.18828515625,9.3543828125,8.32197265625,-1.73615234375,9.6432734375,12.52488671875,9.74294140625,5.7736484375,1.2056953125,8.50943359375,7.10429296875,11.23100390625,-11.90865625,-6.7243828125,5.7096328125,7.37853515625,3.7489453125,-53.54685546875,-0.993453124999999,-2.04331640625,6.8661015625
3.093890625,12.1975625,15.015296875,13.69020703125,14.89806640625,12.20760546875,10.37913671875,7.16533984375,8.11870703125,9.23228515625,8.1683828125,8.55297265625,-0.99715234375,10.5072734375,12.65088671875,8.75394140625,5.6636484375,3.2396953125,9.37943359375,5.88729296875,10.77200390625,-9.69765625,-3.7313828125,6.1966328125,6.53053515625,3.4149453125,-54.63285546875,0.211546875000001,-2.15131640625,6.0131015625
2.740890625,11.8105625,14.300296875,13.37120703125,13.87206640625,11.72660546875,10.51813671875,6.57333984375,8.37970703125,7.73228515625,6.6223828125,8.18597265625,-0.45515234375,10.8232734375,12.11288671875,7.49394140625,5.1166484375,5.0746953125,9.56043359375,4.15029296875,10.04300390625,-7.92365625,-1.0283828125,6.1486328125,5.51353515625,3.0389453125,-55.65585546875,1.552546875,-2.17531640625,5.0911015625
2.373890625,11.0965625,13.579296875,12.63020703125,12.21706640625,10.92960546875,9.93213671875,5.88733984375,8.15970703125,6.33328515625,5.3823828125,7.47297265625,0.0178476562500003,10.8812734375,11.44488671875,6.51694140625,4.3036484375,6.8336953125,9.47243359375,2.66829296875,9.43200390625,-6.49165625,1.3256171875,5.9746328125,4.90353515625,2.9269453125,-56.22685546875,2.982546875,-1.85931640625,4.4091015625
2.372890625,10.5305625,13.169296875,11.94820703125,10.74506640625,10.37960546875,9.12513671875,5.49333984375,7.82670703125,5.64328515625,4.9843828125,6.85397265625,0.550847656250001,10.9952734375,11.17388671875,6.28694140625,3.5236484375,8.5806953125,9.57243359375,2.10229296875,9.32100390625,-5.24865625,3.3126171875,6.1436328125,5.17153515625,3.3519453125,-55.96685546875,4.535546875,-0.93731640625,4.2911015625
2.988890625,10.4585625,13.287296875,11.72720703125,10.07406640625,10.51860546875,8.64413671875,5.64333984375,7.69570703125,5.99728515625,5.6043828125,6.73497265625,1.20884765625,11.3502734375,11.57488671875,6.94894140625,3.0226484375,10.2806953125,10.12243359375,2.71529296875,9.87000390625,-4.13165625,4.9296171875,6.9336328125,6.43953515625,4.3769453125,-54.74785546875,6.234546875,0.70368359375,4.9351015625
4.253890625,10.9275625,13.935296875,12.14320703125,10.39006640625,11.44960546875,8.81413671875,6.33833984375,7.91570703125,7.32128515625,6.9623828125,7.25597265625,1.98084765625,11.8972734375,12.51688671875,8.23594140625,2.8086484375,11.7996953125,11.05143359375,4.25729296875,10.88800390625,-3.21165625,6.1596171875,8.2696328125,8.37753515625,5.7519453125,-52.76985546875,8.001546875,2.92668359375,6.2991015625
5.915890625,11.6905625,14.873296875,13.13320703125,11.42306640625,12.86560546875,9.56713671875,7.31633984375,8.46070703125,9.17228515625,8.4463828125,8.20197265625,2.81384765625,12.3862734375,13.51288671875,9.58094140625,2.6266484375,12.9886953125,12.01543359375,6.08329296875,11.89000390625,-2.62865625,6.9776171875,9.7456328125,10.33953515625,7.0069453125,-50.53485546875,9.674546875,5.36468359375,8.1051015625
7.505890625,12.3595625,15.723296875,14.47220703125,12.63706640625,14.18860546875,10.47513671875,8.18733984375,9.18570703125,10.93928515625,9.3743828125,9.10297265625,3.65484765625,12.5222734375,13.95988671875,10.37894140625,2.1206484375,13.7756953125,12.61043359375,7.45629296875,12.34000390625,-2.44065625,7.3706171875,10.8356328125,11.65653515625,7.6709453125,-48.71685546875,11.097546875,7.55468359375,9.9431015625
8.549890625,12.6145625,16.170296875,15.91020703125,13.49206640625,14.83960546875,10.95713671875,8.62533984375,9.94170703125,12.08528515625,9.2903828125,9.46497265625,4.47684765625,12.1662734375,13.45688671875,10.25494140625,1.0906484375,14.2456953125,12.60743359375,7.87829296875,11.93500390625,-2.52665625,7.3826171875,11.1616328125,11.94853515625,7.5259453125,-47.91585546875,12.190546875,9.10568359375,11.4271015625
8.819890625,12.3655625,16.137296875,17.27820703125,13.68106640625,14.51160546875,10.57213671875,8.52133984375,10.65270703125,12.34328515625,8.1233828125,8.99997265625,5.29484765625,11.4332734375,12.01788671875,9.20594140625,-0.3483515625,14.6176953125,12.06943359375,7.28529296875,10.77100390625,-2.62765625,7.1226171875,10.6626328125,11.25653515625,6.7289453125,-48.36585546875,12.942546875,9.81268359375,12.3151015625
8.421890625,11.7855625,15.813296875,18.52020703125,13.25306640625,13.31360546875,9.24913671875,7.96533984375,11.33570703125,11.79128515625,6.1853828125,7.75997265625,6.17584765625,10.6432734375,10.05488671875,7.57594140625,-1.7943515625,15.1396953125,11.31243359375,6.03029296875,9.29200390625,-2.49865625,6.7336171875,9.6066328125,9.96953515625,5.7469453125,-49.86485546875,13.332546875,9.66868359375,12.5431015625
7.737890625,11.2275625,15.548296875,19.68620703125,12.58306640625,11.72660546875,7.34213671875,7.15733984375,12.08070703125,10.79728515625,4.0423828125,6.10197265625,7.25184765625,10.1632734375,8.17788671875,5.88394140625,-2.7693515625,15.9626953125,10.73443359375,4.67629296875,8.04600390625,-2.06965625,6.3266171875,8.4456328125,8.59453515625,5.1289453125,-51.98385546875,13.298546875,8.82768359375,12.2081015625
7.302890625,11.0685625,15.679296875,20.88620703125,12.22106640625,10.41360546875,5.47513671875,6.31233984375,13.00070703125,9.89328515625,2.3203828125,4.54097265625,8.67384765625,10.2662734375,6.95888671875,4.61594140625,-2.9523515625,17.0636953125,10.63343359375,3.73329296875,7.42600390625,-1.48565625,5.9386171875,7.5946328125,7.50753515625,5.2699453125,-54.31685546875,12.767546875,7.54468359375,11.5231015625
7.645890625,11.5325625,16.384296875,22.22220703125,12.64706640625,9.95360546875,4.26513671875,5.64033984375,14.17470703125,9.58128515625,1.5033828125,3.54997265625,10.50784765625,11.0322734375,6.74188671875,4.05094140625,-2.3113515625,18.2586953125,11.08643359375,3.45529296875,7.51700390625,-1.02265625,5.5376171875,7.2566328125,6.82353515625,6.2679453125,-56.57585546875,11.734546875,6.12068359375,10.7601015625
9.034890625,12.5925625,17.614296875,23.66720703125,14.02606640625,10.60460546875,4.06613671875,5.33133984375,15.57870703125,10.15028515625,1.7933828125,3.41297265625,12.62084765625,12.3122734375,7.54788671875,4.21194140625,-1.0993515625,19.2666953125,11.93443359375,3.79329296875,8.11400390625,-0.94465625,5.0606171875,7.3666328125,6.43353515625,7.9249453125,-58.56985546875,10.296546875,4.82768359375,10.1801015625
11.259890625,13.9695625,19.107296875,24.99620703125,16.08306640625,12.19960546875,4.85213671875,5.53733984375,17.05370703125,11.53728515625,3.0493828125,4.14797265625,14.66384765625,13.7592734375,9.06888671875,4.91994140625,0.2786484375,19.7876953125,12.84843359375,4.47529296875,8.88100390625,-1.37765625,4.4596171875,7.6606328125,6.14453515625,9.8609453125,-60.23085546875,8.640546875,3.82968359375,9.9501015625
13.660890625,15.2465625,20.488296875,25.81920703125,18.17806640625,14.22360546875,6.25913671875,6.32333984375,18.32770703125,13.32228515625,4.8443828125,5.53897265625,16.19284765625,14.9382734375,10.77188671875,5.89594140625,1.4346484375,19.6176953125,13.45343359375,5.15829296875,9.52300390625,-2.23565625,3.7226171875,7.8206328125,5.82253515625,11.6629453125,-61.62185546875,7.005546875,3.16268359375,10.0971015625
15.416890625,16.0255625,21.407296875,25.74220703125,19.57306640625,16.02560546875,7.75313671875,7.61533984375,19.09970703125,14.86128515625,6.6093828125,7.21497265625,16.87584765625,15.4882734375,12.07188671875,6.85394140625,2.1236484375,18.7366953125,13.44443359375,5.56529296875,9.89800390625,-3.21265625,2.8936171875,7.6106328125,5.45253515625,13.0129453125,-62.82785546875,5.632546875,2.78368359375,10.5241015625
15.912890625,16.0575625,21.636296875,24.55520703125,19.73506640625,17.04660546875,8.82413671875,9.15733984375,19.15470703125,15.51628515625,7.7973828125,8.75297265625,16.67984765625,15.2252734375,12.48988671875,7.56594140625,2.2856484375,17.3386953125,12.68643359375,5.55729296875,10.01600390625,-3.87565625,2.0626171875,6.9586328125,5.09953515625,13.7669453125,-63.83385546875,4.717546875,2.63868359375,11.0681015625
14.941890625,15.3105625,21.120296875,22.34320703125,18.54406640625,16.97960546875,9.15013671875,10.54833984375,18.44370703125,14.88228515625,8.0343828125,9.77697265625,15.89684765625,14.1512734375,11.76588671875,7.89094140625,1.9936484375,15.7416953125,11.24143359375,5.12729296875,9.95700390625,-3.86365625,1.3306171875,5.9536328125,4.82553515625,13.9709453125,-64.59085546875,4.330546875,2.68768359375,11.5761015625
12.724890625,13.9415625,19.963296875,19.46520703125,16.30206640625,15.82760546875,8.65613671875,11.39333984375,17.11470703125,12.92128515625,7.2003828125,10.03797265625,14.97284765625,12.3872734375,9.90688671875,7.77994140625,1.3776484375,14.2386953125,9.31643359375,4.34229296875,9.78000390625,-3.09765625,0.726617187499999,4.7506328125,4.62653515625,13.8009453125,-65.18785546875,4.359546875,2.88168359375,11.9521015625
9.798890625,12.2085625,18.370296875,16.43220703125,13.57106640625,13.88560546875,7.48513671875,11.47233984375,15.46070703125,9.95328515625,5.4573828125,9.45797265625,14.25984765625,10.1222734375,7.18988671875,7.24494140625,0.5646484375,12.9626953125,7.16043359375,3.26829296875,9.46100390625,-1.86665625,0.159617187499999,3.4606328125,4.41553515625,13.4599453125,-65.89585546875,4.530546875,3.13068359375,12.1811015625
6.790890625,10.3825625,16.584296875,13.72020703125,10.91806640625,11.64460546875,5.92313671875,10.79933984375,13.81370703125,6.53328515625,3.1973828125,8.15397265625,13.83784765625,7.5772734375,4.10988671875,6.34694140625,-0.3343515625,11.8586953125,4.97943359375,1.94829296875,8.90300390625,-0.705656249999999,-0.551382812500001,2.1016328125,4.06653515625,13.0939453125,-66.99885546875,4.525546875,3.31968359375,12.3171015625
4.163890625,8.6955625,14.838296875,11.62620703125,8.70606640625,9.63860546875,4.32413671875,9.58333984375,12.43170703125,3.27028515625,0.9523828125,6.42197265625,13.52784765625,5.0092734375,1.26488671875,5.19394140625,-1.2103515625,10.7626953125,2.93243359375,0.44029296875,8.01900390625,-0.12365625,-1.5723828125,0.648632812500001,3.50153515625,12.7789453125,-68.61285546875,4.157546875,3.34868359375,12.4521015625
2.096890625,7.3335625,13.352296875,10.22620703125,7.02306640625,8.28560546875,3.04913671875,8.14133984375,11.43870703125,0.66628515625,-0.7466171875,4.68297265625,13.05984765625,2.7052734375,-0.773113281249998,3.96594140625,-1.9383515625,9.5366953125,1.16943359375,-1.10370703125,6.84400390625,-0.32865625,-2.9203828125,-0.858367187499999,2.77653515625,12.5659453125,-70.61985546875,3.467546875,3.19168359375,12.6821015625
0.579890625,6.4405625,12.345296875,9.44420703125,5.76806640625,7.80160546875,2.38513671875,6.85333984375,10.84170703125,-0.96771484375,-1.5146171875,3.38097265625,12.26884765625,0.9722734375,-1.57911328125,2.90894140625,-2.3763515625,8.1786953125,-0.133566406249999,-2.40370703125,5.60600390625,-1.12465625,-4.4003828125,-2.2313671875,2.11853515625,12.5359453125,-72.66785546875,2.710546875,2.92968359375,13.0951015625
-0.420109375,6.0965625,12.004296875,9.14520703125,4.80806640625,8.18860546875,2.45713671875,6.09633984375,10.58770703125,-1.52771484375,-1.2176171875,2.85797265625,11.21084765625,0.0692734374999979,-0.994113281249998,2.29594140625,-2.3823515625,6.8516953125,-0.78956640625,-3.10170703125,4.68600390625,-2.02965625,-5.6293828125,-3.1443671875,1.87553515625,12.8139453125,-74.20085546875,2.209546875,2.73568359375,13.7541015625
-0.899109375,6.3065625,12.416296875,9.19620703125,4.12106640625,9.28060546875,3.18813671875,6.11833984375,10.61970703125,-1.09971484375,0.00338281249999994,3.24197265625,10.13784765625,0.113273437499998,0.801886718750001,2.36594140625,-1.8533515625,5.7926953125,-0.655566406249999,-2.88970703125,4.48100390625,-2.53665625,-6.1683828125,-3.2373671875,2.39753515625,13.5289453125,-74.64285546875,2.205546875,2.82068359375,14.6691015625
-0.874109375,7.0035625,13.488296875,9.50020703125,3.83106640625,10.81960546875,4.34013671875,6.92533984375,10.90170703125,0.0772851562499994,1.7973828125,4.41997265625,9.36684765625,1.0132734375,3.30988671875,3.24894140625,-0.7533515625,5.1956953125,0.309433593750001,-1.62970703125,5.23600390625,-2.37165625,-5.6823828125,-2.2653671875,3.90353515625,14.7549453125,-73.72485546875,2.782546875,3.35668359375,15.7911015625
-0.405109374999999,8.0565625,14.944296875,10.02720703125,4.13506640625,12.53160546875,5.61413671875,8.27833984375,11.42270703125,1.64828515625,3.7243828125,6.09497265625,9.13384765625,2.4942734375,5.88688671875,4.90794140625,0.8356484375,5.1366953125,1.99843359375,0.56529296875,6.93100390625,-1.58665625,-4.0833828125,-0.2443671875,6.37153515625,16.4459453125,-71.69185546875,3.885546875,4.41068359375,17.0161015625
0.416890625,9.2955625,16.401296875,10.81120703125,5.15706640625,14.18660546875,6.75413671875,9.81733984375,12.16070703125,3.21228515625,5.3883828125,7.88997265625,9.48684765625,4.1872734375,7.96288671875,7.10494140625,2.6936484375,5.5756953125,4.15443359375,3.33329296875,9.26700390625,-0.496656249999999,-1.5763828125,2.5096328125,9.50953515625,18.3869453125,-69.18885546875,5.373546875,5.90468359375,18.2111015625
1.447890625,10.5325625,17.494296875,11.89320703125,6.83006640625,15.62560546875,7.60413671875,11.21533984375,13.03070703125,4.41028515625,6.5303828125,9.44797265625,10.28784765625,5.7452734375,9.23088671875,9.43594140625,4.4586484375,6.3986953125,6.43043359375,6.15929296875,11.73400390625,0.49134375,1.3916171875,5.4536328125,12.82653515625,20.2049453125,-66.94685546875,7.046546875,7.60468359375,19.2411015625
2.476890625,11.6165625,18.026296875,13.25320703125,8.89906640625,16.79060546875,8.15313671875,12.28933984375,13.88570703125,5.06228515625,7.1133828125,10.52697265625,11.29684765625,6.9672734375,9.72488671875,11.45794140625,5.7036484375,7.4816953125,8.53543359375,8.54129296875,13.77500390625,1.06334375,4.2936171875,8.0316328125,15.77253515625,21.4619453125,-65.52085546875,8.644546875,9.17368359375,19.9951015625
3.327890625,12.5255625,18.098296875,14.80820703125,11.07006640625,17.78760546875,8.54213671875,13.03733984375,14.63270703125,5.29028515625,7.3593828125,11.06097265625,12.29284765625,7.9142734375,9.82688671875,12.86594140625,6.0886484375,8.7826953125,10.37143359375,10.18029296875,14.99100390625,1.14634375,6.7396171875,9.9016328125,17.91253515625,21.8199453125,-65.15085546875,9.891546875,10.30168359375,20.4201015625
4.040890625,13.4035625,18.123296875,16.48220703125,13.18906640625,18.91960546875,9.04413671875,13.58133984375,15.34970703125,5.53528515625,7.7163828125,11.18497265625,13.19084765625,8.9432734375,10.16288671875,13.61594140625,5.5196484375,10.3966953125,12.09843359375,11.08829296875,15.30100390625,0.965343750000001,8.6396171875,11.0936328125,19.06353515625,21.1869453125,-65.66685546875,10.598546875,10.85468359375,20.5561015625
4.908890625,14.5125625,18.659296875,18.24820703125,15.32306640625,20.58760546875,9.95113671875,14.04133984375,16.30270703125,6.39728515625,8.6873828125,11.17297265625,14.08884765625,10.5652734375,11.36088671875,13.91894140625,4.2326484375,12.5216953125,14.02243359375,11.53929296875,14.93800390625,0.957343750000001,10.2196171875,11.9656328125,19.32953515625,19.7639453125,-66.53585546875,10.774546875,10.94368359375,20.5131015625
6.272890625,16.0775625,20.101296875,20.07320703125,17.65306640625,23.07160546875,11.41713671875,14.39733984375,17.78870703125,8.33728515625,10.5783828125,11.30697265625,15.20084765625,13.1402734375,13.73688671875,14.09194140625,2.7166484375,15.2886953125,16.38243359375,11.87329296875,14.29200390625,1.55234375,11.8426171875,12.9826328125,19.01853515625,17.9489453125,-67.14785546875,10.650546875,10.85068359375,20.4261015625
8.230890625,18.1005625,22.395296875,21.82620703125,20.28206640625,26.29260546875,13.32413671875,14.50333984375,19.91770703125,11.38828515625,13.2913828125,11.71997265625,16.69784765625,16.5992734375,17.06788671875,14.36494140625,1.5066484375,18.5636953125,19.12143359375,12.27729296875,13.68200390625,2.93534375,13.7296171875,14.4376328125,18.47353515625,16.1749453125,-67.20085546875,10.576546875,10.85968359375,20.3851015625
10.475890625,20.2745625,24.962296875,23.23320703125,23.07306640625,29.74860546875,15.25613671875,14.23433984375,22.47170703125,15.05128515625,16.2853828125,12.31897265625,18.52584765625,20.3542734375,20.61188671875,14.74594140625,0.9476484375,21.8536953125,21.80043359375,12.67629296875,13.21400390625,4.90734375,15.7566171875,16.2496328125,17.89353515625,14.7549453125,-66.86985546875,10.838546875,11.10568359375,20.3951015625
12.356890625,22.0505625,26.902296875,23.93920703125,25.62506640625,32.64360546875,16.63813671875,13.64433984375,24.92270703125,18.43528515625,18.7543828125,12.83097265625,20.33284765625,23.4682734375,23.35688671875,15.03694140625,1.0666484375,24.3896953125,23.73343359375,12.79429296875,12.79600390625,6.93334375,17.4626171875,17.9976328125,17.28353515625,13.8299453125,-66.64885546875,11.498546875,11.50868359375,20.3811015625
13.106890625,22.8625625,27.388296875,23.65320703125,27.38606640625,34.18260546875,16.98013671875,12.96633984375,26.60470703125,20.57428515625,19.9453828125,12.96197265625,21.56284765625,25.0092734375,24.40688671875,14.97494140625,1.6376484375,25.4156953125,24.28843359375,12.35229296875,12.28800390625,8.36334375,18.2826171875,19.1506328125,16.54253515625,13.3959453125,-67.07885546875,12.339546875,11.82168359375,20.2321015625
12.185890625,22.3875625,26.068296875,22.30520703125,27.86906640625,33.88360546875,16.10813671875,12.49033984375,26.97070703125,20.80428515625,19.4703828125,12.59297265625,21.70884765625,24.4472734375,23.34788671875,14.42794140625,2.3586484375,24.5246953125,23.21543359375,11.28329296875,11.66600390625,8.71834375,17.8696171875,19.3636328125,15.62253515625,13.3729453125,-68.53285546875,12.982546875,11.75068359375,19.8811015625
9.621890625,20.7155625,23.253296875,20.14220703125,26.85706640625,31.79260546875,14.26113671875,12.41533984375,25.82970703125,19.02828515625,17.4753828125,11.86297265625,20.55984765625,21.9162734375,20.42788671875,13.50094140625,3.0336484375,21.8946953125,20.78143359375,9.81329296875,11.09000390625,7.89434375,16.3006171875,18.6636328125,14.63653515625,13.6509453125,-71.03685546875,13.082546875,11.11068359375,19.3701015625
6.091890625,18.3195625,19.797296875,17.67620703125,24.49806640625,28.49660546875,12.00213671875,12.78533984375,23.44270703125,15.77728515625,14.5713828125,11.11297265625,18.32284765625,18.1912734375,16.47588671875,12.51094140625,3.6506484375,18.2816953125,17.68043359375,8.37629296875,10.84400390625,6.19234375,14.0576171875,17.4296328125,13.84353515625,14.1049453125,-74.12885546875,12.532546875,9.92668359375,18.8641015625
2.643890625,15.8845625,16.745296875,15.49420703125,21.26906640625,24.91960546875,9.99813671875,13.48633984375,20.43970703125,12.02628515625,11.6073828125,10.71197265625,15.55284765625,14.3812734375,12.57788671875,11.85094140625,4.3316484375,14.7466953125,14.76443359375,7.42029296875,11.18300390625,4.17634375,11.8196171875,16.2086328125,13.54653515625,14.5999453125,-76.91385546875,11.529546875,8.45168359375,18.5881015625
0.230890625,14.0615625,14.934296875,14.02920703125,17.81106640625,22.00260546875,8.78513671875,14.31333984375,17.60570703125,8.87628515625,9.3673828125,10.88697265625,12.94484765625,11.5022734375,9.67688671875,11.82994140625,5.2256484375,12.2656953125,12.74243359375,7.22429296875,12.20700390625,2.45534375,10.1976171875,15.4696328125,13.95253515625,15.0009453125,-78.42885546875,10.489546875,7.07068359375,18.7051015625
-0.642109375,13.2615625,14.742296875,13.43420703125,14.74406640625,20.40660546875,8.61713671875,15.07833984375,15.61970703125,7.17828515625,8.3323828125,11.63697265625,11.08284765625,10.1372734375,8.28088671875,12.54394140625,6.4106484375,11.3846953125,11.95243359375,7.80229296875,13.80500390625,1.47334375,9.5236171875,15.4136328125,15.06353515625,15.1959453125,-78.11085546875,9.828546875,6.14668359375,19.2131015625
-0.0181093749999999,13.5375625,16.027296875,13.59320703125,12.51106640625,20.33360546875,9.41013671875,15.68933984375,14.84970703125,7.25128515625,8.5463828125,12.76397265625,10.26984765625,10.2882734375,8.35988671875,13.81894140625,7.8316484375,12.0626953125,12.26443359375,8.89429296875,15.69100390625,1.36834375,9.7676171875,15.9006328125,16.63253515625,15.1139453125,-76.11185546875,9.752546875,5.86368359375,19.9191015625
1.580890625,14.5875625,18.229296875,14.22420703125,11.29106640625,21.47560546875,10.77613671875,16.13433984375,15.25470703125,8.75028515625,9.6033828125,13.95697265625,10.47084765625,11.4262734375,9.40488671875,15.23894140625,9.2986484375,13.7386953125,13.13943359375,10.03329296875,17.47100390625,1.94034375,10.5736171875,16.5316328125,18.21453515625,14.7339453125,-73.40185546875,10.148546875,6.13868359375,20.5041015625
3.334890625,15.8765625,20.572296875,15.01420703125,11.00906640625,23.12760546875,12.13613671875,16.39633984375,16.43870703125,10.79528515625,10.7773828125,14.88697265625,11.40684765625,12.7052734375,10.62588671875,16.24294140625,10.5206484375,15.5936953125,13.83043359375,10.67629296875,18.73300390625,2.75234375,11.3966171875,16.8176328125,19.28753515625,14.0789453125,-71.66685546875,10.650546875,6.63768359375,20.6401015625
4.416890625,16.8405625,22.331296875,15.73520703125,11.42506640625,24.44960546875,12.90513671875,16.43933984375,17.86970703125,12.32228515625,11.2753828125,15.27897265625,12.72284765625,13.2772734375,11.23388671875,16.29794140625,11.1906484375,16.8736953125,13.66043359375,10.36729296875,19.13200390625,3.33434375,11.7106171875,16.3736328125,19.42853515625,13.1929453125,-72.90685546875,10.829546875,6.92468359375,20.1111015625
4.338890625,17.1055625,23.086296875,16.30720703125,12.26406640625,24.82760546875,12.70213671875,16.25833984375,19.12070703125,12.54228515625,10.5493828125,14.98797265625,14.13284765625,12.6272734375,10.74588671875,15.09994140625,11.1086484375,17.1696953125,12.26643359375,8.89729296875,18.50600390625,3.38734375,11.2026171875,15.0466328125,18.45053515625,12.1259453125,-78.62085546875,10.403546875,6.66568359375,18.8851015625
3.134890625,16.6235625,22.858296875,16.77220703125,13.31106640625,24.13160546875,11.52413671875,15.91433984375,20.03070703125,11.29328515625,8.5513828125,14.06697265625,15.49784765625,10.7602734375,9.16188671875,12.72294140625,10.2976484375,16.5206953125,9.72843359375,6.39629296875,16.96500390625,2.89634375,9.8926171875,12.9516328125,16.48553515625,10.9299453125,-88.90385546875,9.351546875,5.79168359375,17.1011015625
1.283890625,15.6825625,22.063296875,17.21320703125,14.43106640625,22.75560546875,9.75613671875,15.50033984375,20.69670703125,9.09928515625,5.7633828125,12.77997265625,16.80684765625,8.1692734375,6.93288671875,9.64294140625,9.0366484375,15.3296953125,6.52943359375,3.31029296875,14.89400390625,2.07734375,8.1066171875,10.4266328125,13.95653515625,9.6639453125,-102.07185546875,7.901546875,4.51868359375,15.0211015625
1.283890625,15.6825625,22.063296875,17.21320703125,14.43106640625,22.75560546875,9.75613671875,15.50033984375,20.69670703125,9.09928515625,5.7633828125,12.77997265625,16.80684765625,8.1692734375,6.93288671875,9.64294140625,9.0366484375,15.3296953125,6.52943359375,3.31029296875,14.89400390625,2.07734375,8.1066171875,10.4266328125,13.95653515625,9.6639453125,-102.07185546875,7.901546875,4.51868359375,15.0211015625
