"Fp1","Fpz","Fp2","F7","F3","Fz","F4","F8","FC5","FC1","FC2","FC6","T7","C3","Cz","C4","T8","CP5","CP1","CP2","CP6","P7","P3","Pz","P4","P8","POz","O1","Oz","O2"
-0.2934453125,5.14441015625,4.90746875,1.132,5.2037890625,4.1288359375,9.82251171875,1.7360625,7.915984375,10.90820703125,9.782125,4.65539453125,5.92983203125,14.05372265625,15.38532421875,6.91509765625,-14.979578125,2.82876953125,13.962328125,14.25624609375,-27.40731640625,18.84545703125,13.4593671875,11.61935546875,-1.9812578125,-10.16651171875,14.319546875,-8.884640625,15.5100078125,2.58934375
-1.0154453125,7.22141015625,9.36446875,3.759,11.9177890625,8.0828359375,14.79551171875,7.4210625,11.461984375,15.18420703125,12.953125,9.15339453125,8.08783203125,17.12872265625,18.16132421875,10.41609765625,-7.304578125,5.81676953125,17.495328125,18.63824609375,-19.77131640625,21.43345703125,19.9273671875,16.65635546875,4.5457421875,-3.19351171875,21.354546875,-1.848640625,25.7300078125,14.30834375
-1.3354453125,8.63941015625,12.57046875,5.442,17.1187890625,11.3618359375,18.33851171875,11.6170625,13.781984375,18.97420703125,15.522125,12.18839453125,10.24083203125,19.92372265625,20.67632421875,13.14709765625,-2.947578125,8.64876953125,20.662328125,21.92324609375,-13.73131640625,23.66045703125,24.0563671875,20.76735546875,9.5707421875,1.27648828125,26.641546875,3.790359375,32.6990078125,22.60034375
-0.7094453125,9.21741015625,14.09746875,6.099,20.5937890625,13.7858359375,20.16151171875,14.1800625,14.923984375,22.05720703125,17.379125,13.61739453125,12.25683203125,22.33972265625,22.87432421875,15.00109765625,-1.848578125,11.29276953125,23.366328125,24.02424609375,-9.62631640625,25.41545703125,25.7463671875,23.75335546875,12.7737421875,3.06148828125,29.675546875,7.723359375,35.8380078125,27.02534375
1.2475546875,9.04241015625,13.80546875,5.939,22.4547890625,15.3028359375,20.37351171875,15.3080625,15.267984375,24.23820703125,18.571125,13.72839453125,13.86983203125,24.23372265625,24.69932421875,16.08309765625,-2.930578125,13.66776953125,25.494328125,25.13624609375,-7.40331640625,26.58045703125,25.4953671875,25.52135546875,14.1657421875,2.75148828125,30.220546875,9.807359375,35.3090078125,27.97334375
4.3025546875,8.46741015625,11.96146875,5.329,23.0027890625,15.9548359375,19.42551171875,15.3520625,15.227984375,25.37720703125,19.227125,13.04539453125,14.68983203125,25.36272265625,26.04032421875,16.60409765625,-4.760578125,15.56976953125,26.851328125,25.52924609375,-6.70131640625,27.00045703125,23.9863671875,25.97735546875,14.0007421875,1.39248828125,28.258546875,9.967359375,31.7820078125,26.32234375
7.4715546875,7.95141015625,9.26346875,4.615,22.6207890625,15.8578359375,17.99551171875,14.6850625,15.030984375,25.43020703125,19.460125,12.10439453125,14.29483203125,25.43172265625,26.71132421875,16.75409765625,-6.185578125,16.70176953125,27.149328125,25.35824609375,-6.99031640625,26.52645703125,21.7613671875,25.00135546875,12.6547421875,0.04948828125,23.970546875,8.236359375,26.1680078125,23.10434375
9.3915546875,7.85241015625,6.64546875,4.008,21.6737890625,15.1628359375,16.79151171875,13.6290625,14.666984375,24.48720703125,19.310125,11.31239453125,12.43483203125,24.21872265625,26.50732421875,16.63109765625,-6.658578125,16.79076953125,26.118328125,24.59524609375,-7.72931640625,25.11645703125,19.1283671875,22.54735546875,10.5287421875,-0.54251171875,17.762546875,4.906359375,19.4370078125,19.26934375
9.0455546875,8.29141015625,4.90446875,3.587,20.3717890625,13.9988359375,16.30451171875,12.4200625,13.994984375,22.73720703125,18.740125,10.90739453125,9.23383203125,21.71772265625,25.27632421875,16.24509765625,-6.225578125,15.73676953125,23.658328125,23.10624609375,-8.51531640625,22.92045703125,16.2453671875,18.76935546875,7.9747421875,-0.14751171875,10.276546875,0.604359375,12.4680078125,15.49934375
6.3785546875,9.09941015625,4.36846875,3.35,18.6907890625,12.4168359375,16.60051171875,11.2050625,12.893984375,20.38920703125,17.653125,10.95139453125,5.26283203125,18.18772265625,22.98132421875,15.54609765625,-5.321578125,13.69576953125,19.948328125,20.79124609375,-9.16831640625,20.26845703125,13.2313671875,14.05435546875,5.2357421875,0.97448828125,2.317546875,-3.832640625,5.9340078125,12.07634375
2.4115546875,9.83741015625,4.79646875,3.256,16.4297890625,10.3808359375,17.27251171875,10.0880625,11.385984375,17.59720703125,15.924125,11.29739453125,1.36683203125,14.10472265625,19.72332421875,14.44609765625,-4.518578125,11.04476953125,15.427328125,17.68324609375,-9.76231640625,17.55945703125,10.1953671875,8.94035546875,2.4057421875,2.22648828125,-5.316453125,-7.655640625,0.239007812499999,8.87034375
-1.2004453125,9.89541015625,5.51846875,3.21,13.4317890625,7.8248359375,17.58351171875,9.1430625,9.652984375,14.47020703125,13.448125,11.57939453125,-1.67616796875,10.04072265625,15.76132421875,12.84509765625,-4.331578125,8.22676953125,10.685328125,13.98624609375,-10.54231640625,15.11845703125,7.2173671875,3.96735546875,-0.5182578125,2.96848828125,-11.992453125,-10.467640625,-4.4439921875,5.58334375
-2.9194453125,8.73441015625,5.73646875,3.046,9.8167890625,4.7578359375,16.78751171875,8.3570625,7.971984375,11.15520703125,10.251125,11.30939453125,-3.48116796875,6.51272265625,11.53932421875,10.70609765625,-5.070578125,5.57776953125,6.335328125,10.07024609375,-11.75231640625,13.10945703125,4.3393671875,-0.40164453125,-3.4772578125,2.88648828125,-17.275453125,-12.273640625,-8.0189921875,2.16034375
-2.0364453125,6.21041015625,4.85846875,2.586,6.0727890625,1.3898359375,14.51051171875,7.5940625,6.610984375,7.95320703125,6.622125,10.11939453125,-4.15016796875,3.89472265625,7.70232421875,8.17309765625,-6.716578125,3.23376953125,2.922328125,6.44824609375,-13.41631640625,11.55245703125,1.6293671875,-3.76864453125,-6.1902578125,2.22248828125,-20.849453125,-13.283640625,-10.2799921875,-0.870656250000001
0.9695546875,2.78641015625,2.77546875,1.749,2.9267890625,-1.8111640625,11.00651171875,6.6490625,5.750984375,5.32020703125,3.131125,7.99539453125,-4.09816796875,2.36072265625,5.00132421875,5.60609765625,-8.876578125,1.19076953125,0.848328125,3.70224609375,-15.26331640625,10.39745703125,-0.7596328125,-5.79064453125,-8.1382578125,1.66248828125,-22.457453125,-13.659640625,-10.8819921875,-2.49565625
4.5675546875,-0.572589843749999,-0.0405312499999999,0.63,1.0477890625,-4.2361640625,7.09351171875,5.3760625,5.416984375,3.72120703125,0.445124999999999,5.33239453125,-3.79016796875,1.86072265625,4.02232421875,3.45309765625,-10.901578125,-0.570230468750001,0.276328124999999,2.28324609375,-16.87531640625,9.54645703125,-2.5996328125,-6.25164453125,-8.8252578125,1.85048828125,-21.966453125,-13.462640625,-9.5929921875,-1.86165625
6.7675546875,-2.82158984375,-2.69153125,-0.546,0.727789062500001,-5.4141640625,3.78251171875,3.7710625,5.440984375,3.37720703125,-0.984875000000001,2.73439453125,-3.56916796875,2.09772265625,4.86632421875,2.01009765625,-12.203578125,-2.00623046875,1.033328125,2.27924609375,-17.98631640625,8.81145703125,-3.7286328125,-5.22464453125,-8.1272578125,2.84448828125,-19.528453125,-12.805640625,-6.6659921875,0.93834375
5.9805546875,-3.32458984375,-4.23753125,-1.527,1.7757890625,-5.2681640625,1.81451171875,1.9980625,5.526984375,4.11520703125,-1.140875,0.705394531250001,-3.60716796875,2.61372265625,7.00432421875,1.26509765625,-12.590578125,-3.02923046875,2.637328125,3.32124609375,-18.67731640625,7.89245703125,-4.1476328125,-3.11264453125,-6.4462578125,3.95648828125,-15.633453125,-11.989640625,-2.9549921875,4.63634375
1.7775546875,-2.12158984375,-4.12353125,-2.096,3.6767890625,-4.1331640625,1.40251171875,0.387062500000001,5.444984375,5.44820703125,-0.395875,-0.544605468749999,-3.90816796875,3.00772265625,9.49832421875,0.95909765625,-12.378578125,-3.53723046875,4.496328125,4.76924609375,-19.26931640625,6.55145703125,-3.9546328125,-0.48364453125,-4.4702578125,4.17148828125,-10.900453125,-11.375640625,0.476007812499999,7.45034375
-4.8124453125,0.14341015625,-2.48153125,-2.106,5.8427890625,-2.5791640625,2.23051171875,-0.6379375,5.212984375,6.81920703125,0.706125,-1.11060546875,-4.32316796875,3.16272265625,11.45832421875,0.80009765625,-12.173578125,-3.44523046875,6.185328125,6.06824609375,-20.02931640625,4.88845703125,-3.1676328125,2.22335546875,-2.7292578125,2.85748828125,-5.767453125,-11.036640625,3.0090078125,8.24934375
-11.6494453125,2.51741015625,-0.13553125,-1.55,7.7447890625,-1.2101640625,3.60251171875,-0.753937499999999,5.067984375,7.81320703125,1.666125,-1.26760546875,-4.62716796875,3.28772265625,12.42432421875,0.64109765625,-12.462578125,-2.71423046875,7.590328125,6.99624609375,-20.93931640625,3.46545703125,-1.6406328125,4.86835546875,-1.2882578125,0.26048828125,-0.331453125000001,-10.570640625,4.8690078125,7.33334375
-16.3244453125,4.07341015625,1.72846875,-0.638,8.9307890625,-0.530164062500001,4.64551171875,0.0150625000000009,5.215984375,8.21720703125,2.137125,-1.33760546875,-4.65416796875,3.71772265625,12.45232421875,0.49609765625,-13.342578125,-1.42623046875,8.821328125,7.64624609375,-21.71031640625,3.03745703125,0.787367187500001,7.52235546875,0.1777421875,-2.59151171875,5.490546875,-9.317640625,6.8970078125,6.24134375
-17.1394453125,4.19741015625,2.10846875,0.222,9.0647890625,-0.8261640625,4.59551171875,1.2230625,5.597984375,7.99420703125,1.953125,-1.56960546875,-4.39516796875,4.63772265625,11.93332421875,0.43309765625,-14.533578125,0.146769531249999,10.004328125,8.20724609375,-21.99431640625,4.04145703125,4.0163671875,10.20735546875,2.0147421875,-4.48951171875,11.591546875,-6.883640625,9.8530078125,6.72534375
-13.8014453125,2.78241015625,0.70246875,0.604,8.1077890625,-2.0201640625,3.14851171875,2.2210625,5.907984375,7.28220703125,1.179125,-2.04760546875,-3.98216796875,5.93572265625,11.33632421875,0.49109765625,-15.604578125,1.57276953125,11.133328125,8.76324609375,-21.60131640625,6.21745703125,7.5603671875,12.72735546875,4.2607421875,-4.72651171875,17.440546875,-3.527640625,13.8010078125,9.64734375
-7.5254453125,0.28841015625,-1.92553125,0.306,6.4557890625,-3.5971640625,0.697511718749999,2.5230625,5.820984375,6.40720703125,0.138125,-2.63860546875,-3.56816796875,7.27572265625,11.04132421875,0.68509765625,-16.187578125,2.43376953125,12.078328125,9.26624609375,-20.56931640625,8.71845703125,10.6803671875,14.71635546875,6.5797421875,-3.40751171875,22.188546875,-0.0776406249999999,18.0150078125,14.51834375
-0.4894453125,-2.39958984375,-4.61453125,-0.521,4.8777890625,-4.7591640625,-1.75848828125,2.0490625,5.248984375,5.83920703125,-0.655875,-3.02060546875,-3.19916796875,8.30172265625,11.26032421875,1.06909765625,-16.067578125,2.55276953125,12.726328125,9.65124609375,-19.09631640625,10.64545703125,12.7503671875,15.87235546875,8.4727421875,-1.28751171875,25.073546875,2.567359375,21.4230078125,19.84234375
5.0765546875,-4.31258984375,-6.19753125,-1.444,4.2247890625,-4.7741640625,-3.06648828125,1.0890625,4.415984375,6.02820703125,-0.720874999999999,-2.84360546875,-2.77316796875,8.81972265625,12.01432421875,1.73109765625,-15.197578125,2.13676953125,13.086328125,9.92624609375,-17.44231640625,11.63445703125,13.5673671875,16.13135546875,9.5547421875,0.68848828125,25.782546875,3.955359375,23.1840078125,23.92434375
7.6925546875,-4.77458984375,-6.05153125,-1.961,5.0567890625,-3.3301640625,-2.50048828125,0.0610625000000002,3.723984375,7.18320703125,0.138125,-1.92660546875,-2.11816796875,8.83572265625,13.12732421875,2.71709765625,-13.696578125,1.70776953125,13.274328125,10.14424609375,-15.88131640625,12.02345703125,13.4143671875,15.66335546875,9.6897421875,1.79648828125,24.514546875,4.223359375,22.9930078125,25.58934375
6.9835546875,-3.63758984375,-4.32053125,-1.739,7.3757890625,-0.6951640625,-0.12248828125,-0.7369375,3.502984375,9.12620703125,1.687125,-0.39860546875,-1.13516796875,8.46572265625,14.23832421875,3.92609765625,-11.836578125,1.82676953125,13.385328125,10.28024609375,-14.70731640625,12.46145703125,12.8293671875,14.67435546875,8.9357421875,1.73048828125,21.720546875,3.789359375,20.9700078125,24.45234375
3.5945546875,-1.27858984375,-1.74553125,-0.743,10.5877890625,2.3898359375,3.24651171875,-1.2059375,3.809984375,11.33420703125,3.357125,1.33239453125,0.0938320312499998,7.80172265625,14.88932421875,5.08609765625,-9.983578125,2.80176953125,13.382328125,10.15524609375,-14.21631640625,13.31445703125,12.2473671875,13.23035546875,7.4207421875,0.57348828125,17.797546875,2.925359375,17.3910078125,20.80434375
-1.1214453125,1.56941015625,0.71546875,0.795,13.7347890625,5.0218359375,6.41951171875,-1.3609375,4.415984375,13.13220703125,4.516125,2.74939453125,1.33383203125,6.85272265625,14.68132421875,5.84909765625,-8.490578125,4.53776953125,13.114328125,9.50624609375,-14.62031640625,14.34645703125,11.7963671875,11.24135546875,5.2827421875,-1.32451171875,12.990546875,1.607359375,12.5970078125,15.36134375
-5.4864453125,4.08841015625,2.25346875,2.529,15.9007890625,6.4958359375,8.37451171875,-1.1709375,4.983984375,13.97320703125,4.766125,3.45839453125,2.34283203125,5.59072265625,13.47532421875,5.96609765625,-7.569578125,6.63976953125,12.452328125,8.17224609375,-15.89431640625,14.95645703125,11.3653671875,8.65735546875,2.7387421875,-3.41951171875,7.567546875,-0.243640625,7.1680078125,9.14434375
-7.9554453125,5.64841015625,2.43646875,4.156,16.6127890625,6.5768359375,8.67551171875,-0.477937499999999,5.312984375,13.65320703125,4.124125,3.37639453125,3.03083203125,4.08672265625,11.52632421875,5.44709765625,-7.227578125,8.63676953125,11.457328125,6.30524609375,-17.65031640625,14.73845703125,10.8573671875,5.70635546875,0.1977421875,-4.99251171875,2.083546875,-2.367640625,2.1400078125,3.44334375
-7.6364453125,6.01641015625,1.33346875,5.502,16.0117890625,5.5588359375,7.60751171875,0.9120625,5.449984375,12.38820703125,3.007125,2.77139453125,3.50683203125,2.59572265625,9.45532421875,4.61509765625,-7.292578125,10.17876953125,10.433328125,4.40924609375,-19.16731640625,13.90845703125,10.3843671875,2.97435546875,-1.7332578125,-5.27051171875,-2.577453125,-4.019640625,-1.0959921875,-0.364656250000001
-4.7104453125,5.41541015625,-0.488531249999999,6.493,14.7407890625,4.1178359375,5.97151171875,3.0550625,5.617984375,10.71220703125,2.032125,2.12839453125,3.97683203125,1.50672265625,8.00532421875,3.97209765625,-7.543578125,11.08476953125,9.792328125,3.15224609375,-19.66431640625,13.21445703125,10.2193671875,1.19435546875,-2.4592578125,-3.73451171875,-5.507453125,-4.317640625,-1.3979921875,-1.32265625
-0.4324453125,4.36941015625,-2.13353125,7.085,13.6077890625,3.0138359375,4.68051171875,5.7400625,6.016984375,9.25020703125,1.727125,1.90739453125,4.57983203125,1.13972265625,7.68432421875,3.93409765625,-7.867578125,11.25676953125,9.778328125,3.00424609375,-18.69431640625,13.38045703125,10.5343671875,0.831355468749999,-1.7482578125,-0.51451171875,-6.321453125,-2.909640625,1.3040078125,0.46934375
3.3805546875,3.41341015625,-2.73453125,7.201,13.2157890625,2.7908359375,4.34551171875,8.4950625,6.652984375,8.45620703125,2.275125,2.32639453125,5.24883203125,1.50972265625,8.48132421875,4.57109765625,-8.321578125,10.56876953125,10.225328125,3.93124609375,-16.44031640625,14.47745703125,11.1243671875,1.72535546875,0.0327421875,3.47848828125,-5.524453125,-0.478640625,5.6160078125,3.61434375
5.1835546875,2.81641015625,-1.81353125,6.736,13.6497890625,3.5488359375,5.03051171875,10.7280625,7.258984375,8.42620703125,3.431125,3.29339453125,5.67583203125,2.23572265625,9.82432421875,5.54109765625,-9.030578125,8.84576953125,10.546328125,5.34624609375,-13.69631640625,15.73045703125,11.3663671875,3.06735546875,1.9997421875,6.87748828125,-4.384453125,1.387359375,9.1590078125,5.94834375
4.4265546875,2.49641015625,0.48546875,5.61,14.3887890625,4.9018359375,6.27451171875,11.9090625,7.382984375,8.86620703125,4.652125,4.48239453125,5.40883203125,2.67072265625,10.83132421875,6.24809765625,-9.976578125,5.95576953125,9.981328125,6.35524609375,-11.52531640625,15.91245703125,10.4893671875,3.76035546875,3.1607421875,8.51348828125,-4.292453125,0.985359375,9.7830078125,5.63134375
1.7905546875,2.14641015625,3.41446875,3.887,14.5427890625,6.1628359375,7.33451171875,11.7480625,6.625984375,9.24920703125,5.366125,5.50139453125,4.09083203125,2.23572265625,10.71932421875,6.15309765625,-10.882578125,1.98676953125,8.015328125,6.17824609375,-10.77431640625,14.10445703125,8.0203671875,2.96535546875,2.8947421875,7.97648828125,-6.004453125,-2.497640625,6.7860078125,2.16734375
-1.1734453125,1.49141015625,5.83646875,1.85,13.3717890625,6.6968359375,7.56551171875,10.2990625,4.928984375,9.10020703125,5.251125,6.02839453125,1.73383203125,0.770722656250001,9.17532421875,5.03909765625,-11.325578125,-2.62523046875,4.704328125,4.51324609375,-11.71731640625,10.32445703125,4.1493671875,0.55435546875,1.2317421875,5.72348828125,-9.204453125,-8.404640625,1.3450078125,-3.32265625
-2.8584453125,0.49741015625,6.61246875,-0.038,10.7777890625,6.2338359375,6.72751171875,7.9360625,2.682984375,8.23520703125,4.373125,5.88639453125,-1.15116796875,-1.33527734375,6.47832421875,3.09409765625,-11.061578125,-7.11123046875,0.737328124999999,1.66024609375,-14.01431640625,5.62345703125,-0.2356328125,-2.80764453125,-1.2102578125,2.72248828125,-12.637453125,-14.827640625,-4.0869921875,-8.73465625
-2.4374453125,-0.60558984375,5.04146875,-1.349,7.4117890625,4.9338359375,5.06951171875,5.1870625,0.550984375000001,6.80720703125,3.101125,5.04039453125,-3.70716796875,-3.33427734375,3.33132421875,0.77309765625,-10.317578125,-10.59923046875,-2.847671875,-1.64775390625,-16.96731640625,1.57045703125,-3.8826328125,-5.97264453125,-3.5782578125,-0.10951171875,-14.705453125,-19.493640625,-7.0289921875,-12.08465625
-0.2894453125,-1.49158984375,1.20446875,-1.918,4.3067890625,3.2108359375,3.14951171875,2.5280625,-0.898015624999999,5.14920703125,1.867125,3.56139453125,-5.13116796875,-4.52327734375,0.49132421875,-1.44590234375,-9.752578125,-12.45523046875,-5.122671875,-4.58775390625,-19.88631640625,-0.564542968750001,-5.6976328125,-7.83164453125,-5.1982578125,-2.29051171875,-14.191453125,-20.833640625,-6.1219921875,-12.40065625
2.2295546875,-1.95458984375,-3.94253125,-1.936,2.3417890625,1.4978359375,1.54051171875,0.265062500000001,-1.467015625,3.57720703125,0.946124999999999,1.60439453125,-5.06916796875,-4.59027734375,-1.53367578125,-3.24990234375,-10.074578125,-12.52623046875,-5.638671875,-6.54675390625,-22.32431640625,-0.400542968750001,-5.1516328125,-7.75964453125,-5.7942578125,-3.80151171875,-10.735453125,-18.617640625,-1.5929921875,-9.95365625
3.5105546875,-2.00958984375,-8.79353125,-1.798,1.8977890625,0.108835937499999,0.61251171875,-1.4399375,-1.331015625,2.31520703125,0.415125,-0.564605468749999,-3.73716796875,-3.67927734375,-2.57567578125,-4.51390234375,-11.574578125,-11.12323046875,-4.498671875,-7.24475390625,-24.07731640625,1.53245703125,-2.3936328125,-5.75264453125,-5.4452578125,-4.82551171875,-4.875453125,-13.861640625,5.0750078125,-5.82665625
2.5085546875,-1.83258984375,-11.62153125,-1.83,2.8827890625,-0.742164062500001,0.49651171875,-2.4969375,-0.825015624999999,1.54220703125,0.272124999999999,-2.55860546875,-1.70016796875,-2.19327734375,-2.69967578125,-5.18490234375,-13.901578125,-8.78423046875,-2.161671875,-6.68375390625,-25.05331640625,4.29045703125,1.9203671875,-2.26764453125,-4.3702578125,-5.44951171875,2.285546875,-8.142640625,11.9670078125,-1.24365625
-0.7584453125,-1.62458984375,-11.25253125,-2.105,4.9627890625,-0.9211640625,1.14051171875,-2.8599375,-0.206015624999999,1.43720703125,0.539124999999999,-3.92660546875,0.47583203125,-0.52927734375,-2.05367578125,-5.19590234375,-16.195578125,-6.01623046875,0.807328125,-5.05675390625,-25.17531640625,7.09745703125,6.8943671875,2.03935546875,-2.7562578125,-5.57451171875,9.504546875,-2.817640625,17.5260078125,2.91734375
-5.2124453125,-1.52558984375,-7.65053125,-2.447,7.7487890625,-0.3961640625,2.37351171875,-2.5759375,0.440984375000001,2.11220703125,1.238125,-4.31360546875,2.46583203125,1.04372265625,-0.832675781250002,-4.50590234375,-17.498578125,-3.19623046875,3.870328125,-2.70075390625,-24.42131640625,9.61645703125,11.6023671875,6.47935546875,-0.7832578125,-5.07951171875,15.696546875,1.404359375,20.9400078125,6.22334375
-9.1624453125,-1.60858984375,-2.05553125,-2.577,10.8187890625,0.7058359375,3.91151171875,-1.8349375,1.141984375,3.46820703125,2.292125,-3.65360546875,4.19883203125,2.36672265625,0.67432421875,-3.21790234375,-17.205578125,-0.61023046875,6.524328125,-0.0917539062500001,-22.93531640625,11.83545703125,15.2233671875,10.37735546875,1.2637421875,-4.05651171875,20.040546875,4.409359375,22.1180078125,8.53234375
-11.0034453125,-1.87058984375,3.45446875,-2.257,13.6367890625,2.0818359375,5.37551171875,-0.961937499999999,1.917984375,5.12420703125,3.475125,-2.25060546875,5.72383203125,3.31172265625,2.08232421875,-1.65090234375,-15.344578125,1.48476953125,8.312328125,2.21724609375,-21.08731640625,13.78245703125,17.1503671875,13.10735546875,2.9387421875,-2.90151171875,22.022546875,6.389359375,21.4290078125,9.79834375
-9.8744453125,-2.21458984375,6.84046875,-1.368,15.5347890625,3.3388359375,6.37251171875,-0.3109375,2.698984375,6.53220703125,4.498125,-0.69160546875,7.06283203125,3.76772265625,3.00332421875,-0.269902343749999,-12.543578125,2.87076953125,8.914328125,3.72124609375,-19.39731640625,15.34945703125,17.1163671875,14.19535546875,3.7407421875,-2.17251171875,21.472546875,7.560359375,19.4150078125,9.99434375
-6.0304453125,-2.45758984375,6.96746875,0.0700000000000001,15.8617890625,4.1018359375,6.61151171875,-0.1219375,3.348984375,7.19520703125,5.119125,0.370394531250001,8.14383203125,3.67472265625,3.18732421875,0.47209765625,-9.732578125,3.42576953125,8.251328125,4.09024609375,-18.37831640625,16.29845703125,15.2533671875,13.43335546875,3.2977421875,-2.30151171875,18.602546875,8.012359375,16.5780078125,9.13834375
-0.7614453125,-2.40958984375,4.02946875,1.887,14.2697890625,4.1168359375,5.97351171875,-0.418937499999999,3.739984375,6.86520703125,5.209125,0.47339453125,8.81983203125,3.05872265625,2.58032421875,0.28109765625,-7.769578125,3.15976953125,6.497328125,3.24424609375,-18.35631640625,16.40645703125,12.0393671875,10.94135546875,1.5297421875,-3.35551171875,13.941546875,7.685359375,13.2740078125,7.36234375
4.0925546875,-1.98658984375,-0.634531249999999,3.749,10.9447890625,3.2818359375,4.50051171875,-1.0299375,3.787984375,5.60220703125,4.725125,-0.471605468749999,8.93983203125,2.01272265625,1.28332421875,-0.891902343749999,-7.168578125,2.19176953125,3.994328125,1.33524609375,-19.36231640625,15.60145703125,8.1193671875,7.10735546875,-1.3152578125,-4.96351171875,8.195546875,6.441359375,9.7050078125,4.96734375
6.8325546875,-1.26158984375,-5.18853125,5.215,6.6197890625,1.6628359375,2.36851171875,-1.6979375,3.441984375,3.70020703125,3.689125,-2.14360546875,8.41583203125,0.65372265625,-0.526675781250001,-2.82790234375,-8.002578125,0.664769531249999,1.116328125,-1.30175390625,-21.10431640625,14.01045703125,4.0793671875,2.47235546875,-4.7242578125,-6.44151171875,2.058546875,4.183359375,5.9990078125,2.43734375
6.5195546875,-0.42458984375,-8.07053125,5.856,2.3457890625,-0.4751640625,-0.108488281250001,-2.1889375,2.647984375,1.54620703125,2.192125,-3.92860546875,7.25083203125,-0.91027734375,-2.63767578125,-5.07890234375,-9.916578125,-1.34723046875,-1.816671875,-4.21075390625,-23.04831640625,11.88845703125,0.297367187500001,-2.37564453125,-8.0442578125,-7.02151171875,-3.917453125,0.980359375,2.3100078125,0.394343749999999
3.2945546875,0.29941015625,-8.53053125,5.418,-0.850210937499998,-2.6601640625,-2.45048828125,-2.3299375,1.370984375,-0.498792968749999,0.446125,-5.13860546875,5.51583203125,-2.58427734375,-4.78767578125,-7.06190234375,-12.225578125,-3.87723046875,-4.566671875,-6.88675390625,-24.58631640625,9.49945703125,-3.0716328125,-6.88664453125,-10.6382578125,-6.10851171875,-9.357453125,-2.872640625,-1.1329921875,-0.54265625
-1.6854453125,0.71341015625,-6.77053125,3.934,-2.3192109375,-4.3171640625,-4.06048828125,-2.0339375,-0.362015625,-2.17879296875,-1.223875,-5.25660546875,3.30283203125,-4.28027734375,-6.67367578125,-8.22190234375,-14.090578125,-6.98223046875,-6.951671875,-8.86675390625,-25.23831640625,7.01845703125,-5.9956328125,-10.59864453125,-12.0292578125,-3.49251171875,-14.028453125,-6.908640625,-4.0739921875,0.0133437499999989
-6.6344453125,0.66341015625,-3.72353125,1.72,-2.0362109375,-5.0121640625,-4.42048828125,-1.3829375,-2.431015625,-3.38179296875,-2.450875,-4.13360546875,0.69783203125,-5.92327734375,-7.99967578125,-8.21990234375,-14.773578125,-10.59923046875,-8.828671875,-9.84575390625,-24.79731640625,4.55045703125,-8.4476328125,-13.18764453125,-12.0172578125,0.53948828125,-17.763453125,-10.604640625,-6.3369921875,1.97934375
-9.7834453125,0.0664101562499999,-0.64953125,-0.744,-0.623210937499998,-4.7081640625,-3.36448828125,-0.6919375,-4.629015625,-4.12779296875,-2.983875,-2.06960546875,-2.17816796875,-7.44727734375,-8.56567578125,-7.06790234375,-13.938578125,-14.40623046875,-10.081671875,-9.77975390625,-23.33031640625,2.22645703125,-10.3276328125,-14.51064453125,-10.7322578125,5.22348828125,-20.422453125,-13.489640625,-7.9079921875,4.70934375
-10.0794453125,-1.03658984375,1.30646875,-2.96,0.916789062500001,-3.8191640625,-1.25948828125,-0.436937499999999,-6.678015625,-4.50479296875,-2.809875,0.25839453125,-5.09616796875,-8.76827734375,-8.33667578125,-5.16290234375,-11.841578125,-17.81123046875,-10.645671875,-8.89175390625,-21.04631640625,0.298457031249999,-11.4576328125,-14.62164453125,-8.6002578125,9.49848828125,-21.895453125,-15.191640625,-8.9369921875,7.15334375
-7.6754453125,-2.40158984375,1.50546875,-4.56,1.6877890625,-2.9971640625,1.06851171875,-0.998937499999999,-8.267015625,-4.57979296875,-2.163875,2.03639453125,-7.68416796875,-9.77227734375,-7.44267578125,-3.14590234375,-9.272578125,-20.13123046875,-10.519671875,-7.58875390625,-18.12831640625,-0.874542968750001,-11.6546328125,-13.73564453125,-6.2142578125,12.32548828125,-22.130453125,-15.470640625,-9.6139921875,8.27434375
-3.8904453125,-3.60358984375,0.0434687500000002,-5.386,1.3267890625,-2.7651640625,2.67251171875,-2.3509375,-9.141015625,-4.33879296875,-1.388875,2.66539453125,-9.50316796875,-10.33327734375,-6.11167578125,-1.64390234375,-7.206578125,-20.87123046875,-9.780671875,-6.28175390625,-14.65431640625,-0.967542968750001,-10.8376328125,-12.13964453125,-4.1212578125,13.08348828125,-21.130453125,-14.271640625,-9.9819921875,7.60734375
-0.5574453125,-4.17558984375,-2.28853125,-5.511,0.159789062500002,-3.2181640625,2.92851171875,-3.9619375,-9.216015625,-3.69579296875,-0.752875,2.06139453125,-10.20616796875,-10.38427734375,-4.59067578125,-0.98390234375,-6.299578125,-19.96923046875,-8.578671875,-5.23575390625,-10.66931640625,0.10745703125,-9.1086328125,-10.10364453125,-2.6362578125,11.86148828125,-18.947453125,-11.799640625,-9.8189921875,5.62134375
0.9045546875,-3.85758984375,-4.40253125,-5.172,-1.0142109375,-3.9871640625,1.83351171875,-5.0159375,-8.623015625,-2.59179296875,-0.345874999999999,0.68339453125,-9.69516796875,-9.98227734375,-3.09867578125,-1.09990234375,-6.564578125,-17.85923046875,-7.134671875,-4.53475390625,-6.35931640625,2.08245703125,-6.7866328125,-7.85564453125,-1.7902578125,9.40848828125,-15.715453125,-8.554640625,-8.7579921875,3.53834375
0.1365546875,-2.76058984375,-5.48053125,-4.662,-1.3762109375,-4.4791640625,-0.0334882812500013,-4.8859375,-7.648015625,-1.11079296875,-0.145875,-0.735605468749999,-8.20916796875,-9.32227734375,-1.84867578125,-1.66290234375,-7.422578125,-15.32023046875,-5.762671875,-4.17975390625,-2.18231640625,4.37945703125,-4.3566328125,-5.63664453125,-1.4752578125,6.71748828125,-11.754453125,-5.249640625,-6.6419921875,2.59134375
-2.2074453125,-1.32858984375,-5.34253125,-4.225,-0.513210937499998,-4.2501640625,-1.85548828125,-3.5359375,-6.606015625,0.44720703125,-0.143875,-1.59660546875,-6.27716796875,-8.66527734375,-1.06567578125,-2.34890234375,-8.114578125,-13.18323046875,-4.826671875,-4.21075390625,1.18168359375,6.32145703125,-2.3526328125,-3.74864453125,-1.6252578125,4.49248828125,-7.606453125,-2.603640625,-3.8149921875,3.22334375
-5.0524453125,-0.10158984375,-4.39253125,-3.982,1.3937890625,-3.2741640625,-3.04348828125,-1.6109375,-5.698015625,1.64220703125,-0.430875,-1.72160546875,-4.53916796875,-8.21727734375,-0.946675781250001,-3.02190234375,-8.155578125,-12.01623046875,-4.622671875,-4.71475390625,3.10968359375,7.38945703125,-1.2016328125,-2.49964453125,-2.2692578125,2.88848828125,-3.916453125,-1.087640625,-1.0739921875,4.84234375
-7.5224453125,0.55441015625,-3.26453125,-3.892,3.7097890625,-1.9471640625,-3.51448828125,-0.104937499999999,-4.919015625,2.07920703125,-1.138875,-1.35360546875,-3.48016796875,-8.00827734375,-1.55067578125,-3.72990234375,-7.535578125,-11.92423046875,-5.205671875,-5.70675390625,3.37668359375,7.39045703125,-1.0586328125,-2.03864453125,-3.4072578125,1.64248828125,-1.180453125,-0.761640625,0.736007812499999,6.30534375
-9.1094453125,0.584410156250001,-2.44553125,-3.747,5.6927890625,-0.817164062500001,-3.63248828125,0.190062500000001,-4.057015625,1.64920703125,-2.288875,-0.913605468749999,-3.21116796875,-7.84827734375,-2.67167578125,-4.52390234375,-6.591578125,-12.52723046875,-6.276671875,-6.96575390625,2.35968359375,6.47545703125,-1.7116328125,-2.20064453125,-4.8232578125,0.44948828125,0.482546874999999,-1.263640625,1.2240078125,6.72934375
-9.4594453125,0.19841015625,-2.09953125,-3.245,6.8357890625,-0.2191640625,-3.83948828125,-0.8669375,-2.821015625,0.64320703125,-3.628875,-0.67060546875,-3.44016796875,-7.38727734375,-3.81467578125,-5.26090234375,-5.710578125,-13.12623046875,-7.225671875,-7.98075390625,0.955683593749999,5.05745703125,-2.6126328125,-2.48364453125,-6.0192578125,-0.71851171875,1.390546875,-1.961640625,0.694007812499999,6.06834375
-8.2074453125,-0.27358984375,-2.04453125,-2.144,7.0507890625,-0.0511640625000007,-4.26248828125,-2.6849375,-1.054015625,-0.31179296875,-4.608875,-0.530605468749999,-3.66316796875,-6.26227734375,-4.32667578125,-5.54090234375,-5.097578125,-12.99723046875,-7.343671875,-8.08275390625,0.23868359375,3.65545703125,-3.0526328125,-2.22964453125,-6.3442578125,-1.56651171875,2.132546875,-2.184640625,0.00100781249999926,5.10134375
-5.1634453125,-0.53058984375,-1.84753125,-0.43,6.6367890625,0.1838359375,-4.55548828125,-4.2399375,1.114984375,-0.512792968749999,-4.560875,-0.0866054687499993,-3.46416796875,-4.28327734375,-3.66567578125,-4.87190234375,-4.729578125,-11.71423046875,-6.132671875,-6.73275390625,1.01768359375,2.73045703125,-2.4276328125,-0.93664453125,-5.2862578125,-1.67151171875,3.277546875,-1.459640625,0.105007812499998,4.93834375
-0.6914453125,-0.38458984375,-1.00353125,1.606,6.0967890625,1.0948359375,-4.08848828125,-4.5629375,3.284984375,0.522207031250002,-3.014875,1.10839453125,-2.74216796875,-1.54227734375,-1.64667578125,-2.95190234375,-4.435578125,-9.34623046875,-3.556671875,-3.80975390625,3.52668359375,2.54845703125,-0.468632812499999,1.48535546875,-2.7272578125,-0.75251171875,5.092546875,0.338359375,1.5980078125,6.39534375
4.1605546875,0.23941015625,0.78946875,3.453,5.9087890625,3.0558359375,-2.34548828125,-3.1489375,4.981984375,2.86820703125,0.0451250000000005,3.23739453125,-1.74016796875,1.60372265625,1.45932421875,0.11409765625,-4.002578125,-6.43023046875,-0.0626718749999995,0.287246093749999,7.37868359375,3.14045703125,2.6713671875,4.66835546875,0.9747421875,1.16648828125,7.464546875,3.000359375,4.4480078125,9.59434375
8.0165546875,1.36541015625,3.37946875,4.603,6.3627890625,6.0058359375,0.72351171875,-0.1359375,5.897984375,6.22420703125,4.148125,6.08639453125,-0.89916796875,4.68872265625,5.07632421875,3.84609765625,-3.218578125,-3.70723046875,3.644328125,4.78924609375,11.78068359375,4.35445703125,6.4793671875,7.98435546875,5.1367421875,3.77148828125,10.014546875,6.104359375,8.0580078125,13.93734375
9.7895546875,3.03541015625,6.15246875,4.782,7.5627890625,9.5078359375,4.61751171875,3.8090625,6.072984375,10.12820703125,8.561125,9.15039453125,-0.62116796875,7.35272265625,8.60832421875,7.61609765625,-1.894578125,-1.78423046875,6.936328125,8.88924609375,15.87968359375,5.94545703125,10.2703671875,10.84335546875,9.0227421875,6.58248828125,12.308546875,9.138359375,11.5450078125,18.38934375
9.1475546875,5.30841015625,8.33746875,4.104,9.5437890625,13.0028359375,8.49551171875,7.7980625,5.933984375,14.20020703125,12.606125,11.88439453125,-1.07316796875,9.49172265625,11.69532421875,10.92109765625,0.0924218750000012,-0.878230468750001,9.529328125,12.04524609375,19.06268359375,7.62545703125,13.3933671875,12.91335546875,12.0867421875,9.09148828125,14.014546875,11.581359375,14.0720078125,21.88934375
6.6445546875,8.14041015625,9.47746875,3.055,12.3287890625,16.0538359375,11.55251171875,11.0610625,6.136984375,18.24020703125,15.875125,13.93439453125,-2.11116796875,11.26172265625,14.28232421875,13.53909765625,2.727421875,-0.782230468750001,11.500328125,14.12024609375,21.10868359375,9.09345703125,15.4153671875,14.16235546875,14.0737421875,10.86448828125,14.947546875,12.974359375,15.0740078125,23.70534375
3.5225546875,11.23641015625,9.70246875,2.303,15.7787890625,18.3968359375,13.34051171875,13.1560625,7.239984375,22.11720703125,18.256125,15.23339453125,-3.34616796875,12.92072265625,16.47332421875,15.50409765625,5.785421875,-1.02823046875,13.101328125,15.29724609375,22.16668359375,10.09145703125,16.2113671875,14.75035546875,15.0077421875,11.62348828125,15.057546875,13.016359375,14.3700078125,23.63334375
1.3125546875,13.99641015625,9.60046875,2.391,19.3327890625,19.8468359375,13.85751171875,13.9880625,9.336984375,25.55520703125,19.777125,15.95139453125,-4.32016796875,14.59372265625,18.29632421875,16.96409765625,8.813421875,-1.15723046875,14.479328125,15.87224609375,22.60668359375,10.46845703125,15.9213671875,14.86235546875,15.0897421875,11.31248828125,14.391546875,11.668359375,12.1620078125,22.02834375
1.2585546875,15.67441015625,9.79846875,3.457,21.9407890625,20.2198359375,13.43951171875,13.7320625,11.886984375,28.02020703125,20.436125,16.36239453125,-4.72916796875,16.09272265625,19.55032421875,18.01709765625,11.238421875,-0.96423046875,15.470328125,16.03224609375,22.83568359375,10.18545703125,14.7963671875,14.55235546875,14.5687421875,10.12948828125,13.024546875,9.125359375,8.9160078125,19.62834375
3.7285546875,15.71341015625,10.56946875,5.135,22.4127890625,19.3788359375,12.54651171875,12.7240625,13.875984375,28.84120703125,20.137125,16.69439453125,-4.59216796875,16.92072265625,19.81832421875,18.61609765625,12.593421875,-0.630230468750001,15.593328125,15.74424609375,23.12868359375,9.20445703125,13.0003671875,13.67135546875,13.6167421875,8.46048828125,10.954546875,5.639359375,5.1650078125,17.25934375
7.9075546875,14.07641015625,11.71146875,6.702,20.0287890625,17.3648359375,11.57651171875,11.3410625,14.264984375,27.52920703125,18.779125,17.04339453125,-4.25316796875,16.47472265625,18.67532421875,18.61109765625,12.768421875,-0.667230468750001,14.261328125,14.81724609375,23.55868359375,7.37445703125,10.5163671875,11.91435546875,12.2877421875,6.76748828125,8.067546875,1.353359375,1.3160078125,15.50934375
12.0855546875,11.34241015625,12.68246875,7.428,15.0027890625,14.4658359375,10.74051171875,9.8860625,12.495984375,24.08820703125,16.424125,17.34139453125,-4.19416796875,14.36372265625,15.94532421875,17.86809765625,12.099421875,-1.66023046875,11.123328125,13.07424609375,24.01568359375,4.48645703125,7.2303671875,9.00335546875,10.5587421875,5.42848828125,4.211546875,-3.678640625,-2.4349921875,14.52034375
14.4685546875,8.46641015625,12.88046875,6.926,8.4787890625,11.1748359375,10.01951171875,8.5150625,8.812984375,19.12520703125,13.390125,17.37539453125,-4.72416796875,10.68972265625,11.88732421875,16.37109765625,11.205421875,-3.91623046875,6.356328125,10.53824609375,24.27868359375,0.535457031249999,3.1813671875,4.91935546875,8.4237421875,4.60648828125,-0.620453125000001,-9.242640625,-6.0369921875,13.98534375
14.0865546875,6.33541015625,11.94046875,5.347,2.0877890625,8.0818359375,9.22651171875,7.2920625,4.236984375,13.72020703125,10.225125,16.86339453125,-5.71516796875,6.13572265625,7.19932421875,14.26809765625,10.641421875,-7.20623046875,0.734328124999999,7.50924609375,24.10168359375,-4.00754296875,-1.2136328125,0.0503554687500003,5.9647421875,4.17248828125,-6.133453125,-14.728640625,-9.4499921875,13.31434375
11.2495546875,5.40741015625,9.95146875,3.338,-2.6292109375,5.7628359375,8.19351171875,6.3330625,0.176984375000002,9.12320703125,7.588125,15.61339453125,-6.58616796875,1.80272265625,2.84632421875,11.84409765625,10.626421875,-10.77323046875,-4.572671875,4.50324609375,23.31768359375,-8.19854296875,-5.1476328125,-4.83664453125,3.3777421875,3.75848828125,-11.689453125,-19.152640625,-12.5149921875,11.95334375
7.3045546875,5.62441015625,7.51046875,1.774,-4.6682109375,4.6838359375,6.97051171875,5.9010625,-2.139015625,6.40920703125,6.092125,13.70939453125,-6.57016796875,-1.16927734375,-0.231675781250001,9.47709765625,10.989421875,-13.63723046875,-8.382671875,2.09324609375,21.94268359375,-10.97254296875,-7.6756328125,-8.80364453125,0.9667421875,2.95448828125,-16.413453125,-21.504640625,-14.9089921875,9.71934375
3.8585546875,6.56441015625,5.51546875,1.378,-3.7682109375,5.0678359375,5.89551171875,6.2830625,-2.144015625,6.15520703125,6.097125,11.54639453125,-5.13916796875,-2.05127734375,-1.43967578125,7.54909765625,11.341421875,-15.03323046875,-9.932671875,0.695246093750001,20.21768359375,-11.65754296875,-8.1236328125,-11.05764453125,-0.9222578125,1.53148828125,-19.423453125,-21.230640625,-16.2309921875,6.98834375
1.9445546875,7.65741015625,4.71746875,2.353,-0.454210937499999,6.7288359375,5.41551171875,7.5020625,-0.152015624999999,8.19120703125,7.498125,9.64439453125,-2.36416796875,-0.863277343749999,-0.78667578125,6.29009765625,11.292421875,-14.75523046875,-9.183671875,0.38624609375,18.50868359375,-10.31754296875,-6.4236328125,-11.26364453125,-2.0352578125,-0.46751171875,-20.152453125,-18.579640625,-16.2229921875,4.48934375
1.6225546875,8.34541015625,5.26546875,4.222,4.0467890625,8.9638359375,5.75551171875,9.0640625,2.780984375,11.56020703125,9.624125,8.31639453125,0.99383203125,1.56972265625,1.05932421875,5.63809765625,10.580421875,-13.24123046875,-6.858671875,0.829246093749999,17.10668359375,-7.73654296875,-3.1926328125,-9.70364453125,-2.3782578125,-2.82551171875,-18.596453125,-14.588640625,-15.0239921875,2.80234375
2.1775546875,8.21541015625,6.53246875,6.011,8.0757890625,10.6688359375,6.65951171875,10.0360625,5.247984375,14.77520703125,11.418125,7.47439453125,3.75983203125,3.92672265625,2.98732421875,5.25009765625,9.109421875,-11.33123046875,-4.145671875,1.40924609375,16.06668359375,-5.06854296875,0.525367187500001,-7.15864453125,-2.2472578125,-5.29151171875,-15.330453125,-10.659640625,-13.1909921875,1.95534375
2.6865546875,7.11541015625,7.45046875,6.714,10.0327890625,10.7528359375,7.40251171875,9.4820625,6.000984375,16.35620703125,11.857125,6.71439453125,4.87383203125,4.95772265625,3.89032421875,4.67109765625,6.933421875,-9.83923046875,-2.204671875,1.51624609375,15.22968359375,-3.33954296875,3.7183671875,-4.56364453125,-2.0622578125,-7.63151171875,-11.254453125,-7.936640625,-11.4439921875,1.46234375
2.5115546875,5.20341015625,7.14446875,5.8,8.9687890625,8.6528359375,7.07951171875,7.0230625,4.399984375,15.40220703125,10.412125,5.59039453125,3.89283203125,4.01272265625,3.11032421875,3.56009765625,4.242421875,-9.19023046875,-1.728671875,0.819246093749999,14.35268359375,-3.06954296875,5.8173671875,-2.63464453125,-2.1502578125,-9.58051171875,-7.228453125,-6.852640625,-10.2959921875,0.76434375
1.4915546875,2.87741015625,5.46446875,3.454,4.9617890625,4.6568359375,5.02851171875,3.1350625,0.627984375,11.92020703125,7.258125,3.86739453125,1.19783203125,1.26372265625,0.66132421875,1.80109765625,1.309421875,-9.32023046875,-2.772671875,-0.66175390625,13.26368359375,-4.14654296875,6.8273671875,-1.67364453125,-2.6052578125,-10.82751171875,-3.812453125,-7.068640625,-9.8169921875,-0.298656250000001
-0.1484453125,0.59641015625,3.03046875,0.44,-0.942210937499999,-0.2061640625,1.18651171875,-1.0309375,-4.420015625,6.76720703125,3.161125,1.61939453125,-2.21216796875,-2.46827734375,-2.85267578125,-0.503902343749999,-1.585578125,-9.82923046875,-4.871671875,-2.65775390625,11.92268359375,-5.96354296875,7.1803671875,-1.59564453125,-3.3202578125,-11.10151171875,-1.187453125,-7.762640625,-9.6569921875,-1.33465625
-1.9704453125,-1.27658984375,0.78046875,-2.322,-7.1802109375,-4.6231640625,-3.82348828125,-4.2239375,-9.494015625,1.28320703125,-0.861875,-0.830605468749999,-5.19216796875,-6.12927734375,-6.53267578125,-3.10890234375,-4.198578125,-10.24323046875,-7.302671875,-4.82775390625,10.42168359375,-7.69954296875,7.4303671875,-2.08164453125,-4.0922578125,-10.30951171875,0.773546874999999,-8.049640625,-9.2819921875,-1.64065625
-3.5214453125,-2.55658984375,-0.621531249999999,-4.178,-12.2462109375,-7.5621640625,-8.90048828125,-5.7119375,-13.416015625,-3.21279296875,-3.932875,-3.05460546875,-6.93116796875,-8.84727734375,-9.51667578125,-5.69390234375,-6.310578125,-10.21223046875,-9.351671875,-6.86875390625,8.93968359375,-8.63454296875,8.0013671875,-2.73464453125,-4.7312578125,-8.65051171875,2.353546875,-7.331640625,-8.2689921875,-0.65565625
-4.4654453125,-3.22458984375,-1.07053125,-4.944,-15.1232109375,-8.6191640625,-12.89548828125,-5.5719375,-15.401015625,-5.82879296875,-5.567875,-4.66260546875,-7.17816796875,-10.15227734375,-11.22167578125,-7.91390234375,-7.655578125,-9.57023046875,-10.480671875,-8.52875390625,7.71968359375,-8.37154296875,9.0723671875,-3.18264453125,-5.0902578125,-6.57651171875,3.833546875,-5.494640625,-6.5189921875,1.67134375
-4.6104453125,-3.35258984375,-0.85753125,-4.803,-15.4652109375,-8.0351640625,-14.99348828125,-4.4939375,-15.198015625,-6.27879296875,-5.712875,-5.36860546875,-6.15116796875,-9.98027734375,-11.40667578125,-9.39690234375,-7.921578125,-8.28323046875,-10.389671875,-9.54475390625,7.04668359375,-6.88954296875,10.6033671875,-3.10264453125,-5.0182578125,-4.61151171875,5.409546875,-2.875640625,-4.2589921875,4.83534375
-3.8344453125,-3.02158984375,-0.31953125,-4.028,-13.5412109375,-6.3991640625,-14.89348828125,-3.2779375,-13.066015625,-4.81679296875,-4.599875,-4.98660546875,-4.25216796875,-8.54527734375,-10.12367578125,-9.76090234375,-6.862578125,-6.38723046875,-9.000671875,-9.61375390625,7.21468359375,-4.45554296875,12.4213671875,-2.24664453125,-4.3232578125,-3.11651171875,7.160546875,-0.0736406250000003,-1.8669921875,8.06234375
-2.0164453125,-2.27358984375,0.34046875,-2.758,-10.0202109375,-4.2821640625,-12.73748828125,-2.3699375,-9.642015625,-2.03079296875,-2.554875,-3.45360546875,-1.86416796875,-6.22027734375,-7.62467578125,-8.69890234375,-4.481578125,-3.98423046875,-6.448671875,-8.48075390625,8.43768359375,-1.52054296875,14.2843671875,-0.49964453125,-2.8172578125,-2.16351171875,9.035546875,2.263359375,0.2950078125,10.67934375
0.8415546875,-1.11558984375,0.99346875,-0.995,-5.7282109375,-2.0201640625,-8.97048828125,-1.7359375,-5.765015625,1.35420703125,0.0821249999999996,-0.900605468749999,0.66483203125,-3.48927734375,-4.32267578125,-6.15690234375,-1.108578125,-1.31423046875,-3.103671875,-6.11475390625,10.71668359375,1.34845703125,15.9113671875,1.99735546875,-0.4732578125,-1.58851171875,10.800546875,3.576359375,1.9420078125,12.32734375
4.3455546875,0.419410156250001,1.52746875,1.199,-1.4622109375,0.2608359375,-4.23748828125,-1.0839375,-2.282015625,4.61620703125,2.952125,2.27739453125,2.88483203125,-0.909277343749999,-0.75867578125,-2.48490234375,2.671421875,1.20876953125,0.452328124999999,-2.85775390625,13.74268359375,3.53245703125,17.0263671875,4.79235546875,2.4287421875,-1.14351171875,12.049546875,3.495359375,2.8510078125,12.95734375
7.5635546875,2.22041015625,1.95746875,3.505,2.1287890625,2.4698359375,0.654511718749999,-0.195937499999999,0.121984375,7.14720703125,5.665125,5.47339453125,4.20383203125,0.985722656250001,2.47932421875,1.58709765625,6.205421875,3.07576953125,3.530328125,0.627246093749999,16.93268359375,4.50945703125,17.4293671875,7.22135546875,5.3217421875,-0.63851171875,12.339546875,1.953359375,2.8730078125,12.70934375
9.2775546875,4.07241015625,2.59546875,5.383,4.6347890625,4.4478359375,4.82951171875,0.9230625,1.078984375,8.58220703125,7.877125,8.07539453125,4.06283203125,1.86072265625,4.91532421875,5.18709765625,8.941421875,3.88076953125,5.559328125,3.60324609375,19.64268359375,4.04945703125,17.0753671875,8.68335546875,7.5737421875,0.0214882812500001,11.419546875,-0.708640625,2.0400078125,11.85934375
8.5835546875,5.71641015625,3.97646875,6.325,5.9677890625,6.0148359375,7.54251171875,2.1310625,0.638984375000001,8.89920703125,9.406125,9.69039453125,2.28183203125,1.73172265625,6.36232421875,7.65409765625,10.534421875,3.52776953125,6.291328125,5.58324609375,21.42568359375,2.34845703125,16.0993671875,8.91635546875,8.7877421875,0.86948828125,9.403546875,-3.766640625,0.665007812499999,10.82534375
5.5005546875,6.93641015625,6.48546875,6.177,6.3557890625,7.0968359375,8.44951171875,3.3360625,-0.744015624999999,8.41920703125,10.300125,10.27739453125,-0.68016796875,0.972722656250001,6.97932421875,8.80209765625,10.891421875,2.30576953125,5.880328125,6.52224609375,22.20968359375,-0.0215429687499995,14.7713671875,8.11335546875,9.0007421875,1.92448828125,6.768546875,-6.346640625,-0.680992187500001,10.15234375
1.1895546875,7.64041015625,9.92746875,5.262,6.2177890625,7.8088359375,7.78651171875,4.5600625,-2.393015625,7.66320703125,10.817125,10.09739453125,-3.77416796875,0.158722656250001,7.18232421875,8.97309765625,10.178421875,0.79676953125,4.798328125,6.78524609375,22.29968359375,-2.32254296875,13.3953671875,6.81835546875,8.6597421875,3.20048828125,4.168546875,-7.758640625,-1.3669921875,10.36834375
-2.3994453125,7.87941015625,13.40246875,4.225,5.9887890625,8.4218359375,6.33051171875,5.8630625,-3.660015625,7.15220703125,11.315125,9.57839453125,-5.75616796875,-0.17027734375,7.44732421875,8.85509765625,8.810421875,-0.320230468750001,3.638328125,6.94924609375,22.22468359375,-3.93654296875,12.2283671875,5.67435546875,8.4037421875,4.70448828125,2.195546875,-7.767640625,-0.975992187500001,11.75834375
-3.3474453125,7.79541015625,15.65846875,3.717,5.9957890625,9.2528359375,5.09751171875,7.2250625,-4.130015625,7.22520703125,12.099125,9.15139453125,-5.72316796875,0.303722656250001,8.11032421875,9.14209765625,7.379421875,-0.505230468750001,2.909328125,7.53824609375,22.48468359375,-4.58754296875,11.4503671875,5.17335546875,8.7457421875,6.38848828125,1.191546875,-6.659640625,0.489007812499999,14.18934375
-0.6704453125,7.52141015625,15.74646875,4.066,6.3777890625,10.4918359375,4.88151171875,8.4760625,-3.716015625,7.94920703125,13.274125,9.08939453125,-3.54116796875,1.59572265625,9.22732421875,10.17709765625,6.495421875,0.467769531249999,2.871328125,8.80224609375,23.30668359375,-4.40554296875,11.1463671875,5.49835546875,9.8257421875,8.10248828125,1.179546875,-5.104640625,2.5740078125,17.09534375
5.0915546875,7.10841015625,13.59146875,5.119,7.0387890625,12.0518359375,5.84851171875,9.3370625,-2.638015625,9.10020703125,14.652125,9.41439453125,0.0768320312499999,3.45272265625,10.55932421875,11.77209765625,6.538421875,2.41076953125,3.482328125,10.60524609375,24.50768359375,-3.80654296875,11.2883671875,6.51835546875,11.3487421875,9.57148828125,1.933546875,-3.873640625,4.5700078125,19.67934375
11.9455546875,6.53341015625,10.14246875,6.326,7.6667890625,13.5338359375,7.43451171875,9.5650625,-1.310015625,10.24520703125,15.799125,9.88339453125,3.87883203125,5.44972265625,11.66232421875,13.28709765625,7.435421875,4.76776953125,4.444328125,12.46024609375,25.56868359375,-3.23954296875,11.7263671875,7.89535546875,12.7437421875,10.45548828125,3.139546875,-3.527640625,5.8420078125,21.23534375
17.1965546875,5.75841015625,6.94846875,7.018,7.8697890625,14.3738359375,8.62451171875,9.1110625,-0.166015624999998,10.89720703125,16.188125,10.08639453125,6.61883203125,7.12872265625,12.06232421875,13.94909765625,8.641421875,6.79976953125,5.346328125,13.71524609375,25.90168359375,-2.94954296875,12.2263671875,9.25735546875,13.4577421875,10.48748828125,4.553546875,-4.191640625,6.1020078125,21.44934375
18.5935546875,4.81441015625,5.36746875,6.765,7.3867890625,14.1088359375,8.48851171875,8.1970625,0.513984375000001,10.71120703125,15.413125,9.62339453125,7.54783203125,8.13572265625,11.43332421875,13.22109765625,9.372421875,7.85776953125,5.832328125,13.80724609375,25.15968359375,-2.88954296875,12.5633671875,10.32435546875,13.2207421875,9.62248828125,6.078546875,-5.500640625,5.4810078125,20.51134375
15.3425546875,3.84741015625,5.85046875,5.613,6.2397890625,12.6068359375,6.67751171875,7.2240625,0.695984375,9.63020703125,13.374125,8.29039453125,6.63583203125,8.33472265625,9.71332421875,11.06809765625,9.013421875,7.65376953125,5.749328125,12.51024609375,23.42768359375,-2.79054296875,12.6333671875,10.98035546875,12.1597421875,8.10948828125,7.754546875,-6.723640625,4.4260078125,19.03734375
8.4825546875,3.08741015625,7.72746875,4.076,4.7257890625,10.1498359375,3.60151171875,6.5720625,0.555984375000001,7.92120703125,10.363125,6.20339453125,4.44883203125,7.87072265625,7.14032421875,7.99709765625,7.457421875,6.38576953125,5.224328125,10.07924609375,21.19868359375,-2.34054296875,12.5023671875,11.29835546875,10.7417421875,6.43748828125,9.691546875,-7.050640625,3.5000078125,17.82134375
0.4445546875,2.74441015625,9.63146875,2.862,3.2757890625,7.3268359375,0.203511718749999,6.4130625,0.347984375000001,6.07220703125,6.997125,3.77739453125,1.81583203125,7.12672265625,4.19432421875,4.85709765625,5.186421875,4.66176953125,4.607328125,7.18124609375,19.14668359375,-1.38154296875,12.3553671875,11.48235546875,9.5447421875,5.14348828125,11.952546875,-5.950640625,3.1410078125,17.48934375
-6.0154453125,2.86841015625,10.25946875,2.491,2.2677890625,4.7898359375,-2.53148828125,6.6200625,0.258984375000001,4.57620703125,4.001125,1.55339453125,-0.55516796875,6.57472265625,1.43932421875,2.46109765625,3.055421875,3.20176953125,4.272328125,4.62624609375,17.79768359375,-0.0525429687500001,12.3423671875,11.72535546875,8.9517421875,4.56648828125,14.395546875,-3.493640625,3.4440078125,18.15134375
-8.9794453125,3.27441015625,9.06146875,3.019,1.9047890625,2.9938359375,-4.02948828125,6.8280625,0.308984375000001,3.71120703125,1.928125,-0.0356054687499991,-2.29516796875,6.54472265625,-0.689675781250001,1.24409765625,1.889421875,2.49276953125,4.393328125,3.00724609375,17.27468359375,1.18545703125,12.4183671875,12.05235546875,8.9367421875,4.66148828125,16.588546875,-0.438640625,4.0840078125,19.27234375
-8.0474453125,3.61541015625,6.44646875,4.047,2.1667890625,2.0508359375,-4.30048828125,6.6010625,0.366984375000001,3.43820703125,0.980125,-0.81160546875,-3.38216796875,7.06172265625,-2.02067578125,1.12409765625,2.092421875,2.57176953125,4.837328125,2.47724609375,17.27868359375,1.73445703125,12.3263671875,12.27035546875,9.0807421875,5.01948828125,17.924546875,2.056359375,4.4770078125,19.91634375
-4.2354453125,3.55741015625,3.46046875,4.986,2.8527890625,1.7588359375,-3.77648828125,5.6850625,0.257984375000001,3.48220703125,0.995125,-0.84860546875,-3.99116796875,7.86072265625,-2.65567578125,1.63909765625,3.476421875,3.07576953125,5.266328125,2.77524609375,17.30568359375,1.17745703125,11.7573671875,12.09035546875,8.8407421875,5.09548828125,17.914546875,2.995359375,4.1500078125,19.30034375
0.7305546875,2.96741015625,1.12846875,5.416,3.6497890625,1.7878359375,-2.99148828125,4.1970625,-0.0890156249999983,3.51020703125,1.575125,-0.373605468749999,-4.30816796875,8.55772265625,-2.84667578125,2.23809765625,5.380421875,3.51976953125,5.356328125,3.44824609375,16.97768359375,-0.45354296875,10.5723671875,11.32835546875,7.8907421875,4.51848828125,16.478546875,2.063359375,3.0470078125,17.29634375
5.2395546875,1.97641015625,-0.0765312499999995,5.28,4.2097890625,1.8638359375,-2.34048828125,2.6220625,-0.570015625,3.30320703125,2.248125,0.33739453125,-4.44016796875,8.86472265625,-2.86867578125,2.53409765625,7.025421875,3.59676953125,4.971328125,4.10624609375,16.25268359375,-2.65354296875,8.9213671875,10.03335546875,6.3027421875,3.28348828125,14.015546875,-0.235640625,1.5600078125,14.51034375
8.2655546875,0.92641015625,-0.35853125,4.824,4.2277890625,1.8428359375,-2.01648828125,1.5430625,-0.980015624999998,2.80720703125,2.607125,1.02639453125,-4.40816796875,8.70572265625,-2.94467578125,2.41309765625,7.858421875,3.32876953125,4.193328125,4.55724609375,15.40068359375,-4.69954296875,7.1693671875,8.46235546875,4.4737421875,1.72448828125,11.208546875,-2.899640625,0.248007812499999,11.89734375
9.4075546875,0.19041015625,-0.28953125,4.357,3.5187890625,1.6318359375,-2.09448828125,1.2800625,-1.172015625,2.06720703125,2.384125,1.47939453125,-4.20616796875,8.17972265625,-3.24367578125,1.98109765625,7.724421875,2.98876953125,3.223328125,4.78624609375,14.78168359375,-6.02954296875,5.6913671875,6.92635546875,2.8737421875,0.29548828125,8.697546875,-4.938640625,-0.5029921875,10.20034375
8.7145546875,-0.0355898437499995,-0.39753125,4.008,2.0637890625,1.0898359375,-2.64148828125,1.6360625,-1.179015625,1.12320703125,1.464125,1.52839453125,-3.85216796875,7.43572265625,-3.90167578125,1.40209765625,6.812421875,2.87676953125,2.234328125,4.83724609375,14.59568359375,-6.50554296875,4.7063671875,5.62235546875,1.7907421875,-0.70451171875,6.818546875,-5.780640625,-0.654992187500001,9.57834375
6.5635546875,0.12641015625,-0.924531249999999,3.665,0.000789062500000881,-0.0221640625000008,-3.72948828125,1.9580625,-1.209015625,-0.0537929687499989,-0.133875,1.05539453125,-3.43316796875,6.56172265625,-5.02067578125,0.75209765625,5.475421875,3.07576953125,1.257328125,4.69724609375,14.74668359375,-6.41654296875,4.2163671875,4.54635546875,1.2147421875,-1.29251171875,5.520546875,-5.378640625,-0.427992187500001,9.61534375
3.5885546875,0.28241015625,-1.83953125,3.101,-2.4322109375,-1.9391640625,-5.34648828125,1.4680625,-1.528015625,-1.53679296875,-2.269875,0.0293945312500004,-3.10616796875,5.54672265625,-6.62267578125,-0.0179023437499994,4.055421875,3.35176953125,0.187328125000001,4.27024609375,14.91668359375,-6.25854296875,4.0583671875,3.52635546875,0.9087421875,-1.76551171875,4.489546875,-4.088640625,-0.0679921875000016,9.63534375
0.5655546875,0.00341015625000018,-2.92953125,2.193,-4.9582109375,-4.7091640625,-7.29748828125,-0.2929375,-2.295015625,-3.34079296875,-4.681875,-1.43960546875,-3.05816796875,4.33472265625,-8.59767578125,-0.98390234375,2.804421875,3.23376953125,-1.147671875,3.45524609375,14.77868359375,-6.46354296875,3.9813671875,2.33635546875,0.5877421875,-2.47451171875,3.360546875,-2.466640625,0.3110078125,9.08434375
-1.7894453125,-0.88858984375,-3.87253125,1.072,-7.2932109375,-8.0131640625,-9.19948828125,-3.1119375,-3.438015625,-5.34379296875,-6.994875,-3.04960546875,-3.43116796875,2.90272265625,-10.68767578125,-2.10190234375,1.915421875,2.26676953125,-2.870671875,2.25224609375,14.21768359375,-7.26454296875,3.7043671875,0.81635546875,0.0967421875000001,-3.56951171875,1.890546875,-1.116640625,0.717007812499999,7.79534375
-2.9904453125,-2.19358984375,-4.26353125,0.126,-9.1332109375,-11.1441640625,-10.60448828125,-6.0539375,-4.625015625,-7.26679296875,-8.784875,-4.32860546875,-4.23516796875,1.31972265625,-12.54567578125,-3.14890234375,1.571421875,0.271769531249999,-4.993671875,0.810246093750001,13.42368359375,-8.72754296875,2.9313671875,-1.08064453125,-0.5442578125,-4.85951171875,0.00354687499999873,-0.605640625,1.1460078125,6.03434375
-2.8534453125,-3.41158984375,-3.72753125,-0.151,-10.1912109375,-13.2011640625,-11.15948828125,-7.7809375,-5.378015625,-8.76079296875,-9.686875,-4.76860546875,-5.29616796875,-0.25927734375,-13.84867578125,-3.79090234375,1.944421875,-2.51823046875,-7.402671875,-0.63375390625,12.79068359375,-10.85354296875,1.3753671875,-3.29864453125,-1.2142578125,-5.87551171875,-2.266453125,-1.394640625,1.4750078125,4.34534375
-1.5214453125,-3.97558984375,-2.14653125,0.606,-10.2862109375,-13.4741640625,-10.75648828125,-7.1679375,-5.284015625,-9.55479296875,-9.526875,-4.07460546875,-6.26916796875,-1.65227734375,-14.42767578125,-3.77990234375,3.092421875,-5.54523046875,-9.903671875,-1.89375390625,12.66968359375,-13.61154296875,-1.1836328125,-5.74464453125,-1.8302578125,-6.12651171875,-4.867453125,-3.718640625,1.4680078125,3.25434375
0.5035546875,-3.52958984375,0.10346875,2.406,-9.4802109375,-11.8361640625,-9.63648828125,-3.9589375,-4.215015625,-9.62379296875,-8.468875,-2.43960546875,-6.74816796875,-2.75127734375,-14.36867578125,-3.18190234375,4.837421875,-8.18623046875,-12.315671875,-2.99975390625,13.09568359375,-16.85354296875,-4.7946328125,-8.36164453125,-2.4942578125,-5.42651171875,-7.795453125,-7.440640625,0.876007812499999,2.94634375
2.3935546875,-2.18358984375,2.06646875,4.75,-8.1962109375,-8.9611640625,-8.42048828125,0.876062500000001,-2.465015625,-9.30479296875,-7.110875,-0.676605468749999,-6.43916796875,-3.60927734375,-14.06567578125,-2.52690234375,6.666421875,-10.03923046875,-14.572671875,-4.26375390625,13.61868359375,-20.24354296875,-9.2396328125,-11.18964453125,-3.5452578125,-4.14251171875,-11.111453125,-11.992640625,-0.463992187500001,3.08234375
3.2095546875,-0.60358984375,2.42646875,6.672,-7.2122109375,-6.2201640625,-8.02148828125,5.3130625,-0.748015624999999,-9.27779296875,-6.430875,-0.0436054687499992,-5.34816796875,-4.47827734375,-14.16767578125,-2.73290234375,7.756421875,-11.09323046875,-16.786671875,-6.21375390625,13.38868359375,-23.28954296875,-14.0366328125,-14.36664453125,-5.4782578125,-3.15251171875,-14.900453125,-16.501640625,-2.5859921875,2.89234375
2.2655546875,0.153410156250001,0.0234687500000001,7.018,-7.4762109375,-5.2231640625,-9.36048828125,6.9860625,0.00398437500000171,-10.34879296875,-7.498875,-1.74260546875,-3.86616796875,-5.74327734375,-15.40367578125,-4.76390234375,7.168421875,-11.69023046875,-19.197671875,-9.35575390625,11.49968359375,-25.50954296875,-18.5676328125,-18.03964453125,-8.7102578125,-3.49551171875,-19.153453125,-20.058640625,-5.3789921875,1.56434375
-0.5284453125,-0.92658984375,-5.52853125,4.95,-9.6912109375,-7.1401640625,-12.94248828125,4.1920625,-0.987015625,-13.05879296875,-10.980875,-6.31360546875,-2.63716796875,-7.74527734375,-18.26767578125,-9.13390234375,4.231421875,-12.29623046875,-22.017671875,-13.86075390625,7.48468359375,-26.60154296875,-22.2516328125,-22.18864453125,-13.2682578125,-5.82351171875,-23.628453125,-21.988640625,-8.5709921875,-1.26065625
-4.5794453125,-4.29758984375,-13.40753125,0.417,-13.8722109375,-12.0871640625,-18.47348828125,-3.2449375,-3.929015625,-17.31479296875,-16.689875,-13.23060546875,-2.25016796875,-10.55327734375,-22.71267578125,-15.50990234375,-1.033578125,-13.20823046875,-25.237671875,-19.32775390625,1.71168359375,-26.51454296875,-24.6576328125,-26.47364453125,-18.5882578125,-9.95151171875,-27.779453125,-21.992640625,-11.6939921875,-5.16665625
-8.8294453125,-9.54658984375,-21.64253125,-5.679,-19.1682109375,-18.9411640625,-24.79048828125,-13.6949375,-8.247015625,-22.26079296875,-23.468875,-20.94160546875,-2.92716796875,-13.82127734375,-28.01467578125,-22.65990234375,-7.716578125,-14.37623046875,-28.503671875,-24.79875390625,-4.58331640625,-25.40554296875,-25.5566328125,-30.22264453125,-23.5602578125,-14.76851171875,-30.819453125,-20.167640625,-14.1209921875,-9.01365625
-12.1844453125,-15.45158984375,-27.73653125,-11.777,-24.1312109375,-25.7241640625,-30.20148828125,-24.1809375,-12.765015625,-26.54779296875,-29.529875,-27.37560546875,-4.42016796875,-16.85427734375,-32.94067578125,-28.82090234375,-14.215578125,-15.43423046875,-31.178671875,-29.05675390625,-9.69731640625,-23.55254296875,-24.9166328125,-32.61764453125,-26.8732578125,-18.62051171875,-31.941453125,-16.935640625,-15.1959921875,-11.34365625
-13.9244453125,-20.41458984375,-29.62553125,-16.258,-27.3302109375,-30.4001640625,-33.13748828125,-31.4209375,-16.197015625,-28.88379296875,-33.128875,-30.69060546875,-6.15416796875,-18.86727734375,-36.17767578125,-32.35590234375,-18.788578125,-15.91123046875,-32.570671875,-31.09275390625,-12.13731640625,-21.28654296875,-22.9046328125,-33.00464453125,-27.5272578125,-19.98951171875,-30.609453125,-12.943640625,-14.4499921875,-10.96965625
-13.9464453125,-23.06258984375,-26.55153125,-18.062,-27.9412109375,-31.6871640625,-32.78248828125,-33.0219375,-17.670015625,-28.59379296875,-33.272875,-29.99560546875,-7.52716796875,-19.32527734375,-36.82867578125,-32.39790234375,-20.175578125,-15.50523046875,-32.232671875,-30.51175390625,-11.24331640625,-18.94554296875,-19.8596328125,-31.18864453125,-25.2702578125,-18.17051171875,-26.809453125,-8.931640625,-11.8019921875,-7.47065625
-12.7464453125,-22.75458984375,-19.47553125,-17.042,-26.0422109375,-29.5121640625,-29.40848828125,-28.4269375,-17.023015625,-25.90679296875,-30.120875,-25.72060546875,-8.14516796875,-18.20327734375,-34.77467578125,-29.20990234375,-18.044578125,-14.24123046875,-30.191671875,-27.70575390625,-7.47931640625,-16.84354296875,-16.2396328125,-27.57764453125,-20.7782578125,-13.61351171875,-21.161453125,-5.602640625,-7.6919921875,-1.45765625
-11.1584453125,-19.76458984375,-10.83153125,-13.949,-22.5112109375,-24.9491640625,-24.25648828125,-19.2269375,-14.782015625,-21.83679296875,-24.892875,-19.46060546875,-7.91216796875,-16.02827734375,-30.73567578125,-24.08090234375,-13.122578125,-12.48923046875,-26.993671875,-23.73575390625,-2.27831640625,-15.25054296875,-12.5516328125,-23.11364453125,-15.4692578125,-7.80451171875,-14.824453125,-3.486640625,-3.0589921875,5.49634375
-9.9564453125,-15.09458984375,-3.66053125,-10.079,-18.6202109375,-19.6871640625,-18.99848828125,-8.6259375,-11.871015625,-17.71979296875,-19.332875,-13.33160546875,-6.97516796875,-13.68427734375,-25.98567578125,-18.79990234375,-6.977578125,-10.80023046875,-23.515671875,-19.94675390625,2.50968359375,-14.35154296875,-9.2866328125,-18.97764453125,-11.0152578125,-2.72451171875,-9.200453125,-2.827640625,0.866007812499999,11.27634375
-9.4944453125,-10.05558984375,-0.39053125,-6.732,-15.4852109375,-15.2781640625,-15.01248828125,-0.141937499999999,-9.213015625,-14.63279296875,-14.983875,-9.09360546875,-5.58416796875,-12.02627734375,-21.83367578125,-14.93890234375,-1.508578125,-9.65823046875,-20.627671875,-17.47475390625,5.32768359375,-14.16454296875,-6.8356328125,-16.18764453125,-8.7502578125,-0.0985117187499999,-5.511453125,-3.495640625,2.9350078125,13.91234375
-9.5524453125,-5.83358984375,-1.77753125,-4.699,-13.6112109375,-12.4881640625,-12.83148828125,3.9020625,-7.366015625,-12.96479296875,-12.603875,-7.48460546875,-3.97616796875,-11.48127734375,-19.06967578125,-13.25390234375,1.770421875,-9.23823046875,-18.828671875,-16.81675390625,5.49968359375,-14.45554296875,-5.3826328125,-15.21364453125,-9.1772578125,-0.73651171875,-4.391453125,-4.973640625,2.5360078125,12.34134375
-9.4814453125,-3.16458984375,-6.53953125,-4.03,-12.7592109375,-11.1011640625,-12.05248828125,3.3020625,-6.362015625,-12.33479296875,-11.981875,-8.05960546875,-2.31716796875,-11.85927734375,-17.65667578125,-13.47590234375,2.356421875,-9.31523046875,-18.024671875,-17.63675390625,3.44468359375,-14.73254296875,-4.8146328125,-15.79764453125,-11.8002578125,-4.21751171875,-5.644453125,-6.463640625,-0.0859921875000005,6.93234375
-8.5524453125,-2.18958984375,-11.98653125,-4.152,-12.2042109375,-10.2061640625,-11.71948828125,-0.189937499999999,-5.809015625,-11.87479296875,-12.168875,-9.56760546875,-0.71116796875,-12.46727734375,-16.83067578125,-14.52290234375,0.965421875000001,-9.36723046875,-17.580671875,-18.90875390625,0.431683593750002,-14.39254296875,-4.7116328125,-17.04664453125,-15.3112578125,-9.05451171875,-8.284453125,-7.113640625,-3.8359921875,-0.524656250000001
-6.3484453125,-2.48858984375,-15.33653125,-4.259,-11.1912109375,-8.7871640625,-10.89648828125,-3.9599375,-5.168015625,-10.72779296875,-12.003875,-10.61460546875,0.76683203125,-12.48527734375,-15.56467578125,-15.05490234375,-0.842578124999999,-8.85623046875,-16.632671875,-19.36975390625,-2.00331640625,-13.00354296875,-4.4706328125,-17.80764453125,-18.1162578125,-13.31051171875,-10.907453125,-6.345640625,-7.1759921875,-7.47865625
-3.0284453125,-3.30358984375,-14.99353125,-3.742,-9.3222109375,-6.2661640625,-9.08248828125,-5.8689375,-4.047015625,-8.47979296875,-10.661875,-10.26960546875,2.01783203125,-11.37027734375,-13.14367578125,-14.09790234375,-1.472578125,-7.52223046875,-14.534671875,-18.08975390625,-2.71331640625,-10.57154296875,-3.5426328125,-17.17064453125,-18.9672578125,-15.41751171875,-12.263453125,-4.127640625,-8.8119921875,-11.70065625
0.6375546875,-3.87558984375,-11.09553125,-2.476,-6.7082109375,-2.7531640625,-6.31248828125,-5.1349375,-2.385015625,-5.33879296875,-7.970875,-8.38160546875,2.88583203125,-9.10027734375,-9.54367578125,-11.45290234375,-0.0975781249999983,-5.54223046875,-11.203671875,-14.90075390625,-1.39631640625,-7.64254296875,-1.7006328125,-14.86764453125,-17.4562578125,-14.82351171875,-11.775453125,-1.089640625,-8.3039921875,-12.28065625
3.5315546875,-3.73658984375,-5.14153125,-0.833,-3.8722109375,1.0658359375,-3.01148828125,-2.3879375,-0.471015625,-1.98179296875,-4.395875,-5.51160546875,3.16583203125,-6.13127734375,-5.40267578125,-7.70490234375,2.968421875,-3.44423046875,-7.157671875,-10.44675390625,1.37268359375,-5.13554296875,0.8373671875,-11.35164453125,-14.1032578125,-12.14551171875,-9.703453125,1.649359375,-6.2549921875,-9.97065625
4.6815546875,-2.82558984375,0.91246875,0.563,-1.4922109375,4.3018359375,0.257511718749999,0.962062500000001,1.206984375,0.818207031250001,-0.713875,-2.58060546875,2.69583203125,-3.13327734375,-1.63767578125,-3.85990234375,6.536421875,-1.83823046875,-3.234671875,-5.83375390625,4.50668359375,-3.94654296875,3.5013671875,-7.51064453125,-10.0262578125,-8.74351171875,-6.891453125,2.946359375,-3.9479921875,-6.63565625
3.7925546875,-1.40858984375,5.47446875,1.21,-0.0952109374999992,6.3018359375,3.00351171875,3.5930625,2.229984375,2.57120703125,2.364125,-0.394605468749999,1.46683203125,-0.667277343749999,1.04532421875,-0.83290234375,9.278421875,-1.09323046875,-0.180671875,-2.09575390625,6.98068359375,-4.51854296875,5.6523671875,-4.20064453125,-6.3592578125,-5.94851171875,-4.241453125,2.202359375,-2.5929921875,-4.11265625
1.4795546875,0.12441015625,7.72346875,0.978,0.155789062500002,6.9098359375,4.92451171875,4.8740625,2.465984375,3.24820703125,4.456125,0.705394531250001,-0.31016796875,1.00272265625,2.43932421875,0.92509765625,10.476421875,-1.16723046875,1.652328125,0.23124609375,8.29068359375,-6.57754296875,6.8753671875,-1.88664453125,-3.7772578125,-4.40451171875,-2.280453125,-0.263640625,-2.6409921875,-3.17265625
-0.9834453125,1.44641015625,7.60746875,0.123,-0.494210937499998,6.4228359375,5.91451171875,4.9420625,2.122984375,3.20320703125,5.541125,0.932394531250001,-2.27516796875,1.90272265625,2.81032421875,1.51409765625,10.356421875,-1.65923046875,2.347328125,1.21924609375,8.57068359375,-9.21354296875,7.1063671875,-0.572644531250001,-2.3382578125,-3.87451171875,-1.040453125,-3.316640625,-3.5869921875,-3.25365625
-2.3084453125,2.39041015625,5.66146875,-0.905,-1.5202109375,5.3588359375,6.04151171875,4.3660625,1.601984375,2.93120703125,5.833125,0.852394531250001,-4.03316796875,2.20372265625,2.64132421875,1.40509765625,9.842421875,-2.04723046875,2.259328125,1.33524609375,8.35568359375,-11.29654296875,6.5493671875,-0.0096445312500002,-1.6892578125,-3.58951171875,-0.295453125000001,-5.572640625,-4.4069921875,-3.11665625
-1.8224453125,2.92041015625,2.74046875,-1.708,-2.3412109375,4.1818359375,5.49151171875,3.6870625,1.293984375,2.78620703125,5.585125,0.996394531250001,-5.28716796875,2.05772265625,2.33332421875,1.12509765625,9.911421875,-1.96523046875,1.746328125,1.09224609375,8.17268359375,-12.01854296875,5.4703671875,0.0183554687500003,-1.4392578125,-2.86951171875,0.0775468749999995,-6.153640625,-4.3279921875,-1.92365625
0.2845546875,3.01941015625,-0.26253125,-2.088,-2.5742109375,3.1298359375,4.52451171875,3.1230625,1.415984375,2.79820703125,4.928125,1.54639453125,-5.91116796875,1.51272265625,2.02732421875,0.99209765625,10.972421875,-1.36523046875,0.988328125000001,0.77024609375,8.22568359375,-11.26854296875,4.0213671875,-0.45864453125,-1.4312578125,-1.58751171875,-0.100453125,-5.145640625,-3.3859921875,0.0493437499999985
3.1935546875,2.63841015625,-2.64753125,-2.057,-2.1932109375,2.2178359375,3.42551171875,2.5680625,1.957984375,2.68820703125,3.864125,2.27239453125,-5.98116796875,0.54172265625,1.62732421875,1.06709765625,12.657421875,-0.524230468750001,-0.0196718750000002,0.38624609375,8.39768359375,-9.63754296875,2.2163671875,-1.51564453125,-1.7302578125,-0.16651171875,-1.166453125,-3.504640625,-2.3679921875,1.58034375
5.9035546875,1.76941015625,-3.96653125,-1.748,-1.5142109375,1.3738359375,2.49451171875,1.8180625,2.740984375,2.08720703125,2.415125,2.77939453125,-5.73216796875,-0.829277343749999,0.98532421875,1.29809765625,14.153421875,0.135769531249999,-1.308671875,-0.11075390625,8.50968359375,-8.05654296875,0.0483671875000002,-3.09164453125,-2.3702578125,0.82848828125,-3.247453125,-2.475640625,-2.2029921875,1.39534375
7.5785546875,0.57041015625,-3.94753125,-1.304,-0.982210937499998,0.616835937499999,2.03951171875,0.861062500000001,3.538984375,0.815207031250001,0.790125,2.83539453125,-5.43816796875,-2.42327734375,0.115324218749999,1.69609765625,14.786421875,0.289769531249999,-2.752671875,-0.625753906250001,8.58768359375,-7.30554296875,-2.3676328125,-4.83364453125,-3.1082578125,1.14248828125,-5.989453125,-2.910640625,-3.2809921875,-0.88865625
7.6875546875,-0.62658984375,-2.45953125,-0.837,-0.907210937499999,0.1258359375,2.31151171875,-0.0119374999999993,4.166984375,-0.956792968749999,-0.606875,2.50739453125,-5.29116796875,-3.93327734375,-0.760675781250001,2.35209765625,14.412421875,-0.111230468750001,-4.055671875,-0.88675390625,8.88468359375,-7.66354296875,-4.7616328125,-6.18864453125,-3.4582578125,0.97648828125,-8.634453125,-4.892640625,-5.1989921875,-4.47565625
6.0665546875,-1.45858984375,0.32846875,-0.448,-1.3212109375,0.110835937499999,3.34951171875,-0.3829375,4.495984375,-2.80079296875,-1.401875,2.02639453125,-5.35016796875,-5.08327734375,-1.36767578125,3.29409765625,13.397421875,-0.864230468750001,-4.920671875,-0.64575390625,9.63268359375,-8.86554296875,-6.8376328125,-6.71764453125,-2.9922578125,0.77148828125,-10.419453125,-7.812640625,-7.0749921875,-7.93165625
3.0455546875,-1.74858984375,3.68546875,-0.284,-2.0562109375,0.596835937499999,4.83851171875,-0.0499374999999995,4.389984375,-4.29079296875,-1.513875,1.54939453125,-5.57216796875,-5.80727734375,-1.60067578125,4.33109765625,12.284421875,-1.69423046875,-5.278671875,0.0642460937500005,10.76068359375,-10.34154296875,-8.4426328125,-6.38864453125,-1.6802578125,0.87048828125,-10.998453125,-10.776640625,-8.1329921875,-10.09865625
-0.4774453125,-1.63258984375,6.31346875,-0.536,-2.9412109375,1.2958359375,6.10851171875,0.748062500000001,3.700984375,-5.22979296875,-1.278875,1.00439453125,-5.86816796875,-6.29027734375,-1.64167578125,5.04909765625,11.438421875,-2.44523046875,-5.362671875,0.842246093750001,11.84268359375,-11.55854296875,-9.6346328125,-5.63564453125,-0.00325781250000001,1.30748828125,-10.587453125,-13.014640625,-8.1259921875,-10.70965625
-3.2654453125,-1.50858984375,6.85146875,-1.36,-3.9482109375,1.7078359375,6.38351171875,1.4240625,2.367984375,-5.71779296875,-1.291875,0.16739453125,-6.10716796875,-6.81627734375,-1.84667578125,4.98209765625,10.875421875,-3.10823046875,-5.567671875,1.09624609375,12.31168359375,-12.25554296875,-10.5706328125,-5.11464453125,1.2667421875,1.82848828125,-9.762453125,-14.078640625,-7.3619921875,-10.35565625
-4.2964453125,-1.81658984375,4.70946875,-2.748,-5.1182109375,1.4068359375,5.17851171875,1.4190625,0.577984375000002,-5.99079296875,-2.057875,-1.11260546875,-6.09416796875,-7.52027734375,-2.49267578125,3.87709765625,10.346421875,-3.68023046875,-6.141671875,0.38324609375,11.79368359375,-12.45254296875,-11.2866328125,-5.30864453125,1.4747421875,2.08348828125,-9.046453125,-13.786640625,-6.3719921875,-9.92665625
-3.3334453125,-2.73658984375,0.66646875,-4.42,-6.3582109375,0.3498359375,2.66751171875,0.5800625,-1.162015625,-6.17079296875,-3.631875,-2.66360546875,-5.56516796875,-8.19427734375,-3.52567578125,1.91209765625,9.556421875,-3.97123046875,-6.917671875,-1.25675390625,10.34168359375,-12.27454296875,-11.5416328125,-6.18164453125,0.4787421875,1.87848828125,-8.541453125,-12.060640625,-5.4709921875,-9.94965625
-1.0654453125,-3.98558984375,-3.35153125,-5.842,-7.3002109375,-1.0071640625,-0.24448828125,-0.7469375,-2.124015625,-6.09779296875,-5.474875,-3.93160546875,-4.25116796875,-8.29527734375,-4.48567578125,-0.26490234375,8.380421875,-3.55023046875,-7.270671875,-3.20275390625,8.42968359375,-11.71754296875,-10.8416328125,-7.09864453125,-1.2132578125,1.31848828125,-7.804453125,-8.815640625,-4.4779921875,-10.22165625
1.3165546875,-4.90858984375,-5.30853125,-6.411,-7.4002109375,-1.8811640625,-2.27648828125,-1.9609375,-1.666015625,-5.38979296875,-6.677875,-4.21460546875,-2.01116796875,-7.17227734375,-4.70267578125,-1.78490234375,6.927421875,-1.93823046875,-6.389671875,-4.49275390625,6.71168359375,-10.56954296875,-8.6726328125,-7.09264453125,-2.6722578125,0.74648828125,-6.100453125,-4.031640625,-2.8139921875,-9.98865625
2.8265546875,-4.87458984375,-4.23053125,-5.771,-6.2682109375,-1.5911640625,-2.41248828125,-2.6189375,0.390984375,-3.73279296875,-6.451875,-3.11760546875,1.02383203125,-4.43927734375,-3.66967578125,-1.99290234375,5.421421875,1.04176953125,-3.766671875,-4.31375390625,5.65668359375,-8.55954296875,-4.8666328125,-5.39564453125,-3.0742578125,0.46648828125,-2.908453125,2.021359375,0.0460078124999992,-8.53965625
3.1555546875,-3.72158984375,-0.71653125,-4.071,-3.9842109375,0.0218359374999997,-0.472488281250001,-2.6829375,3.520984375,-1.19079296875,-4.596875,-0.91260546875,4.37683203125,-0.29527734375,-1.38067578125,-0.820902343749999,4.043421875,4.97476953125,0.414328125000001,-2.45875390625,5.30768359375,-5.70154296875,0.1263671875,-1.91564453125,-2.1752578125,0.48048828125,1.623546875,8.583359375,4.0470078125,-5.83365625
2.6395546875,-1.91858984375,3.52046875,-1.967,-1.1422109375,2.4698359375,2.76651171875,-2.4259375,6.610984375,1.68520703125,-1.638875,1.47339453125,7.32883203125,4.43472265625,1.61732421875,1.17109765625,2.860421875,8.88176953125,5.262328125,0.55224609375,5.31368359375,-2.52854296875,5.2613671875,2.64435546875,-0.4292578125,0.45248828125,6.605546875,14.470359375,8.3710078125,-2.65965625
1.8675546875,-0.30858984375,6.66346875,-0.31,1.4417890625,4.8868359375,5.97551171875,-2.0939375,8.458984375,4.06220703125,1.443125,2.90839453125,9.20783203125,8.59972265625,4.49832421875,3.11109765625,1.892421875,11.61976953125,9.579328125,3.77924609375,5.21668359375,0.0234570312500004,9.3043671875,7.12535546875,1.3387421875,-0.02951171875,10.795546875,18.474359375,11.7660078125,-0.20965625
1.2855546875,0.40141015625,7.67046875,0.302,3.1577890625,6.5118359375,7.95851171875,-1.6549375,8.392984375,5.21920703125,3.704125,2.66739453125,9.72383203125,11.22872265625,6.58032421875,4.28209765625,1.209421875,12.44476953125,12.435328125,6.35824609375,4.77668359375,1.11145703125,11.3993671875,10.49435546875,2.4497421875,-1.10251171875,13.227546875,19.934359375,13.1880078125,0.638343749999999
1.0495546875,0.0324101562500001,6.58246875,-0.166,3.8487890625,7.0448359375,8.18251171875,-0.878937499999999,6.620984375,4.88620703125,4.638125,0.836394531250001,9.14083203125,11.93872265625,7.61232421875,4.44509765625,0.946421875,11.38076953125,13.543328125,7.88024609375,4.09868359375,0.510457031250001,11.4443671875,12.28235546875,2.7227421875,-2.48651171875,13.662546875,19.087359375,12.3010078125,-0.229656250000001
1.1215546875,-1.03158984375,4.25346875,-1.222,3.7337890625,6.6668359375,6.88551171875,0.3380625,4.075984375,3.33320703125,4.296125,-1.74960546875,8.13783203125,11.01772265625,7.77032421875,3.85509765625,1.193421875,9.17476953125,13.250328125,8.44024609375,3.49868359375,-1.21354296875,10.0273671875,12.65335546875,2.4487421875,-3.64051171875,12.618546875,16.936359375,9.5530078125,-2.21065625
1.4235546875,-2.13658984375,1.77246875,-2.157,3.1337890625,5.7718359375,4.78151171875,1.7310625,1.891984375,1.17020703125,3.104125,-3.97960546875,7.43683203125,9.17172265625,7.40832421875,3.00909765625,1.863421875,6.87876953125,12.196328125,8.39924609375,3.24168359375,-3.03854296875,8.0093671875,12.12535546875,2.0987421875,-4.11051171875,10.980546875,14.695359375,5.8310078125,-4.43465625
1.8965546875,-2.74758984375,-0.0995312499999996,-2.458,2.2357890625,4.6768359375,2.62251171875,2.7610625,0.831984375000001,-0.96579296875,1.561125,-5.05160546875,7.41983203125,7.13172265625,6.77532421875,2.32709765625,2.657421875,5.32876953125,10.899328125,8.07624609375,3.35368359375,-4.08154296875,6.0483671875,11.16435546875,1.9767421875,-3.79751171875,9.471546875,13.158359375,1.9830078125,-6.27965625
2.4775546875,-2.68658984375,-1.20853125,-2.074,1.0477890625,3.4978359375,0.89651171875,2.9520625,0.976984375000001,-2.66479296875,0.0201250000000002,-4.80360546875,7.97483203125,5.35672265625,5.89432421875,1.96709765625,3.204421875,4.78976953125,9.532328125,7.55924609375,3.61168359375,-4.06654296875,4.3313671875,9.93435546875,2.0577421875,-2.99651171875,8.292546875,12.353359375,-1.5139921875,-7.68265625
3.0805546875,-2.11558984375,-1.90053125,-1.405,-0.483210937499999,2.2308359375,-0.22448828125,2.2140625,1.772984375,-3.78879296875,-1.333875,-3.64560546875,8.63483203125,3.97772265625,4.66032421875,1.86209765625,3.276421875,4.92876953125,7.978328125,6.75424609375,3.69868359375,-3.39154296875,2.6303671875,8.31435546875,2.0697421875,-2.20751171875,7.114546875,11.673359375,-4.5909921875,-9.09765625
3.6335546875,-1.36458984375,-2.60753125,-1.048,-2.3052109375,0.9288359375,-0.76948828125,0.9070625,2.371984375,-4.38279296875,-2.378875,-2.20960546875,8.89983203125,2.91472265625,3.04632421875,1.88709765625,2.955421875,5.08876953125,6.072328125,5.56724609375,3.40168359375,-2.82654296875,0.557367187500001,6.11735546875,1.7297421875,-1.84451171875,5.385546875,10.351359375,-7.3789921875,-11.11965625
4.0915546875,-0.76758984375,-3.41253125,-1.433,-4.1742109375,-0.213164062500001,-0.85548828125,-0.365937499999999,2.069984375,-4.56679296875,-2.991875,-1.00760546875,8.50583203125,2.04272265625,1.21232421875,1.98809765625,2.597421875,4.66376953125,3.807328125,4.05224609375,2.71968359375,-3.07054296875,-2.1536328125,3.31935546875,0.9527421875,-2.02951171875,2.706546875,7.957359375,-9.9629921875,-14.02765625
4.3935546875,-0.53358984375,-3.89153125,-2.577,-5.7072109375,-0.9131640625,-0.64848828125,-1.0759375,0.634984375,-4.49679296875,-3.081875,-0.246605468749999,7.50983203125,1.26972265625,-0.548675781250001,2.19509765625,2.614421875,3.38776953125,1.390328125,2.42524609375,1.84268359375,-4.43154296875,-5.4916328125,0.142355468749999,-0.0922578125,-2.54651171875,-0.927453125,4.618359375,-12.2609921875,-17.50765625
4.4035546875,-0.665589843749999,-3.36953125,-4.067,-6.5202109375,-0.939164062500001,-0.34648828125,-0.9869375,-1.612015625,-4.34679296875,-2.656875,0.163394531250001,6.18283203125,0.54472265625,-1.95667578125,2.54509765625,3.219421875,1.41876953125,-0.851671874999999,0.958246093750001,1.04868359375,-6.74054296875,-9.1776328125,-3.01364453125,-1.0662578125,-2.97751171875,-5.103453125,0.898359375,-14.0549921875,-20.72565625
3.9045546875,-0.947589843749999,-1.45153125,-5.304,-6.3582109375,-0.2351640625,-0.117488281250001,-0.197937499999999,-3.985015625,-4.29479296875,-1.849875,0.48439453125,4.84283203125,-0.162277343749999,-2.86667578125,3.01509765625,4.288421875,-0.768230468750001,-2.607671875,-0.157753906249999,0.576683593750001,-9.46954296875,-12.7786328125,-5.71464453125,-1.6172578125,-2.89651171875,-9.136453125,-2.506640625,-15.0959921875,-22.69165625
2.6905546875,-1.06358984375,1.53946875,-5.868,-5.2022109375,1.0338359375,-0.0294882812499999,0.962062500000001,-5.774015625,-4.49479296875,-0.914875,0.943394531250001,3.72483203125,-0.889277343749999,-3.31467578125,3.48909765625,5.436421875,-2.61923046875,-3.721671875,-0.89675390625,0.519683593749999,-11.97154296875,-15.8686328125,-7.64364453125,-1.5352578125,-2.06651171875,-12.324453125,-5.039640625,-15.2149921875,-22.71765625
0.7015546875,-0.82058984375,4.53346875,-5.776,-3.3432109375,2.4658359375,-0.0944882812500012,2.0870625,-6.593015625,-5.09879296875,-0.207875,1.53439453125,2.93183203125,-1.70927734375,-3.53167578125,3.74409765625,6.187421875,-3.74323046875,-4.282671875,-1.43375390625,0.766683593749999,-13.72354296875,-18.1816328125,-8.71764453125,-0.8622578125,-0.55251171875,-14.193453125,-6.421640625,-14.4189921875,-20.76965625
-1.8664453125,-0.33358984375,6.13346875,-5.481,-1.4382109375,3.4448359375,-0.42048828125,2.7930625,-6.588015625,-6.29579296875,-0.168875,1.93439453125,2.43583203125,-2.76027734375,-3.92167578125,3.48109765625,6.162421875,-4.04623046875,-4.639671875,-2.09875390625,0.99468359375,-14.47454296875,-19.7126328125,-9.13064453125,0.0747421875000001,1.24748828125,-14.670453125,-6.626640625,-12.9339921875,-17.56265625
-4.5244453125,-0.02358984375,5.23846875,-5.594,-0.455210937499999,3.2528359375,-1.32748828125,2.7680625,-6.392015625,-8.32479296875,-1.240875,1.60939453125,2.11183203125,-4.23627734375,-4.98867578125,2.38009765625,5.181421875,-3.69823046875,-5.299671875,-3.28275390625,0.756683593750001,-14.24254296875,-20.7016328125,-9.31664453125,0.7327421875,2.70448828125,-14.089453125,-5.783640625,-11.1629921875,-14.33765625
-6.6044453125,-0.42558984375,1.55846875,-6.51,-1.3792109375,1.3288359375,-3.24348828125,1.8040625,-6.798015625,-11.36979296875,-3.707875,0.0743945312500003,1.79083203125,-6.31027734375,-7.14367578125,0.21909765625,3.294421875,-2.97023046875,-6.719671875,-5.29575390625,-0.36731640625,-13.21154296875,-21.4966328125,-9.78664453125,0.5277421875,3.17348828125,-13.034453125,-4.069640625,-9.5349921875,-12.36465625
-7.5204453125,-1.90458984375,-4.19953125,-8.152,-4.7092109375,-2.4021640625,-6.39348828125,-0.139937499999999,-8.306015625,-15.37579296875,-7.502875,-2.81960546875,1.33683203125,-8.97727734375,-10.47267578125,-3.00690234375,0.747421875000001,-2.05623046875,-9.053671875,-8.20275390625,-2.56431640625,-11.61054296875,-22.3336328125,-10.91364453125,-0.9262578125,2.26448828125,-12.073453125,-1.673640625,-8.3049921875,-12.36465625
-7.0834453125,-4.44258984375,-10.51853125,-9.999,-10.0362109375,-7.3371640625,-10.50548828125,-2.9009375,-10.800015625,-19.89979296875,-12.114875,-6.74060546875,0.71383203125,-11.93827734375,-14.59467578125,-7.00290234375,-2.115578125,-0.99123046875,-12.015671875,-11.74075390625,-5.68031640625,-9.65854296875,-23.1766328125,-12.72764453125,-3.6232578125,0.04948828125,-11.499453125,1.171359375,-7.4619921875,-14.17565625
-5.6424453125,-7.61958984375,-15.62553125,-11.371,-16.0582109375,-12.3451640625,-14.80748828125,-6.1599375,-13.595015625,-24.15479296875,-16.688875,-10.97260546875,0.0228320312499999,-14.62127734375,-18.72267578125,-11.21290234375,-4.984578125,0.27476953125,-14.926671875,-15.35175390625,-9.24731640625,-7.57454296875,-23.7186328125,-14.86364453125,-7.1302578125,-2.95451171875,-11.239453125,4.136359375,-6.8159921875,-16.90165625
-3.9094453125,-10.77758984375,-18.19153125,-11.781,-21.0772109375,-16.2061640625,-18.33948828125,-9.5559375,-15.794015625,-27.26179296875,-20.300875,-14.70160546875,-0.51216796875,-16.37527734375,-21.92267578125,-14.97490234375,-7.658578125,1.74076953125,-16.963671875,-18.35475390625,-12.67031640625,-5.60154296875,-23.5396328125,-16.66764453125,-10.7412578125,-6.02551171875,-10.934453125,6.799359375,-6.1919921875,-19.44065625
-2.5794453125,-13.25758984375,-17.85553125,-11.125,-23.7122109375,-18.0881640625,-20.37848828125,-12.7289375,-16.704015625,-28.57879296875,-22.280875,-17.32160546875,-0.61416796875,-16.70027734375,-23.42667578125,-17.71290234375,-9.995578125,3.28876953125,-17.451671875,-20.12775390625,-15.43931640625,-3.95054296875,-22.2996328125,-17.42564453125,-13.7222578125,-8.54751171875,-10.135453125,8.776359375,-5.5249921875,-21.03765625
-2.0384453125,-14.55658984375,-15.26353125,-9.623,-23.4352109375,-17.7991640625,-20.68848828125,-15.2989375,-16.092015625,-27.90679296875,-22.395875,-18.58560546875,-0.04916796875,-15.39927734375,-22.84167578125,-19.05390234375,-11.780578125,4.74776953125,-16.059671875,-20.24575390625,-17.25031640625,-2.68454296875,-19.8506328125,-16.58964453125,-15.4982578125,-10.20751171875,-8.479453125,9.921359375,-4.7909921875,-21.51365625
-2.3214453125,-14.38658984375,-11.62253125,-7.633,-20.6572109375,-15.7291640625,-19.49248828125,-16.8309375,-14.184015625,-25.48879296875,-20.829875,-18.56860546875,1.26983203125,-12.59927734375,-20.21467578125,-18.83990234375,-12.641578125,6.04976953125,-12.843671875,-18.53575390625,-17.99831640625,-1.64254296875,-16.2486328125,-13.93764453125,-15.7422578125,-10.97151171875,-5.787453125,10.449359375,-3.8739921875,-21.11365625
-3.2234453125,-12.67258984375,-8.07653125,-5.46,-16.3992109375,-12.5591640625,-17.22248828125,-16.8949375,-11.484015625,-21.85479296875,-18.001875,-17.48660546875,3.23283203125,-8.67427734375,-15.96367578125,-17.09490234375,-12.147578125,7.33076953125,-8.176671875,-15.08475390625,-17.69631640625,-0.49554296875,-11.7136328125,-9.62864453125,-14.3662578125,-10.92251171875,-2.104453125,10.868359375,-2.5299921875,-20.17965625
-4.3714453125,-9.58158984375,-5.26753125,-3.263,-11.7432109375,-8.9311640625,-14.25548828125,-15.2219375,-8.514015625,-17.60479296875,-14.353875,-15.51860546875,5.57483203125,-4.12227734375,-10.72867578125,-13.99090234375,-10.050578125,8.91376953125,-2.635671875,-10.23975390625,-16.39131640625,1.10045703125,-6.5876328125,-4.14964453125,-11.4842578125,-10.08551171875,2.299546875,11.748359375,-0.501992187500001,-18.89765625
-5.2024453125,-5.56558984375,-3.24553125,-1.062,-7.4102109375,-5.2481640625,-10.80948828125,-11.8769375,-5.619015625,-13.26279296875,-10.241875,-12.73960546875,7.97383203125,0.535722656250002,-5.21867578125,-9.84590234375,-6.515578125,11.15676953125,3.118328125,-4.58175390625,-14.15231640625,3.34745703125,-1.2936328125,1.80935546875,-7.3852578125,-8.39951171875,6.969546875,13.466359375,2.3140078125,-17.25565625
-5.0044453125,-1.37558984375,-1.68953125,1.143,-3.7012109375,-1.7341640625,-7.06748828125,-7.3919375,-2.951015625,-9.25679296875,-5.974875,-9.21160546875,10.13883203125,4.80472265625,-0.103675781250001,-5.15290234375,-2.180578125,14.23776953125,8.425328125,1.11324609375,-11.13731640625,6.22045703125,3.6803671875,7.49735546875,-2.5242578125,-5.82451171875,11.348546875,16.047359375,5.7490078125,-15.19265625
-3.1814453125,2.06541015625,-0.27953125,3.2,-0.778210937499999,1.3458359375,-3.41348828125,-2.7489375,-0.626015624999999,-6.01979296875,-1.958875,-5.19860546875,11.82183203125,8.21172265625,4.01832421875,-0.586902343749999,2.014421875,17.94976953125,12.663328125,5.97124609375,-7.67131640625,9.41545703125,7.7743671875,12.20035546875,2.4747421875,-2.50951171875,14.881546875,19.127359375,9.3670078125,-12.76665625
0.3225546875,3.91741015625,0.96446875,4.718,1.0257890625,3.5238359375,-0.54248828125,0.8220625,1.116984375,-4.07679296875,1.196125,-1.33260546875,12.81183203125,10.28572265625,6.61432421875,3.04309765625,5.121421875,21.61776953125,15.260328125,9.16124609375,-4.27431640625,12.36645703125,10.3803671875,15.28535546875,6.8467421875,1.12448828125,17.087546875,22.042359375,12.5740078125,-10.25165625
4.7335546875,3.75441015625,1.58046875,5.181,1.1747890625,4.2148359375,0.72151171875,2.2590625,1.931984375,-3.96279296875,2.756125,1.45839453125,12.95983203125,10.60972265625,7.27332421875,4.95809765625,6.514421875,24.24176953125,15.754328125,10.09624609375,-1.55331640625,14.35145703125,10.9383671875,16.26135546875,9.8017421875,4.44248828125,17.617546875,24.024359375,14.7730078125,-8.09165625
8.5975546875,1.76941015625,0.96546875,4.239,-0.747210937499998,3.0128359375,-0.18048828125,1.1280625,1.550984375,-5.97379296875,2.156125,2.30439453125,12.24083203125,8.95172265625,5.83232421875,4.67709765625,6.094421875,24.82276953125,13.909328125,8.61924609375,-0.0183164062499994,14.72945703125,9.1243671875,14.88435546875,10.7377421875,6.80348828125,16.314546875,24.459359375,15.5060078125,-6.77265625
10.3705546875,-1.26658984375,-1.06853125,1.993,-4.6312109375,0.0188359374999996,-3.17148828125,-2.0939375,-0.0100156249999994,-9.89079296875,-0.625875000000001,0.852394531250001,10.80983203125,5.42472265625,2.51932421875,2.26809765625,4.310421875,22.76176953125,9.866328125,5.09424609375,0.124683593749999,13.19845703125,5.0163671875,11.27735546875,9.4777421875,7.82048828125,13.284546875,23.106359375,14.5430078125,-6.66365625
9.1465546875,-4.31158984375,-3.88553125,-0.938,-9.6322109375,-4.0501640625,-7.41048828125,-6.0949375,-2.355015625,-14.87879296875,-4.893875,-2.43460546875,8.97183203125,0.57072265625,-1.99267578125,-1.56590234375,1.986421875,18.15876953125,4.218328125,0.34724609375,-0.906316406249999,9.95345703125,-0.8226328125,6.00235546875,6.4167421875,7.55848828125,8.932546875,20.186359375,11.9230078125,-7.82865625
5.1135546875,-6.44858984375,-6.18653125,-3.625,-14.3402109375,-8.0321640625,-11.52648828125,-9.1999375,-4.805015625,-19.68379296875,-9.391875,-6.37160546875,7.09783203125,-4.70527734375,-6.70067578125,-5.66490234375,0.0214218750000015,11.90476953125,-2.045671875,-4.54675390625,-2.50731640625,5.64745703125,-7.4056328125,0.00435546874999915,2.4537421875,6.54048828125,3.933546875,16.314359375,7.9980078125,-9.90465625
-0.4774453125,-7.16758984375,-6.72453125,-5.208,-17.2802109375,-10.7331640625,-14.09348828125,-10.0939375,-6.638015625,-23.03179296875,-12.758875,-9.51360546875,5.50283203125,-9.34327734375,-10.52867578125,-8.79990234375,-0.921578125,5.46876953125,-7.733671875,-8.53775390625,-3.91131640625,1.18745703125,-13.5426328125,-5.57464453125,-1.2892578125,5.52848828125,-0.869453125000001,12.319359375,3.4300078125,-12.12665625
-5.7614453125,-6.46158984375,-5.09553125,-5.232,-17.5102109375,-11.3751640625,-14.15848828125,-8.4379375,-7.372015625,-24.06379296875,-14.033875,-10.74960546875,4.37383203125,-12.43027734375,-12.64967578125,-10.09590234375,-0.649578125,0.453769531249999,-11.748671875,-10.86675390625,-4.51131640625,-2.52754296875,-18.1526328125,-9.66864453125,-3.8442578125,5.15748828125,-4.642453125,9.023359375,-0.914992187500001,-13.63665625
-8.9274453125,-4.73758984375,-2.05553125,-3.783,-15.0162109375,-9.8691640625,-11.57648828125,-5.0319375,-6.943015625,-22.59779296875,-12.974875,-9.73560546875,3.74683203125,-13.47027734375,-12.71767578125,-9.33190234375,0.503421875000001,-1.97823046875,-13.392671875,-11.24175390625,-4.12531640625,-4.86154296875,-20.6096328125,-11.59764453125,-4.7262578125,5.60248828125,-6.796453125,7.011359375,-4.2409921875,-13.95765625
-8.8724453125,-2.64358984375,0.85946875,-1.398,-10.7032109375,-6.8031640625,-7.04348828125,-1.3999375,-5.706015625,-19.15379296875,-10.088875,-6.98060546875,3.51183203125,-12.54527734375,-10.96867578125,-6.99390234375,1.834421875,-1.55023046875,-12.598671875,-9.89475390625,-3.07531640625,-5.63354296875,-20.9596328125,-11.29964453125,-4.0862578125,6.46148828125,-7.218453125,6.416359375,-6.1489921875,-13.36065625
-5.6314453125,-0.85758984375,2.16046875,1.155,-6.0362109375,-3.2061640625,-1.85948828125,0.9340625,-4.276015625,-14.76979296875,-6.410875,-3.59360546875,3.44483203125,-10.28627734375,-8.13667578125,-4.08190234375,2.596421875,1.01476953125,-9.972671875,-7.51475390625,-2.02331640625,-5.18754296875,-19.9016328125,-9.38164453125,-2.6142578125,6.94648828125,-6.382453125,6.823359375,-6.8379921875,-12.80965625
-0.3804453125,0.08541015625,1.17446875,3.12,-2.5222109375,-0.208164062500001,2.46751171875,1.0740625,-3.311015625,-10.69579296875,-3.134875,-0.838605468749999,3.23883203125,-7.66827734375,-5.21567578125,-1.73290234375,2.337421875,4.28976953125,-6.601671875,-5.03675390625,-1.65331640625,-4.26954296875,-18.4936328125,-6.90664453125,-1.2212578125,6.31148828125,-5.187453125,7.420359375,-6.9929921875,-13.42065625
5.0175546875,-0.0805898437499994,-1.65753125,3.95,-1.2432109375,1.2768359375,4.64351171875,-1.0029375,-3.305015625,-8.03179296875,-1.227875,0.31439453125,2.59483203125,-5.67527734375,-3.14767578125,-0.814902343749999,1.088421875,6.75776953125,-3.664671875,-3.33975390625,-2.37331640625,-3.71354296875,-17.6996328125,-4.98164453125,-0.6562578125,4.26548828125,-4.566453125,7.386359375,-7.4299921875,-15.77865625
8.7175546875,-1.32358984375,-5.05153125,3.439,-2.5282109375,0.8038359375,3.94251171875,-4.5989375,-4.422015625,-7.39179296875,-1.146875,-0.54560546875,1.34983203125,-4.96527734375,-2.51867578125,-1.66890234375,-0.693578124999998,7.45876953125,-2.025671875,-2.95975390625,-4.17331640625,-4.07154296875,-17.9796328125,-4.33564453125,-1.2402578125,1.12048828125,-5.075453125,6.301359375,-8.6999921875,-19.57565625
9.5295546875,-3.33458984375,-7.54753125,1.775,-5.8452109375,-1.4751640625,0.44451171875,-8.6619375,-6.413015625,-8.70979296875,-2.747875,-3.21960546875,-0.40316796875,-5.66627734375,-3.39167578125,-4.06590234375,-2.382578125,6.35576953125,-1.957671875,-3.94275390625,-6.68831640625,-5.36454296875,-19.1296328125,-5.07664453125,-2.8312578125,-2.38851171875,-6.668453125,4.357359375,-10.8649921875,-23.77965625
7.2525546875,-5.59358984375,-8.21753125,-0.508,-9.9542109375,-4.8401640625,-4.91548828125,-12.1759375,-8.657015625,-11.24479296875,-5.375875,-7.03360546875,-2.28416796875,-7.35927734375,-5.31767578125,-7.34890234375,-3.468578125,4.26476953125,-3.108671875,-5.87375390625,-9.37931640625,-7.09254296875,-20.4356328125,-6.72764453125,-4.9582578125,-5.45851171875,-8.756453125,2.260359375,-13.4869921875,-27.15565625
2.6735546875,-7.47558984375,-7.07953125,-2.677,-13.3362109375,-8.1981640625,-10.54748828125,-14.4409375,-10.349015625,-13.83779296875,-8.088875,-11.04960546875,-3.70916796875,-9.26027734375,-7.50567578125,-10.65890234375,-3.737578125,2.40776953125,-4.683671875,-8.04775390625,-11.72631640625,-8.46654296875,-21.0356328125,-8.45664453125,-7.0122578125,-7.52051171875,-10.461453125,0.920359375,-15.7659921875,-28.76065625
-2.7194453125,-8.39858984375,-5.05953125,-4.014,-14.7512109375,-10.4161640625,-14.66648828125,-15.2009375,-10.760015625,-15.33279296875,-9.962875,-14.29160546875,-4.08816796875,-10.51327734375,-9.09667578125,-13.18690234375,-3.269578125,1.83776953125,-5.775671875,-9.70775390625,-13.34931640625,-8.76254296875,-20.3106328125,-9.41264453125,-8.4062578125,-8.36551171875,-10.972453125,1.076359375,-16.7939921875,-28.17665625
-7.2134453125,-8.02658984375,-3.50453125,-4.044,-13.6932109375,-10.7141640625,-15.92848828125,-14.6299375,-9.503015625,-15.00679296875,-10.388875,-15.99560546875,-3.07616796875,-10.51027734375,-9.45967578125,-14.37890234375,-2.316578125,2.98476953125,-5.726671875,-10.29175390625,-14.05831640625,-7.62054296875,-18.1376328125,-9.03864453125,-8.7162578125,-8.09551171875,-9.846453125,3.005359375,-15.8759921875,-25.50665625
-9.4304453125,-6.44558984375,-3.49253125,-2.721,-10.5722109375,-8.9961640625,-13.99448828125,-13.2359375,-6.730015625,-12.86079296875,-9.293875,-15.82560546875,-0.78316796875,-9.13627734375,-8.42767578125,-14.07790234375,-1.144578125,5.47976953125,-4.397671875,-9.61475390625,-13.84931640625,-5.20254296875,-14.9226328125,-7.27664453125,-7.7822578125,-7.00351171875,-7.164453125,6.418359375,-12.8349921875,-21.25965625
-8.7794453125,-4.19158984375,-5.28353125,-0.475,-6.5362109375,-5.9601640625,-9.71748828125,-11.6839375,-3.154015625,-9.62379296875,-7.179875,-13.98260546875,2.17283203125,-6.83827734375,-6.37567578125,-12.53990234375,0.075421875,8.31676953125,-2.227671875,-7.93875390625,-12.86431640625,-2.12854296875,-11.4566328125,-4.57664453125,-5.7832578125,-5.43651171875,-3.495453125,10.580359375,-8.1679921875,-16.24065625
-5.6544453125,-2.06958984375,-8.19153125,1.927,-2.9902109375,-2.8551640625,-4.77748828125,-10.5399375,0.173984375000002,-6.45579296875,-4.924875,-11.11960546875,4.86783203125,-4.44927734375,-4.06967578125,-10.31390234375,1.313421875,10.27976953125,-0.0326718750000001,-5.87875390625,-11.32731640625,0.75745703125,-8.6116328125,-1.72364453125,-3.1922578125,-3.71751171875,0.313546874999999,14.587359375,-2.9449921875,-11.43865625
-1.2794453125,-0.78858984375,-10.90353125,3.703,-0.983210937499999,-0.897164062500001,-0.88548828125,-9.9959375,2.310984375,-4.44279296875,-3.379875,-8.06760546875,6.43783203125,-2.80027734375,-2.31967578125,-8.00990234375,2.671421875,10.48876953125,1.391328125,-4.14975390625,-9.45831640625,2.71045703125,-6.9856328125,0.507355468749999,-0.6192578125,-2.09051171875,3.450546875,17.700359375,1.5650078125,-7.82465625
2.7845546875,-0.61358984375,-12.06753125,4.425,-0.737210937499999,-0.6351640625,1.02451171875,-9.7449375,2.872984375,-4.08679296875,-2.949875,-5.48460546875,6.47083203125,-2.28527734375,-1.56967578125,-6.04190234375,4.343421875,8.83176953125,1.703328125,-3.22375390625,-7.40731640625,3.38345703125,-6.6086328125,1.71435546875,1.4487421875,-0.68551171875,5.464546875,19.597359375,4.4240078125,-6.05165625
5.2955546875,-1.23658984375,-10.82353125,4.197,-1.5912109375,-1.6531640625,1.16251171875,-9.1499375,2.203984375,-5.04579296875,-3.357875,-3.59160546875,5.16383203125,-2.62927734375,-1.63367578125,-4.45990234375,6.521421875,6.05276953125,1.234328125,-3.05675390625,-5.22931640625,2.96245703125,-6.8886328125,2.09335546875,2.8797421875,0.51048828125,6.468546875,20.457359375,5.4370078125,-6.17065625
5.8055546875,-1.96358984375,-7.08053125,3.557,-2.4152109375,-2.8081640625,0.58951171875,-7.6469375,1.172984375,-6.30079296875,-3.789875,-2.16360546875,3.17683203125,-3.03327734375,-1.77567578125,-2.98390234375,9.272421875,3.42276953125,0.848328125,-3.07775390625,-2.92531640625,2.06845703125,-6.8506328125,2.34335546875,3.9617421875,1.65248828125,7.088546875,20.819359375,5.2160078125,-7.54865625
4.7095546875,-2.12158984375,-1.49653125,3.129,-2.2812109375,-2.8991640625,0.50651171875,-5.1309375,0.699984375000001,-6.67279296875,-3.358875,-0.777605468749999,1.25783203125,-2.63627734375,-1.10567578125,-1.23590234375,12.394421875,2.13576953125,1.472328125,-2.49375390625,-0.522316406250001,1.44145703125,-5.6326328125,3.27835546875,5.2127421875,2.94948828125,8.105546875,21.251359375,4.7930078125,-9.13465625
2.8765546875,-1.41858984375,4.71746875,3.228,-1.0192109375,-1.3671640625,1.55651171875,-2.0599375,1.280984375,-5.44179296875,-1.627875,0.81639453125,-0.13616796875,-1.03427734375,0.90532421875,0.93809765625,15.343421875,2.73576953125,3.543328125,-0.779753906250001,1.83768359375,1.53545703125,-2.9706328125,5.32235546875,7.0207421875,4.48048828125,9.970546875,21.975359375,4.9780078125,-10.00665625
1.1305546875,-0.0435898437499995,10.07846875,3.674,0.682789062500001,1.3798359375,3.54651171875,0.759062500000001,2.734984375,-2.72179296875,1.122125,2.47439453125,-1.02616796875,1.45672265625,4.09632421875,3.30209765625,17.345421875,4.88176953125,6.712328125,1.95124609375,3.86468359375,2.27545703125,0.572367187500001,8.19935546875,9.3367421875,6.05448828125,12.455546875,22.652359375,5.8300078125,-9.88365625
-0.1024453125,1.52541015625,13.21746875,3.913,1.7197890625,4.2128359375,5.71251171875,2.5680625,4.314984375,0.632207031250001,4.071125,3.75039453125,-1.79116796875,3.98172265625,7.67232421875,5.31809765625,17.701421875,7.53676953125,9.976328125,4.94524609375,5.21768359375,3.13645703125,3.8133671875,11.01835546875,11.6367421875,7.23048828125,14.707546875,22.534359375,6.6180078125,-9.25365625
-0.8004453125,2.85041015625,13.31946875,3.409,1.3117890625,5.9588359375,7.29851171875,3.0140625,5.148984375,3.51220703125,6.330125,4.24239453125,-2.85516796875,5.65972265625,10.60632421875,6.47609765625,16.180421875,9.50276953125,12.173328125,7.19124609375,5.70268359375,3.49945703125,5.5073671875,12.72135546875,13.2057421875,7.55648828125,15.684546875,20.940359375,6.2950078125,-8.99565625
-1.0994453125,3.77041015625,10.47846875,2.051,-0.441210937499999,6.0738359375,8.05351171875,2.2640625,4.770984375,5.14420703125,7.419125,3.94739453125,-4.34516796875,6.09772265625,12.15032421875,6.62309765625,13.222421875,10.00976953125,12.567328125,7.94124609375,5.43668359375,3.09045703125,4.9853671875,12.63535546875,13.5477421875,6.86848828125,14.727546875,17.784359375,4.1670078125,-9.80065625
-1.0264453125,4.41541015625,5.73846875,0.281,-2.5732109375,4.8848359375,8.34851171875,0.8540625,3.414984375,5.42320703125,7.451125,3.36939453125,-5.95216796875,5.56372265625,12.15232421875,6.08209765625,9.773421875,9.08176953125,11.179328125,7.07824609375,4.83568359375,2.21245703125,2.4963671875,10.80935546875,12.6617421875,5.43548828125,11.935546875,13.810359375,0.3240078125,-11.78965625
-0.4744453125,5.01041015625,0.75146875,-1.159,-3.8432109375,3.2788359375,8.83451171875,-0.593937499999999,1.868984375,4.80620703125,6.923125,3.27039453125,-7.07116796875,4.72572265625,11.01032421875,5.47509765625,6.873421875,7.45476953125,8.698328125,5.11024609375,4.41068359375,1.60545703125,-0.936632812499999,7.95035546875,11.0387421875,3.85848828125,8.120546875,10.294359375,-4.4199921875,-14.55365625
0.5545546875,5.61441015625,-2.79653125,-1.688,-3.4922109375,2.0968359375,9.91551171875,-1.6059375,1.025984375,3.89620703125,6.294125,4.17839453125,-7.14216796875,4.13572265625,9.34132421875,5.33809765625,5.271421875,6.09776953125,6.053328125,2.84524609375,4.49668359375,1.96345703125,-4.0846328125,5.00535546875,9.3897421875,2.79448828125,4.379546875,8.357359375,-8.9649921875,-17.46065625
1.6855546875,5.96641015625,-3.74753125,-1.244,-1.6802109375,1.6408359375,11.36351171875,-1.9469375,1.378984375,3.00920703125,5.628125,5.96639453125,-6.00716796875,3.83472265625,7.59732421875,5.76809765625,5.270421875,5.59176953125,3.882328125,0.945246093750001,5.09168359375,3.39145703125,-6.1746328125,2.64735546875,8.2937421875,2.68448828125,1.550546875,8.281359375,-12.4669921875,-19.96465625
2.1725546875,5.58141015625,-1.81253125,-0.307,0.609789062500001,1.5548359375,12.35451171875,-1.6169375,2.764984375,2.02320703125,4.561125,7.81439453125,-4.06116796875,3.34372265625,5.88032421875,6.35409765625,6.795421875,5.77176953125,2.262328125,-0.36075390625,5.89968359375,5.18245703125,-7.2606328125,0.98635546875,7.9647421875,3.63948828125,-0.125453125000001,9.290359375,-14.6279921875,-21.71765625
1.2655546875,4.07041015625,2.36746875,0.402,2.0917890625,1.1158359375,11.90251171875,-0.8089375,4.485984375,0.562207031250001,2.605125,8.62739453125,-2.09016796875,2.03572265625,4.03532421875,6.42209765625,9.503421875,5.86976953125,0.805328125000001,-1.25575390625,6.53568359375,6.11345703125,-8.0656328125,-0.331644531250001,8.2407421875,5.48948828125,-0.966453125000001,9.966359375,-15.6569921875,-22.52865625
-1.2824453125,1.48441015625,7.39546875,0.343,1.7857890625,-0.2921640625,9.43951171875,0.132062500000001,5.710984375,-1.64879296875,-0.435875000000001,7.66939453125,-0.86916796875,-0.38427734375,1.92032421875,5.46709765625,12.812421875,5.06576953125,-0.946671875,-2.08475390625,6.71768359375,5.13545703125,-9.4056328125,-1.76164453125,8.7497421875,7.87148828125,-1.501453125,9.091359375,-15.9859921875,-22.33765625
-4.8784453125,-1.55458984375,11.48046875,-0.552,-0.587210937499998,-2.7831640625,5.21351171875,0.786062500000001,5.936984375,-4.52979296875,-4.212875,5.00839453125,-0.76116796875,-3.62027734375,-0.394675781250001,3.45009765625,15.915421875,3.09176953125,-3.132671875,-3.06675390625,6.34368359375,2.07545703125,-11.5726328125,-3.48464453125,9.1077421875,10.31448828125,-2.087453125,6.425359375,-15.9639921875,-21.29765625
-8.1654453125,-4.06258984375,12.89746875,-1.874,-4.5552109375,-5.8951640625,0.260511718749999,0.7610625,5.207984375,-7.60679296875,-7.892875,1.50639453125,-1.57016796875,-6.88627734375,-2.58967578125,0.84809765625,17.919421875,0.489769531249999,-5.416671875,-4.13875390625,5.44768359375,-2.11354296875,-14.0606328125,-5.24664453125,9.0687421875,12.32148828125,-2.691453125,2.970359375,-15.6579921875,-19.84765625
-9.5164453125,-5.08858984375,10.47046875,-2.975,-9.1822109375,-8.8311640625,-4.03248828125,-0.1999375,4.002984375,-10.21379296875,-10.476875,-1.59560546875,-2.69816796875,-9.28027734375,-4.23767578125,-1.56590234375,18.119421875,-1.63723046875,-7.132671875,-4.99575390625,4.13168359375,-5.71754296875,-15.8116328125,-6.48264453125,8.5977421875,13.50548828125,-2.928453125,0.535359375,-14.8449921875,-18.60365625
-7.7584453125,-4.09858984375,3.93146875,-3.302,-13.5402109375,-10.8761640625,-6.55648828125,-2.1359375,2.896984375,-11.80079296875,-11.240875,-3.27060546875,-3.50916796875,-10.19527734375,-5.00867578125,-3.09790234375,16.273421875,-2.23523046875,-7.650671875,-5.28475390625,2.52668359375,-7.14154296875,-15.8276328125,-6.63864453125,7.8367421875,13.73348828125,-2.336453125,0.778359375,-13.2039921875,-18.08365625
-2.8014453125,-1.20558984375,-5.97653125,-2.68,-17.1362109375,-11.7751640625,-7.01548828125,-4.8549375,2.225984375,-12.22079296875,-10.095875,-3.20260546875,-3.67516796875,-9.58827734375,-4.85767578125,-3.48190234375,12.706421875,-0.928230468750001,-6.775671875,-4.84875390625,0.766683593749999,-5.81354296875,-13.7976328125,-5.53464453125,6.9867421875,13.16648828125,-0.712453125000001,4.235359375,-10.6049921875,-18.42665625
4.1875546875,2.84141015625,-17.69753125,-1.389,-20.0872109375,-11.8571640625,-6.08948828125,-7.9909375,1.955984375,-11.84779296875,-7.717875,-1.93360546875,-3.31616796875,-8.00527734375,-4.09667578125,-3.04590234375,8.200421875,1.71676953125,-4.931671875,-3.87675390625,-1.03731640625,-2.56254296875,-10.3456328125,-3.54564453125,6.1737421875,12.18948828125,1.671546875,9.918359375,-7.3089921875,-19.31765625
4.1875546875,2.84141015625,-17.69753125,-1.389,-20.0872109375,-11.8571640625,-6.08948828125,-7.9909375,1.955984375,-11.84779296875,-7.717875,-1.93360546875,-3.31616796875,-8.00527734375,-4.09667578125,-3.04590234375,8.200421875,1.71676953125,-4.931671875,-3.87675390625,-1.03731640625,-2.56254296875,-10.3456328125,-3.54564453125,6.1737421875,12.18948828125,1.671546875,9.918359375,-7.3089921875,-19.31765625
