"Fp1","Fpz","Fp2","F7","F3","Fz","F4","F8","FC5","FC1","FC2","FC6","T7","C3","Cz","C4","T8","CP5","CP1","CP2","CP6","P7","P3","Pz","P4","P8","POz","O1","Oz","O2"
-7.685765625,-2.84198828125,-6.14029296875,-7.26998828125,4.99859375,-3.29896875,-1.9287578125,-3.59223828125,-8.41552734375,0.0712382812499985,-4.98165234375,-6.7119453125,1.85992578125,-0.479136718750002,0.00692968749999956,-4.7687578125,0.4039296875,1.2271484375,-0.184726562500002,-6.67289453125,-5.64514453125,-3.6403125,1.49441015625,-0.69987109375,-9.986546875,-1.15891015625,8.62123828125,4.2276953125,13.54823828125,11.49444140625
-6.177765625,-4.34998828125,-6.78829296875,-6.90098828125,2.24859375,-2.24196875,-3.1357578125,-2.07823828125,-8.99852734375,-0.122761718750001,-3.88065234375,-2.9769453125,1.82792578125,-0.202136718750001,-0.236070312500001,-4.0477578125,3.2609296875,1.3801484375,-0.6107265625,-5.89889453125,-3.68514453125,-1.5083125,1.48841015625,0.062128906249999,-9.025546875,0.243089843749999,11.47323828125,6.6666953125,13.99323828125,12.78344140625
-6.180765625,-6.08498828125,-7.94329296875,-7.26298828125,-0.64940625,-3.10796875,-4.6047578125,-1.18523828125,-10.08752734375,-2.06376171875,-4.38065234375,-1.5029453125,1.07592578125,-1.68813671875,-1.7240703125,-4.6857578125,4.8029296875,0.235148437499999,-2.6507265625,-6.18389453125,-2.62414453125,-0.543312500000001,0.22541015625,-0.43887109375,-8.653546875,1.35408984375,12.66723828125,7.4026953125,12.85423828125,12.75944140625
-7.359765625,-8.03398828125,-9.53729296875,-8.07498828125,-3.61640625,-5.85496875,-6.5387578125,-1.07823828125,-11.48352734375,-5.64976171875,-6.61965234375,-2.4839453125,-0.0870742187500002,-4.71213671875,-4.4450703125,-6.8307578125,4.9569296875,-2.0138515625,-6.1147265625,-7.63289453125,-2.69814453125,-0.873312500000001,-2.19858984375,-2.19787109375,-9.046546875,1.95808984375,12.02623828125,6.2396953125,10.16823828125,11.32544140625
-8.908765625,-10.03398828125,-11.35229296875,-8.72198828125,-6.34240625,-9.75796875,-9.0127578125,-1.77623828125,-12.76052734375,-10.10376171875,-10.20365234375,-5.4479453125,-1.10507421875,-8.43513671875,-7.9440703125,-10.1977578125,3.9799296875,-4.7388515625,-10.2217265625,-10.05589453125,-3.97614453125,-2.3663125,-5.28258984375,-4.82487109375,-10.278546875,1.79708984375,9.84923828125,3.4516953125,6.50023828125,8.71544140625
-10.073765625,-11.81998828125,-13.16429296875,-8.60198828125,-8.35040625,-13.76396875,-11.8577578125,-3.14423828125,-13.51152734375,-14.32076171875,-14.36865234375,-9.5089453125,-1.55107421875,-11.85813671875,-11.5350703125,-14.1777578125,2.2699296875,-7.2308515625,-14.0137265625,-13.06889453125,-6.35114453125,-4.7783125,-8.40258984375,-7.76187109375,-12.281546875,0.654089843749999,6.75623828125,-0.3633046875,2.67723828125,5.34744140625
-10.522765625,-13.13498828125,-14.83729296875,-7.46998828125,-9.26140625,-16.89596875,-14.6917578125,-4.91323828125,-13.58352734375,-17.31676171875,-18.22265234375,-13.6459453125,-1.36407421875,-14.22613671875,-14.5600703125,-18.0067578125,0.2499296875,-9.0048515625,-16.7817265625,-16.19989453125,-9.48414453125,-7.7993125,-11.05958984375,-10.47987109375,-14.792546875,-1.47891015625,3.52823828125,-4.4463046875,-0.49476171875,1.76544140625
-10.415765625,-13.85398828125,-16.33429296875,-5.59798828125,-9.05340625,-18.58996875,-17.0637578125,-6.72623828125,-13.16352734375,-18.59876171875,-21.00765234375,-16.9739453125,-0.84507421875,-15.28013671875,-16.6050703125,-20.9727578125,-1.7090703125,-9.9438515625,-18.3347265625,-18.97689453125,-12.81214453125,-11.0533125,-13.01858984375,-12.61987109375,-17.362546875,-4.30091015625,0.87923828125,-8.0433046875,-2.46276171875,-1.37255859375
-10.232765625,-14.03098828125,-17.67429296875,-3.66298828125,-8.09540625,-18.83896875,-18.6317578125,-8.25623828125,-12.69552734375,-18.32076171875,-22.30465234375,-18.9729453125,-0.47207421875,-15.29813671875,-17.6250703125,-22.6117578125,-3.3580703125,-10.2888515625,-19.0037265625,-21.03589453125,-15.70014453125,-14.1173125,-14.33358984375,-14.09487109375,-19.517546875,-7.24891015625,-0.77576171875,-10.6143046875,-3.09576171875,-3.40855859375
-10.473765625,-13.87498828125,-18.87629296875,-2.41398828125,-6.96440625,-18.11896875,-19.2837578125,-9.31423828125,-12.63352734375,-17.16276171875,-22.12865234375,-19.5909453125,-0.63807421875,-14.88513671875,-17.9030703125,-22.8477578125,-4.6370703125,-10.4738515625,-19.3757265625,-22.22089453125,-17.67014453125,-16.5713125,-15.24258984375,-15.07287109375,-20.945546875,-9.68791015625,-1.44776171875,-11.9713046875,-2.69376171875,-3.89855859375
-11.378765625,-13.65898828125,-19.90829296875,-2.30598828125,-6.16540625,-17.11396875,-19.1647578125,-9.89323828125,-13.17052734375,-15.97876171875,-20.86265234375,-19.1419453125,-1.41707421875,-14.61613671875,-17.8660703125,-21.9927578125,-5.6280703125,-10.8618515625,-19.9127265625,-22.61889453125,-18.55714453125,-18.0353125,-15.95358984375,-15.83587109375,-21.583546875,-11.12591015625,-1.47476171875,-12.2633046875,-1.80976171875,-2.82155859375
-12.823765625,-13.61298828125,-20.69329296875,-3.28198828125,-5.92840625,-16.40296875,-18.5997578125,-10.11623828125,-14.09052734375,-15.42476171875,-19.10365234375,-18.1059453125,-2.53907421875,-14.72713671875,-17.8890703125,-20.6297578125,-6.4650703125,-11.5428515625,-20.6927265625,-22.53289453125,-18.52614453125,-18.2473125,-16.48258984375,-16.60387109375,-21.599546875,-11.38591015625,-1.29176171875,-11.8533046875,-0.98776171875,-0.63455859375
-14.438765625,-13.84098828125,-21.17029296875,-4.84898828125,-6.16940625,-16.27796875,-17.9587578125,-10.13923828125,-14.88452734375,-15.74576171875,-17.49165234375,-16.9529453125,-3.61107421875,-15.09613671875,-18.1910703125,-19.4237578125,-7.2640703125,-12.3258515625,-21.4397265625,-22.37389453125,-17.97814453125,-17.2003125,-16.65858984375,-17.44987109375,-21.327546875,-10.68191015625,-1.24676171875,-11.1863046875,-0.60176171875,1.85044140625
-15.808765625,-14.30598828125,-21.34329296875,-6.36498828125,-6.61740625,-16.69196875,-17.4867578125,-10.04923828125,-15.05152734375,-16.75376171875,-16.52465234375,-16.0179453125,-4.39207421875,-15.41313671875,-18.7930703125,-18.8737578125,-8.0670703125,-12.8968515625,-21.7617265625,-22.49489453125,-17.37314453125,-15.2173125,-16.25958984375,-18.29187109375,-21.148546875,-9.54891015625,-1.50476171875,-10.6543046875,-0.80976171875,3.73344140625
-16.582765625,-14.83698828125,-21.24629296875,-7.34298828125,-7.01640625,-17.27696875,-17.1727578125,-9.78123828125,-14.35252734375,-17.90876171875,-16.33265234375,-15.3579453125,-4.88007421875,-15.35413671875,-19.4950703125,-19.0687578125,-8.7580703125,-12.9638515625,-21.3647265625,-22.96089453125,-16.98914453125,-12.8343125,-15.14358984375,-18.87587109375,-21.269546875,-8.57791015625,-2.00076171875,-10.4353046875,-1.52776171875,4.38644140625
-16.483765625,-15.14098828125,-20.85029296875,-7.58598828125,-7.23340625,-17.43896875,-16.7147578125,-9.13023828125,-12.86452734375,-18.49176171875,-16.55465234375,-14.7129453125,-5.17407421875,-14.65113671875,-19.8780703125,-19.5977578125,-9.0150703125,-12.3318515625,-20.1487265625,-23.43689453125,-16.75514453125,-10.5483125,-13.30558984375,-18.80287109375,-21.547546875,-8.11091015625,-2.43176171875,-10.3753046875,-2.42076171875,3.71544140625
-15.366765625,-14.88198828125,-20.07529296875,-7.14498828125,-7.23440625,-16.60496875,-15.6907578125,-7.95423828125,-10.88752734375,-17.88676171875,-16.48965234375,-13.7019453125,-5.31207421875,-13.20013671875,-19.4750703125,-19.7587578125,-8.4490703125,-10.9798515625,-18.2357265625,-23.35289453125,-16.32814453125,-8.6573125,-10.93358984375,-17.71587109375,-21.547546875,-8.10291015625,-2.40176171875,-10.0753046875,-2.99876171875,2.15044140625
-13.354765625,-13.87898828125,-18.94929296875,-6.23998828125,-7.04540625,-14.60496875,-13.9207578125,-6.46723828125,-8.87052734375,-15.92676171875,-15.56365234375,-12.2029453125,-5.27307421875,-11.20413671875,-18.0960703125,-19.0287578125,-6.9100703125,-9.1578515625,-16.0177265625,-22.31889453125,-15.41214453125,-7.3043125,-8.45558984375,-15.59387109375,-20.860546875,-8.23691015625,-1.67476171875,-9.1783046875,-2.85676171875,0.384441406250001
-10.925765625,-12.32098828125,-17.78029296875,-5.17898828125,-6.79140625,-11.90996875,-11.7827578125,-5.33523828125,-7.35052734375,-13.09276171875,-13.78565234375,-10.5919453125,-5.05107421875,-9.22613671875,-16.0740703125,-17.4507578125,-4.7120703125,-7.3968515625,-14.1257265625,-20.48589453125,-14.05614453125,-6.5983125,-6.48958984375,-12.92687109375,-19.453546875,-8.18091015625,-0.36376171875,-7.6483046875,-1.88776171875,-0.959558593749999
-8.793765625,-10.79898828125,-17.14029296875,-4.25298828125,-6.73140625,-9.50096875,-10.1737578125,-5.40223828125,-6.82152734375,-10.37376171875,-11.84965234375,-9.5959453125,-4.70507421875,-7.99813671875,-14.2120703125,-15.6697578125,-2.5570703125,-6.3318515625,-13.2457265625,-18.56589453125,-12.70814453125,-6.6483125,-5.62958984375,-10.55887109375,-17.769546875,-7.80191015625,1.09823828125,-5.8063046875,-0.32676171875,-1.51655859375
-7.627765625,-10.07098828125,-17.64329296875,-3.59298828125,-7.13640625,-8.40196875,-10.0607578125,-7.16923828125,-7.53552734375,-8.83976171875,-10.79165234375,-9.8669453125,-4.33707421875,-8.09813671875,-13.4240703125,-14.5937578125,-1.2150703125,-6.4138515625,-13.8107265625,-17.48289453125,-11.98914453125,-7.5003125,-6.16458984375,-9.31387109375,-16.547546875,-7.28291015625,2.15423828125,-4.1783046875,1.37423828125,-1.21155859375
-7.769765625,-10.67498828125,-19.63429296875,-3.09498828125,-8.08440625,-9.18596875,-11.8997578125,-10.42523828125,-9.35952734375,-9.16676171875,-11.42965234375,-11.5919453125,-4.09507421875,-9.68113671875,-14.3050703125,-14.9057578125,-1.1620703125,-7.7138515625,-15.7767265625,-17.89389453125,-12.36814453125,-9.0693125,-7.92258984375,-9.62487109375,-16.473546875,-7.10491015625,2.35423828125,-3.2653046875,2.70523828125,-0.237558593749999
-9.077765625,-12.64198828125,-22.94229296875,-2.48098828125,-9.32740625,-11.68896875,-15.3147578125,-14.26923828125,-11.77552734375,-11.32976171875,-13.90765234375,-14.3519453125,-4.14407421875,-12.39413671875,-16.8350703125,-16.7097578125,-2.3750703125,-9.8858515625,-18.5947265625,-19.83489453125,-13.92414453125,-11.1103125,-10.33058984375,-11.35487109375,-17.834546875,-7.83591015625,1.53323828125,-3.3603046875,3.23723828125,0.993441406250001
-10.933765625,-15.40398828125,-26.78629296875,-1.46598828125,-10.34240625,-15.01796875,-19.1977578125,-17.47123828125,-14.00952734375,-14.54776171875,-17.53765234375,-17.2399453125,-4.56507421875,-15.44913671875,-20.3340703125,-19.4457578125,-4.3370703125,-12.2868515625,-21.3787265625,-22.65689453125,-16.25314453125,-13.2163125,-12.61658984375,-13.85087109375,-20.302546875,-9.75791015625,-0.10376171875,-4.4453046875,2.75123828125,1.96044140625
-12.442765625,-17.94798828125,-29.91629296875,0.0720117187500007,-10.50840625,-17.84196875,-22.1217578125,-18.95423828125,-15.22152734375,-17.51676171875,-21.01165234375,-19.2029453125,-5.24007421875,-17.85713671875,-23.6670703125,-22.0877578125,-6.2730703125,-14.1778515625,-23.1897265625,-25.27489453125,-18.58814453125,-14.8793125,-14.06858984375,-16.18287109375,-22.984546875,-12.58891015625,-2.05476171875,-6.1863046875,1.33223828125,2.21444140625
-12.752765625,-19.15198828125,-31.00729296875,2.00301171875,-9.34140625,-18.88596875,-22.8877578125,-18.21423828125,-14.75552734375,-18.86376171875,-22.89265234375,-19.4759453125,-5.85407421875,-18.76213671875,-25.6220703125,-23.5477578125,-7.5390703125,-14.9728515625,-23.3457265625,-26.59989453125,-20.08914453125,-15.6273125,-14.24758984375,-17.50087109375,-24.754546875,-15.52991015625,-3.71676171875,-8.0673046875,-0.63276171875,1.52744140625
-11.366765625,-18.23598828125,-29.17829296875,3.95901171875,-6.72840625,-17.44796875,-20.9937578125,-15.49723828125,-12.40352734375,-17.66376171875,-22.17765234375,-17.8989453125,-6.03407421875,-17.72813671875,-25.3160703125,-23.0757578125,-7.9310703125,-14.4238515625,-21.6347265625,-25.95089453125,-20.16014453125,-15.1823125,-13.07758984375,-17.31887109375,-24.718546875,-17.63091015625,-4.63376171875,-9.5743046875,-2.56276171875,-0.0185585937499995
-8.287765625,-15.12398828125,-24.37929296875,5.46801171875,-3.06440625,-13.69196875,-16.8427578125,-11.66523828125,-8.53752734375,-13.80076171875,-18.67665234375,-14.9459453125,-5.51707421875,-14.83213671875,-22.4750703125,-20.5107578125,-7.7060703125,-12.6528515625,-18.3437265625,-23.25989453125,-18.62514453125,-13.5523125,-10.79758984375,-15.61087109375,-22.552546875,-18.21491015625,-4.61576171875,-10.3293046875,-3.83476171875,-2.02555859375
-3.988765625,-10.52198828125,-17.49329296875,6.16801171875,0.83659375,-8.60096875,-11.5907578125,-7.80323828125,-4.02452734375,-8.04676171875,-13.09065234375,-11.4749453125,-4.27307421875,-10.59813671875,-17.5270703125,-16.3267578125,-7.3470703125,-10.0498515625,-14.1327265625,-19.03289453125,-15.74514453125,-11.0393125,-7.83758984375,-12.73487109375,-18.622546875,-17.13491015625,-3.73176171875,-10.1433046875,-3.96876171875,-3.87155859375
0.693234374999999,-5.68498828125,-10.12329296875,5.96801171875,4.04959375,-3.63696875,-6.7127578125,-4.80523828125,0.0564726562499978,-1.83576171875,-6.81165234375,-8.4179453125,-2.54407421875,-5.86313671875,-11.5120703125,-11.5047578125,-7.2810703125,-7.1618515625,-9.8417265625,-14.17889453125,-12.13114453125,-8.2023125,-4.72858984375,-9.29887109375,-13.872546875,-14.80291015625,-2.25076171875,-9.0573046875,-2.79276171875,-4.91455859375
4.741234375,-1.97498828125,-4.14029296875,5.05101171875,5.86759375,-0.250968749999998,-3.5207578125,-3.12123828125,2.73447265625,3.18023828125,-1.50365234375,-6.5229453125,-0.79007421875,-1.62613671875,-5.8290703125,-7.2647578125,-7.7130703125,-4.5698515625,-6.2957265625,-9.78389453125,-8.60414453125,-5.7673125,-2.02558984375,-6.02187109375,-9.529546875,-12.02391015625,-0.56976171875,-7.3513046875,-0.55976171875,-4.73655859375
7.234234375,-0.373988281250002,-1.06629296875,3.75901171875,5.99559375,0.647031250000001,-2.7597578125,-2.71223828125,3.42847265625,5.70123828125,1.44834765625,-6.1459453125,0.49492578125,1.19786328125,-1.8150703125,-4.6747578125,-8.5840703125,-2.7608515625,-4.1347265625,-6.81889453125,-5.95314453125,-4.4163125,-0.20458984375,-3.55687109375,-6.656546875,-9.65791015625,0.90023828125,-5.4933046875,2.10723828125,-3.32055859375
7.683234375,-1.09798828125,-1.48529296875,2.45001171875,4.61559375,-0.925968749999997,-4.3777578125,-3.16023828125,2.11747265625,5.28523828125,1.47334765625,-7.1269453125,0.99892578125,2.06786328125,-0.262070312500001,-4.2527578125,-9.6070703125,-1.9578515625,-3.6727265625,-5.80889453125,-4.63314453125,-4.5293125,0.49041015625,-2.28787109375,-5.726546875,-8.25991015625,1.85623828125,-3.9863046875,4.44223828125,-1.05755859375
6.257234375,-3.47498828125,-4.75729296875,1.40301171875,2.37759375,-3.98496875,-7.5057578125,-3.86123828125,-0.660527343750001,2.52923828125,-0.923652343750001,-8.8329453125,0.67192578125,0.984863281249998,-1.1040703125,-5.7537578125,-10.3930703125,-2.0758515625,-4.8337265625,-6.63489453125,-4.58714453125,-6.0333125,0.11841015625,-2.23887109375,-6.484546875,-7.87691015625,2.14423828125,-3.2383046875,5.78123828125,1.38544140625
3.734234375,-6.20198828125,-9.26429296875,0.747011718750001,0.27359375,-6.97196875,-10.7307578125,-4.27223828125,-4.01952734375,-1.17176171875,-4.35965234375,-10.4269453125,-0.37007421875,-1.56613671875,-3.4550703125,-8.2997578125,-10.6440703125,-2.8278515625,-7.2107265625,-8.59989453125,-5.33314453125,-8.4723125,-1.03558984375,-3.13587109375,-8.190546875,-8.14691015625,1.70123828125,-3.4873046875,5.74023828125,3.27044140625
1.200234375,-7.91098828125,-13.10629296875,0.427011718750001,-0.69340625,-8.42296875,-12.6397578125,-4.12623828125,-7.05152734375,-4.20876171875,-7.15165234375,-11.2069453125,-1.96307421875,-4.79413671875,-6.0030703125,-10.7707578125,-10.2820703125,-3.8938515625,-10.1877265625,-10.73889453125,-6.23814453125,-11.1753125,-2.60658984375,-4.56587109375,-10.044546875,-8.58191015625,0.51623828125,-4.7483046875,4.28723828125,4.02044140625
-0.386765625000001,-7.76198828125,-14.90229296875,0.249011718750001,0.0795937499999999,-7.55996875,-12.3857578125,-3.50923828125,-9.07052734375,-5.36576171875,-8.00665234375,-10.8429453125,-3.88007421875,-7.78413671875,-7.5430703125,-12.2357578125,-9.4340703125,-4.9838515625,-13.0487265625,-12.18489453125,-6.80614453125,-13.4093125,-4.22958984375,-6.06987109375,-11.478546875,-8.83391015625,-1.29776171875,-6.7333046875,1.78423828125,3.44144140625
-0.565765625000001,-5.77298828125,-14.29029296875,-0.0219882812499987,2.53459375,-4.58696875,-10.0007578125,-2.78023828125,-9.72152734375,-4.22976171875,-6.51665234375,-9.4369453125,-5.75707421875,-9.67813671875,-7.4240703125,-12.2497578125,-8.3460703125,-5.8028515625,-15.0877265625,-12.43989453125,-6.82314453125,-14.5253125,-5.54858984375,-7.19087109375,-12.210546875,-8.80891015625,-3.39876171875,-8.8213046875,-1.07376171875,1.82144140625
0.470234375,-2.75298828125,-11.95029296875,-0.579988281249999,5.97059375,-0.584968749999998,-6.3347578125,-2.39223828125,-9.00152734375,-1.28776171875,-3.28965234375,-7.4609453125,-7.15207421875,-9.89013671875,-5.7350703125,-10.9347578125,-7.3160703125,-6.0458515625,-15.7587265625,-11.47989453125,-6.37814453125,-14.1463125,-6.23258984375,-7.54987109375,-12.160546875,-8.64491015625,-5.23176171875,-10.2303046875,-3.45676171875,-0.174558593749999
2.009234375,0.0400117187499998,-9.18229296875,-1.58298828125,9.26259375,2.91103125,-2.6977578125,-2.69523828125,-7.28752734375,2.28923828125,0.336347656249998,-5.5889453125,-7.73207421875,-8.30613671875,-3.2090703125,-8.8737578125,-6.6590703125,-5.4778515625,-14.8637265625,-9.70189453125,-5.77714453125,-12.3523125,-6.07058984375,-6.96287109375,-11.408546875,-8.59191015625,-6.21576171875,-10.3353046875,-4.70876171875,-1.78755859375
3.158234375,1.40101171875,-7.30329296875,-3.18098828125,11.20259375,4.53403125,-0.354757812500003,-3.79823828125,-5.27352734375,5.10523828125,2.87434765625,-4.4519453125,-7.47107421875,-5.36513671875,-0.876070312500001,-6.8827578125,-6.6520703125,-4.0878515625,-12.6657265625,-7.75489453125,-5.39914453125,-9.6833125,-5.07158984375,-5.54887109375,-10.191546875,-8.88191015625,-5.98476171875,-8.9663046875,-4.59076171875,-2.47955859375
3.201234375,0.654011718749999,-7.12929296875,-5.46798828125,10.92059375,3.63603125,-0.0507578125000023,-5.54823828125,-3.79952734375,6.06623828125,3.31934765625,-4.4139453125,-6.69407421875,-1.97813671875,0.3499296875,-5.7347578125,-7.4380703125,-2.1828515625,-9.8407265625,-6.31389453125,-5.55614453125,-6.9423125,-3.54158984375,-3.73087109375,-8.911546875,-9.64191015625,-4.56676171875,-6.4973046875,-3.33276171875,-2.12155859375
1.831234375,-2.07598828125,-8.75129296875,-8.37998828125,8.28459375,0.538031250000001,-1.7247578125,-7.62623828125,-3.58452734375,4.76223828125,1.54234765625,-5.4799453125,-5.98307421875,0.692863281249998,-0.0160703125000001,-5.9007578125,-8.9520703125,-0.384851562500001,-7.2657265625,-5.86189453125,-6.39114453125,-4.9263125,-2.04158984375,-2.13387109375,-8.054546875,-10.88491015625,-2.43076171875,-3.6943046875,-1.49776171875,-1.01355859375
-0.733765625,-5.90898828125,-11.57529296875,-11.59698828125,4.05459375,-3.61296875,-4.5507578125,-9.67123828125,-4.99352734375,1.56723828125,-1.69765234375,-7.3089453125,-5.95007421875,1.57686328125,-1.8950703125,-7.3787578125,-10.8920703125,0.550148437499999,-5.6967265625,-6.52289453125,-7.81514453125,-4.2153125,-1.23058984375,-1.36387109375,-7.989546875,-12.49191015625,-0.33576171875,-1.3993046875,0.25523828125,0.285441406250001
-3.739765625,-9.54898828125,-14.55529296875,-14.52698828125,-0.36340625,-7.26996875,-7.2667578125,-11.31623828125,-7.86952734375,-2.50176171875,-5.06965234375,-9.2649453125,-6.95407421875,0.135863281249998,-4.6550703125,-9.6107578125,-12.7110703125,0.0491484374999995,-5.4627265625,-7.95289453125,-9.44114453125,-5.0573125,-1.58858984375,-1.72587109375,-8.712546875,-14.13591015625,0.99423828125,-0.188304687500001,1.43323828125,1.24644140625
-6.065765625,-11.75298828125,-16.51929296875,-16.42598828125,-3.45840625,-9.03196875,-8.6387578125,-12.16823828125,-11.50252734375,-6.11176171875,-7.15465234375,-10.5289453125,-8.88907421875,-3.32313671875,-7.2820703125,-11.5897578125,-13.7250703125,-1.9778515625,-6.3217265625,-9.38389453125,-10.60614453125,-7.3223125,-3.16358984375,-3.02787109375,-9.720546875,-15.26791015625,1.23323828125,-0.1563046875,1.89823828125,1.65244140625
-6.639765625,-11.76498828125,-16.57729296875,-16.65998828125,-4.19340625,-8.16496875,-7.8857578125,-11.85323828125,-14.81252734375,-8.07276171875,-6.97265234375,-10.3589453125,-11.18907421875,-7.70513671875,-8.7280703125,-12.2087578125,-13.3670703125,-5.0598515625,-7.5817265625,-9.88389453125,-10.58114453125,-10.5553125,-5.52558984375,-4.64387109375,-10.201546875,-15.30591015625,0.58923828125,-0.9533046875,1.88223828125,1.68844140625
-4.947765625,-9.60498828125,-14.49829296875,-15.03298828125,-2.39540625,-4.93896875,-4.9887578125,-10.19423828125,-16.74252734375,-7.81176171875,-4.38565234375,-8.4609453125,-13.08307421875,-11.59313671875,-8.3710703125,-10.7507578125,-11.4820703125,-8.3758515625,-8.4647265625,-8.78689453125,-8.93814453125,-14.0983125,-7.96758984375,-5.84087109375,-9.457546875,-13.95291015625,-0.35476171875,-2.0283046875,1.81323828125,1.77344140625
-1.337765625,-6.08398828125,-10.84629296875,-11.97098828125,1.15159375,-0.575968749999998,-0.768757812500002,-7.42423828125,-16.69052734375,-5.65476171875,-0.19165234375,-5.2339453125,-13.91807421875,-13.85313671875,-6.3580703125,-7.2757578125,-8.4660703125,-11.0678515625,-8.4887265625,-6.05089453125,-5.83614453125,-17.2263125,-9.82258984375,-6.14187109375,-7.285546875,-11.39191015625,-0.98476171875,-2.9053046875,2.08423828125,2.28244140625
3.075234375,-2.48398828125,-6.79429296875,-8.41698828125,5.00659375,3.23303125,3.3602421875,-4.24623828125,-14.74152734375,-2.71676171875,4.15834765625,-1.6819453125,-13.38707421875,-14.03013671875,-3.5950703125,-2.6497578125,-5.1190703125,-12.5068515625,-7.6557265625,-2.32089453125,-2.03714453125,-19.2593125,-10.69958984375,-5.52787109375,-4.100546875,-8.20291015625,-0.94276171875,-3.3533046875,2.84423828125,3.33344140625
6.809234375,-0.0349882812500013,-3.69629296875,-5.47298828125,7.66659375,5.01103125,5.9072421875,-1.67423828125,-11.59752734375,-0.441761718750001,7.11234765625,0.923054687500001,-11.61807421875,-12.43413671875,-1.3630703125,1.7702421875,-2.3470703125,-12.4428515625,-6.3927265625,1.29910546875,1.34685546875,-19.7323125,-10.56958984375,-4.40687109375,-0.788546874999998,-5.11491015625,-0.27676171875,-3.4243046875,3.90023828125,4.71744140625
8.556234375,0.543011718749998,-2.62129296875,-4.00698828125,8.16759375,4.05703125,5.8782421875,-0.689238281250001,-8.31352734375,-0.00876171875000153,7.58034765625,1.5090546875,-9.14107421875,-9.93713671875,-0.749070312500001,4.6252421875,-0.8860703125,-11.0608515625,-5.3217265625,3.66210546875,3.24085546875,-18.5713125,-9.70458984375,-3.41687109375,1.604453125,-2.77591015625,0.59223828125,-3.3923046875,4.75323828125,5.98144140625
7.679234375,-0.762988281250001,-3.99329296875,-4.36998828125,6.39559375,0.674031250000002,3.1482421875,-1.81723828125,-5.91952734375,-1.83376171875,5.31734765625,-0.369945312500001,-6.69607421875,-7.55613671875,-2.1550703125,5.0362421875,-1.0970703125,-8.8938515625,-4.9567265625,4.02510546875,2.99985546875,-16.1383125,-8.50158984375,-3.10787109375,2.275453125,-1.59791015625,1.08523828125,-3.5923046875,4.80723828125,6.62144140625
4.510234375,-3.32498828125,-7.40729296875,-6.28998828125,3.05159375,-3.96196875,-1.4737578125,-4.79623828125,-5.03652734375,-5.36976171875,1.03734765625,-4.2559453125,-4.91907421875,-5.98713671875,-5.0670703125,2.9252421875,-2.8530703125,-6.5618515625,-5.4217265625,2.37710546875,0.700855468749999,-13.0463125,-7.24058984375,-3.62987109375,1.051453125,-1.65591015625,0.79823828125,-4.1923046875,3.71623828125,6.32944140625
0.275234375,-6.11598828125,-11.70429296875,-8.93298828125,-0.62540625,-8.21796875,-6.5007578125,-8.52823828125,-5.63452734375,-9.29776171875,-3.80465234375,-8.8659453125,-4.07607421875,-5.35613671875,-8.2460703125,-0.933757812500001,-5.5630703125,-4.5188515625,-6.3437265625,-0.50889453125,-2.81914453125,-9.8763125,-5.94358984375,-4.61787109375,-1.451546875,-2.66291015625,-0.25576171875,-5.0553046875,1.62523828125,5.16244140625
-3.404765625,-8.06398828125,-15.36729296875,-11.17698828125,-3.26440625,-10.62096875,-10.2787578125,-11.46323828125,-7.08752734375,-12.09576171875,-7.54965234375,-12.5689453125,-4.05007421875,-5.33813671875,-10.2810703125,-5.2017578125,-8.3640703125,-2.9718515625,-7.0567265625,-3.38789453125,-6.27414453125,-7.0203125,-4.47558984375,-5.40387109375,-4.061546875,-4.07591015625,-1.69376171875,-5.8213046875,-0.88676171875,3.51444140625
-5.197765625,-8.46198828125,-17.09929296875,-12.05598828125,-3.87540625,-10.44296875,-11.6337578125,-12.25123828125,-8.55152734375,-12.74476171875,-8.99065234375,-14.0669453125,-4.53907421875,-5.52913671875,-10.2700703125,-8.4757578125,-10.4190703125,-1.9698515625,-7.0007265625,-5.09989453125,-8.45214453125,-4.7163125,-2.78858984375,-5.43887109375,-5.587546875,-5.28991015625,-3.05576171875,-6.1493046875,-3.13476171875,1.89444140625
-4.577765625,-7.24198828125,-16.32729296875,-11.17798828125,-2.29540625,-7.97696875,-10.3487578125,-10.36623828125,-9.40052734375,-11.18776171875,-7.85165234375,-12.9189453125,-5.29107421875,-5.73813671875,-8.2470703125,-9.7767578125,-11.1700703125,-1.5078515625,-6.0627265625,-5.04589453125,-8.67514453125,-3.1393125,-1.10058984375,-4.60887109375,-5.334546875,-5.81791015625,-4.11076171875,-5.9253046875,-4.69376171875,0.668441406250001
-1.972765625,-4.96398828125,-13.37129296875,-8.87198828125,0.71059375,-4.37996875,-7.2237578125,-6.36023828125,-9.46052734375,-8.31076171875,-4.84865234375,-9.6709453125,-6.18307421875,-6.02113671875,-5.1100703125,-8.8127578125,-10.4930703125,-1.5358515625,-4.6277265625,-3.34989453125,-6.95614453125,-2.4043125,0.16741015625,-3.26787109375,-3.327546875,-5.41691015625,-4.95476171875,-5.3123046875,-5.56676171875,-0.101558593749999
1.474234375,-2.51098828125,-9.24929296875,-6.02198828125,3.81459375,-1.16996875,-3.6827578125,-1.64823828125,-8.94852734375,-5.46676171875,-1.33365234375,-5.5999453125,-7.16007421875,-6.49913671875,-2.1430703125,-5.9617578125,-8.7280703125,-1.9158515625,-3.3237265625,-0.674894531250001,-3.87214453125,-2.5153125,0.62941015625,-2.02187109375,-0.210546874999995,-4.13491015625,-5.89376171875,-4.6393046875,-6.10276171875,-0.613558593749999
4.406234375,-0.668988281250002,-5.23229296875,-3.67698828125,5.78259375,0.404031250000001,-1.1327578125,2.08776171875,-8.23152734375,-3.80276171875,1.31234765625,-2.1809453125,-8.10407421875,-7.12813671875,-0.409070312500001,-2.0527578125,-6.5830703125,-2.4028515625,-2.6467265625,2.12510546875,-0.27414453125,-3.2923125,0.18041015625,-1.41087109375,3.072453125,-2.30991015625,-7.20676171875,-4.2273046875,-6.72476171875,-1.14855859375
5.836234375,0.189011718749999,-2.34829296875,-2.60998828125,6.04559375,-0.105968749999999,-0.384757812500002,3.63176171875,-7.57252734375,-3.70776171875,2.26034765625,-0.4699453125,-8.74507421875,-7.58813671875,-0.296070312500001,1.9382421875,-4.8580703125,-2.6718515625,-2.6887265625,4.33110546875,3.00085546875,-4.3623125,-0.905589843750001,-1.66087109375,5.637453125,-0.467910156250001,-8.93176171875,-4.2323046875,-7.63776171875,-1.84055859375
5.535234375,0.198011718749999,-1.03629296875,-3.00298828125,4.92759375,-2.15596875,-1.3517578125,2.77176171875,-6.99752734375,-4.66776171875,1.54734765625,-0.6749453125,-8.69307421875,-7.37913671875,-1.4270703125,5.1582421875,-4.1140703125,-2.4198515625,-3.1287265625,5.52610546875,5.33085546875,-5.2673125,-2.09258984375,-2.61687109375,6.919453125,0.825089843749999,-10.82276171875,-4.5933046875,-8.68576171875,-2.56155859375
4.027234375,-0.153988281250001,-1.11329296875,-4.38298828125,3.43259375,-4.50496875,-3.1757578125,0.333761718749999,-6.36852734375,-5.62976171875,-0.0636523437500021,-2.1579453125,-7.63907421875,-6.14113671875,-2.9440703125,7.0282421875,-4.4550703125,-1.5378515625,-3.4897265625,5.57910546875,6.35685546875,-5.6933125,-2.89058984375,-3.90287109375,6.739453125,1.11108984375,-12.51576171875,-5.1443046875,-9.46776171875,-3.02955859375
2.188234375,-0.383988281250002,-2.05029296875,-5.89598828125,2.67059375,-5.90296875,-4.7457578125,-2.33823828125,-5.60552734375,-5.67876171875,-1.59965234375,-3.8819453125,-5.62607421875,-4.00313671875,-4.0220703125,7.2572421875,-5.5810703125,-0.287851562500001,-3.5117265625,4.51410546875,5.94785546875,-5.7053125,-3.18558984375,-5.20787109375,5.205453125,0.152089843749999,-13.79876171875,-5.8013046875,-9.64376171875,-3.05255859375
0.733234375,-0.35698828125,-3.37829296875,-6.77198828125,3.17659375,-5.78696875,-5.3397578125,-4.13123828125,-4.89552734375,-4.64276171875,-2.46165234375,-4.9839453125,-3.17107421875,-1.70613671875,-4.3240703125,5.8102421875,-6.9930703125,0.676148437499998,-3.3867265625,2.39610546875,4.16685546875,-5.7963125,-3.38458984375,-6.50387109375,2.579453125,-1.96491015625,-14.78476171875,-6.6723046875,-9.19676171875,-2.72655859375
-0.134765625,-0.390988281250001,-4.95129296875,-6.73298828125,4.54759375,-4.55896875,-5.0047578125,-4.68823828125,-4.69752734375,-3.21976171875,-2.70265234375,-5.1689453125,-1.12807421875,-0.359136718750001,-4.1250703125,2.8942421875,-8.2190703125,0.512148437499999,-3.7007265625,-0.680894531250001,1.29185546875,-6.6693125,-4.24958984375,-8.03587109375,-0.809546874999995,-4.79691015625,-15.84276171875,-7.9873046875,-8.47276171875,-2.42955859375
-0.754765625000001,-1.02798828125,-6.92529296875,-6.09198828125,5.67659375,-3.28896875,-4.4127578125,-4.44923828125,-5.51252734375,-2.57476171875,-2.86665234375,-4.7419453125,-0.34807421875,-0.976136718750002,-4.0880703125,-1.0247578125,-8.9650703125,-1.4678515625,-5.1047265625,-4.50589453125,-2.19314453125,-8.8833125,-6.50158984375,-10.11987109375,-4.591546875,-7.68291015625,-17.36076171875,-9.9293046875,-8.00576171875,-2.63955859375
-1.732765625,-2.63998828125,-9.50429296875,-5.51598828125,5.44059375,-3.06396875,-4.3317578125,-4.25723828125,-7.58552734375,-3.65576171875,-3.53165234375,-4.3319453125,-1.31807421875,-4.01613671875,-4.8260703125,-5.2317578125,-9.1770703125,-5.4688515625,-7.8997265625,-8.65289453125,-5.67414453125,-12.5503125,-10.39458984375,-12.87887109375,-8.351546875,-10.01991015625,-19.47876171875,-12.4603046875,-8.22676171875,-3.69555859375
-3.526765625,-5.13998828125,-12.64029296875,-5.61698828125,3.37859375,-4.35896875,-5.1157578125,-4.80023828125,-10.70252734375,-6.61976171875,-4.87465234375,-4.4669453125,-3.92907421875,-9.09913671875,-6.5150703125,-8.8577578125,-8.9840703125,-11.0248515625,-11.7357265625,-12.46289453125,-8.54714453125,-17.1933125,-15.45958984375,-16.04387109375,-11.606546875,-11.48491015625,-21.90976171875,-15.2263046875,-9.19776171875,-5.57055859375
-6.106765625,-7.97498828125,-15.88229296875,-6.59798828125,-0.0624062499999996,-6.79796875,-6.5187578125,-6.20223828125,-14.20152734375,-10.69776171875,-6.52365234375,-5.2309453125,-7.47107421875,-15.01913671875,-8.7510703125,-11.0717578125,-8.5600703125,-17.0188515625,-15.6137265625,-15.14489453125,-10.32114453125,-21.8393125,-20.54958984375,-18.92687109375,-13.805546875,-12.04891015625,-23.96376171875,-17.5693046875,-10.48276171875,-7.74555859375
-8.921765625,-10.36198828125,-18.49929296875,-8.14298828125,-3.77340625,-9.39196875,-7.8927578125,-7.95623828125,-17.18252734375,-14.54576171875,-7.76465234375,-6.2249453125,-10.89907421875,-20.10813671875,-10.7180703125,-11.3327578125,-8.0300703125,-21.9858515625,-18.2157265625,-15.99589453125,-10.72114453125,-25.3193125,-24.21358984375,-20.62587109375,-14.423546875,-11.82291015625,-24.78976171875,-18.7003046875,-11.27276171875,-9.29655859375
-11.149765625,-11.60198828125,-19.78129296875,-9.56298828125,-6.51840625,-11.09096875,-8.5777578125,-9.22223828125,-18.82452734375,-16.84976171875,-7.96665234375,-6.8609453125,-13.24407421875,-22.83313671875,-11.5600703125,-9.5977578125,-7.4770703125,-24.5958515625,-18.4397265625,-14.67389453125,-9.75614453125,-26.6843125,-25.25558984375,-20.38987109375,-13.145546875,-10.92191015625,-23.74076171875,-17.9983046875,-10.72876171875,-9.23855859375
-12.052765625,-11.33698828125,-19.34929296875,-10.10298828125,-7.46040625,-11.27296875,-8.2277578125,-9.27823828125,-18.64652734375,-16.85276171875,-6.92065234375,-6.7279453125,-13.93907421875,-22.32813671875,-10.7460703125,-6.3677578125,-7.0060703125,-24.1028515625,-15.8497265625,-11.37489453125,-7.73914453125,-25.5083125,-23.16258984375,-17.93087109375,-10.029546875,-9.43191015625,-20.62276171875,-15.2373046875,-8.32976171875,-6.97755859375
-11.203765625,-9.63198828125,-17.26429296875,-9.22698828125,-6.45240625,-9.89496875,-6.9187578125,-7.87823828125,-16.59652734375,-14.54176171875,-4.88565234375,-5.7819453125,-12.88307421875,-18.60613671875,-8.2420703125,-2.5337578125,-6.7460703125,-20.5048515625,-10.8357265625,-6.81889453125,-5.20214453125,-21.9253125,-18.22158984375,-13.53887109375,-5.538546875,-7.44891015625,-15.71676171875,-10.6303046875,-4.03776171875,-2.61555859375
-8.580765625,-6.87198828125,-13.94729296875,-6.76498828125,-3.97040625,-7.34296875,-5.0097578125,-5.33723828125,-12.98652734375,-10.53176171875,-2.39665234375,-4.3049453125,-10.31507421875,-12.45413671875,-4.4800703125,0.898242187499999,-6.7870703125,-14.4698515625,-4.4627265625,-2.05389453125,-2.75714453125,-16.4753125,-11.33558984375,-7.99487109375,-0.468546874999998,-5.16791015625,-9.63976171875,-4.7163046875,1.74023828125,3.05144140625
-4.577765625,-3.58998828125,-10.02629296875,-2.92498828125,-0.78740625,-4.18396875,-2.9197578125,-2.37023828125,-8.38152734375,-5.78276171875,-0.00665234375000168,-2.7469453125,-6.70807421875,-5.18213671875,-0.2080703125,3.0692421875,-7.1350703125,-7.1478515625,1.8732734375,1.81210546875,-0.971144531249999,-9.9633125,-3.76558984375,-2.38687109375,4.179453125,-2.94591015625,-3.21976171875,1.7586953125,8.26223828125,8.80544140625
0.0362343749999994,-0.327988281250001,-6.20529296875,1.76601171875,2.36359375,-0.991968749999998,-0.980757812500002,0.20976171875,-3.52852734375,-1.29676171875,1.88234765625,-1.5619453125,-2.70907421875,1.68486328125,3.7319296875,3.4842421875,-7.7330703125,0.0411484374999986,6.8432734375,3.91410546875,-0.250144531250001,-3.3673125,3.12741015625,2.15512890625,7.409453125,-1.27391015625,2.60923828125,7.9286953125,14.57223828125,13.40644140625
4.297234375,2.42101171875,-3.15229296875,6.57801171875,4.96159375,1.73603125,0.558242187499998,1.78876171875,0.759472656249999,2.14323828125,3.08634765625,-1.0319453125,0.95992578125,6.79586328125,6.6519296875,2.1562421875,-8.4740703125,5.7131484375,9.5732734375,3.90110546875,-0.718144531250001,2.2856875,8.17041015625,4.80212890625,8.563453125,-0.578910156250001,6.98823828125,12.9536953125,19.70923828125,15.98044140625
7.309234375,4.26601171875,-1.35329296875,10.73401171875,6.69059375,3.63503125,1.4862421875,2.13976171875,3.80747265625,4.15023828125,3.62934765625,-1.1549453125,3.68892578125,9.36586328125,8.2329296875,-0.3557578125,-9.2030703125,8.8951484375,9.9282734375,2.10810546875,-2.09814453125,6.1546875,10.70041015625,5.36512890625,7.656453125,-0.960910156250001,9.40623828125,16.2556953125,22.98023828125,16.27244140625
8.482234375,4.96701171875,-0.99229296875,13.58401171875,7.40359375,4.48803125,1.6272421875,1.44176171875,5.28247265625,4.76423828125,3.66934765625,-1.6659453125,5.12692578125,9.38786328125,8.5869296875,-3.0867578125,-9.7310703125,9.3161484375,8.5542734375,-0.520894531250001,-3.72014453125,7.8286875,10.79441015625,4.41012890625,5.482453125,-2.03291015625,9.92323828125,17.7276953125,24.18423828125,14.67544140625
7.680234375,4.50601171875,-1.88129296875,14.75901171875,7.09959375,4.23603125,0.915242187499999,0.16576171875,5.26647265625,4.33423828125,3.39834765625,-2.2049453125,5.20892578125,7.54786328125,8.1619296875,-4.9967578125,-9.8840703125,7.4541484375,6.6252734375,-2.74989453125,-4.73014453125,7.4236875,9.25641015625,3.03812890625,3.358453125,-3.02491015625,9.16623828125,17.7666953125,23.67423828125,12.05144140625
5.304234375,3.12601171875,-3.48529296875,14.27601171875,5.93159375,3.03803125,-0.515757812500002,-1.11623828125,4.18247265625,3.37823828125,3.00434765625,-2.4569453125,4.12492578125,4.94386328125,7.5469296875,-5.3497578125,-9.5320703125,4.3531484375,5.4082734375,-3.49389453125,-4.38814453125,5.5276875,7.33641015625,2.45212890625,2.616453125,-3.09091015625,8.10623828125,17.1406953125,22.23823828125,9.47044140625
2.293234375,1.37501171875,-5.02729296875,12.58901171875,4.23859375,1.37703125,-2.2547578125,-1.89223828125,2.67047265625,2.51223828125,2.71934765625,-2.2039453125,2.28592578125,2.76386328125,7.3339296875,-3.9807578125,-8.5860703125,1.3211484375,5.8462734375,-2.15989453125,-2.34614453125,3.0356875,6.29041015625,3.50112890625,4.085453125,-1.67691015625,7.70623828125,16.7376953125,20.84723828125,7.95144140625
-0.0647656249999997,0.067011718749999,-5.65129296875,10.52601171875,2.61059375,0.0760312500000015,-3.6007578125,-1.82023828125,1.44747265625,2.40023828125,2.87734765625,-1.3199453125,0.28192578125,1.97486328125,8.0059296875,-1.3207578125,-7.0220703125,-0.446851562500001,8.2832734375,1.18310546875,1.21285546875,0.899687499999999,6.93041015625,6.39512890625,7.759453125,1.18208984375,8.58323828125,17.2536953125,20.32223828125,8.21244140625
-0.542765624999999,0.088011718749998,-4.65829296875,9.04801171875,1.86159375,0.088031250000002,-3.7047578125,-0.76723828125,1.12747265625,3.62523828125,3.85334765625,0.207054687500001,-1.25207421875,3.06986328125,9.8499296875,1.7942421875,-4.9610703125,-0.2078515625,12.4002734375,5.84110546875,5.59785546875,-0.132312500000001,9.35141015625,10.64312890625,12.789453125,4.79008984375,10.77923828125,18.9096953125,20.99023828125,10.41444140625
1.539234375,2.04001171875,-1.72229296875,8.87501171875,2.78359375,2.11603125,-1.8797578125,1.20276171875,2.04147265625,6.48323828125,5.89634765625,2.2720546875,-1.79707421875,5.95986328125,12.8479296875,4.4932421875,-2.6990703125,2.1321484375,17.3602734375,10.74610546875,9.83385546875,0.311687499999998,12.95841015625,15.28012890625,17.818453125,8.05308984375,13.79423828125,21.3746953125,22.54123828125,14.04944140625
5.980234375,5.90601171875,2.96370703125,10.16501171875,5.72359375,6.25403125,2.0512421875,3.89476171875,4.11847265625,10.79323828125,8.98234765625,4.7150546875,-1.07707421875,10.04986328125,16.6269296875,6.2472421875,-0.6010703125,6.0631484375,22.1192734375,14.84910546875,13.04085546875,2.2096875,16.79141015625,19.27212890625,21.562453125,9.99608984375,16.85723828125,23.9576953125,24.20423828125,18.08044140625
11.659234375,10.94501171875,8.68470703125,12.40301171875,10.26259375,11.85003125,7.5832421875,7.04876171875,6.90847265625,15.83823828125,12.75834765625,7.3760546875,0.85392578125,14.42886328125,20.5049296875,7.0652421875,1.0549296875,10.6851484375,25.7622734375,17.50010546875,14.76685546875,5.2166875,19.94941015625,21.90412890625,23.313453125,10.23708984375,19.28723828125,25.9696953125,25.15123828125,21.31944140625
16.849234375,15.91201171875,14.34870703125,14.60101171875,15.25859375,17.64803125,13.6372421875,10.36276171875,9.69847265625,20.49623828125,16.61034765625,10.0670546875,3.56892578125,18.07786328125,23.6449296875,7.4022421875,2.1349296875,14.9511484375,27.7172734375,18.61810546875,15.09685546875,8.7416875,21.85041015625,22.93912890625,23.112453125,9.09108984375,20.69923828125,26.9956953125,24.87323828125,22.83344140625
19.840234375,19.50301171875,18.76370703125,15.72701171875,19.26159375,22.18803125,18.8912421875,13.48476171875,11.70347265625,23.55623828125,19.82334765625,12.5110546875,6.34292578125,20.09186328125,25.3029296875,7.8432421875,2.6259296875,17.9101484375,27.8202734375,18.58610546875,14.50185546875,12.0516875,22.27841015625,22.54312890625,21.560453125,7.32108984375,21.00923828125,26.9776953125,23.37023828125,22.26144140625
19.662234375,20.84201171875,21.00970703125,15.18101171875,21.08759375,24.34003125,22.2042421875,16.03176171875,12.32147265625,24.16423828125,21.79934765625,14.3570546875,8.39292578125,19.94486328125,25.0959296875,8.7522421875,2.6079296875,18.9411484375,26.2632734375,17.97410546875,13.56785546875,14.4526875,21.31941015625,21.10912890625,19.441453125,5.73908984375,20.35023828125,26.1156953125,21.09223828125,19.91144140625
16.518234375,19.77701171875,20.74370703125,13.07701171875,20.30959375,23.71503125,22.9502421875,17.64176171875,11.36447265625,22.17723828125,22.22134765625,15.2760546875,9.17392578125,17.69286328125,23.1449296875,10.0662421875,2.2399296875,17.9281484375,23.4882734375,17.23410546875,12.74385546875,15.4886875,19.26441015625,19.08612890625,17.363453125,4.88008984375,18.96923828125,24.6906953125,18.70223828125,16.62544140625
11.643234375,16.87001171875,18.26470703125,10.17701171875,17.43559375,20.73303125,21.1542421875,18.01476171875,9.13847265625,18.22623828125,21.07534765625,15.0290546875,8.53692578125,13.94486328125,19.9859296875,11.2742421875,1.6989296875,15.2611484375,20.0502734375,16.50110546875,12.15585546875,15.0196875,16.51941015625,16.83412890625,15.545453125,4.85308984375,17.13623828125,22.8956953125,16.73523828125,13.40444140625
6.682234375,13.07701171875,14.33170703125,7.50001171875,13.66059375,16.34703125,17.3682421875,16.95376171875,6.29647265625,13.43323828125,18.54634765625,13.5130546875,6.70892578125,9.62586328125,16.3159296875,11.5992421875,1.0749296875,11.6701484375,16.4752734375,15.57010546875,11.56085546875,13.1986875,13.53141015625,14.55112890625,13.819453125,5.36408984375,15.06723828125,20.7956953125,15.35023828125,10.97644140625
2.974234375,9.32601171875,9.88170703125,5.84001171875,10.28959375,11.63303125,12.4192421875,14.47776171875,3.56347265625,8.95823828125,14.91534765625,10.8140546875,4.19392578125,5.66986328125,12.7069296875,10.3182421875,0.3399296875,8.0171484375,13.1592734375,14.06410546875,10.50285546875,10.4516875,10.73141015625,12.30312890625,11.852453125,5.91608984375,12.91823828125,18.4566953125,14.33723828125,9.54844140625
1.102234375,6.22201171875,5.76270703125,5.46401171875,8.14259375,7.46003125,7.1632421875,10.95476171875,1.48847265625,5.59723828125,10.50334765625,7.2710546875,1.65992578125,2.76386328125,9.4569296875,7.0932421875,-0.5910703125,5.0891484375,10.3252734375,11.69410546875,8.59685546875,7.4466875,8.47741015625,10.09612890625,9.436453125,6.06508984375,10.81923828125,16.0856953125,13.33323828125,8.85644140625
0.834234374999999,3.99501171875,2.55670703125,6.09601171875,7.30259375,4.31503125,2.3602421875,7.10476171875,0.328472656249998,3.58423828125,5.69334765625,3.4540546875,-0.22207421875,1.19886328125,6.5919296875,2.1672421875,-1.7760703125,3.4171484375,8.0202734375,8.44610546875,5.78585546875,4.9336875,6.96841015625,7.93312890625,6.644453125,5.59908984375,8.86423828125,14.0236953125,12.07523828125,8.42844140625
1.405234375,2.62201171875,0.48770703125,7.16301171875,7.28559375,2.30303125,-1.3687578125,3.81276171875,0.073472656249999,2.66723828125,0.975347656249999,0.0160546875000005,-0.95707421875,0.861863281249999,4.0099296875,-3.6447578125,-3.2000703125,3.1501484375,6.1762734375,4.66110546875,2.42185546875,3.4976875,6.19341015625,5.83612890625,3.792453125,4.56308984375,7.09123828125,12.5806953125,10.53823828125,7.89244140625
2.020234375,2.00101171875,-0.507292968749997,8.13001171875,7.46859375,1.30303125,-3.5677578125,1.84676171875,0.568472656249998,2.38223828125,-2.99965234375,-2.4429453125,-0.35107421875,1.41286328125,1.7189296875,-9.1187578125,-4.7330703125,4.0951484375,4.7542734375,1.00310546875,-0.81914453125,3.3766875,6.00241015625,3.92212890625,1.341453125,3.23208984375,5.54123828125,11.9276953125,8.98523828125,7.19144140625
2.297234375,2.07501171875,-0.60229296875,8.74901171875,7.45359375,1.17303125,-3.9937578125,1.61576171875,1.65047265625,2.38023828125,-5.45365234375,-3.4769453125,1.48092578125,2.53386328125,-0.0100703124999999,-12.9247578125,-6.0960703125,5.8881484375,3.8612734375,-1.67989453125,-3.13714453125,4.4696875,6.25341015625,2.47412890625,-0.193546874999996,2.04808984375,4.36223828125,12.0856953125,7.89323828125,6.62544140625
2.374234375,2.81701171875,0.0517070312500003,9.07601171875,7.16159375,1.81803125,-2.7017578125,3.03676171875,3.16147265625,2.53523828125,-5.73165234375,-2.9059453125,4.13692578125,3.98686328125,-0.742070312500001,-14.0527578125,-6.9120703125,8.1011484375,3.6822734375,-2.65489453125,-3.88714453125,6.4226875,6.84841015625,1.86012890625,-0.388546874999996,1.49208984375,3.80923828125,12.9516953125,7.74023828125,6.66644140625
2.589234375,4.07301171875,1.27670703125,9.27001171875,6.66459375,3.03603125,-0.142757812500001,5.52576171875,4.81647265625,2.80023828125,-3.69565234375,-0.9509453125,6.95492578125,5.44786328125,-0.219070312500001,-12.2207578125,-6.8950703125,10.2011484375,4.2292734375,-1.67289453125,-2.85814453125,8.6866875,7.60841015625,2.28012890625,0.858453125000004,1.88208984375,4.05123828125,14.2306953125,8.67823828125,7.60244140625
3.065234375,5.42801171875,2.72770703125,9.35401171875,5.92759375,4.36303125,2.8372421875,8.14876171875,6.09647265625,3.00023828125,0.0123476562499985,1.7500546875,9.12492578125,6.35186328125,1.3249296875,-8.0467578125,-6.0200703125,11.5081484375,5.1212734375,0.830105468749998,-0.397144531249999,10.5646875,8.13941015625,3.53612890625,3.180453125,3.20508984375,4.93423828125,15.3866953125,10.31223828125,9.26344140625
3.540234375,6.25001171875,3.89870703125,9.15801171875,4.73259375,5.14403125,5.1912421875,9.95576171875,6.36647265625,2.80323828125,4.11734765625,4.3700546875,9.93892578125,6.03286328125,3.1599296875,-2.8047578125,-4.5290703125,11.3401484375,5.6542734375,3.89410546875,2.74985546875,11.3616875,7.89241015625,5.05412890625,5.844453125,5.12108984375,5.93123828125,15.7456953125,11.79123828125,11.02144140625
3.557234375,5.98201171875,4.30470703125,8.48001171875,2.87759375,4.82903125,6.0472421875,10.34576171875,5.19247265625,1.90923828125,7.21234765625,6.2080546875,9.06592578125,4.08086328125,4.3839296875,2.0922421875,-2.8090703125,9.3251484375,5.1362734375,6.48410546875,5.74985546875,10.6136875,6.42641015625,6.14812890625,8.051453125,7.13408984375,6.34323828125,14.7736953125,12.19723828125,12.09644140625
2.784234375,4.45101171875,3.71370703125,7.29501171875,0.48759375,3.24203125,5.0522421875,9.25676171875,2.61847265625,0.24223828125,8.29134765625,6.8750546875,6.65092578125,0.638863281249998,4.3299296875,5.5622421875,-1.2660703125,5.6631484375,3.2742734375,7.89410546875,7.94985546875,8.2786875,3.67841015625,6.32412890625,9.227453125,8.76108984375,5.60923828125,12.3586953125,11.00623828125,11.96844140625
1.230234375,1.97001171875,2.22770703125,5.81101171875,-1.90340625,0.649031250000002,2.4832421875,7.09676171875,-0.811527343750001,-1.98376171875,7.05134765625,6.2740546875,3.22792578125,-3.56513671875,2.8309296875,7.0612421875,-0.2720703125,1.1501484375,0.371273437499999,7.91210546875,8.96485546875,4.7866875,0.0794101562499989,5.47212890625,9.134453125,9.60908984375,3.59723828125,8.9276953125,8.34923828125,10.62444140625
-0.751765625000001,-0.847988281250002,0.19070703125,4.36101171875,-3.61640625,-2.37996875,-0.932757812500002,4.52776171875,-4.27752734375,-4.35876171875,3.89534765625,4.5370546875,-0.46307421875,-7.44713671875,0.237929687499999,6.5222421875,-0.1080703125,-3.0518515625,-2.7637265625,6.71810546875,8.64185546875,0.937687499999999,-3.53358984375,3.89212890625,7.843453125,9.38208984375,0.70423828125,5.3396953125,4.95823828125,8.54044140625
-2.650765625,-3.39598828125,-1.98429296875,3.21301171875,-4.26540625,-5.20996875,-4.3317578125,2.23776171875,-6.99652734375,-6.44076171875,-0.295652343750001,1.9780546875,-3.66307421875,-9.94813671875,-2.7610703125,4.1802421875,-0.8970703125,-5.8088515625,-5.1417265625,4.68510546875,7.01485546875,-2.3443125,-6.20958984375,2.15112890625,5.621453125,7.90908984375,-2.26876171875,2.5396953125,1.80923828125,6.38644140625
-4.091765625,-5.29998828125,-3.97229296875,2.44101171875,-4.00240625,-7.36896875,-6.9987578125,0.747761718750001,-8.49252734375,-7.91076171875,-4.50965234375,-0.965945312499999,-5.79307421875,-10.46613671875,-5.4380703125,0.421242187499999,-2.5570703125,-6.4838515625,-6.0257265625,2.18810546875,4.28585546875,-4.3593125,-7.28458984375,0.81412890625,2.828453125,5.19108984375,-4.48476171875,1.1316953125,-0.37976171875,4.63344140625
-5.027765625,-6.48598828125,-5.57129296875,1.90501171875,-3.44140625,-8.68496875,-8.5367578125,0.269761718749999,-8.73152734375,-8.66676171875,-7.91065234375,-3.8229453125,-6.64207421875,-9.12013671875,-7.3020703125,-4.2377578125,-4.8160703125,-5.2368515625,-5.2667265625,-0.471894531250001,0.838855468749999,-4.9443125,-6.72158984375,0.168128906249999,-0.148546874999997,1.47208984375,-5.48676171875,1.0616953125,-1.50176171875,3.28244140625
-5.670765625,-7.06398828125,-6.60229296875,1.34701171875,-3.30240625,-9.23296875,-8.8727578125,0.66776171875,-8.06252734375,-8.77776171875,-9.99365234375,-6.1289453125,-6.38507421875,-6.66313671875,-8.2110703125,-9.0607578125,-7.2350703125,-2.9598515625,-3.3507265625,-3.00589453125,-2.71514453125,-4.4983125,-5.16158984375,0.132128906249999,-2.883546875,-2.70891015625,-5.38776171875,1.6606953125,-2.03076171875,1.93244140625
-6.217765625,-7.15198828125,-6.78629296875,0.584011718750001,-3.96740625,-9.12796875,-8.1317578125,1.60076171875,-6.95952734375,-8.33876171875,-10.55165234375,-7.4329453125,-5.43207421875,-4.08113671875,-8.2660703125,-13.0327578125,-9.2530703125,-0.823851562500001,-1.1427265625,-5.02889453125,-5.56514453125,-3.7123125,-3.61158984375,0.405128906249999,-4.901546875,-6.55791015625,-4.72576171875,2.0386953125,-2.62276171875,0.137441406250001
-6.600765625,-6.72598828125,-5.77529296875,-0.332988281249999,-5.18040625,-8.36096875,-6.4727578125,2.73276171875,-5.74352734375,-7.35176171875,-9.57265234375,-7.3399453125,-4.19807421875,-2.14713671875,-7.6290703125,-14.9847578125,-10.3180703125,0.290148437499999,0.541273437499999,-6.02989453125,-6.87514453125,-3.1913125,-2.93458984375,0.719128906249999,-5.770546875,-9.21691015625,-4.11176171875,1.5776953125,-3.64576171875,-2.19455859375
-6.474765625,-5.64398828125,-3.39129296875,-1.09298828125,-6.10940625,-6.80896875,-4.0237578125,3.88876171875,-4.46352734375,-5.73176171875,-7.18965234375,-5.6529453125,-2.97307421875,-1.17213671875,-6.3810703125,-13.9637578125,-10.0810703125,0.1481484375,1.2952734375,-5.52389453125,-6.09714453125,-3.1913125,-3.44058984375,1.01312890625,-5.284546875,-10.06491015625,-3.89576171875,0.2216953125,-4.92676171875,-4.61655859375
-5.414765625,-3.79798828125,0.120707031250003,-1.24698828125,-5.79640625,-4.38896875,-0.930757812500001,5.07076171875,-2.98852734375,-3.41476171875,-3.68865234375,-2.5009453125,-1.87007421875,-1.00913671875,-4.5200703125,-9.6647578125,-8.5400703125,-0.826851562500001,1.2652734375,-3.29689453125,-3.23614453125,-3.5663125,-4.75658984375,1.47112890625,-3.579546875,-8.94591015625,-4.00176171875,-1.5343046875,-5.86476171875,-6.28755859375
-3.188765625,-1.25698828125,4.08070703125,-0.394988281249999,-3.72240625,-1.17796875,2.5682421875,6.36976171875,-1.17752734375,-0.45676171875,0.502347656249999,1.6630546875,-0.82407421875,-1.20213671875,-2.0200703125,-2.6707578125,-6.0160703125,-1.8388515625,1.0382734375,0.435105468749999,1.10085546875,-3.8623125,-6.02458984375,2.42112890625,-1.057546875,-6.22591015625,-4.00176171875,-2.9083046875,-5.77676171875,-6.35955859375
0.0662343750000005,1.73001171875,7.64170703125,1.66901171875,-0.10440625,2.57603125,6.1582421875,7.85176171875,0.996472656249999,2.93423828125,4.86634765625,6.1630546875,0.34692578125,-1.22013671875,1.0599296875,5.6302421875,-3.0320703125,-2.1308515625,1.3022734375,5.02210546875,5.91585546875,-3.5563125,-6.32058984375,4.12812890625,1.793453125,-2.66291015625,-3.38876171875,-3.2223046875,-4.31076171875,-4.45855859375
3.825234375,4.83801171875,10.18370703125,4.83801171875,4.23359375,6.49903125,9.4952421875,9.46076171875,3.40047265625,6.42623828125,8.86134765625,10.2300546875,1.78792578125,-0.696136718750001,4.4839296875,13.4112421875,-0.1960703125,-1.3368515625,2.4542734375,9.52710546875,10.11285546875,-2.3473125,-5.13558984375,6.54212890625,4.540453125,0.822089843749999,-1.95476171875,-2.2443046875,-1.71676171875,-1.00855859375
7.364234375,7.75801171875,11.57270703125,8.63501171875,8.24759375,10.14303125,12.2422421875,10.98276171875,5.76647265625,9.61523828125,11.96934765625,13.1270546875,3.46292578125,0.435863281249999,7.8049296875,18.9102421875,1.8989296875,0.389148437499999,4.3532734375,12.94710546875,12.77985546875,-0.354312500000001,-2.66258984375,9.16512890625,6.810453125,3.41108984375,0.00223828124999992,-0.324304687500001,1.20223828125,2.84044140625
10.058234375,10.23201171875,12.14370703125,12.28401171875,11.06759375,13.05403125,14.0702421875,12.08776171875,7.78347265625,12.10623828125,13.76234765625,14.3030546875,5.14292578125,2.00886328125,10.4439296875,20.9112421875,2.8129296875,2.5461484375,6.4132734375,14.49110546875,13.39285546875,1.9506875,0.312410156249999,11.21612890625,8.280453125,4.63808984375,1.80923828125,1.8246953125,3.46423828125,5.73744140625
11.602234375,12.05001171875,12.44070703125,14.94001171875,12.26459375,14.84803125,14.7052421875,12.45476171875,9.24647265625,13.60823828125,13.98734765625,13.5310546875,6.54992578125,3.80886328125,11.8969296875,19.0912421875,2.3879296875,4.6341484375,7.9622734375,13.84210546875,11.92285546875,4.0326875,2.84441015625,12.01912890625,8.734453125,4.51308984375,2.81823828125,3.5286953125,4.41123828125,6.79944140625
12.030234375,13.06901171875,12.86870703125,16.00201171875,11.95959375,15.30903125,14.0502421875,11.91576171875,10.15947265625,14.00423828125,12.65234765625,10.9750546875,7.50492578125,5.69986328125,11.9319296875,14.1092421875,0.7769296875,6.4001484375,8.6112734375,11.29610546875,8.80685546875,5.5706875,4.32541015625,11.38912890625,8.172453125,3.41908984375,2.79723828125,4.5016953125,4.02523828125,5.99444140625
11.596234375,13.22301171875,13.48670703125,15.33501171875,10.71759375,14.45603125,12.2862421875,10.55576171875,10.71747265625,13.37923828125,10.07234765625,7.1630546875,7.98192578125,7.63586328125,10.7109296875,7.4272421875,-1.6300703125,7.8601484375,8.4262734375,7.70310546875,4.81285546875,6.5686875,4.73741015625,9.76512890625,6.897453125,1.86408984375,2.07123828125,4.9236953125,2.88523828125,4.04644140625
10.659234375,12.56201171875,14.06770703125,13.30001171875,9.26459375,12.60903125,9.8902421875,8.71276171875,11.19447265625,12.02823828125,6.86834765625,2.9200546875,8.08492578125,9.58786328125,8.7469296875,0.912242187499999,-4.2950703125,9.1361484375,7.8072734375,4.19810546875,0.84685546875,7.2726875,4.55541015625,8.00112890625,5.482453125,0.293089843749999,1.32423828125,5.2556953125,1.84623828125,2.01344140625
9.591234375,11.28401171875,14.32470703125,10.60301171875,8.18259375,10.35703125,7.5212421875,6.86476171875,11.80247265625,10.40923828125,3.85234765625,-0.792945312499999,7.96092578125,11.44686328125,6.7129296875,-3.6947578125,-6.6410703125,10.2501484375,7.1922734375,1.79010546875,-2.24714453125,7.9656875,4.37441015625,6.92912890625,4.575453125,-0.979910156250001,1.18623828125,5.9216953125,1.59523828125,0.769441406250001
8.641234375,9.72401171875,14.08570703125,8.01101171875,7.70659375,8.36103125,5.7952421875,5.40576171875,12.55347265625,8.97823828125,1.77334765625,-3.1839453125,7.67592578125,12.90186328125,5.1359296875,-5.3287578125,-8.2120703125,10.9561484375,6.7282734375,0.95610546875,-3.92314453125,8.7276875,4.46241015625,6.87412890625,4.558453125,-1.76991015625,1.79823828125,6.9866953125,2.25423828125,0.61144140625
7.785234375,8.21401171875,13.31370703125,6.02301171875,7.67559375,7.01703125,4.9922421875,4.39676171875,13.13947265625,7.95623828125,0.986347656249999,-3.9979453125,7.11692578125,13.39186328125,4.1229296875,-3.9687578125,-8.8840703125,10.7341484375,6.1122734375,1.42610546875,-4.13314453125,9.2946875,4.50741015625,7.41712890625,5.269453125,-2.04691015625,2.62423828125,8.0256953125,3.26323828125,1.13444140625
6.696234375,6.87901171875,12.00770703125,4.66001171875,7.56659375,6.20503125,4.8352421875,3.48176171875,12.96447265625,7.17323828125,1.25734765625,-3.6629453125,6.03292578125,12.27186328125,3.3179296875,-0.620757812500001,-8.9520703125,9.0161484375,4.7462734375,2.33410546875,-3.34614453125,9.1596875,3.77141015625,7.59612890625,6.026453125,-1.95791015625,2.72023828125,8.3276953125,3.65923828125,1.46444140625
4.932234375,5.54501171875,10.16170703125,3.50701171875,6.65859375,5.34803125,4.5572421875,2.06576171875,11.40447265625,6.15823828125,1.88534765625,-3.0779453125,4.23792578125,9.18286328125,2.1509296875,3.1412421875,-8.9910703125,5.5681484375,2.1552734375,2.70710546875,-2.32114453125,7.8856875,1.59941015625,6.48212890625,6.018453125,-1.76991015625,1.31823828125,7.3356953125,2.66523828125,0.74444140625
2.237234375,3.86701171875,7.79470703125,1.99801171875,4.35959375,3.74903125,3.2882421875,-0.311238281250001,8.18747265625,4.44223828125,2.06834765625,-3.1529453125,1.77092578125,4.39086328125,0.244929687499999,5.8332421875,-9.5650703125,0.778148437499999,-1.5987265625,1.98510546875,-1.76214453125,5.4156875,-2.05558984375,3.76312890625,4.792453125,-1.76891015625,-1.65676171875,5.0266953125,0.20623828125,-1.38355859375
-1.229765625,1.60001171875,5.04570703125,-0.223988281249999,0.59359375,1.03603125,0.575242187499999,-3.64923828125,3.66447265625,1.89823828125,1.31334765625,-4.3849453125,-1.07707421875,-1.16513671875,-2.3150703125,6.6132421875,-10.9660703125,-4.3868515625,-5.7937265625,0.265105468749997,-2.05214453125,2.1616875,-6.46258984375,-0.0408710937500008,2.510453125,-2.16391015625,-5.49176171875,1.9726953125,-2.98676171875,-4.57755859375
-4.835765625,-1.15098828125,2.24270703125,-3.06598828125,-4.00140625,-2.53496875,-3.2737578125,-7.39223828125,-1.19752734375,-1.07376171875,-0.318652343750001,-6.6259453125,-3.85507421875,-6.11613671875,-4.9650703125,5.4912421875,-13.0590703125,-8.6888515625,-9.2937265625,-1.83189453125,-3.17014453125,-1.1173125,-10.38058984375,-3.79987109375,-0.142546874999997,-3.02291015625,-9.03076171875,-0.8873046875,-5.70276171875,-7.91855859375
-7.634765625,-3.85698828125,-0.0892929687499979,-5.95298828125,-8.20740625,-6.05796875,-7.2067578125,-10.58723828125,-5.09952734375,-3.62976171875,-2.21165234375,-9.1189453125,-6.02907421875,-9.09813671875,-6.9010703125,3.1952421875,-15.2800703125,-11.0438515625,-11.0267265625,-3.51689453125,-4.73514453125,-3.5563125,-12.58858984375,-6.30987109375,-2.296546875,-4.22191015625,-11.20476171875,-2.6133046875,-6.78476171875,-10.26355859375
-8.765765625,-5.72998828125,-1.39629296875,-8.03698828125,-10.67140625,-8.31896875,-9.8427578125,-12.26723828125,-6.88552734375,-4.85476171875,-3.49865234375,-10.8239453125,-7.11007421875,-9.25013671875,-7.4740703125,0.760242187499998,-16.8350703125,-10.9158515625,-10.4727265625,-4.25389453125,-6.19814453125,-4.4933125,-12.44158984375,-6.86387109375,-3.325546875,-5.47591015625,-11.51676171875,-2.6423046875,-5.66476171875,-10.74055859375
-7.940765625,-6.12298828125,-1.41329296875,-8.62198828125,-10.50640625,-8.42996875,-10.1287578125,-11.91023828125,-6.07952734375,-4.29576171875,-3.54065234375,-10.9579453125,-6.88807421875,-6.66213671875,-6.5800703125,-0.984757812500002,-17.0860703125,-8.6058515625,-7.9947265625,-4.05689453125,-7.10914453125,-3.8063125,-10.23758984375,-5.64987109375,-3.185546875,-6.47191015625,-10.30376171875,-1.1003046875,-2.70476171875,-9.23155859375
-5.721765625,-4.97298828125,-0.423292968749998,-7.61198828125,-7.80440625,-6.40796875,-7.9527578125,-9.75823828125,-3.22752734375,-2.35176171875,-2.34765234375,-9.4499453125,-5.67007421875,-2.49313671875,-4.8420703125,-1.8107578125,-15.8980703125,-5.2618515625,-4.8117265625,-3.52189453125,-7.36014453125,-2.0803125,-7.18658984375,-3.72787109375,-2.473546875,-7.01891015625,-8.62376171875,1.1306953125,0.84823828125,-6.55955859375
-3.322765625,-2.97698828125,0.791707031250002,-5.67498828125,-3.77340625,-3.30996875,-4.3347578125,-6.78323828125,0.228472656249998,-0.217761718750001,-0.649652343750001,-7.0139453125,-4.26707421875,1.41786328125,-3.3860703125,-2.1167578125,-13.7190703125,-2.4698515625,-2.5197265625,-3.50489453125,-7.19414453125,-0.373312500000001,-4.90158984375,-2.51687109375,-2.102546875,-7.09891015625,-7.75476171875,2.7586953125,3.37123828125,-4.15255859375
-2.037765625,-1.32398828125,1.30970703125,-3.97398828125,-0.29940625,-0.786968749999998,-1.0207578125,-4.27823828125,2.58447265625,0.663238281249999,0.460347656249999,-4.8029453125,-3.63907421875,3.34586328125,-3.2970703125,-2.6027578125,-11.3490703125,-1.5408515625,-2.3487265625,-4.60189453125,-7.00714453125,0.347687499999999,-4.60558984375,-3.03887109375,-2.754546875,-6.82991015625,-8.50576171875,2.7376953125,3.65823828125,-3.30355859375
-2.658765625,-1.12298828125,0.495707031250003,-3.62098828125,0.91159375,-0.334968749999998,0.336242187499998,-3.29423828125,2.66947265625,-0.68376171875,0.0823476562499987,-3.8619453125,-4.41407421875,2.43686328125,-5.0620703125,-3.7867578125,-9.5770703125,-2.8938515625,-4.5477265625,-6.74989453125,-7.08314453125,-0.250312500000001,-6.50858984375,-5.34687109375,-4.453546875,-6.40491015625,-10.77076171875,0.8316953125,1.51923828125,-4.48155859375
-5.174765625,-2.85998828125,-1.73929296875,-5.18098828125,-0.84340625,-2.60896875,-1.0517578125,-4.20423828125,0.338472656249998,-4.25876171875,-2.03765234375,-4.6599453125,-6.58907421875,-0.975136718750001,-8.2980703125,-5.6567578125,-8.8780703125,-5.9008515625,-8.2497265625,-9.19989453125,-7.44214453125,-1.7383125,-9.72458984375,-8.49587109375,-6.530546875,-6.01191015625,-13.56576171875,-2.2633046875,-2.15576171875,-7.09955859375
-8.813765625,-6.17698828125,-4.90429296875,-8.44298828125,-4.94640625,-7.10696875,-4.7757578125,-6.56523828125,-3.53852734375,-9.04076171875,-5.33165234375,-6.8529453125,-9.53507421875,-5.57613671875,-11.8820703125,-7.6057578125,-9.2360703125,-9.2348515625,-11.8647265625,-10.84789453125,-7.81714453125,-3.2203125,-12.72658984375,-10.99787109375,-7.954546875,-5.70591015625,-15.50576171875,-5.2793046875,-5.85076171875,-9.83755859375
-12.333765625,-9.99198828125,-8.05929296875,-12.50298828125,-9.74640625,-12.32296875,-9.4237578125,-9.31623828125,-7.50752734375,-13.38276171875,-8.61465234375,-9.4029453125,-12.27407421875,-9.65013671875,-14.3890703125,-8.6757578125,-10.1710703125,-11.4948515625,-13.7757265625,-10.70789453125,-7.75314453125,-3.8353125,-14.06658984375,-11.53087109375,-7.820546875,-5.31791015625,-15.45976171875,-6.9893046875,-8.12776171875,-11.30055859375
-14.472765625,-12.89998828125,-10.12329296875,-16.08398828125,-13.29540625,-16.33596875,-13.2007578125,-11.22523828125,-10.13552734375,-15.67876171875,-10.57265234375,-11.0569453125,-13.93107421875,-11.78613671875,-14.6700703125,-8.0217578125,-10.9940703125,-11.8108515625,-13.0217265625,-8.34689453125,-6.81414453125,-3.1913125,-13.01858984375,-9.53387109375,-5.780546875,-4.52091015625,-13.07176171875,-6.7643046875,-8.23776171875,-10.67855859375
-14.390765625,-13.70998828125,-10.27229296875,-17.99198828125,-14.17440625,-17.60896875,-14.6667578125,-11.43023828125,-10.56552734375,-15.01376171875,-10.36565234375,-10.9769453125,-14.11307421875,-11.40913671875,-12.3390703125,-5.3757578125,-11.1750703125,-10.1488515625,-9.6727265625,-4.10689453125,-4.84414453125,-1.5203125,-9.83558984375,-5.44987109375,-2.206546875,-3.07091015625,-8.92276171875,-4.8133046875,-6.36276171875,-8.09755859375
-11.939765625,-11.92398828125,-8.26529296875,-17.53898828125,-12.05840625,-15.58896875,-13.2907578125,-9.79523828125,-8.78852734375,-11.49276171875,-7.99065234375,-9.1239453125,-13.01807421875,-8.87813671875,-7.9380703125,-1.2737578125,-10.5760703125,-7.1908515625,-4.7427265625,0.978105468749998,-2.11414453125,0.533687499999999,-5.55358984375,-0.47787109375,1.982453125,-1.05391015625,-4.23376171875,-1.9873046875,-3.40676171875,-4.51655859375
-7.636765625,-7.90698828125,-4.52529296875,-14.75898828125,-7.75840625,-10.82996875,-9.5397578125,-6.90923828125,-5.51552734375,-6.10276171875,-4.23265234375,-6.1779453125,-11.21707421875,-5.14613671875,-2.6980703125,3.1142421875,-9.4140703125,-3.8858515625,0.3062734375,5.55710546875,0.74185546875,2.3216875,-1.44858984375,3.98412890625,5.705453125,1.07308984375,-0.31876171875,0.6906953125,-0.51676171875,-1.25655859375
-2.443765625,-2.70298828125,0.0577070312500005,-10.34298828125,-2.72840625,-4.64896875,-4.5347578125,-3.73923828125,-1.74952734375,-0.250761718750001,-0.250652343750001,-3.1059453125,-9.32107421875,-1.25913671875,1.9629296875,6.4422421875,-8.0350703125,-0.984851562500001,4.1812734375,8.46010546875,2.97085546875,3.5126875,1.50641015625,6.89712890625,8.103453125,2.67308984375,1.89723828125,2.4676953125,1.36523828125,0.543441406250001
2.531234375,2.39001171875,4.44870703125,-5.37398828125,1.62259375,1.41003125,0.480242187499998,-1.16223828125,1.65847265625,4.73523828125,2.89734765625,-0.6919453125,-7.77007421875,1.99786328125,4.9209296875,7.7052421875,-6.7130703125,1.1561484375,6.1702734375,9.07210546875,4.00185546875,4.1126875,2.91741015625,7.84112890625,8.744453125,3.23208984375,2.08623828125,3.0336953125,1.72523828125,0.317441406250001
6.330234375,6.22701171875,7.77070703125,-0.997988281249999,4.40959375,6.04903125,4.5352421875,0.37376171875,4.23447265625,7.96423828125,4.59334765625,0.7580546875,-6.80107421875,4.21186328125,5.6439296875,6.6042421875,-5.5470703125,2.4941484375,6.2192734375,7.47110546875,3.68085546875,4.2616875,2.91341015625,6.97512890625,7.670453125,2.63808984375,0.48223828125,2.4566953125,0.52323828125,-1.78455859375
8.410234375,8.10901171875,9.50170703125,1.87601171875,5.38159375,8.52203125,7.0942421875,0.94476171875,5.85947265625,9.10723828125,4.75534765625,1.4540546875,-6.48207421875,5.26586328125,4.2279296875,3.6482421875,-4.4280703125,3.0941484375,4.7512734375,4.33410546875,2.39085546875,4.0306875,1.90741015625,4.83612890625,5.352453125,1.30508984375,-2.26776171875,1.0376953125,-1.83276171875,-4.95855859375
8.757234375,7.92201171875,9.54670703125,2.80901171875,4.80359375,8.73903125,8.0592421875,1.00476171875,6.62847265625,8.35323828125,3.75734765625,1.9280546875,-6.75207421875,5.20886328125,1.2579296875,-0.046757812500001,-3.0830703125,2.9921484375,2.3892734375,0.664105468749998,0.92785546875,3.3526875,0.32041015625,2.08712890625,2.560453125,0.0480898437499988,-5.33876171875,-0.8173046875,-4.61876171875,-8.04455859375
7.815234375,6.11701171875,8.19970703125,1.91101171875,3.27659375,7.18703125,7.7042421875,1.07376171875,6.68447265625,6.25523828125,2.22334765625,2.6920546875,-7.44107421875,4.13986328125,-2.4200703125,-3.1857578125,-1.2130703125,2.1561484375,-0.2767265625,-2.56989453125,0.152855468749999,2.0936875,-1.59858984375,-0.69587109375,0.102453125000004,-0.305910156250001,-8.02676171875,-2.7103046875,-7.06976171875,-10.02555859375
6.264234375,3.53501171875,6.06670703125,-0.227988281249999,1.54459375,4.72703125,6.5852421875,1.45476171875,6.14247265625,3.55623828125,0.823347656249998,3.9500546875,-8.29807421875,2.21786328125,-5.9290703125,-4.7777578125,1.3199296875,0.576148437499999,-2.7937265625,-4.72989453125,0.56585546875,0.197687499999999,-3.76658984375,-3.13887109375,-1.466546875,0.652089843749999,-10.00376171875,-4.3113046875,-8.68376171875,-10.46555859375
4.807234375,1.12601171875,3.96970703125,-2.76298828125,0.28459375,2.36703125,5.4112421875,2.13076171875,5.12747265625,1.06623828125,0.143347656249999,5.5700546875,-9.00207421875,-0.191136718750002,-8.4900703125,-4.4177578125,4.3899296875,-1.5658515625,-4.8027265625,-5.60789453125,2.08685546875,-2.1353125,-6.07958984375,-5.02687109375,-2.013546875,2.69608984375,-11.34476171875,-5.3543046875,-9.35276171875,-9.63055859375
4.005234375,-0.309988281250002,2.81170703125,-4.84998828125,-0.0714062499999999,1.04003125,4.8942421875,2.89976171875,3.87647265625,-0.45076171875,0.623347656249999,7.2660546875,-9.20607421875,-2.41513671875,-9.4940703125,-2.2797578125,7.6169296875,-3.7638515625,-5.9597265625,-5.30189453125,4.16885546875,-4.3883125,-8.19058984375,-6.16987109375,-1.748546875,5.10308984375,-12.30876171875,-5.6123046875,-9.25976171875,-8.19855859375
4.161234375,-0.332988281250001,3.31670703125,-5.89698828125,0.59059375,1.34203125,5.5632421875,3.59776171875,2.78547265625,-0.45376171875,2.44734765625,8.7970546875,-8.68407421875,-3.61813671875,-8.6250703125,1.1192421875,10.4699296875,-5.2828515625,-5.9577265625,-4.02389453125,6.12085546875,-5.8843125,-9.49958984375,-6.35887109375,-1.008546875,6.98908984375,-13.07976171875,-4.9463046875,-8.67776171875,-6.82155859375
5.215234375,1.00401171875,5.66370703125,-5.73998828125,2.02259375,3.26003125,7.5212421875,4.18776171875,2.26947265625,1.13123828125,5.37234765625,10.0150546875,-7.49807421875,-3.19513671875,-6.0310703125,5.1492421875,12.4139296875,-5.4748515625,-4.7067265625,-2.00489453125,7.42585546875,-6.0983125,-9.43458984375,-5.46587109375,-0.0595468749999952,7.68008984375,-13.64276171875,-3.4253046875,-7.85676171875,-5.84755859375
6.716234375,3.11701171875,9.24970703125,-4.70498828125,3.61259375,6.06703125,10.2652421875,4.67676171875,2.53747265625,3.75523828125,8.62034765625,10.8170546875,-6.02407421875,-1.15013671875,-2.4270703125,9.1872421875,13.0929296875,-4.1398515625,-2.5327265625,0.47710546875,7.89785546875,-4.9143125,-7.83758984375,-3.61287109375,0.973453125000002,6.96308984375,-13.86676171875,-1.3853046875,-7.00176171875,-5.31155859375
7.922234375,5.05601171875,12.77570703125,-3.48598828125,4.50759375,8.52103125,12.7282421875,4.97576171875,3.41747265625,6.34323828125,11.01134765625,11.0820546875,-4.78007421875,1.80386328125,1.0289296875,12.6352421875,12.5029296875,-1.6808515625,-0.204726562500001,3.02810546875,7.67685546875,-2.6733125,-5.18858984375,-1.24387109375,2.050453125,5.16908984375,-13.65976171875,0.654695312499999,-6.27576171875,-5.07055859375
8.032234375,5.86801171875,14.74170703125,-2.86898828125,3.93759375,9.35203125,13.6562421875,4.86876171875,4.39147265625,7.69223828125,11.37334765625,10.6560546875,-4.16607421875,4.50386328125,3.1259296875,14.9362421875,11.0119296875,1.0461484375,1.3262734375,5.14210546875,7.10585546875,-0.0223125000000017,-2.47258984375,0.975128906249999,3.120453125,3.03908984375,-13.08176171875,2.1826953125,-5.78476171875,-4.96355859375
6.533234375,5.01701171875,14.12570703125,-3.39998828125,1.61659375,7.81603125,12.1682421875,4.12576171875,4.82847265625,7.01123828125,9.06434765625,9.4240546875,-4.27907421875,5.84986328125,3.0949296875,15.6742421875,9.2289296875,3.1151484375,1.3532734375,6.36710546875,6.56185546875,2.3426875,-0.71758984375,2.43112890625,4.073453125,1.41008984375,-12.31176171875,2.9086953125,-5.51576171875,-4.86555859375
3.527234375,2.62401171875,10.91870703125,-5.13698828125,-2.04940625,4.08703125,8.2282421875,2.67476171875,4.32447265625,4.36423828125,4.37034765625,7.4460546875,-4.87607421875,5.35486328125,0.9809296875,14.7282421875,7.7649296875,3.9561484375,-0.194726562500001,6.52510546875,6.29785546875,3.9586875,-0.472589843750001,2.85712890625,4.795453125,0.851089843749999,-11.47576171875,2.9226953125,-5.28976171875,-4.64155859375
-0.180765624999999,-0.570988281250001,6.18270703125,-7.60398828125,-6.07940625,-0.726968749999997,2.7532421875,0.69476171875,2.96247265625,0.720238281249999,-1.48465234375,5.0510546875,-5.48007421875,3.42686328125,-2.3560703125,12.3622421875,7.0259296875,3.6131484375,-2.6637265625,5.84710546875,6.35185546875,4.7796875,-1.52058984375,2.47012890625,5.250453125,1.43408984375,-10.50176171875,2.6936953125,-4.77676171875,-4.10355859375
-3.409765625,-3.52498828125,1.56570703125,-9.98798828125,-9.30840625,-5.02496875,-2.7057578125,-1.44623828125,1.32047265625,-2.48376171875,-6.78365234375,2.7660546875,-5.60907421875,1.15286328125,-5.6420703125,9.1352421875,7.0489296875,2.6571484375,-4.9687265625,4.84910546875,6.50685546875,5.1286875,-3.04758984375,1.81212890625,5.465453125,2.70708984375,-9.18076171875,2.8446953125,-3.67876171875,-3.10655859375
-5.208765625,-5.33898828125,-1.47329296875,-11.52298828125,-10.85140625,-7.44296875,-6.5857578125,-3.36123828125,0.165472656249998,-4.06476171875,-10.07165234375,1.0550546875,-5.04507421875,-0.327136718750001,-7.8260703125,5.6632421875,7.4579296875,1.8041484375,-6.1557265625,4.02010546875,6.32485546875,5.4136875,-4.15058984375,1.36912890625,5.430453125,3.88308984375,-7.40976171875,3.7696953125,-1.97976171875,-1.73855859375
-5.326765625,-5.65298828125,-2.28929296875,-11.83998828125,-10.47940625,-7.48096875,-7.9527578125,-4.77523828125,0.0154726562499992,-3.68576171875,-10.77365234375,0.0850546874999996,-3.95407421875,-0.428136718750002,-8.5540703125,2.4002421875,7.6249296875,1.5241484375,-5.8477265625,3.52910546875,5.33185546875,5.8416875,-4.32958984375,1.27412890625,5.041453125,4.18308984375,-5.39676171875,5.3706953125,-0.0487617187500002,-0.410558593749999
-4.269765625,-4.78298828125,-1.20529296875,-11.13098828125,-8.73840625,-5.67796875,-6.8477578125,-5.52823828125,0.854472656249998,-1.96476171875,-9.36265234375,-0.2689453125,-2.76607421875,0.676863281249998,-8.2110703125,-0.411757812500001,7.0439296875,1.8701484375,-4.3377265625,3.20010546875,3.31785546875,6.3356875,-3.64858984375,1.31912890625,4.186453125,3.22608984375,-3.59776171875,7.1196953125,1.52023828125,0.30044140625
-2.991765625,-3.54498828125,0.78370703125,-10.02898828125,-6.70540625,-3.29596875,-4.1897578125,-5.52523828125,2.16647265625,-0.0877617187500004,-7.00665234375,-0.250945312499999,-1.91607421875,2.26786328125,-7.5700703125,-2.6537578125,5.6609296875,2.5781484375,-2.3347265625,2.69210546875,0.572855468749999,6.6576875,-2.54658984375,1.20312890625,2.884453125,1.23108984375,-2.46076171875,8.3616953125,2.23023828125,-0.0375585937499991
-2.465765625,-2.86798828125,2.51770703125,-9.33198828125,-5.50640625,-1.73496875,-1.3327578125,-4.75923828125,3.19447265625,0.798238281249999,-4.99665234375,-0.0609453124999995,-1.68007421875,3.47986328125,-7.3280703125,-4.2287578125,3.9399296875,3.2361484375,-0.607726562500002,1.74210546875,-2.15214453125,6.5646875,-1.54258984375,0.75512890625,1.32145312500001,-1.08691015625,-2.21576171875,8.6226953125,1.89623828125,-1.48855859375
-3.283765625,-3.39398828125,3.14270703125,-9.68698828125,-5.82540625,-1.96696875,0.479242187499999,-3.41523828125,3.28147265625,0.100238281249998,-4.22065234375,0.2060546875,-2.14907421875,3.66986328125,-7.7800703125,-5.0357578125,2.6379296875,3.4581484375,0.3002734375,0.307105468749999,-3.95314453125,5.9116875,-1.01458984375,0.0051289062500004,-0.228546874999996,-2.85291015625,-2.80476171875,7.7426953125,0.64323828125,-3.74455859375
-5.373765625,-5.19298828125,2.40970703125,-11.31298828125,-7.64740625,-4.14296875,0.569242187499999,-1.91223828125,2.15747265625,-1.97876171875,-4.86165234375,0.5770546875,-3.24807421875,2.69586328125,-8.7300703125,-4.9987578125,2.4849296875,3.0541484375,0.225273437499999,-1.37589453125,-4.15014453125,4.7196875,-1.09358984375,-0.860871093750001,-1.475546875,-3.36791015625,-3.93576171875,5.8886953125,-1.20776171875,-6.28155859375
-7.953765625,-7.68898828125,0.735707031250001,-13.84598828125,-10.26640625,-7.51396875,-0.942757812500002,-0.76123828125,0.108472656249999,-4.52276171875,-6.39665234375,1.2030546875,-4.72807421875,1.01486328125,-9.6200703125,-4.0937578125,3.9279296875,2.1561484375,-0.578726562500002,-2.82289453125,-2.52614453125,3.2286875,-1.64258984375,-1.58587109375,-2.123546875,-2.28191015625,-5.15976171875,3.4786953125,-3.26676171875,-8.54655859375
-9.827765625,-9.84598828125,-1.00029296875,-16.40298828125,-12.54740625,-10.74396875,-3.2187578125,-0.34223828125,-2.10052734375,-6.30876171875,-7.89565234375,2.2770546875,-6.21007421875,-0.499136718750002,-9.8050703125,-2.3997578125,6.9559296875,1.1981484375,-1.5417265625,-3.45789453125,0.61985546875,1.8576875,-2.33958984375,-1.92987109375,-1.904546875,0.374089843749999,-5.99876171875,1.0496953125,-5.13876171875,-10.09755859375
-9.935765625,-10.60498828125,-1.86629296875,-17.92898828125,-13.36040625,-12.50296875,-5.0797578125,-0.72323828125,-3.55652734375,-6.34376171875,-8.48865234375,3.8750546875,-7.27807421875,-0.962136718750001,-8.8610703125,-0.1537578125,11.0329296875,0.7251484375,-2.0037265625,-2.84289453125,4.57285546875,1.0446875,-2.80558984375,-1.74087109375,-0.685546874999996,4.21308984375,-6.08376171875,-0.8973046875,-6.45176171875,-10.64555859375
-7.848765625,-9.36998828125,-1.27029296875,-17.67898828125,-12.08040625,-12.02396875,-5.5457578125,-1.62023828125,-3.59552734375,-4.28176171875,-7.74265234375,5.8430546875,-7.56607421875,0.131863281249998,-6.7690703125,2.2512421875,15.1999296875,1.1591484375,-1.4647265625,-0.882894531250003,8.41985546875,1.0936875,-2.72358984375,-0.95587109375,1.422453125,8.55208984375,-5.24976171875,-2.0013046875,-6.85976171875,-10.01655859375
-3.950765625,-6.29098828125,0.828707031250001,-15.56898828125,-8.89240625,-9.34896875,-4.2407578125,-2.50723828125,-2.05152734375,-0.529761718750001,-5.77565234375,7.8230546875,-6.79807421875,2.73386328125,-3.8720703125,4.3672421875,18.3779296875,2.6571484375,0.2552734375,2.12910546875,11.32185546875,2.1116875,-1.87558984375,0.453128906249999,4.049453125,12.52208984375,-3.53076171875,-2.0363046875,-6.04676171875,-8.12255859375
0.730234375,-2.18098828125,3.94870703125,-12.20998828125,-4.72940625,-5.21396875,-1.4927578125,-2.84723828125,0.744472656249998,3.96223828125,-3.09065234375,9.3620546875,-4.83707421875,6.27486328125,-0.703070312500001,5.8452421875,19.7379296875,5.0651484375,2.9672734375,5.62010546875,12.73085546875,3.9996875,-0.18258984375,2.47912890625,6.654453125,15.22508984375,-1.13076171875,-0.9053046875,-3.83676171875,-5.05255859375
4.914234375,1.83601171875,7.27370703125,-8.63198828125,-0.87340625,-0.725968749999998,1.8752421875,-2.39023828125,4.11647265625,8.06423828125,-0.301652343750002,10.0470546875,-1.79307421875,9.85286328125,2.2269296875,6.5412421875,18.9849296875,7.9471484375,6.1612734375,8.90010546875,12.47685546875,6.4556875,2.23341015625,5.00512890625,8.682453125,15.95908984375,1.60723828125,1.3066953125,-0.38976171875,-1.22955859375
7.563234375,4.74901171875,9.93870703125,-5.85598828125,1.55159375,3.04103125,4.9102421875,-1.32423828125,7.25047265625,10.86023828125,2.12734765625,9.6690546875,1.91492578125,12.55186328125,4.5699296875,6.5672421875,16.4639296875,10.7051484375,9.1472734375,11.35010546875,10.76185546875,9.0236875,5.02141015625,7.74712890625,9.740453125,14.45708984375,4.25123828125,4.2566953125,3.69223828125,2.57844140625
8.269234375,5.97801171875,11.32170703125,-4.51898828125,1.97959375,5.38703125,6.8912421875,-0.19823828125,9.42647265625,11.92623828125,4.01434765625,8.3620546875,5.63392578125,13.78486328125,6.2009296875,6.2532421875,13.0569296875,12.7811484375,11.2582734375,12.59710546875,8.10985546875,11.2206875,7.66041015625,10.29812890625,9.740453125,11.06508984375,6.38423828125,7.3526953125,7.47023828125,5.50744140625
7.333234375,5.49301171875,11.23170703125,-4.70598828125,0.55259375,6.13503125,7.5522421875,0.359761718750001,10.20247265625,11.38223828125,5.44034765625,6.6150546875,8.66592578125,13.47586328125,7.1799296875,6.0362421875,9.8789296875,13.8311484375,12.0602734375,12.60110546875,5.24285546875,12.6596875,9.60841015625,12.24312890625,8.914453125,6.70808984375,7.69423828125,9.8616953125,9.96623828125,6.96644140625
5.487234375,3.73701171875,9.89970703125,-6.04798828125,-1.99940625,5.53403125,7.0762421875,-0.0612382812500005,9.49647265625,9.71223828125,6.57134765625,5.0610546875,10.45892578125,11.96086328125,7.6269296875,6.2822421875,7.8529296875,13.7591484375,11.4462734375,11.62510546875,2.88685546875,13.1066875,10.42441015625,13.24612890625,7.680453125,2.61708984375,7.99923828125,11.0846953125,10.50723828125,6.85844140625
3.451234375,1.37701171875,7.81370703125,-7.95898828125,-4.73240625,4.03503125,5.9102421875,-1.47823828125,7.54447265625,7.46123828125,7.47034765625,4.1970546875,10.74892578125,9.72086328125,7.6109296875,7.1252421875,7.3689296875,12.6451484375,9.6042734375,10.09910546875,1.54285546875,12.4966875,9.87341015625,13.10212890625,6.437453125,-0.106910156250001,7.24723828125,10.5736953125,8.96023828125,5.55544140625
1.624234375,-0.956988281250002,5.51970703125,-9.86798828125,-6.91540625,2.10603125,4.5222421875,-3.48223828125,4.80747265625,5.02123828125,8.02434765625,4.2050546875,9.64892578125,7.17786328125,7.1139296875,8.4152421875,8.2179296875,10.6641484375,6.9092734375,8.45510546875,1.35285546875,10.9486875,7.97241015625,11.79012890625,5.424453125,-0.872910156250001,5.53023828125,8.3206953125,5.77723828125,3.68344140625
0.0232343749999995,-2.83398828125,3.47970703125,-11.33598828125,-8.27340625,0.143031250000002,3.2522421875,-5.38323828125,1.85147265625,2.57323828125,8.03234765625,4.9440546875,7.58792578125,4.60286328125,6.0789296875,9.7812421875,9.7869296875,8.0431484375,3.8022734375,6.99210546875,2.11085546875,8.7636875,5.00541015625,9.50412890625,4.688453125,0.228089843749999,3.11223828125,4.8006953125,1.82523828125,1.85744140625
-1.587765625,-4.07898828125,1.96770703125,-12.10298828125,-8.96540625,-1.58096875,2.2682421875,-6.50023828125,-0.797527343750001,0.154238281249999,7.33034765625,6.0200546875,5.09892578125,2.12886328125,4.4899296875,10.7812421875,11.3379296875,5.0211484375,0.687273437499998,5.80710546875,3.37185546875,6.3336875,1.47141015625,6.61912890625,4.124453125,2.50408984375,0.41823828125,0.7936953125,-1.97276171875,0.468441406250001
-3.450765625,-4.76498828125,1.02770703125,-12.11398828125,-9.38440625,-2.95896875,1.5762421875,-6.48723828125,-2.78552734375,-2.22576171875,5.88834765625,6.9160546875,2.59492578125,-0.180136718750001,2.4259296875,11.0642421875,12.2459296875,1.8561484375,-2.1007265625,4.81510546875,4.60885546875,4.0276875,-1.99158984375,3.64312890625,3.555453125,4.98708984375,-2.02976171875,-2.8873046875,-4.95076171875,-0.397558593749999
-5.536765625,-5.12098828125,0.523707031250002,-11.46898828125,-9.91840625,-4.01196875,1.0512421875,-5.51923828125,-3.93952734375,-4.44276171875,3.85834765625,7.1760546875,0.34892578125,-2.16913671875,0.1349296875,10.5172421875,12.1729296875,-1.0788515625,-4.2347265625,3.88810546875,5.40185546875,2.1946875,-4.64458984375,1.17512890625,2.864453125,6.85708984375,-3.66176171875,-5.5803046875,-6.79576171875,-0.853558593749999
-7.395765625,-5.35498828125,0.287707031250001,-10.30398828125,-10.72340625,-4.76596875,0.543242187499999,-4.18523828125,-4.15552734375,-6.18876171875,1.57434765625,6.5920546875,-1.34007421875,-3.45513671875,-1.9340703125,9.3322421875,11.1619296875,-3.1838515625,-5.3087265625,3.03110546875,5.58485546875,1.2486875,-5.71358984375,-0.14187109375,2.119453125,7.76808984375,-3.95076171875,-6.8093046875,-7.42776171875,-1.02655859375
-8.300765625,-5.47598828125,0.22570703125,-8.67298828125,-11.58140625,-5.15896875,0.00224218749999849,-3.16923828125,-3.27952734375,-7.03276171875,-0.524652343750001,5.2690546875,-2.02407421875,-3.48513671875,-3.2110703125,7.9242421875,9.5869296875,-3.6858515625,-4.8707265625,2.43710546875,5.28485546875,1.6626875,-4.56758984375,0.22712890625,1.584453125,7.87008984375,-2.57776171875,-6.2913046875,-6.87576171875,-0.938558593749999
-7.661765625,-5.28798828125,0.31870703125,-6.59798828125,-11.98040625,-5.07796875,-0.455757812500002,-2.91523828125,-1.19352734375,-6.65476171875,-2.04465234375,3.5260546875,-1.23407421875,-1.84113671875,-3.2490703125,6.7212421875,7.9739296875,-1.9588515625,-2.6437265625,2.37710546875,4.79185546875,3.7746875,-1.00958984375,2.47312890625,1.611453125,7.55208984375,0.37123828125,-4.0303046875,-5.27376171875,-0.543558593749999
-5.438765625,-4.58798828125,0.547707031250003,-4.26198828125,-11.47640625,-4.49396875,-0.641757812500002,-3.44123828125,1.93147265625,-5.10476171875,-2.80065234375,1.7570546875,1.19892578125,1.39586328125,-1.9950703125,5.9482421875,6.7869296875,2.0551484375,1.1942734375,2.99310546875,4.40285546875,7.4896875,4.47741015625,6.25312890625,2.444453125,7.15708984375,4.32023828125,-0.430304687500001,-2.94176171875,0.166441406250001
-2.297765625,-3.41898828125,0.829707031250003,-2.15998828125,-10.11140625,-3.56896875,-0.465757812500001,-4.37323828125,5.44247265625,-2.91076171875,-2.88465234375,0.3240546875,4.86292578125,5.47286328125,0.0789296874999987,5.5462421875,6.3199296875,7.5791484375,5.8622734375,4.16410546875,4.32285546875,12.1156875,10.72741015625,10.69612890625,4.090453125,6.87008984375,8.33323828125,3.6936953125,-0.41876171875,1.08444140625
0.604234374999999,-2.15098828125,1.01670703125,-1.01198828125,-8.51040625,-2.64796875,-0.0297578125000015,-5.16323828125,8.27947265625,-0.93076171875,-2.60565234375,-0.5179453125,8.72792578125,9.10386328125,2.1159296875,5.2612421875,6.6629296875,13.0761484375,10.1332734375,5.52410546875,4.64085546875,16.4396875,16.16941015625,14.62812890625,6.255453125,6.77808984375,11.37423828125,7.2686953125,1.61423828125,1.99044140625
2.094234375,-1.31298828125,0.966707031249999,-1.45098828125,-7.57140625,-2.13696875,0.412242187499999,-5.37523828125,9.33447265625,-0.0047617187500002,-2.33065234375,-0.667945312499999,11.41492578125,10.89186328125,3.2349296875,4.8562421875,7.7279296875,16.6961484375,12.7412734375,6.59510546875,5.34485546875,19.0696875,19.29341015625,16.91512890625,8.392453125,6.94408984375,12.61623828125,9.2436953125,2.50523828125,2.60544140625
1.547234375,-1.29498828125,0.669707031250002,-3.63698828125,-7.94240625,-2.28196875,0.617242187499999,-4.83923828125,7.96147265625,-0.54276171875,-2.28165234375,-0.167945312499999,11.73392578125,9.91686328125,2.9569296875,4.2962421875,9.3199296875,16.9871484375,12.8832734375,6.99310546875,6.33685546875,18.9446875,19.15841015625,16.85212890625,9.882453125,7.41708984375,11.70023828125,8.9416953125,1.84623828125,2.69444140625
-0.758765625000001,-2.06798828125,0.369707031250002,-7.03898828125,-9.63140625,-2.95796875,0.542242187499998,-3.62323828125,4.39247265625,-2.27376171875,-2.38765234375,0.9040546875,9.26092578125,6.26386328125,1.4839296875,3.8332421875,11.2249296875,13.5641484375,10.5912734375,6.61210546875,7.49385546875,15.8106875,15.76341015625,14.44512890625,10.292453125,8.21408984375,8.88623828125,6.3356953125,-0.34276171875,2.18244140625
-3.724765625,-3.10398828125,0.549707031250001,-10.54098828125,-11.93840625,-3.64096875,0.447242187499999,-1.87623828125,-0.188527343750001,-4.31376171875,-2.29065234375,2.4960546875,4.61692578125,1.12886328125,-0.361070312500001,3.9092421875,13.2519296875,7.3921484375,6.7702734375,5.70110546875,8.71385546875,10.4306875,10.09941015625,10.43412890625,9.595453125,9.30608984375,5.00823828125,2.1246953125,-3.55876171875,1.21744140625
-5.964765625,-3.57598828125,1.73870703125,-12.86798828125,-13.75440625,-3.65396875,0.789242187499998,0.25876171875,-4.04452734375,-5.56776171875,-1.55265234375,4.5290546875,-0.72007421875,-3.61713671875,-1.5240703125,4.9102421875,15.1909296875,0.4721484375,2.8582734375,4.76510546875,9.90485546875,4.3436875,3.83941015625,6.01212890625,8.175453125,10.60308984375,1.18523828125,-2.4933046875,-6.98076171875,0.103441406250001
-6.476765625,-2.79298828125,4.18370703125,-13.14398828125,-14.10440625,-2.56596875,1.9222421875,2.60676171875,-5.59752734375,-5.28176171875,0.0623476562499992,6.7910546875,-4.99107421875,-6.20913671875,-1.2280703125,6.9202421875,16.7619296875,-4.9308515625,0.250273437499999,4.32610546875,10.95085546875,-0.697312500000001,-1.23558984375,2.36712890625,6.632453125,11.94608984375,-1.59876171875,-6.2513046875,-9.78276171875,-0.859558593749999
-5.089765625,-0.630988281250001,7.59870703125,-11.27798828125,-12.68440625,-0.496968749999999,3.8042421875,4.88176171875,-4.12552734375,-3.42576171875,2.39834765625,8.9270546875,-6.78707421875,-5.71113671875,0.655929687499999,9.6102421875,17.6719296875,-7.1588515625,-0.237726562500001,4.67310546875,11.70685546875,-3.3473125,-3.82758984375,0.28112890625,5.509453125,13.13508984375,-2.80676171875,-8.2563046875,-11.41776171875,-1.52255859375
-2.502765625,2.30001171875,11.12770703125,-7.97398828125,-10.05540625,1.87003125,5.9222421875,6.69776171875,-0.0595273437500019,-0.71576171875,4.91734765625,10.5570546875,-5.50507421875,-2.36413671875,3.5509296875,12.3362421875,17.7329296875,-5.7428515625,1.3512734375,5.71510546875,12.05285546875,-3.0793125,-3.49658984375,-0.0638710937500004,5.083453125,13.98408984375,-2.43876171875,-8.2283046875,-11.72976171875,-1.91055859375
0.0532343750000006,4.90901171875,13.62770703125,-4.36898828125,-7.35340625,3.57603125,7.5322421875,7.69076171875,5.21347265625,1.72923828125,6.90134765625,11.4090546875,-1.50207421875,2.54586328125,6.4289296875,14.3602421875,16.9389296875,-1.5078515625,4.1912734375,6.99710546875,11.92785546875,-0.260312500000001,-0.731589843750001,0.95812890625,5.296453125,14.34508984375,-0.91076171875,-6.4683046875,-10.88576171875,-2.12255859375
1.418234375,6.16301171875,14.18370703125,-1.48198828125,-5.67540625,3.86203125,8.0652421875,7.71276171875,9.95647265625,2.94023828125,7.75834765625,11.4150546875,4.07392578125,7.24986328125,8.2889296875,15.1212421875,15.4679296875,3.8591484375,7.0812734375,7.90010546875,11.34985546875,4.0926875,3.33341015625,2.65912890625,5.852453125,14.14508984375,1.18723828125,-3.6083046875,-9.21276171875,-2.19555859375
1.133234375,5.64301171875,12.65070703125,0.248011718750001,-5.51340625,2.61803125,7.4682421875,6.97676171875,12.82147265625,2.61623828125,7.33434765625,10.7750546875,9.73992578125,10.28286328125,8.6509296875,14.4722421875,13.6629296875,8.5801484375,9.0292734375,7.97810546875,10.44885546875,8.7656875,7.43641015625,4.38612890625,6.436453125,13.46108984375,3.35323828125,-0.290304687500001,-7.02476171875,-2.00255859375
-0.266765625,3.82101171875,9.85270703125,1.10901171875,-6.51840625,0.552031250000002,6.2782421875,6.03676171875,13.37647265625,1.31123828125,6.06134765625,9.9430546875,14.21392578125,11.08486328125,7.8219296875,12.7912421875,12.0049296875,11.4931484375,9.7102734375,7.25510546875,9.50685546875,12.7546875,10.68241015625,5.79012890625,6.916453125,12.59908984375,5.33323828125,3.0226953125,-4.55576171875,-1.28855859375
-1.547765625,1.85301171875,7.21970703125,1.84101171875,-7.69840625,-1.11896875,5.3852421875,5.53276171875,12.14247265625,0.13923828125,4.79134765625,9.4520546875,16.74692578125,10.07886328125,6.7349296875,10.8612421875,10.9779296875,12.3001484375,9.5242734375,6.27010546875,8.90585546875,15.3946875,12.71841015625,6.84512890625,7.362453125,12.01608984375,7.06523828125,5.9736953125,-2.01576171875,0.140441406250001
-1.510765625,0.978011718749999,6.00370703125,3.10701171875,-7.95140625,-1.29696875,5.5762421875,5.82076171875,10.15247265625,0.132238281249998,4.39034765625,9.6510546875,17.14092578125,8.21386328125,6.4349296875,9.5572421875,10.8669296875,11.3191484375,9.2262734375,5.79310546875,8.96785546875,16.2716875,13.55241015625,7.64512890625,7.902453125,12.06608984375,8.48223828125,8.1246953125,0.26823828125,2.17944140625
0.319234375000001,1.87301171875,6.62270703125,5.05801171875,-6.66340625,0.436031250000001,7.1442421875,6.75576171875,8.37647265625,1.68423828125,5.32534765625,10.5490546875,15.63492578125,6.39886328125,7.5489296875,9.4972421875,11.6319296875,9.0701484375,9.4372734375,6.42410546875,9.78585546875,15.1756875,13.29441015625,8.22712890625,8.581453125,12.78808984375,9.41223828125,8.9506953125,1.86023828125,4.35244140625
3.494234375,4.36501171875,8.56070703125,7.30701171875,-3.99640625,3.68603125,9.7932421875,7.83476171875,7.38447265625,4.41323828125,7.51234765625,11.9210546875,12.82592578125,5.18286328125,10.0449296875,10.8702421875,12.9729296875,6.0851484375,10.3722734375,8.33310546875,11.20585546875,12.2716875,12.09341015625,8.58412890625,9.378453125,13.89208984375,9.68923828125,8.1386953125,2.40723828125,6.03144140625
6.970234375,7.63201171875,10.83070703125,9.28201171875,-0.68940625,7.53903125,12.8532421875,8.56476171875,7.35547265625,7.46723828125,10.42934765625,13.4970546875,9.58292578125,4.75486328125,13.3489296875,13.4512421875,14.5049296875,2.9401484375,11.8742734375,11.22510546875,12.93285546875,8.2956875,10.26141015625,8.78312890625,10.287453125,14.96108984375,9.38223828125,5.9476953125,1.90523828125,6.80044140625
9.665234375,10.68201171875,12.58370703125,10.64201171875,2.44059375,10.99703125,15.5782421875,8.75076171875,8.22847265625,10.00123828125,13.35134765625,15.0650546875,6.84392578125,5.07086328125,16.6609296875,16.7232421875,15.8979296875,0.316148437499999,13.6252734375,14.51010546875,14.65585546875,4.4646875,8.36841015625,9.02412890625,11.353453125,15.66308984375,8.88423828125,3.2516953125,0.76623828125,6.68644140625
10.942234375,12.77501171875,13.47270703125,11.45001171875,4.88959375,13.32303125,17.3332421875,8.50176171875,9.79947265625,11.54423828125,15.56934765625,16.4200546875,5.32892578125,5.98486328125,19.2559296875,20.0202421875,16.9319296875,-1.1168515625,15.3312734375,17.52610546875,16.12485546875,2.0456875,7.12341015625,9.55212890625,12.593453125,15.85808984375,8.76823828125,1.1716953125,-0.35376171875,6.09044140625
10.790234375,13.61901171875,13.61770703125,12.02901171875,6.52859375,14.20503125,17.6612421875,8.03876171875,11.73847265625,12.09623828125,16.53934765625,17.3040546875,5.31792578125,7.33286328125,20.6789296875,22.6282421875,17.5059296875,-0.937851562500001,16.8172734375,19.72710546875,17.15885546875,1.8066875,7.08141015625,10.48112890625,13.893453125,15.56008984375,9.48523828125,0.5036953125,-0.88476171875,5.48744140625
9.685234375,13.35401171875,13.34470703125,12.67901171875,7.44759375,13.75703125,16.3492421875,7.52076171875,13.60947265625,11.99823828125,15.98534765625,17.3910546875,6.59292578125,8.92886328125,20.7909296875,23.8512421875,17.6019296875,0.784148437499999,17.9812734375,20.74810546875,17.59385546875,3.6616875,8.33841015625,11.64312890625,14.933453125,14.81908984375,11.06223828125,1.2926953125,-0.63976171875,5.08944140625
8.247234375,12.40101171875,12.91670703125,13.45701171875,7.80459375,12.40203125,13.5482421875,7.01376171875,14.94747265625,11.66623828125,13.93434765625,16.3730546875,8.54192578125,10.49786328125,19.7079296875,23.0902421875,17.2129296875,3.4011484375,18.6922734375,20.35210546875,17.19785546875,6.6766875,10.39441015625,12.54712890625,15.205453125,13.63308984375,12.97223828125,2.7906953125,0.0632382812499999,4.65444140625
6.961234375,11.26801171875,12.44970703125,14.15101171875,7.78459375,10.72003125,9.8312421875,6.56076171875,15.39747265625,11.39723828125,10.71434765625,14.1080546875,10.38592578125,11.66386328125,17.6959296875,19.9942421875,16.3009296875,5.8761484375,18.7312734375,18.40910546875,15.68085546875,9.4676875,12.30741015625,12.53812890625,14.195453125,11.97108984375,14.31123828125,3.8346953125,0.53323828125,3.61544140625
6.114234375,10.40401171875,12.01770703125,14.46101171875,7.62759375,9.33703125,6.0942421875,6.25676171875,14.88247265625,11.32523828125,6.94534765625,10.8000546875,11.49592578125,12.09186328125,15.1209296875,14.6792421875,14.8309296875,7.2221484375,17.8862734375,14.98910546875,12.86585546875,10.8276875,13.13041015625,11.14212890625,11.687453125,9.91208984375,14.24423828125,3.4676953125,0.0722382812499998,1.47144140625
5.900234375,10.12401171875,11.80070703125,14.26001171875,7.67459375,8.82803125,3.3172421875,6.24876171875,13.72047265625,11.50723828125,3.44934765625,7.0720546875,11.64092578125,11.70686328125,12.4379296875,7.8842421875,12.8739296875,6.9801484375,16.1362734375,10.51710546875,8.93485546875,10.2636875,12.39441015625,8.37712890625,7.992453125,7.74108984375,12.46823828125,1.4616953125,-1.62476171875,-1.79955859375
6.478234375,10.60901171875,12.08670703125,13.74801171875,8.35559375,9.58203125,2.2602421875,6.66876171875,12.56147265625,11.99723828125,1.06734765625,3.8040546875,11.04492578125,10.79386328125,10.1619296875,0.921242187499999,10.6539296875,5.4311484375,13.7842734375,5.80510546875,4.53085546875,8.1716875,10.35641015625,4.82812890625,3.905453125,5.86108984375,9.38023828125,-1.5803046875,-4.28376171875,-5.59855859375
7.926234375,11.87701171875,13.09870703125,13.37401171875,10.04159375,11.64603125,3.2092421875,7.54576171875,12.13247265625,12.85423828125,0.40134765625,1.8120546875,10.24992578125,9.90986328125,8.7869296875,-4.6507578125,8.5069296875,3.4391484375,11.4212734375,1.86110546875,0.58685546875,5.5636875,7.87641015625,1.40712890625,0.396453125000004,4.57108984375,5.87923828125,-4.5563046875,-7.16476171875,-8.94455859375
10.131234375,13.75101171875,14.77670703125,13.58001171875,12.78459375,14.67103125,5.8652421875,8.79676171875,12.91347265625,14.10523828125,1.62734765625,1.5630546875,9.88992578125,9.67386328125,8.6739296875,-7.4987578125,6.8029296875,2.0551484375,9.7352734375,-0.437894531250002,-2.02014453125,3.5926875,6.02141015625,-1.01087109375,-1.776546875,3.91708984375,2.97423828125,-6.3913046875,-9.37876171875,-10.90555859375
12.733234375,15.85601171875,16.70670703125,14.51901171875,16.13459375,18.00403125,9.4422421875,10.25776171875,14.91947265625,15.67423828125,4.45534765625,3.0490546875,10.46292578125,10.50686328125,9.9219296875,-6.9637578125,5.8449296875,2.0641484375,9.2392734375,-0.661894531250002,-2.81614453125,3.0776875,5.59441015625,-1.90087109375,-2.319546875,3.72308984375,1.41223828125,-6.4933046875,-10.25176171875,-11.01455859375
15.124234375,17.67501171875,18.22970703125,15.91601171875,19.19459375,20.86603125,12.9322421875,11.68576171875,17.63847265625,17.30123828125,8.19134765625,5.7900546875,12.09792578125,12.37186328125,12.2489296875,-3.3317578125,5.7519296875,3.6181484375,10.0072734375,0.995105468749998,-1.93414453125,4.1866875,6.76141015625,-1.28587109375,-1.480546875,3.72108984375,1.42723828125,-4.9783046875,-9.61576171875,-9.48655859375
16.561234375,18.64801171875,18.66370703125,17.14501171875,20.91459375,22.51503125,15.3982421875,12.73476171875,20.13747265625,18.48823828125,11.88034765625,8.9140546875,14.39292578125,14.60886328125,14.9389296875,2.1972421875,6.3329296875,6.1141484375,11.5242734375,3.71910546875,-0.103144531250001,6.3716875,8.93541015625,0.24612890625,0.0524531250000031,3.63508984375,2.64923828125,-2.6213046875,-7.91776171875,-7.16755859375
16.428234375,18.31801171875,17.57970703125,17.52101171875,20.48359375,22.42303125,16.2062421875,12.98276171875,21.35047265625,18.61123828125,14.53734765625,11.3940546875,16.52792578125,16.11486328125,17.0159296875,7.8842421875,7.1169296875,8.4361484375,12.8402734375,6.34910546875,1.62785546875,8.6436875,11.03441015625,1.77012890625,1.411453125,3.20808984375,4.27823828125,-0.4963046875,-6.00876171875,-5.16655859375
14.584234375,16.54201171875,15.05070703125,16.70201171875,17.70859375,20.49603125,15.2152421875,12.13376171875,20.53547265625,17.23823828125,15.47834765625,12.4450546875,17.66692578125,15.87386328125,17.6449296875,12.0932421875,7.5639296875,9.5381484375,13.0142734375,7.84510546875,2.36885546875,10.0916875,12.03441015625,2.45912890625,1.929453125,2.26808984375,5.48323828125,0.5676953125,-4.67976171875,-4.31155859375
11.539234375,13.67401171875,11.72770703125,14.95701171875,13.23059375,17.21003125,12.8462421875,10.25276171875,17.69547265625,14.46123828125,14.60234765625,11.8490546875,17.40592578125,13.56386328125,16.5529296875,13.8952421875,7.3539296875,9.0041484375,11.6192734375,7.74110546875,1.81885546875,10.3406875,11.51241015625,1.99412890625,1.441453125,0.853089843749999,5.82323828125,0.3816953125,-4.23376171875,-4.74155859375
8.281234375,10.53201171875,8.64070703125,13.08301171875,8.40859375,13.49503125,9.9592421875,7.84876171875,13.64147265625,10.98023828125,12.40434765625,10.0060546875,15.94192578125,9.79786328125,14.1819296875,13.3072421875,6.5239296875,7.2351484375,8.9912734375,6.30410546875,0.377855468749999,9.6286875,9.82641015625,0.680128906249999,0.328453125000003,-0.693910156250001,5.41323828125,-0.604304687500001,-4.40276171875,-5.92555859375
5.829234375,8.09001171875,6.78170703125,11.97901171875,4.79259375,10.36203125,7.4842421875,5.67976171875,9.61947265625,7.82323828125,9.70134765625,7.6810546875,13.88892578125,5.87786328125,11.4719296875,11.0872421875,5.4189296875,5.1691484375,6.0672734375,4.34610546875,-1.11414453125,8.5286875,7.85941015625,-0.76987109375,-0.720546874999997,-1.78391015625,4.78423828125,-1.6723046875,-4.61876171875,-7.06555859375
4.800234375,7.02501171875,6.67570703125,12.15501171875,3.42359375,8.49403125,6.0022421875,4.40576171875,6.73747265625,5.88923828125,7.25734765625,5.6550546875,11.93992578125,3.20886328125,9.4129296875,8.2562421875,4.5399296875,3.7871484375,3.9462734375,2.80910546875,-1.82014453125,7.5776875,6.53641015625,-1.60287109375,-1.054546875,-1.80591015625,4.55623828125,-2.2723046875,-4.40276171875,-7.59855859375
5.201234375,7.43201171875,8.17370703125,13.47801171875,4.38359375,8.01803125,5.5352421875,4.30676171875,5.52647265625,5.55923828125,5.50234765625,4.4380546875,10.59292578125,2.68886328125,8.6369296875,5.6522421875,4.3379296875,3.6731484375,3.4072734375,2.36210546875,-1.28914453125,7.0516875,6.40041015625,-1.36187109375,-0.340546874999998,-0.427910156250001,5.10223828125,-2.2733046875,-3.63376171875,-7.48255859375
6.491234375,8.82901171875,10.53470703125,15.27001171875,6.84759375,8.54103125,5.6542421875,5.19176171875,5.82147265625,6.56323828125,4.48634765625,4.1320546875,10.00192578125,4.31786328125,9.1959296875,3.6962421875,5.0229296875,4.7951484375,4.5952734375,3.15710546875,0.36385546875,6.9406875,7.41041015625,-0.0718710937499996,1.295453125,2.15708984375,6.32623828125,-1.9553046875,-2.60576171875,-7.16355859375
7.860234375,10.43801171875,12.79070703125,16.65501171875,9.55659375,9.41103125,5.8142421875,6.54876171875,6.93247265625,8.16623828125,4.02234765625,4.4950546875,9.99892578125,7.21986328125,10.6259296875,2.4342421875,6.4569296875,6.5731484375,6.9992734375,4.83110546875,2.54285546875,7.0726875,9.03241015625,1.80912890625,3.348453125,5.22408984375,7.68923828125,-1.7823046875,-1.84676171875,-7.25255859375
8.636234375,11.55401171875,14.20770703125,16.98101171875,11.37959375,10.10203125,5.7132421875,7.85176171875,8.01447265625,9.58423828125,3.95134765625,5.1790546875,10.26892578125,10.10686328125,12.2349296875,1.7642421875,8.2409296875,8.2131484375,9.7432734375,6.74910546875,4.46885546875,7.3066875,10.56141015625,3.64112890625,5.189453125,7.79108984375,8.52623828125,-2.0813046875,-1.77576171875,-8.06655859375
8.590234375,11.87701171875,14.63970703125,16.12501171875,11.75859375,10.51703125,5.4882421875,8.85576171875,8.49447265625,10.39523828125,4.31834765625,5.9810546875,10.58792578125,11.91386328125,13.4709296875,1.6572421875,9.9309296875,9.1051484375,12.0052734375,8.33010546875,5.53085546875,7.6536875,11.49841015625,4.93212890625,6.373453125,9.02808984375,8.46223828125,-2.8193046875,-2.40276171875,-9.32155859375
7.980234375,11.60301171875,14.51870703125,14.53601171875,10.85859375,10.98303125,5.6202421875,9.64476171875,8.31747265625,10.68523828125,5.32834765625,6.8870546875,10.92592578125,12.23886328125,14.1239296875,2.1902421875,11.1879296875,9.0671484375,13.3222734375,9.26310546875,5.47585546875,8.2146875,11.71841015625,5.49012890625,6.773453125,8.54608984375,7.61723828125,-3.6653046875,-3.32976171875,-10.26155859375
7.286234375,11.22901171875,14.49270703125,12.96201171875,9.36259375,11.91503125,6.5692421875,10.41076171875,7.86247265625,10.82923828125,7.08234765625,7.8890546875,11.36592578125,11.36286328125,14.2729296875,3.3692421875,11.8019296875,8.3031484375,13.6122734375,9.49910546875,4.37985546875,8.9836875,11.38241015625,5.35112890625,6.509453125,6.44308984375,6.44123828125,-4.2803046875,-4.08076171875,-10.18755859375
6.847234375,11.16701171875,14.94470703125,12.03101171875,7.99859375,13.38603125,8.3572421875,11.14776171875,7.60447265625,11.10123828125,9.31434765625,8.8020546875,11.93292578125,9.93986328125,14.0619296875,4.9332421875,11.6509296875,7.2051484375,13.0052734375,9.10610546875,2.50485546875,9.7346875,10.70141015625,4.61512890625,5.776453125,3.20008984375,5.36723828125,-4.6083046875,-4.49376171875,-9.00255859375
6.621234375,11.44301171875,15.71170703125,11.92601171875,7.08659375,14.92803125,10.4172421875,11.53776171875,7.77947265625,11.38823828125,11.35734765625,9.2710546875,12.47292578125,8.60386328125,13.5029296875,6.3372421875,10.7209296875,6.1301484375,11.6702734375,8.15110546875,0.194855468749999,10.1036875,9.77841015625,3.35912890625,4.733453125,-0.438910156250001,4.56323828125,-4.8993046875,-4.83876171875,-7.31855859375
6.189234375,11.68301171875,16.15770703125,12.33201171875,6.39959375,15.70403125,11.8352421875,11.12876171875,8.24347265625,11.21823828125,12.38834765625,8.9590546875,12.66092578125,7.67386328125,12.4549296875,6.9842421875,9.1479296875,5.2701484375,9.7692734375,6.70410546875,-2.16114453125,9.7856875,8.60941015625,1.67912890625,3.488453125,-3.62091015625,3.92723828125,-5.5193046875,-5.57976171875,-6.06855859375
4.994234375,11.36301171875,15.55670703125,12.65001171875,5.39059375,14.95203125,11.8562421875,9.67876171875,8.56847265625,10.06523828125,11.82334765625,7.7640546875,12.10792578125,7.08186328125,10.7719296875,6.5442421875,7.1999296875,4.6111484375,7.5252734375,4.92110546875,-4.17114453125,8.6816875,7.20641015625,-0.24087109375,2.143453125,-5.60291015625,3.26323828125,-6.6903046875,-6.99176171875,-5.91955859375
2.725234375,10.15801171875,13.59170703125,12.30901171875,3.57359375,12.46603125,10.3102421875,7.41676171875,8.28347265625,7.74623828125,9.63134765625,5.9550546875,10.57592578125,6.54386328125,8.5149296875,5.1782421875,5.2069296875,4.0281484375,5.2972734375,3.12110546875,-5.46914453125,6.9596875,5.72141015625,-2.07687109375,0.872453125000003,-5.98491015625,2.48323828125,-8.3263046875,-8.89676171875,-6.90255859375
-0.359765625,8.16301171875,10.65270703125,11.03401171875,0.82259375,8.83303125,7.7102421875,5.02676171875,7.12547265625,4.66523828125,6.41634765625,4.1350546875,8.20592578125,5.85686328125,6.0809296875,3.5072421875,3.4629296875,3.4451484375,3.5622734375,1.76410546875,-5.78014453125,5.0386875,4.48541015625,-3.39687109375,-0.0445468749999982,-4.82591015625,1.71023828125,-10.0403046875,-10.67176171875,-8.41455859375
-3.456765625,5.86901171875,7.69770703125,8.94201171875,-2.54140625,5.22503125,4.9882421875,3.30676171875,5.17947265625,1.68723828125,3.15434765625,2.9910546875,5.55692578125,5.04786328125,4.0859296875,2.3102421875,2.1419296875,2.9331484375,2.7332734375,1.28910546875,-5.00114453125,3.4666875,3.87041015625,-3.82287109375,-0.298546874999996,-2.62591015625,1.19123828125,-11.3053046875,-11.53476171875,-9.57555859375
-5.636765625,3.90001171875,5.71570703125,6.43701171875,-5.89340625,2.79503125,2.9932421875,2.68676171875,2.81947265625,-0.32476171875,0.716347656249999,2.9140546875,3.35792578125,4.27486328125,3.0449296875,2.1172421875,1.2259296875,2.6151484375,2.9142734375,1.86010546875,-3.30614453125,2.6776875,4.04241015625,-3.25887109375,0.250453125000003,-0.175910156250001,1.08523828125,-11.7533046875,-10.97776171875,-9.71555859375
-6.393765625,2.66901171875,5.14270703125,4.01501171875,-8.60940625,2.04103125,2.0612421875,2.93676171875,0.502472656249999,-1.02076171875,-0.544652343750002,3.7410546875,2.09792578125,3.58886328125,3.0479296875,2.9242421875,0.5399296875,2.4811484375,3.7592734375,3.21710546875,-1.16614453125,2.7306875,4.77141015625,-2.03987109375,1.401453125,1.70108984375,1.28223828125,-11.4243046875,-9.09876171875,-8.73155859375
-5.946765625,2.17601171875,5.62670703125,2.12001171875,-10.34840625,2.53703125,1.9282421875,3.33876171875,-1.41852734375,-0.79676171875,-0.889652343750001,4.8210546875,1.73792578125,2.81186328125,3.6749296875,4.2182421875,-0.1130703125,2.2791484375,4.5882734375,4.74510546875,0.80185546875,3.2276875,5.47741015625,-0.84387109375,2.628453125,2.44308984375,1.41623828125,-10.8023046875,-6.62076171875,-7.10255859375
-5.150765625,2.08701171875,6.25270703125,1.10201171875,-11.11140625,3.18503125,2.0092421875,3.18376171875,-2.76552734375,-0.61976171875,-0.94165234375,5.3420546875,1.70092578125,1.57386328125,4.1919296875,5.2662421875,-0.8130703125,1.5611484375,4.6772734375,5.74710546875,2.05685546875,3.4496875,5.47941015625,-0.41487109375,3.279453125,1.92908984375,1.03323828125,-10.6483046875,-4.60276171875,-5.61055859375
-5.134765625,1.98901171875,6.00370703125,1.21501171875,-11.07840625,2.76103125,1.8372421875,2.19776171875,-3.51452734375,-1.58176171875,-1.32465234375,4.6670546875,1.10992578125,-0.543136718750002,3.8849296875,5.4532421875,-1.5220703125,-0.1528515625,3.5472734375,5.70810546875,2.29085546875,2.6196875,4.26241015625,-1.29287109375,2.823453125,0.395089843749999,-0.22876171875,-11.7153046875,-4.03776171875,-4.98055859375
-6.812765625,1.61601171875,4.20770703125,2.55001171875,-10.41840625,0.454031250000002,1.2802421875,0.56976171875,-3.75752734375,-4.41576171875,-2.40565234375,2.5190546875,-0.80807421875,-3.85013671875,2.3409296875,4.4992421875,-2.1820703125,-3.1878515625,1.0922734375,4.45010546875,1.45585546875,0.206687499999999,1.64241015625,-3.65887109375,1.011453125,-1.81091015625,-2.52976171875,-14.4723046875,-5.49576171875,-5.61155859375
-10.426765625,0.916011718749999,0.80470703125,4.93801171875,-9.27540625,-3.80596875,0.460242187499999,-1.33923828125,-3.66252734375,-9.16776171875,-4.20765234375,-0.9609453125,-4.30307421875,-8.35513671875,-0.4070703125,2.5102421875,-2.7850703125,-7.5148515625,-2.4447265625,2.14410546875,-0.26114453125,-3.8083125,-2.19358984375,-7.30487109375,-2.031546875,-4.39591015625,-5.76876171875,-18.8763046875,-8.89476171875,-7.45855859375
-15.349765625,-0.00398828125000072,-3.63629296875,7.91801171875,-7.86540625,-9.31596875,-0.477757812500002,-3.29623828125,-3.42952734375,-15.14276171875,-6.46965234375,-5.2299453125,-8.88307421875,-13.64113671875,-3.8940703125,-0.0877578125000014,-3.3490703125,-12.6578515625,-6.5687265625,-0.751894531250002,-2.46214453125,-8.8383125,-6.73158984375,-11.67787109375,-5.806546875,-7.12991015625,-9.57576171875,-24.3033046875,-13.47976171875,-10.05355859375
-15.349765625,-0.00398828125000072,-3.63629296875,7.91801171875,-7.86540625,-9.31596875,-0.477757812500002,-3.29623828125,-3.42952734375,-15.14276171875,-6.46965234375,-5.2299453125,-8.88307421875,-13.64113671875,-3.8940703125,-0.0877578125000014,-3.3490703125,-12.6578515625,-6.5687265625,-0.751894531250002,-2.46214453125,-8.8383125,-6.73158984375,-11.67787109375,-5.806546875,-7.12991015625,-9.57576171875,-24.3033046875,-13.47976171875,-10.05355859375
