"Fp1","Fpz","Fp2","F7","F3","Fz","F4","F8","FC5","FC1","FC2","FC6","T7","C3","Cz","C4","T8","CP5","CP1","CP2","CP6","P7","P3","Pz","P4","P8","POz","O1","Oz","O2"
2.07003125,6.11559765625,11.54276171875,16.95656640625,25.514078125,24.72808203125,20.7987578125,8.743859375,13.66026953125,23.40223046875,17.0108515625,14.2504296875,5.48479296875,19.161015625,20.62848046875,9.99335546875,1.39569140625,3.007328125,14.64177734375,15.64341015625,7.05121875,-13.486921875,3.3084296875,8.713828125,5.18845703125,-1.705953125,1.48814453125,-10.61648046875,-6.98753515625,-10.110484375
16.01103125,10.99059765625,12.17176171875,13.43856640625,25.581078125,24.32808203125,22.8747578125,10.973859375,16.99026953125,24.93823046875,19.5298515625,17.7144296875,7.64879296875,21.251015625,23.35448046875,14.39935546875,4.20569140625,7.662328125,19.66577734375,21.24241015625,12.71421875,-6.364921875,9.1634296875,14.434828125,10.91745703125,0.868046875,7.96314453125,-2.62848046875,-0.69053515625,-4.188484375
22.66703125,12.05459765625,11.13776171875,9.47656640625,21.457078125,21.37008203125,21.9527578125,11.235859375,14.81926953125,22.31423046875,18.9288515625,19.0264296875,8.31779296875,20.161015625,22.81048046875,15.99835546875,6.51669140625,10.698328125,22.01677734375,23.83041015625,16.07221875,0.228078125,13.5024296875,17.853828125,14.67445703125,4.201046875,12.65514453125,4.69551953125,4.56146484375,1.290515625
20.87203125,9.08559765625,8.38376171875,5.26356640625,13.703078125,15.87008203125,17.7297578125,9.274859375,8.09826953125,15.78823046875,15.1108515625,17.8014296875,7.41279296875,16.158015625,18.84748046875,14.40835546875,7.90869140625,12.210328125,21.31477734375,22.97641015625,16.63721875,6.051078125,15.7974296875,18.420828125,15.90245703125,7.920046875,14.84914453125,10.43851953125,8.01146484375,5.648515625
11.73903125,3.11959765625,4.41176171875,1.25256640625,4.359078125,8.73408203125,10.9357578125,5.408859375,-0.29173046875,7.03623046875,8.9658515625,14.2724296875,5.13879296875,10.539015625,12.30548046875,10.11235546875,8.02069140625,12.752328125,17.88577734375,19.10141015625,14.62821875,10.808078125,15.7874296875,16.172828125,14.54345703125,11.301046875,14.18214453125,13.58451953125,9.01546484375,8.121515625
-1.58296875,-4.05540234375,0.04276171875,-2.03943359375,-4.158921875,1.31808203125,3.0727578125,0.395859375,-7.20373046875,-1.73176953125,1.9128515625,9.2094296875,1.90079296875,4.848015625,4.52648046875,4.27635546875,6.80169140625,12.841328125,12.52977734375,13.25941015625,10.91821875,14.012078125,13.5164296875,11.709828125,11.08545703125,13.639046875,10.81814453125,13.47851953125,7.36946484375,8.222515625
-14.86996875,-10.59240234375,-3.88923828125,-4.33043359375,-10.035921875,-5.10791796875,-4.0972421875,-4.769140625,-10.69773046875,-8.65076953125,-4.6021484375,3.7384296875,-1.67920703125,0.202015625,-3.13351953125,-1.61464453125,4.67869140625,12.557328125,6.26077734375,6.80441015625,6.73821875,14.956078125,9.3474296875,6.056828125,6.46045703125,14.564046875,5.49814453125,10.18451953125,3.49046484375,6.001515625
-24.25296875,-15.16340234375,-6.75823828125,-5.69943359375,-12.435921875,-9.65291796875,-9.0622421875,-9.057140625,-10.56773046875,-12.68376953125,-9.4471484375,-0.9125703125,-4.77320703125,-2.956984375,-9.56551953125,-6.18264453125,2.45569140625,11.514328125,0.14377734375,1.06241015625,3.26721875,12.975078125,3.9774296875,0.441828125,1.80545703125,14.164046875,-0.58185546875,4.55651953125,-1.64753515625,2.078515625
-27.55996875,-17.18440234375,-8.22923828125,-6.44743359375,-11.394921875,-11.82991796875,-10.9082421875,-11.591140625,-7.90073046875,-13.64976953125,-11.9161484375,-3.6865703125,-6.58420703125,-4.669984375,-13.92351953125,-8.50164453125,0.98369140625,9.261328125,-4.79022265625,-2.91158984375,1.28821875,7.998078125,-1.5785703125,-3.929171875,-1.82454296875,12.894046875,-6.02985546875,-1.97048046875,-6.77253515625,-2.536484375
-24.90496875,-16.67740234375,-8.20223828125,-6.82443359375,-7.594921875,-11.47891796875,-9.4662421875,-11.825140625,-4.22173046875,-11.95576953125,-11.7231484375,-3.9505703125,-6.76920703125,-5.096984375,-15.57551953125,-8.28364453125,0.79169140625,5.878328125,-7.63422265625,-4.49358984375,1.04421875,1.027078125,-6.0765703125,-6.103171875,-3.68854296875,11.362046875,-9.57685546875,-7.75948046875,-10.65253515625,-6.722484375
-18.20796875,-13.98240234375,-6.73723828125,-6.82143359375,-2.198921875,-8.75991796875,-5.2982421875,-9.684140625,-0.72773046875,-8.29676953125,-8.9921484375,-1.6725703125,-5.67420703125,-4.289984375,-14.16951953125,-5.88964453125,1.89069140625,2.307328125,-7.77322265625,-3.58658984375,2.28321875,-5.947921875,-8.3165703125,-5.613171875,-3.51454296875,10.066046875,-10.39285546875,-11.41848046875,-12.41153515625,-9.542484375
-9.95596875,-9.56640234375,-4.02523828125,-6.12043359375,3.376078125,-4.19591796875,0.457757812500001,-5.597140625,2.08326953125,-3.45176953125,-4.2811484375,2.5654296875,-4.00020703125,-2.216984375,-9.83851953125,-2.17064453125,3.83369140625,0.0593281249999986,-5.13722265625,-0.64458984375,4.40721875,-10.753921875,-7.5725703125,-2.672171875,-1.55354296875,9.212046875,-8.35285546875,-12.20448046875,-11.75853515625,-10.470484375
-1.98796875,-4.03140234375,-0.43823828125,-4.17143359375,7.857078125,1.37308203125,6.3847578125,-0.405140625,4.40726953125,1.80323046875,1.4328515625,7.7504296875,-2.13820703125,1.035015625,-3.37151953125,1.80035546875,5.96169140625,0.385328124999999,-0.35522265625,3.40841015625,6.68121875,-12.102921875,-3.9905703125,1.792828125,1.49545703125,8.686046875,-4.13785546875,-10.24648046875,-9.06953515625,-9.507484375
4.96503125,1.81159765625,3.44476171875,-0.42143359375,10.569078125,6.92808203125,11.1417578125,4.862859375,6.83026953125,6.74823046875,6.8988515625,12.7324296875,0.14179296875,5.104015625,3.82848046875,5.05235546875,7.69569140625,3.488328125,5.32777734375,7.40641015625,8.45521875,-10.166921875,1.3424296875,6.340828125,4.67745703125,8.196046875,0.93214453125,-6.46548046875,-5.24753515625,-7.129484375
10.84903125,6.98959765625,6.93476171875,5.30256640625,11.633078125,11.45708203125,13.7957578125,9.271859375,9.87626953125,10.77923046875,10.8808515625,16.5424296875,3.24779296875,9.365015625,10.05148046875,6.95635546875,8.71969140625,8.362328125,10.42077734375,10.25941015625,9.33021875,-6.300921875,6.7564296875,9.448828125,7.07545703125,7.502046875,5.31014453125,-2.19248046875,-1.41053515625,-4.082484375
15.52203125,10.58159765625,9.43176171875,12.42156640625,11.760078125,14.16808203125,14.0677578125,12.202859375,13.60326953125,13.44923046875,12.4908515625,18.6344296875,7.01779296875,13.082015625,13.75648046875,7.31935546875,9.00069140625,13.322328125,13.65977734375,11.23741015625,9.22121875,-2.178921875,10.6424296875,9.984828125,8.05445703125,6.572046875,7.72014453125,1.33151953125,1.46646484375,-1.135484375
18.36303125,12.00359765625,10.61276171875,19.50556640625,11.753078125,14.68808203125,12.4157578125,13.440859375,17.43026953125,14.47623046875,11.4488515625,18.9514296875,10.43779296875,15.583015625,14.03148046875,6.32435546875,8.67369140625,16.802328125,14.36177734375,10.13741015625,8.30121875,1.024078125,12.0174296875,7.577828125,7.40345703125,5.559046875,7.52714453125,3.35851953125,2.82146484375,1.112515625
18.54103125,11.18659765625,10.46876171875,24.60256640625,12.020078125,13.16408203125,9.8127578125,13.087859375,20.23926953125,13.74523046875,8.1608515625,17.8134296875,12.13579296875,16.375015625,10.87148046875,4.39335546875,7.87869140625,17.946328125,12.55077734375,7.29141015625,6.85121875,2.984078125,10.7874296875,2.733828125,5.33245703125,4.634046875,4.87514453125,3.78851953125,2.58046484375,2.290515625
15.64103125,8.56059765625,9.21676171875,25.92256640625,12.364078125,10.18508203125,7.2907578125,11.383859375,20.78826953125,11.35823046875,3.6118515625,15.6644296875,11.26079296875,15.242015625,5.17548046875,2.02835546875,6.67069140625,16.787328125,8.85477734375,3.44641015625,5.12921875,4.006078125,7.6524296875,-3.318171875,2.37145703125,3.786046875,0.58814453125,3.06251953125,1.07946484375,2.227515625
10.12703125,4.86059765625,7.16476171875,22.59956640625,12.174078125,6.55708203125,5.4597578125,8.565859375,18.32026953125,7.71123046875,-0.9251484375,12.8644296875,8.11479296875,12.327015625,-1.54151953125,-0.29264453125,5.03669140625,14.041328125,4.27177734375,-0.45458984375,3.29021875,4.519078125,3.7484296875,-9.025171875,-0.80854296875,2.763046875,-4.12685546875,1.86451953125,-1.14053515625,0.900515625
3.34403125,0.84559765625,4.62676171875,15.19956640625,10.852078125,3.06908203125,4.3447578125,4.866859375,13.10426953125,3.49723046875,-4.2801484375,9.6384296875,4.09579296875,8.190015625,-7.63351953125,-2.18064453125,2.99769140625,10.706328125,-0.115222656249999,-3.50858984375,1.42321875,4.669078125,0.2074296875,-12.994171875,-3.56954296875,1.200046875,-8.06785546875,0.77851953125,-3.55353515625,-1.591484375
-2.91796875,-2.92240234375,1.90176171875,5.66556640625,8.238078125,0.327082031250001,3.5827578125,0.630859375,6.56226953125,-0.39976953125,-5.7261484375,6.2074296875,1.02379296875,3.757015625,-11.80851953125,-3.35064453125,0.72669140625,7.673328125,-3.39422265625,-5.06358984375,-0.354781249999999,4.293078125,-2.1745703125,-14.389171875,-5.44054296875,-1.098953125,-10.37985546875,0.0815195312500002,-5.79053515625,-4.970484375
-7.11796875,-6.12440234375,-0.69223828125,-3.34243359375,4.800078125,-1.33191796875,2.8107578125,-3.578140625,0.792269531250001,-3.10976953125,-5.1271484375,2.9444296875,0.26279296875,0.141015625,-13.42351953125,-3.61664453125,-1.41530859375,5.528328125,-4.97522265625,-4.82458984375,-1.77778125,3.262078125,-3.0555703125,-13.078171875,-6.13754296875,-3.888953125,-10.71285546875,-0.24048046875,-7.62853515625,-8.702484375
-8.62696875,-8.59440234375,-2.79023828125,-9.42943359375,1.503078125,-1.83491796875,1.9507578125,-7.003140625,-2.27073046875,-3.98576953125,-2.8611484375,0.407429687499999,2.15779296875,-1.647984375,-12.50151953125,-2.90264453125,-2.96830859375,4.551328125,-4.61622265625,-2.85858984375,-2.42578125,1.857078125,-2.4605703125,-9.517171875,-5.53254296875,-6.411953125,-9.16085546875,-0.28548046875,-8.88753515625,-11.977484375
-8.00996875,-10.20340234375,-4.02623828125,-11.32243359375,-0.604921875,-1.29991796875,1.2397578125,-8.931140625,-1.63873046875,-2.79376953125,0.3858515625,-0.829570312500001,6.01279296875,-1.022984375,-9.56051953125,-1.28964453125,-3.58630859375,4.796328125,-2.40022265625,0.46141015625,-1.86278125,0.787078125,-0.6365703125,-4.504171875,-3.64054296875,-7.637953125,-6.10685546875,-0.0214804687499998,-9.34253515625,-13.847484375
-6.63896875,-10.84840234375,-4.17923828125,-9.23343359375,-0.934921875000001,0.0230820312500004,1.0087578125,-9.021140625,2.32526953125,0.151230468750001,3.8198515625,-0.4885703125,10.44279296875,1.917015625,-5.40851953125,0.92635546875,-3.24030859375,6.147328125,1.27177734375,4.51741015625,0.113218750000001,0.828078125,2.0524296875,1.055828125,-0.66554296875,-6.727953125,-2.08785546875,0.76251953125,-8.75953515625,-13.531484375
-5.75896875,-10.52140234375,-3.33423828125,-4.66143359375,0.284078125,1.73508203125,1.3817578125,-7.534140625,7.97826953125,3.97623046875,6.6788515625,1.1934296875,13.84079296875,6.319015625,-0.97251953125,3.24835546875,-2.25630859375,8.347328125,5.71277734375,8.55141015625,3.26521875,2.371078125,5.1584296875,6.311828125,2.95545703125,-3.464953125,2.28114453125,2.31551953125,-7.03353515625,-10.757484375
-5.63296875,-9.39940234375,-1.92023828125,0.23656640625,2.063078125,3.26708203125,2.1597578125,-5.244140625,12.93426953125,7.45223046875,8.3568515625,3.5174296875,14.81579296875,10.785015625,2.84648046875,5.09535546875,-1.13330859375,11.025328125,10.02977734375,11.80341015625,6.90721875,5.190078125,8.1554296875,10.552828125,6.59145703125,1.579046875,6.34014453125,4.67251953125,-4.33353515625,-5.941484375
-5.49696875,-7.84640234375,-0.53923828125,3.48656640625,3.185078125,3.99908203125,2.9867578125,-3.072140625,14.96926953125,9.38723046875,8.5268515625,5.6734296875,12.65079296875,13.842015625,5.34148046875,6.02035546875,-0.25830859375,13.689328125,13.30577734375,13.69441015625,10.10721875,8.496078125,10.4604296875,13.268828125,9.56045703125,7.245046875,9.44114453125,7.46651953125,-1.16353515625,-0.112484375
-4.45496875,-6.34140234375,0.33276171875,4.02156640625,2.917078125,3.54208203125,3.6917578125,-1.630140625,13.01526953125,9.07423046875,7.2388515625,7.1804296875,7.69579296875,14.497015625,6.15348046875,5.89935546875,0.27769140625,15.714328125,14.82777734375,13.98441015625,12.04821875,11.190078125,11.5044296875,14.192828125,11.32945703125,12.225046875,11.06414453125,9.95251953125,1.73746484375,5.409515625
-2.59996875,-5.34440234375,0.57476171875,2.00256640625,1.441078125,1.96508203125,4.4287578125,-0.956140625,7.73926953125,6.58923046875,4.9178515625,8.0894296875,1.45579296875,12.610015625,5.34548046875,4.99735546875,0.63169140625,16.365328125,14.29177734375,12.85041015625,12.37421875,12.220078125,10.8814296875,13.366828125,11.70745703125,15.540046875,10.98414453125,11.29251953125,3.64746484375,9.432515625
-1.31596875,-5.15240234375,0.42876171875,-1.39243359375,-0.259921875,-0.212917968749999,5.5077578125,-0.615140625,1.31226953125,2.77323046875,2.2628515625,8.8474296875,-3.86620703125,8.927015625,3.36148046875,3.87035546875,1.02069140625,15.009328125,11.91577734375,10.84841015625,11.35121875,10.952078125,8.5474296875,11.177828125,10.92545703125,16.827046875,9.42514453125,10.97751953125,4.16746484375,11.261515625
-2.36296875,-5.77240234375,0.29576171875,-4.56743359375,-0.958921875000001,-2.22291796875,7.0767578125,-0.038140625,-3.55473046875,-1.07476953125,0.0618515624999998,9.9074296875,-6.30420703125,4.775015625,0.91348046875,3.14635546875,1.54669140625,11.499328125,8.41777734375,8.76341015625,9.74621875,7.497078125,4.9764296875,8.346828125,9.55945703125,16.302046875,7.09514453125,9.15451953125,3.42746484375,10.846515625
-6.35796875,-6.85240234375,0.48076171875,-6.17443359375,0.149078125,-3.30891796875,8.9577578125,1.086859375,-4.82673046875,-3.66476953125,-0.9971484375,11.3754296875,-5.06620703125,1.585015625,-1.17351953125,3.28935546875,2.15369140625,6.553328125,4.83977734375,7.37141015625,8.42521875,2.810078125,1.1514296875,5.779828125,8.28945703125,14.458046875,4.98714453125,6.64651953125,2.04646484375,8.678515625
-11.84396875,-7.75740234375,1.04176171875,-5.61943359375,3.027078125,-2.94991796875,10.7317578125,2.620859375,-2.00373046875,-4.16176953125,-0.5101484375,12.8974296875,-0.86120703125,0.415015625,-2.13451953125,4.42235546875,2.68569140625,1.726328125,2.25477734375,7.17641015625,7.89321875,-1.563921875,-1.7065703125,4.288828125,7.59445703125,11.683046875,3.99314453125,4.59251953125,0.823464843750001,5.492515625
-15.76296875,-7.80240234375,1.78776171875,-3.22943359375,6.839078125,-1.04691796875,11.9537578125,4.047859375,3.75426953125,-2.43576953125,1.5118515625,13.8374296875,4.59679296875,1.620015625,-1.47851953125,6.26735546875,2.97469140625,-1.189671875,1.40377734375,8.20641015625,8.04921875,-4.109921875,-2.6185703125,4.265828125,7.53745703125,8.080046875,4.48414453125,3.88551953125,0.32046484375,1.942515625
-15.17496875,-6.56940234375,2.45476171875,0.00256640624999971,10.432078125,2.03008203125,12.3887578125,4.794859375,10.25126953125,0.97123046875,4.6358515625,13.6684296875,9.56179296875,4.768015625,0.85348046875,8.25535546875,2.92269140625,-1.078671875,2.42577734375,9.99441015625,8.31921875,-4.061921875,-1.3185703125,5.476828125,7.78345703125,3.623046875,6.09314453125,4.71651953125,0.565464843750001,-1.557484375
-9.17296875,-4.14440234375,2.92976171875,2.99756640625,12.987078125,5.61208203125,12.1737578125,4.620859375,15.33826953125,5.14123046875,8.1658515625,12.3764296875,13.02279296875,8.873015625,4.46748046875,9.78435546875,2.58669140625,1.902328125,4.82777734375,11.78341015625,8.06721875,-1.763921875,1.6074296875,7.152828125,7.82745703125,-1.492953125,7.86514453125,6.50651953125,1.06946484375,-4.775484375
0.28603125,-1.10440234375,3.40076171875,5.16556640625,14.397078125,9.02908203125,11.8127578125,3.838859375,17.87026953125,9.17223046875,11.4068515625,10.5894296875,14.84579296875,12.837015625,8.66048046875,10.49635546875,2.20169140625,6.448328125,7.72077734375,12.86841015625,7.00921875,1.556078125,5.0044296875,8.337828125,7.31545703125,-6.579953125,8.71314453125,8.26151953125,1.13646484375,-7.478484375
9.33203125,1.75559765625,4.25576171875,6.61356640625,15.108078125,11.79308203125,11.9137578125,3.187859375,18.01126953125,12.45923046875,13.8728515625,9.3074296875,15.40479296875,15.859015625,12.63148046875,10.40535546875,2.09469140625,10.814328125,10.20477734375,12.88641015625,5.37521875,4.456078125,7.6904296875,8.337828125,6.25245703125,-10.523953125,7.94114453125,9.12551953125,0.28546484375,-9.305484375
14.41103125,3.81659765625,5.77576171875,7.87456640625,15.570078125,13.61608203125,12.8097578125,3.425859375,16.77226953125,14.72323046875,15.3538515625,9.3534296875,15.07679296875,17.605015625,15.67948046875,9.80435546875,2.49169140625,13.610328125,11.67877734375,11.92041015625,3.75021875,5.978078125,8.9394296875,6.995828125,4.98845703125,-12.188953125,5.57314453125,8.79151953125,-1.47253515625,-9.826484375
14.31303125,4.87759765625,7.81476171875,9.39356640625,15.740078125,14.35208203125,14.3147578125,4.853859375,15.19526953125,15.86823046875,15.8298515625,10.8854296875,13.94779296875,18.110015625,17.33048046875,9.04035546875,3.34369140625,14.245328125,11.96577734375,10.39141015625,2.74121875,5.961078125,8.6544296875,4.706828125,4.02645703125,-10.902953125,2.30414453125,7.55651953125,-3.62553515625,-8.727484375
10.62203125,5.09959765625,9.73076171875,11.08356640625,15.010078125,13.97608203125,15.7817578125,7.067859375,13.74626953125,15.79923046875,15.3338515625,13.2794296875,11.84579296875,17.536015625,17.37648046875,8.30035546875,4.30069140625,12.896328125,11.21177734375,8.80841015625,2.66821875,4.840078125,7.2154296875,2.168828125,3.75945703125,-6.777953125,-0.86785546875,6.02751953125,-5.42553515625,-6.015484375
6.34503125,4.71159765625,10.64676171875,12.22056640625,12.580078125,12.55608203125,16.3837578125,9.081859375,12.22726953125,14.35123046875,13.8638515625,15.4114296875,8.58979296875,15.960015625,15.81848046875,7.53835546875,4.85069140625,10.139328125,9.66677734375,7.51641015625,3.44021875,3.113078125,5.1274296875,0.0308281249999998,4.26445703125,-0.694953125,-3.12385546875,4.68951953125,-6.27753515625,-2.118484375
3.79903125,3.75659765625,9.89776171875,11.78556640625,8.068078125,10.18508203125,15.4397578125,9.767859375,10.12726953125,11.36823046875,11.3778515625,16.1844296875,4.30379296875,13.327015625,12.76248046875,6.53435546875,4.55069140625,6.578328125,7.48677734375,6.53441015625,4.61321875,0.857078125,2.7084296875,-1.405171875,5.22845703125,5.971046875,-4.18685546875,3.61651953125,-6.04853515625,2.156515625
3.27403125,2.10659765625,7.40676171875,9.12156640625,2.005078125,6.96908203125,12.7107578125,8.417859375,7.14226953125,6.89623046875,7.8938515625,15.0264296875,-0.40120703125,9.598015625,8.38048046875,5.06835546875,3.23869140625,2.702328125,4.70077734375,5.57441015625,5.60421875,-2.314921875,0.00642968749999984,-2.267171875,6.05645703125,11.760046875,-4.36885546875,2.49351953125,-5.11653515625,5.832515625
3.28203125,-0.26640234375,3.78776171875,4.57156640625,-4.062921875,3.14508203125,8.6057578125,5.170859375,3.55926953125,1.37823046875,3.6468515625,12.1654296875,-4.52520703125,5.025015625,3.01448046875,3.11035546875,1.13569140625,-1.002671875,1.36777734375,4.25141015625,5.94921875,-6.754921875,-2.9925703125,-2.948171875,6.14345703125,15.533046875,-4.29885546875,0.95051953125,-4.14753515625,8.055515625
2.00403125,-3.02040234375,0.10476171875,-0.39343359375,-8.050921875,-0.78591796875,4.1527578125,1.055859375,0.287269531250001,-4.29376953125,-0.7891484375,8.5514296875,-7.05320703125,0.328015624999999,-2.66751953125,0.93335546875,-1.18230859375,-3.888671875,-2.20522265625,2.37341015625,5.51621875,-12.112921875,-6.0605703125,-3.787171875,5.18645703125,16.766046875,-4.50285546875,-1.03348046875,-3.72353515625,8.392515625
-1.17496875,-5.40540234375,-2.57123828125,-3.76243359375,-8.283921875,-4.09891796875,0.6747578125,-2.398140625,-1.53973046875,-8.95676953125,-4.5581484375,5.4674296875,-7.38220703125,-3.436984375,-7.66351953125,-0.93164453125,-2.95930859375,-5.240671875,-5.38422265625,0.14241015625,4.57621875,-17.066921875,-8.5885703125,-4.818171875,3.38545703125,15.648046875,-5.10185546875,-2.98148046875,-4.06753515625,6.959515625
-5.10896875,-6.53040234375,-3.57823828125,-4.01043359375,-4.480921875,-6.06391796875,-0.728242187499999,-3.823140625,-1.18373046875,-11.57376953125,-6.7641484375,3.9954296875,-5.53320703125,-5.290984375,-10.86051953125,-1.90164453125,-3.50930859375,-4.673671875,-7.38922265625,-1.87358984375,3.69621875,-19.822921875,-9.7965703125,-5.749171875,1.37945703125,12.986046875,-5.82285546875,-4.13848046875,-5.02553515625,4.345515625
-7.55396875,-5.79640234375,-2.84623828125,-0.93343359375,1.862078125,-6.21491796875,0.404757812500001,-2.604140625,1.22326953125,-11.62276953125,-6.8031484375,4.5944296875,-2.09820703125,-4.798984375,-11.43251953125,-1.57164453125,-2.45330859375,-2.500671875,-7.62922265625,-2.96158984375,3.50421875,-19.066921875,-9.1645703125,-6.131171875,-0.0215429687499999,9.937046875,-6.25685546875,-3.92748046875,-6.25153515625,1.363515625
-6.57396875,-3.24840234375,-0.79723828125,4.18756640625,8.057078125,-4.51691796875,3.7637578125,0.884859375,4.66526953125,-9.25876953125,-4.5841484375,6.9664296875,1.91979296875,-2.266984375,-9.14951953125,0.14435546875,0.14269140625,0.341328124999999,-5.95222265625,-2.55858984375,4.44021875,-14.678921875,-6.7345703125,-5.589171875,-0.16354296875,7.649046875,-6.15385546875,-2.30048046875,-7.43553515625,-1.229484375
-1.78596875,0.36659765625,1.92776171875,9.19456640625,11.553078125,-1.36691796875,8.4527578125,5.488859375,7.73026953125,-5.15176953125,-0.5361484375,10.2404296875,5.28679296875,1.479015625,-4.45151953125,3.01335546875,3.76769140625,2.872328125,-2.64722265625,-0.44658984375,6.59221875,-7.712921875,-3.0715703125,-3.952171875,1.23045703125,6.888046875,-5.51485546875,0.24751953125,-8.39653515625,-2.945484375
5.27803125,3.90359765625,4.74876171875,12.10856640625,11.279078125,2.56708203125,13.3767578125,9.799859375,9.32426953125,-0.13576953125,4.5778515625,13.3604296875,6.86779296875,5.533015625,1.76048046875,6.60435546875,7.62569140625,4.658328125,1.72877734375,3.19541015625,9.65221875,0.183078125,1.0364296875,-1.264171875,3.98545703125,7.734046875,-4.49185546875,2.94251953125,-9.05453515625,-3.684484375
11.88703125,6.34659765625,7.28976171875,12.05656640625,8.191078125,6.64308203125,17.6797578125,12.741859375,9.17826953125,5.09523046875,9.9218515625,15.5284296875,6.11679296875,9.262015625,8.44648046875,10.40635546875,10.86469140625,5.893328125,6.53877734375,7.84241015625,12.96921875,7.432078125,4.8764296875,2.240828125,7.52945703125,9.462046875,-3.22785546875,5.06951953125,-9.38353515625,-3.760484375
15.47103125,7.24459765625,9.37976171875,9.60156640625,4.693078125,10.46908203125,21.0107578125,13.920859375,7.88226953125,10.07523046875,14.8088515625,16.4834296875,3.46479296875,12.349015625,14.68048046875,13.91635546875,12.80669140625,6.944328125,11.13077734375,12.71041015625,15.67221875,12.854078125,7.9114296875,6.139828125,10.99845703125,10.696046875,-1.81685546875,6.15751953125,-9.43753515625,-3.843484375
14.86003125,6.82759765625,10.95476171875,6.27756640625,3.295078125,13.90508203125,23.4697578125,13.632859375,6.47026953125,14.45123046875,18.7908515625,16.4774296875,0.24379296875,14.613015625,19.73448046875,16.65535546875,13.06769140625,7.836328125,14.81477734375,16.86341015625,16.84521875,15.661078125,9.7324296875,9.793828125,13.38745703125,9.877046875,-0.38385546875,5.99051953125,-9.42853515625,-4.776484375
10.76303125,5.75759765625,11.96076171875,3.69256640625,5.305078125,16.86708203125,25.2977578125,12.557859375,5.85126953125,17.82223046875,21.6358515625,15.9834296875,-1.92120703125,15.822015625,23.03848046875,18.17435546875,11.59269140625,8.122328125,16.90477734375,19.35641015625,15.77521875,15.355078125,10.0234296875,12.405828125,13.80045703125,5.905046875,0.81814453125,4.56051953125,-9.70953515625,-7.254484375
5.36703125,4.74259765625,12.29676171875,2.79156640625,10.238078125,19.14908203125,26.5747578125,11.367859375,6.38226953125,19.67923046875,23.2438515625,15.3454296875,-1.93020703125,15.697015625,24.19948046875,18.12435546875,8.63369140625,7.212328125,16.89877734375,19.48341015625,12.23721875,11.828078125,8.6594296875,13.240828125,11.75645703125,-1.278953125,1.46314453125,2.07851953125,-10.59053515625,-11.460484375
1.36003125,4.23459765625,11.85176171875,3.64356640625,16.139078125,20.43308203125,27.1337578125,10.448859375,7.74726953125,19.54723046875,23.5798515625,14.6044296875,0.22479296875,14.113015625,23.12648046875,16.40035546875,4.73969140625,4.922328125,14.76477734375,17.07341015625,6.72121875,5.657078125,5.9124296875,11.979828125,7.47945703125,-10.455953125,1.34214453125,-0.95048046875,-12.07753515625,-16.804484375
0.78403125,4.33859765625,10.59876171875,5.71956640625,20.546078125,20.44108203125,26.6847578125,9.832859375,9.16026953125,17.24623046875,22.6598515625,13.5974296875,3.49479296875,11.331015625,20.18148046875,13.26535546875,0.71369140625,1.842328125,11.14677734375,12.67741015625,0.424218750000001,-1.686921875,2.5874296875,9.002828125,1.97045703125,-19.413953125,0.58314453125,-3.72348046875,-13.72653515625,-21.994484375
4.05803125,4.85459765625,8.72376171875,8.31856640625,21.610078125,19.07808203125,25.0007578125,9.316859375,9.80826953125,13.14723046875,20.5818515625,12.2044296875,6.35979296875,8.078015625,16.18748046875,9.35635546875,-2.52530859375,-0.744671875,7.27577734375,7.48641015625,-5.06778125,-8.140921875,-0.1325703125,5.361828125,-3.25754296875,-25.713953125,-0.31785546875,-5.32748046875,-14.76253515625,-25.464484375
9.52203125,5.37959765625,6.69376171875,10.84456640625,18.904078125,16.53108203125,22.1007578125,8.687859375,9.36126953125,8.21623046875,17.5788515625,10.5584296875,7.59379296875,5.367015625,12.21048046875,5.52335546875,-4.17730859375,-1.450671875,4.53977734375,2.93341015625,-8.31578125,-11.868921875,-1.1395703125,2.384828125,-6.71954296875,-27.602953125,-0.71985546875,-5.12148046875,-14.45853515625,-26.010484375
13.92103125,5.44359765625,5.18376171875,12.88456640625,13.568078125,13.29208203125,18.3717578125,7.908859375,8.23726953125,3.76823046875,14.0488515625,9.0694296875,6.78079296875,4.111015625,9.21448046875,2.58435546875,-3.83430859375,0.453328124999999,3.87877734375,0.15841015625,-8.53178125,-12.120921875,0.0504296874999999,1.079828125,-7.52154296875,-24.641953125,-0.21385546875,-3.09148046875,-12.53653515625,-23.295484375
13.91203125,4.72259765625,4.83876171875,14.11456640625,7.719078125,10.04808203125,14.5637578125,7.178859375,7.37126953125,0.99623046875,10.5398515625,8.2624296875,4.40979296875,4.691015625,7.73248046875,1.09235546875,-1.60230859375,4.478328125,5.33177734375,-0.39858984375,-5.80078125,-9.579921875,2.9624296875,1.679828125,-5.66554296875,-17.788953125,1.08914453125,0.0515195312500002,-9.37453515625,-17.984484375
8.02003125,3.26459765625,5.95276171875,14.20656640625,3.411078125,7.42608203125,11.5637578125,6.849859375,7.59626953125,0.486230468750001,7.6468515625,8.5264296875,1.59579296875,6.706015625,7.71948046875,1.22035546875,1.96369140625,8.946328125,7.97077734375,0.91541015625,-0.95478125,-6.005921875,6.2814296875,3.545828125,-1.96554296875,-8.926953125,2.55214453125,3.12851953125,-5.88553515625,-11.474484375
-2.05896875,1.60359765625,8.26976171875,12.89956640625,1.709078125,5.76808203125,10.0757578125,7.245859375,9.03926953125,1.99423046875,5.8438515625,9.9344296875,-0.45020703125,9.082015625,8.63448046875,2.75835546875,6.07969140625,11.668328125,10.30677734375,3.20641015625,4.77121875,-3.374921875,8.3764296875,5.478828125,2.33345703125,-0.153953125,3.29114453125,4.99051953125,-3.14253515625,-5.362484375
-11.85296875,0.58959765625,11.03276171875,10.24956640625,2.341078125,5.06008203125,10.3407578125,8.466859375,10.96126953125,4.58823046875,5.3118515625,12.2034296875,-1.03520703125,10.540015625,9.70448046875,5.19735546875,9.95269140625,11.009328125,10.94077734375,5.44941015625,10.11021875,-2.943921875,8.0384296875,6.281828125,6.01645703125,6.842046875,2.59414453125,5.01551953125,-1.93553515625,-0.922484375
-16.24596875,0.94959765625,13.28776171875,6.82756640625,4.047078125,5.03408203125,12.0357578125,10.295859375,12.14026953125,7.06723046875,5.8388515625,14.7864296875,-0.35420703125,10.189015625,10.21248046875,7.86135546875,12.90969140625,6.796328125,9.18677734375,6.87041015625,14.02921875,-4.680921875,5.0504296875,5.297828125,8.26145703125,11.110046875,0.27214453125,3.36051953125,-2.44653515625,1.252515625
-12.28996875,2.79959765625,14.26676171875,3.60656640625,5.360078125,5.30508203125,14.3407578125,12.231859375,11.56226953125,8.45023046875,6.8808515625,17.0264296875,0.70179296875,7.956015625,9.72748046875,10.05435546875,14.46669140625,0.475328124999999,5.36777734375,7.16841015625,15.88121875,-7.360921875,0.3164296875,2.678828125,8.81045703125,12.477046875,-3.21085546875,0.85351953125,-4.19953515625,1.330515625
-1.04196875,5.43559765625,13.68576171875,1.52756640625,5.401078125,5.50608203125,16.2147578125,13.683859375,9.03226953125,8.34323046875,7.7748515625,18.3414296875,1.24479296875,4.633015625,8.22648046875,11.24135546875,14.38669140625,-5.623671875,0.70277734375,6.54341015625,15.48521875,-9.289921875,-4.5165703125,-0.677171875,7.95845703125,11.396046875,-6.87085546875,-1.38048046875,-6.25853515625,0.0735156249999998
12.72403125,7.59759765625,11.80576171875,1.06556640625,4.307078125,5.43908203125,16.8107578125,14.220859375,5.38226953125,7.02923046875,8.0498515625,18.3964296875,1.06779296875,1.537015625,6.12048046875,11.22035546875,12.73769140625,-9.448671875,-3.15922265625,5.57541015625,13.15821875,-9.256921875,-7.7405703125,-3.479171875,6.39945703125,8.735046875,-9.53285546875,-2.38248046875,-7.60753515625,-1.489484375
22.85703125,8.10959765625,9.29576171875,2.06256640625,3.066078125,5.18808203125,15.8647578125,13.746859375,2.11626953125,5.27423046875,7.6428515625,17.2274296875,0.75079296875,-0.0529843750000003,4.15348046875,10.22035546875,9.88569140625,-10.085671875,-4.75922265625,4.99041015625,9.64621875,-7.201921875,-8.2285703125,-4.525171875,4.98345703125,5.512046875,-10.22385546875,-1.68848046875,-7.52653515625,-2.417484375
24.93603125,6.54859765625,6.95476171875,3.88756640625,2.838078125,5.04308203125,13.7877578125,12.511859375,0.62126953125,3.89723046875,6.9278515625,15.2284296875,1.11579296875,0.558015624999999,3.14348046875,8.84535546875,6.40069140625,-7.879671875,-3.36722265625,5.38641015625,5.93521875,-4.197921875,-5.7805703125,-3.139171875,4.43045703125,2.642046875,-8.50385546875,0.57851953125,-5.81953515625,-2.150484375
18.41303125,3.52459765625,5.42576171875,5.73956640625,4.138078125,5.25008203125,11.4207578125,10.959859375,1.37526953125,3.33123046875,6.5078515625,12.9964296875,2.46679296875,3.187015625,3.62948046875,7.85435546875,2.89769140625,-3.936671875,0.74877734375,7.00841015625,3.00421875,-1.767921875,-1.0885703125,0.577828125,5.10945703125,0.738046875,-4.60285546875,3.85651953125,-2.81353515625,-0.600484375
6.64703125,0.35659765625,4.99476171875,6.92156640625,6.449078125,5.75308203125,9.6227578125,9.554859375,3.64926953125,3.37923046875,6.8908515625,11.1324296875,4.18779296875,6.852015625,5.57848046875,7.87435546875,-0.0723085937499999,0.554328125,6.42277734375,9.66241015625,1.59421875,-0.943921875,4.6024296875,5.791828125,6.97145703125,0.067046875,0.67814453125,7.43151953125,0.85446484375,1.931515625
-5.04396875,-1.65540234375,5.54176171875,7.02956640625,8.500078125,6.16608203125,8.9397578125,8.633859375,5.90626953125,3.31223046875,8.1898515625,10.0684296875,5.03979296875,10.171015625,8.32748046875,9.15135546875,-2.06530859375,4.728328125,11.99577734375,12.78341015625,2.07121875,-1.695921875,9.9234296875,11.237828125,9.62645703125,0.621046875,6.23514453125,10.70951953125,4.51646484375,4.963515625
-12.14396875,-1.91940234375,6.63476171875,6.01156640625,9.005078125,5.95308203125,9.4647578125,8.350859375,6.65826953125,2.25423046875,9.9948515625,9.9584296875,4.00179296875,11.878015625,10.77348046875,11.41135546875,-2.74230859375,8.028328125,15.85777734375,15.60441015625,4.35721875,-3.119921875,13.7304296875,15.626828125,12.49545703125,2.218046875,10.96314453125,13.34051953125,7.65346484375,7.983515625
-12.96596875,-0.78040234375,7.72776171875,4.16956640625,7.367078125,4.73208203125,10.8467578125,8.649859375,5.27826953125,-0.30176953125,11.4928515625,10.6584296875,1.09279296875,11.259015625,11.78048046875,13.92435546875,-1.90930859375,9.980328125,16.91477734375,17.33941015625,7.90921875,-4.173921875,15.2694296875,17.961828125,14.93645703125,4.537046875,13.98814453125,15.15051953125,9.92346484375,10.522515625
-8.94796875,0.78959765625,8.36476171875,2.11756640625,3.974078125,2.54408203125,12.4377578125,9.291859375,2.32426953125,-4.12376953125,11.8038515625,11.7764296875,-2.47720703125,8.364015625,10.64748046875,15.73335546875,0.39069140625,10.102328125,14.86977734375,17.37041015625,11.79221875,-4.322921875,14.2564296875,17.704828125,16.32545703125,7.113046875,14.78714453125,16.02751953125,11.09646484375,12.149515625
-3.26396875,1.80959765625,8.32176171875,0.66056640625,-0.00992187499999986,-0.0399179687499993,13.5177578125,9.909859375,-0.77873046875,-8.20476953125,10.3888515625,12.8004296875,-5.00720703125,3.955015625,7.44048046875,16.01235546875,3.78369140625,8.149328125,10.22777734375,15.40341015625,14.87821875,-3.655921875,10.9084296875,14.819828125,16.14445703125,9.374046875,13.22714453125,15.86051953125,11.01446484375,12.514515625
1.19203125,1.84659765625,7.65676171875,0.51056640625,-3.194921875,-2.09191796875,13.5437578125,10.128859375,-2.49273046875,-11.11876953125,7.3198515625,13.2414296875,-5.39720703125,-0.762984375,3.02248046875,14.36235546875,7.55869140625,4.494328125,4.07977734375,11.57141015625,16.18021875,-2.513921875,5.9264296875,9.734828125,14.08845703125,10.782046875,9.55214453125,14.60251953125,9.64346484375,11.443515625
3.17403125,1.21159765625,6.66676171875,1.90756640625,-4.571921875,-2.77491796875,12.3097578125,9.703859375,-1.93973046875,-11.62376953125,3.2628515625,12.7544296875,-3.80420703125,-4.569984375,-1.28351953125,10.93535546875,10.81369140625,0.241328124999999,-2.25922265625,6.41941015625,15.19421875,-1.081921875,0.3504296875,3.247828125,10.18945703125,11.015046875,4.33614453125,12.38951953125,7.15446484375,9.063515625
3.19903125,0.69059765625,5.75276171875,4.40256640625,-3.895921875,-1.79791796875,10.0097578125,8.620859375,0.72026953125,-9.25476953125,-0.8091484375,11.2284296875,-1.40120703125,-6.664984375,-4.26251953125,6.33135546875,12.71569140625,-3.182671875,-7.63522265625,0.77241015625,12.07521875,0.703078125,-4.7335703125,-3.630171875,4.87845703125,10.096046875,-1.60585546875,9.59351953125,3.97146484375,5.851515625
2.64903125,0.99359765625,5.24876171875,7.03556640625,-1.693921875,0.42608203125,7.1927578125,7.101859375,4.41026953125,-4.60376953125,-4.0061484375,8.8294296875,0.44479296875,-6.951984375,-5.30151953125,1.36635546875,12.79469140625,-4.739671875,-11.32822265625,-4.47958984375,7.55921875,2.878078125,-8.5275703125,-9.865171875,-1.07054296875,8.362046875,-7.35385546875,6.77251953125,0.718464843750001,2.547515625
2.70303125,2.26359765625,5.29376171875,8.79956640625,1.042078125,3.01508203125,4.6137578125,5.498859375,7.62926953125,0.88223046875,-5.7991484375,5.9854296875,0.89779296875,-6.005984375,-4.57051953125,-3.14164453125,11.10369140625,-4.281671875,-13.12622265625,-8.58458984375,2.66921875,5.135078125,-10.7055703125,-14.575171875,-6.70154296875,6.312046875,-12.02285546875,4.51251953125,-1.92853515625,-0.0504843750000004
3.72503125,3.98259765625,5.81276171875,9.10656640625,3.304078125,5.06808203125,2.9637578125,4.141859375,9.04626953125,5.53023046875,-6.0791484375,3.2874296875,-0.11520703125,-4.722984375,-2.81351953125,-6.50764453125,8.18269140625,-2.513671875,-13.20222265625,-11.05158984375,-1.61278125,6.781078125,-11.3545703125,-17.164171875,-11.07454296875,4.403046875,-14.91085546875,3.25251953125,-3.42353515625,-1.334484375
5.34303125,5.29659765625,6.56276171875,7.97056640625,4.472078125,6.07808203125,2.6077578125,3.215859375,7.99226953125,8.18123046875,-5.0511484375,1.3074296875,-2.08920703125,-3.832984375,-0.90151953125,-8.26664453125,4.82169140625,-0.526671875,-11.90022265625,-11.68858984375,-4.59278125,7.097078125,-10.7705703125,-17.394171875,-13.47654296875,2.910046875,-15.62385546875,3.17851953125,-3.49353515625,-1.080484375
6.95103125,5.51459765625,7.20576171875,5.92356640625,4.544078125,6.11608203125,3.4767578125,2.730859375,4.74826953125,8.65923046875,-3.1051484375,0.4054296875,-4.23720703125,-3.533984375,0.59048046875,-8.25564453125,1.75669140625,0.723328124999999,-9.57022265625,-10.59258984375,-5.99878125,5.825078125,-9.2595703125,-15.405171875,-13.57754296875,1.875046875,-14.15385546875,4.21651953125,-2.20653515625,0.511515624999999
8.21803125,4.47359765625,7.37976171875,3.74456640625,4.062078125,5.72108203125,5.1657578125,2.571859375,0.47126953125,7.72423046875,-0.7121484375,0.6104296875,-5.73020703125,-3.443984375,1.58548046875,-6.67864453125,-0.56330859375,0.704328124999999,-6.49322265625,-8.08458984375,-5.97578125,3.399078125,-7.0455703125,-11.643171875,-11.48354296875,1.176046875,-10.85985546875,6.11851953125,0.10346484375,2.957515625
9.25803125,2.57659765625,6.80976171875,2.13856640625,3.765078125,5.55508203125,7.1427578125,2.591859375,-3.23673046875,6.62223046875,1.6488515625,1.6294296875,-5.91820703125,-2.844984375,2.43948046875,-4.07864453125,-2.01730859375,-0.598671875000001,-2.86122265625,-4.58658984375,-4.92978125,0.723078125,-4.2695703125,-6.714171875,-7.63054296875,0.691046875000001,-6.31785546875,8.58151953125,3.01746484375,5.754515625
10.38103125,0.53959765625,5.45176171875,1.46056640625,4.143078125,6.01308203125,8.9377578125,2.693859375,-4.96573046875,6.46423046875,3.6048515625,2.9774296875,-4.61920703125,-1.061984375,3.68748046875,-1.14564453125,-2.68730859375,-2.659671875,1.21477734375,-0.45858984375,-3.28078125,-1.254921875,-0.9945703125,-1.188171875,-2.57354296875,0.465046875000001,-1.09285546875,11.34951953125,6.22646484375,8.620515625
11.64903125,-0.99840234375,3.57276171875,1.62056640625,5.146078125,7.03108203125,10.2597578125,2.860859375,-4.09373046875,7.72723046875,4.9868515625,4.1984296875,-2.33620703125,2.162015625,5.72848046875,1.52835546875,-2.69330859375,-4.487671875,5.64577734375,4.07241015625,-1.26878125,-1.854921875,2.7474296875,4.488828125,3.17845703125,0.726046875000001,4.38614453125,14.23651953125,9.58246484375,11.528515625
12.56703125,-1.79440234375,1.69076171875,2.15456640625,6.148078125,8.12108203125,11.0107578125,3.119859375,-1.10673046875,9.99823046875,5.8328515625,5.0224296875,-0.12520703125,6.403015625,8.53048046875,3.62835546875,-2.11330859375,-5.015671875,10.18577734375,8.80841015625,1.05221875,-0.826921875,6.8084296875,9.910828125,9.14045703125,1.710046875,9.71614453125,17.00851953125,12.93046484375,14.469515625
12.18303125,-2.07840234375,0.35976171875,2.36456640625,6.153078125,8.57008203125,11.2157578125,3.488859375,2.46826953125,12.05923046875,6.2558515625,5.4194296875,0.91079296875,10.479015625,11.47548046875,5.09935546875,-1.01730859375,-3.777671875,14.22177734375,13.35041015625,3.64621875,1.509078125,10.7034296875,14.504828125,14.68445703125,3.387046875,14.27414453125,19.21551953125,15.84146484375,17.117515625
9.60403125,-2.34040234375,-0.0652382812499996,1.49356640625,4.195078125,7.68408203125,10.9217578125,3.972859375,4.57726953125,12.33523046875,6.2928515625,5.5404296875,0.18679296875,12.733015625,13.46548046875,6.00535546875,0.47269140625,-1.411671875,16.73877734375,16.99341015625,6.31221875,4.196078125,13.5314296875,17.438828125,18.96245703125,5.350046875,17.14014453125,20.17251953125,17.52646484375,18.709515625
4.66903125,-2.94540234375,0.46776171875,-0.99743359375,-0.130921875,5.12208203125,10.2067578125,4.634859375,3.50926953125,9.62023046875,5.8948515625,5.6464296875,-2.11720703125,11.681015625,13.37548046875,6.42835546875,2.20069140625,0.542328124999999,16.65977734375,18.91041015625,8.68921875,5.860078125,14.2624296875,17.871828125,21.11445703125,6.996046875,17.39714453125,19.24651953125,17.14646484375,18.361515625
-1.67996875,-3.83940234375,1.76376171875,-5.08043359375,-6.226921875,1.22508203125,9.2917578125,5.654859375,-1.21773046875,3.78123046875,5.0848515625,6.0654296875,-5.24120703125,6.802015625,10.68748046875,6.49035546875,4.06869140625,0.558328124999999,13.45777734375,18.60741015625,10.45021875,5.339078125,12.3264296875,15.463828125,20.69445703125,7.912046875,14.71414453125,16.32551953125,14.38246484375,15.675515625
-7.62696875,-4.53940234375,3.52376171875,-9.97843359375,-12.479921875,-2.90691796875,8.6057578125,7.270859375,-8.45273046875,-3.94976953125,4.1198515625,7.1224296875,-8.30320703125,-0.988984375,5.92748046875,6.42335546875,6.10669140625,-1.830671875,7.64677734375,16.30941015625,11.53721875,2.425078125,8.1224296875,10.804828125,18.04045703125,8.156046875,9.79814453125,12.12551953125,9.86846484375,11.199515625
-11.25896875,-4.41740234375,5.44476171875,-14.39843359375,-16.836921875,-5.80891796875,8.6117578125,9.581859375,-15.82573046875,-11.35876953125,3.4478515625,8.9734296875,-10.73820703125,-9.546984375,0.55348046875,6.53135546875,8.40969140625,-5.600671875,0.773777343750001,12.97741015625,12.22421875,-1.804921875,3.0314296875,5.361828125,14.25545703125,8.226046875,4.29714453125,8.02751953125,5.09446484375,6.360515625
-11.44696875,-3.10140234375,7.24476171875,-17.11343359375,-17.743921875,-6.35591796875,9.4787578125,12.348859375,-20.81173046875,-16.16276953125,3.4178515625,11.4164296875,-12.48920703125,-16.326984375,-3.69051953125,6.99735546875,10.94369140625,-8.762671875,-5.18822265625,9.87141015625,12.91521875,-5.459921875,-1.1695703125,0.869828125,10.73645703125,8.702046875,0.10914453125,5.44151953125,1.73146484375,2.834515625
-8.34796875,-0.73240234375,8.63676171875,-17.51143359375,-14.888921875,-4.33691796875,10.8617578125,14.948859375,-21.85173046875,-16.99376953125,3.9688515625,13.8114296875,-13.83720703125,-19.433984375,-5.59451953125,7.68335546875,13.37069140625,-9.513671875,-8.69922265625,7.93841015625,13.84721875,-6.858921875,-3.1795703125,-1.489171875,8.52545703125,9.838046875,-1.51785546875,5.06351953125,0.79346484375,1.755515625
-3.30296875,2.06259765625,9.33276171875,-15.76443359375,-9.284921875,-0.52491796875,12.0127578125,16.566859375,-18.90273046875,-13.89976953125,4.5808515625,15.2424296875,-14.99120703125,-18.306984375,-4.96051953125,8.10535546875,15.05169140625,-7.276671875,-9.26022265625,7.41241015625,14.89621875,-5.434921875,-2.7785703125,-1.592171875,7.88045703125,11.387046875,-0.54985546875,6.50351953125,2.16146484375,3.216515625
1.75603125,4.47459765625,9.11776171875,-12.58243359375,-2.686921875,3.74908203125,12.1607578125,16.537859375,-13.23473046875,-8.13276953125,4.5848515625,14.8734296875,-15.74120703125,-13.756984375,-2.51751953125,7.66635546875,15.28469140625,-3.035671875,-7.45622265625,7.82041015625,15.62821875,-1.957921875,-0.8205703125,-0.306171875,8.28545703125,12.758046875,1.93314453125,8.52251953125,4.74246484375,6.326515625
5.08803125,5.88659765625,7.96176171875,-8.79043359375,3.267078125,7.22108203125,10.9217578125,14.643859375,-6.69673046875,-1.43976953125,3.6078515625,12.3384296875,-15.46520703125,-7.449984375,0.57448046875,5.98235546875,13.64569140625,1.199328125,-4.51522265625,8.31941015625,15.49521875,1.952078125,1.3054296875,1.042828125,8.80245703125,13.304046875,4.35014453125,9.68751953125,7.09946484375,9.669515625
5.77303125,6.11959765625,6.09776171875,-4.99943359375,7.655078125,9.18908203125,8.5157578125,11.221859375,-0.92473046875,4.63823046875,1.8188515625,7.9384296875,-13.55920703125,-1.189984375,3.25648046875,3.11335546875,10.21469140625,3.441328125,-1.70822265625,8.09641015625,14.03021875,4.620078125,2.3684296875,1.300828125,8.47745703125,12.547046875,5.34514453125,9.04751953125,8.11846484375,11.863515625
3.96603125,5.44159765625,4.00476171875,-1.48943359375,10.358078125,9.65808203125,5.6797578125,7.033859375,3.18226953125,9.13723046875,-0.1801484375,2.5694296875,-9.96320703125,3.654015625,4.87148046875,-0.45364453125,5.56669140625,2.728328125,0.0847773437500008,6.64841015625,10.96621875,4.982078125,1.7894296875,-0.0801718750000002,6.65145703125,10.247046875,4.27214453125,6.48051953125,7.38846484375,11.984515625
0.66003125,4.38459765625,2.26176171875,1.68856640625,11.721078125,9.10608203125,3.3267578125,2.991859375,5.54926953125,11.65023046875,-1.7381484375,-2.6045703125,-5.31920703125,6.409015625,5.15448046875,-4.01064453125,0.53369140625,-0.475671875000002,0.52777734375,3.89441015625,6.32721875,2.880078125,-0.2415703125,-2.949171875,3.11645703125,6.423046875,1.31114453125,2.63251953125,5.21746484375,9.800515625
-2.87296875,3.46659765625,1.29676171875,4.50556640625,12.101078125,8.04508203125,2.0917578125,-0.173140625,6.63326953125,12.08923046875,-2.5411484375,-6.5805703125,-0.64420703125,7.043015625,4.06048046875,-6.92664453125,-4.12530859375,-4.678671875,-0.27822265625,0.143410156250001,0.51621875,-1.021921875,-3.0075703125,-6.629171875,-1.82254296875,1.390046875,-2.73185546875,-1.43348046875,2.37846484375,5.792515625
-5.65296875,2.96859765625,1.14276171875,6.79156640625,11.587078125,6.67908203125,2.0097578125,-2.160140625,6.96026953125,10.46623046875,-2.7991484375,-8.8775703125,3.17179296875,5.907015625,1.60648046875,-8.87564453125,-7.95230859375,-8.236671875,-2.02022265625,-4.03858984375,-5.66678125,-5.533921875,-5.6595703125,-10.253171875,-7.40654296875,-4.203953125,-6.78885546875,-4.68548046875,-0.24753515625,0.996515625
-7.26996875,2.83759765625,1.35876171875,8.21356640625,9.995078125,4.87108203125,2.4967578125,-3.185140625,6.79726953125,6.85223046875,-3.1301484375,-9.6875703125,5.63879296875,3.483015625,-2.12551953125,-9.90664453125,-10.82230859375,-10.137671875,-4.35422265625,-8.00358984375,-11.17678125,-9.349921875,-7.5715703125,-13.075171875,-12.60054296875,-9.456953125,-9.90885546875,-6.44848046875,-1.97553515625,-3.332484375
-7.81296875,2.77059765625,1.20976171875,8.39856640625,7.103078125,2.36208203125,2.5997578125,-3.842140625,6.10826953125,1.53423046875,-4.2261484375,-9.7315703125,6.65979296875,0.282015625,-6.85951953125,-10.35064453125,-12.80330859375,-10.302671875,-6.94722265625,-11.18458984375,-15.03978125,-11.477921875,-8.4925703125,-14.654171875,-16.37554296875,-13.435953125,-11.53085546875,-6.54848046875,-2.50753515625,-6.117484375
-7.61396875,2.43459765625,0.0147617187500004,7.10456640625,2.995078125,-0.92991796875,1.3947578125,-4.797140625,4.77926953125,-4.75876953125,-6.4731484375,-9.9215703125,6.39079296875,-3.132984375,-11.98351953125,-10.60864453125,-13.96930859375,-9.367671875,-9.43522265625,-13.18858984375,-16.67978125,-11.585921875,-8.5005703125,-14.871171875,-17.99454296875,-15.450953125,-11.55885546875,-5.26248046875,-1.94653515625,-6.798484375
-6.95196875,1.67459765625,-2.50523828125,4.34456640625,-1.693921875,-4.70391796875,-1.6232421875,-6.463140625,2.88126953125,-10.79176953125,-9.6951484375,-10.9185703125,5.12179296875,-6.099984375,-16.54851953125,-10.92764453125,-14.29030859375,-8.208671875,-11.37822265625,-13.80958984375,-16.07878125,-10.072921875,-7.8465703125,-13.838171875,-17.19554296875,-15.254953125,-10.27485546875,-3.15248046875,-0.67953515625,-5.458484375
-5.86896875,0.62259765625,-6.08123828125,0.41556640625,-5.797921875,-8.23891796875,-6.2532421875,-8.810140625,0.75326953125,-15.07976953125,-13.1441484375,-12.8125703125,3.24379296875,-7.943984375,-19.45551953125,-11.26264453125,-13.63630859375,-7.485671875,-12.30722265625,-12.99658984375,-13.69878125,-7.813921875,-6.7795703125,-11.765171875,-14.21954296875,-13.075953125,-8.14985546875,-0.84748046875,0.80346484375,-2.727484375
-4.23596875,-0.37140234375,-9.97823828125,-4.19043359375,-7.987921875,-10.58391796875,-11.5552421875,-11.392140625,-1.13773046875,-16.37876953125,-15.7421484375,-15.0755703125,1.26379296875,-8.180984375,-19.79951953125,-11.27564453125,-11.86930859375,-7.430671875,-11.85622265625,-10.83058984375,-10.24578125,-5.744921875,-5.4545703125,-8.880171875,-9.70054296875,-9.502953125,-5.67485546875,1.11651953125,2.07946484375,0.487515624999999
-2.00396875,-0.90840234375,-13.25423828125,-8.92043359375,-7.361921875,-10.93991796875,-16.1452421875,-13.560140625,-2.40973046875,-14.18976953125,-16.4831484375,-16.8295703125,-0.21520703125,-6.713984375,-17.22451953125,-10.51364453125,-8.99130859375,-7.870671875,-9.90922265625,-7.51658984375,-6.42278125,-4.524921875,-3.9345703125,-5.413171875,-4.49054296875,-5.293953125,-3.24385546875,2.37951953125,2.87546484375,3.293515625
0.65203125,-0.73040234375,-15.08523828125,-13.24443359375,-3.954921875,-9.04491796875,-18.7022421875,-14.754140625,-2.90273046875,-8.99476953125,-14.8411484375,-17.2895703125,-0.66220703125,-3.898984375,-12.10851953125,-8.64364453125,-5.25130859375,-8.402671875,-6.67722265625,-3.39358984375,-2.76478125,-4.387921875,-2.2505703125,-1.636171875,0.54645703125,-1.201953125,-1.12185546875,2.77851953125,3.08246484375,5.052515625
3.55503125,0.19359765625,-15.02823828125,-16.62343359375,1.111078125,-5.30791796875,-18.4162421875,-14.695140625,-2.67273046875,-2.10876953125,-10.9781484375,-16.0735703125,0.0657929687500003,-0.413984375000001,-5.47851953125,-5.63664453125,-1.15630859375,-8.568671875,-2.63922265625,1.10841015625,0.44421875,-5.125921875,-0.4435703125,2.147828125,4.73445703125,2.173046875,0.56314453125,2.35451953125,2.74946484375,5.521515625
6.90303125,1.71259765625,-13.13323828125,-18.46843359375,5.954078125,-0.63991796875,-15.2092421875,-13.423140625,-1.93573046875,4.76123046875,-5.6801484375,-13.2755703125,1.43079296875,2.990015625,1.33448046875,-1.77964453125,2.66169140625,-7.952671875,1.60377734375,5.55441015625,3.18321875,-6.166921875,1.4404296875,5.663828125,7.75545703125,4.499046875,1.84014453125,1.36751953125,2.07546484375,4.893515625
11.32503125,3.62759765625,-9.89723828125,-18.28843359375,8.636078125,3.86008203125,-9.7142421875,-11.207140625,-1.09973046875,10.01823046875,-0.0581484374999999,-9.3325703125,2.23279296875,5.700015625,7.08448046875,2.42635546875,5.66569140625,-6.251671875,5.48477734375,9.57541015625,5.61921875,-6.728921875,3.3584296875,8.718828125,9.70245703125,5.771046875,2.88414453125,0.25151953125,1.38846484375,3.720515625
17.33403125,5.74859765625,-6.12123828125,-16.03943359375,7.932078125,7.17108203125,-3.1462421875,-8.447140625,-0.816730468749999,12.54123046875,4.7788515625,-4.9005703125,1.09179296875,7.301015625,10.86448046875,6.37535546875,7.55569140625,-3.382671875,8.51177734375,12.85141015625,7.92321875,-6.090921875,5.2094296875,11.166828125,10.91445703125,6.244046875,3.92014453125,-0.52248046875,1.04246484375,2.688515625
24.49203125,7.80559765625,-2.73223828125,-12.38143359375,3.811078125,8.52708203125,2.9407578125,-5.662140625,-1.83673046875,11.80823046875,7.9548515625,-0.7865703125,-2.74920703125,7.520015625,12.14848046875,9.43035546875,8.26169140625,0.321328124999999,10.20777734375,15.01641015625,10.02721875,-3.945921875,6.7144296875,12.766828125,11.65145703125,6.244046875,5.03914453125,-0.66848046875,1.24546484375,2.315515625
31.06103125,9.33159765625,-0.60923828125,-8.53943359375,-2.613921875,7.51808203125,7.0117578125,-3.495140625,-4.60373046875,7.85823046875,8.9108515625,2.1154296875,-8.77520703125,6.154015625,10.70948046875,10.97735546875,7.81269140625,3.963328125,10.05177734375,15.59441015625,11.46221875,-0.697921875,7.3204296875,13.085828125,11.80545703125,5.948046875,6.00414453125,-0.27048046875,1.89146484375,2.676515625
34.59603125,9.69059765625,-0.40623828125,-5.80143359375,-9.632921875,4.10908203125,7.9197578125,-2.648140625,-8.86073046875,1.17423046875,7.3838515625,2.9564296875,-15.19720703125,3.085015625,6.55148046875,10.51635546875,6.21969140625,6.141328125,7.54177734375,14.05841015625,11.45921875,2.448078125,6.2754296875,11.540828125,10.84545703125,5.249046875,6.20014453125,0.17351953125,2.51246484375,3.314515625
33.25103125,8.32559765625,-2.39123828125,-4.94943359375,-15.687921875,-1.41891796875,5.1857578125,-3.680140625,-13.60673046875,-7.43676953125,3.3628515625,1.1504296875,-19.72720703125,-1.609984375,-0.0845195312499998,7.79135546875,3.45169140625,5.383328125,2.40977734375,10.03341015625,9.30021875,3.791078125,2.9094296875,7.625828125,8.06745703125,3.826046875,4.81214453125,-0.0894804687499998,2.40146484375,3.390515625
26.90903125,5.07159765625,-6.34023828125,-5.95843359375,-19.883921875,-8.50691796875,-0.898242187499999,-6.772140625,-17.50873046875,-16.93976953125,-2.9101484375,-3.3935703125,-20.75220703125,-7.525984375,-8.62451953125,2.90035546875,-0.46130859375,0.885328124999999,-5.09422265625,3.56541015625,4.76321875,1.841078125,-2.9425703125,1.236828125,3.02045703125,1.383046875,1.21414453125,-1.73748046875,0.90946484375,2.070515625
17.32403125,0.32959765625,-11.54723828125,-8.09143359375,-22.037921875,-16.28591796875,-9.3302421875,-11.593140625,-19.47173046875,-26.12576953125,-10.8811484375,-10.1455703125,-18.23720703125,-13.842984375,-18.05051953125,-3.64464453125,-5.28330859375,-6.808671875,-14.01922265625,-4.69058984375,-1.64278125,-3.814921875,-10.6135703125,-7.069171875,-4.11654296875,-2.076953125,-4.61885546875,-5.00348046875,-2.20053515625,-1.026484375
7.19003125,-5.01440234375,-16.99623828125,-10.33643359375,-22.370921875,-23.57091796875,-18.6172421875,-17.383140625,-19.06173046875,-33.66376953125,-19.5981484375,-18.0175703125,-13.76220703125,-19.401984375,-26.91451953125,-10.96664453125,-10.50230859375,-15.724671875,-22.78122265625,-13.49258984375,-8.79578125,-12.035921875,-18.6065703125,-16.039171875,-12.41854296875,-6.128953125,-11.89485546875,-9.47348046875,-6.55353515625,-5.523484375
-1.20396875,-9.84340234375,-21.62823828125,-11.87943359375,-21.107921875,-28.99591796875,-27.1042421875,-23.194140625,-16.54973046875,-38.18776953125,-27.6971484375,-25.6335703125,-9.63420703125,-22.935984375,-33.53951953125,-17.94964453125,-15.41030859375,-23.183671875,-29.53322265625,-21.25458984375,-15.35378125,-20.485921875,-25.0275703125,-23.991171875,-20.40454296875,-10.006953125,-19.14785546875,-14.18648046875,-11.21053515625,-10.328484375
-6.82096875,-13.10140234375,-24.59323828125,-12.33743359375,-18.254921875,-31.28491796875,-33.3252421875,-28.149140625,-12.62673046875,-38.50676953125,-33.5441484375,-31.6985703125,-7.60720703125,-23.405984375,-36.40051953125,-23.41764453125,-19.28630859375,-26.955671875,-32.69422265625,-26.42258984375,-20.17478125,-26.666921875,-28.2515703125,-29.281171875,-26.45354296875,-12.864953125,-24.70785546875,-17.99548046875,-15.00353515625,-14.023484375
-9.71396875,-13.99740234375,-25.39423828125,-11.66443359375,-13.680921875,-29.55991796875,-36.2602421875,-31.569140625,-7.99273046875,-33.92676953125,-35.5831484375,-35.2935703125,-8.00420703125,-20.320984375,-34.55651953125,-26.31664453125,-21.57930859375,-26.125671875,-31.42922265625,-27.87058984375,-22.55678125,-28.963921875,-27.4885703125,-30.788171875,-29.26454296875,-14.051953125,-27.28485546875,-19.97948046875,-16.95253515625,-15.411484375
-10.18696875,-12.14640234375,-23.91723828125,-9.93643359375,-7.459921875,-23.63191796875,-35.4462421875,-33.000140625,-3.09173046875,-24.60976953125,-32.8131484375,-35.9965703125,-9.67220703125,-13.935984375,-28.00451953125,-25.90564453125,-22.00130859375,-21.243671875,-25.90322265625,-25.19758984375,-22.27578125,-27.094921875,-22.9785703125,-28.245171875,-28.21354296875,-13.315953125,-26.41585546875,-19.71448046875,-16.60353515625,-13.963484375
-8.11596875,-7.68340234375,-20.40023828125,-7.30543359375,-0.222921875,-14.23091796875,-31.0072421875,-32.184140625,1.87026953125,-11.77476953125,-25.2431484375,-33.8345703125,-10.70120703125,-5.269984375,-17.82651953125,-21.97964453125,-20.53930859375,-13.859671875,-17.24022265625,-18.86258984375,-19.52278125,-21.898921875,-15.8215703125,-22.324171875,-23.52454296875,-10.865953125,-22.58085546875,-17.34648046875,-14.14353515625,-9.999484375
-3.07996875,-1.33440234375,-15.36023828125,-4.10543359375,6.827078125,-3.00491796875,-23.6312421875,-29.087140625,6.71226953125,2.44223046875,-14.0791484375,-29.1685703125,-9.46820703125,4.102015625,-6.00751953125,-15.03064453125,-17.41330859375,-5.830671875,-7.21422265625,-10.10358984375,-14.81678125,-14.767921875,-7.5805703125,-14.447171875,-16.19154296875,-7.300953125,-16.97185546875,-13.49848046875,-10.28353515625,-4.531484375
4.82803125,5.62359765625,-9.52123828125,-0.91743359375,12.355078125,7.86308203125,-14.4702421875,-23.976140625,11.09026953125,15.49123046875,-1.5031484375,-22.5895703125,-5.48420703125,12.444015625,5.08248046875,-6.23364453125,-13.02030859375,1.265328125,2.22777734375,-0.61658984375,-8.91178125,-7.099921875,0.1794296875,-6.361171875,-7.69554296875,-3.405953125,-11.03885546875,-9.05548046875,-5.98553515625,1.106515625
14.28003125,11.62759765625,-3.73423828125,1.55956640625,15.569078125,16.33208203125,-4.9592421875,-17.478140625,14.46726953125,25.12523046875,9.9538515625,-14.8615703125,0.35279296875,18.331015625,13.40148046875,2.81135546875,-7.88030859375,6.447328125,9.48777734375,7.91941015625,-2.67278125,0.00507812499999999,6.2774296875,0.400828125,0.41945703125,0.0810468750000002,-5.99485546875,-4.90448046875,-2.15553515625,5.687515625
22.80903125,15.32059765625,1.15476171875,2.73556640625,16.605078125,21.16208203125,3.4517578125,-10.549140625,16.25826953125,30.06923046875,18.2168515625,-6.9105703125,6.19279296875,21.027015625,17.86448046875,10.53035546875,-2.57730859375,9.382328125,13.70877734375,14.30541015625,3.07521875,5.827078125,10.1394296875,4.964828125,6.96245703125,2.667046875,-2.47485546875,-1.70048046875,0.59246484375,8.406515625
27.74603125,16.06959765625,4.49376171875,2.29556640625,16.369078125,22.23408203125,9.6027578125,-4.269140625,16.05526953125,30.37323046875,22.3048515625,0.2444296875,10.09579296875,20.654015625,18.61948046875,15.82135546875,2.30269140625,10.265328125,14.93177734375,18.09841015625,7.69121875,9.958078125,11.8324296875,7.307828125,11.34645703125,4.168046875,-0.46085546875,0.26651953125,2.02846484375,9.004515625
27.45803125,14.23159765625,6.01776171875,0.28656640625,15.946078125,20.46408203125,12.9147578125,0.458859375,13.82726953125,27.30123046875,22.5418515625,5.6714296875,10.89279296875,18.072015625,16.86648046875,18.33435546875,6.24469140625,9.601328125,13.96377734375,19.61341015625,10.82521875,12.247078125,11.9254296875,8.118828125,13.60545703125,4.666046875,0.55114453125,1.07151953125,2.27246484375,7.732515625
22.19703125,10.99959765625,5.94676171875,-2.86143359375,15.980078125,17.38908203125,13.5757578125,3.181859375,9.97426953125,22.78023046875,20.2888515625,8.8004296875,8.62479296875,14.510015625,14.31848046875,18.48335546875,8.91269140625,7.995328125,12.02877734375,19.66541015625,12.45321875,12.770078125,11.2234296875,8.437828125,14.21445703125,4.398046875,1.23714453125,1.04551953125,1.68446484375,5.195515625
14.14803125,7.90059765625,4.89076171875,-6.41743359375,16.341078125,14.55908203125,12.4407578125,3.987859375,5.20526953125,18.62723046875,17.3408515625,9.6194296875,4.40579296875,11.101015625,12.52048046875,17.18935546875,10.23469140625,5.977328125,10.30977734375,19.18241015625,12.83721875,11.795078125,10.4714296875,9.204828125,13.83045703125,3.675046875,2.15414453125,0.62651953125,0.73946484375,2.179515625
6.55803125,6.17759765625,3.59676171875,-9.57243359375,16.230078125,12.95508203125,10.6477578125,3.389859375,0.32826953125,15.90823046875,15.2448515625,8.6644296875,-0.19120703125,8.535015625,12.31848046875,15.48835546875,10.42369140625,3.912328125,9.56377734375,18.85341015625,12.41921875,9.708078125,10.1204296875,10.905828125,13.04145703125,2.829046875,3.57714453125,0.21251953125,-0.0785351562499996,-0.523484375
2.23703125,6.31859765625,2.66076171875,-11.69043359375,14.696078125,12.70408203125,9.1087578125,2.067859375,-3.88773046875,14.69823046875,14.7998515625,6.7934296875,-3.83120703125,6.983015625,13.65548046875,14.14535546875,9.89569140625,2.020328125,9.95777734375,18.93341015625,11.66621875,6.941078125,10.2524296875,13.456828125,12.23245703125,2.178046875,5.48614453125,0.0725195312500002,-0.36153515625,-2.270484375
2.09003125,7.91159765625,2.32976171875,-12.43243359375,11.360078125,13.21708203125,8.1457578125,0.607859375,-6.72073046875,14.32723046875,15.8718515625,4.8474296875,-5.80520703125,6.289015625,15.76448046875,13.43835546875,9.11369140625,0.453328124999999,11.15077734375,19.25541015625,10.93321875,3.957078125,10.6754296875,16.333828125,11.56645703125,1.985046875,7.67814453125,0.31351953125,0.15346484375,-2.666484375
4.57303125,9.88759765625,2.45176171875,-11.71143359375,6.872078125,13.61708203125,7.4137578125,-0.660140625,-7.51973046875,13.92123046875,17.5608515625,3.3724296875,-6.00320703125,6.225015625,17.58248046875,13.16135546875,8.42269140625,-0.624671875000001,12.54077734375,19.39141015625,10.36621875,1.241078125,11.0914296875,18.835828125,11.05145703125,2.404046875,9.89014453125,0.90951953125,1.52546484375,-1.614484375
6.56803125,11.04859765625,2.57976171875,-9.60643359375,2.737078125,13.14508203125,6.1067578125,-1.702140625,-5.90673046875,12.89223046875,18.6098515625,2.4514296875,-4.66520703125,6.620015625,18.15848046875,12.79035546875,7.92269140625,-1.063671875,13.50777734375,18.85441015625,9.89221875,-0.759921875,11.2104296875,20.307828125,10.61245703125,3.431046875,11.87214453125,1.73551953125,3.59646484375,0.689515624999999
5.34403125,10.62359765625,2.15276171875,-6.33543359375,0.512078124999999,11.39208203125,3.3957578125,-2.719140625,-2.09573046875,11.13923046875,17.8918515625,1.7394296875,-2.20020703125,7.300015625,16.93948046875,11.72735546875,7.43969140625,-0.836671875,13.55677734375,17.27141015625,9.27021875,-1.774921875,10.7724296875,20.271828125,10.13045703125,4.887046875,13.37914453125,2.60651953125,6.01146484375,3.818515625
0.39103125,8.56659765625,0.73076171875,-2.29443359375,0.889078125,8.36008203125,-1.0582421875,-3.998140625,2.92626953125,8.92423046875,14.8508515625,0.676429687499999,0.83379296875,7.948015625,13.86848046875,9.56735546875,6.60469140625,-0.146671875000001,12.37977734375,14.49441015625,8.20921875,-1.817921875,9.5334296875,18.488828125,9.45145703125,6.443046875,14.14014453125,3.31951953125,8.30346484375,7.205515625
-6.13396875,5.48759765625,-1.78723828125,1.92956640625,3.261078125,4.43608203125,-6.7302421875,-5.728140625,7.60126953125,6.60323046875,9.7568515625,-1.1895703125,3.70679296875,8.086015625,9.39948046875,6.31635546875,5.04469140625,0.582328124999999,9.90677734375,10.67241015625,6.51521875,-1.163921875,7.3124296875,15.020828125,8.42745703125,7.715046875,13.87014453125,3.69951953125,10.02046484375,10.255515625
-10.72296875,2.30759765625,-4.98523828125,5.62456640625,6.051078125,0.300082031250001,-12.2712421875,-7.821140625,10.41326953125,4.46223046875,3.7148515625,-3.8875703125,5.65979296875,7.261015625,4.41548046875,2.48335546875,2.61369140625,0.882328124999999,6.38177734375,6.27841015625,4.21121875,-0.188921875,4.1154296875,10.273828125,6.96445703125,8.380046875,12.35114453125,3.63651953125,10.83046484375,12.452515625
-10.70596875,-0.11040234375,-7.91723828125,8.13756640625,7.624078125,-3.19091796875,-15.9482421875,-9.830140625,10.62226953125,2.75223046875,-1.6371484375,-6.8765703125,6.21179296875,5.352015625,0.0704804687500002,-1.02464453125,-0.451308593749999,0.479328124999999,2.38577734375,2.01641015625,1.56721875,0.840078125,0.2434296875,4.948828125,5.04645703125,8.246046875,9.51114453125,3.08351953125,10.57146484375,13.403515625
-5.80296875,-1.16140234375,-9.36023828125,9.09656640625,7.211078125,-5.14591796875,-16.3092421875,-11.055140625,8.67126953125,1.79123046875,-4.6851484375,-9.1795703125,5.41079296875,2.763015625,-2.49651953125,-3.21864453125,-3.57930859375,-0.571671875,-1.29322265625,-1.38858984375,-1.03978125,1.892078125,-3.7265703125,-0.150171875,2.66445703125,7.218046875,5.44014453125,1.99951953125,9.19946484375,12.810515625
1.95703125,-0.53340234375,-8.32723828125,8.54656640625,5.305078125,-4.86991796875,-12.7732421875,-10.861140625,5.95026953125,1.95023046875,-4.4851484375,-9.8015703125,3.80679296875,0.308015624999999,-2.53751953125,-3.46664453125,-6.12130859375,-1.951671875,-3.94122265625,-3.51258984375,-3.35178125,3.098078125,-7.1325703125,-4.418171875,-0.29454296875,5.181046875,0.32814453125,0.29351953125,6.68246484375,10.412515625
9.64603125,1.79559765625,-4.61723828125,6.87656640625,3.306078125,-2.17491796875,-5.9422421875,-9.075140625,3.99726953125,3.46823046875,-1.1991484375,-8.2915703125,2.14779296875,-1.169984375,-0.0485195312499997,-1.84464453125,-7.66830859375,-3.276671875,-5.20822265625,-4.45258984375,-5.40778125,4.511078125,-9.4875703125,-7.671171875,-4.05754296875,1.931046875,-5.55485546875,-2.15348046875,2.97746484375,6.021515625
15.03303125,5.50259765625,0.93876171875,4.63156640625,2.687078125,2.38708203125,2.4937578125,-6.208140625,3.64726953125,6.22223046875,3.9178515625,-5.1005703125,1.07179296875,-1.199984375,4.14548046875,0.81335546875,-8.24530859375,-4.248671875,-5.19322265625,-4.78658984375,-7.49678125,5.883078125,-10.6075703125,-10.113171875,-8.76854296875,-2.701953125,-11.77885546875,-5.34848046875,-1.83953515625,-0.282484375
17.35803125,9.84959765625,6.71176171875,2.38856640625,4.189078125,7.59008203125,10.2727578125,-3.335140625,4.67126953125,9.64823046875,9.0108515625,-1.4985703125,0.93579296875,0.138015625,8.65548046875,3.25535546875,-8.23930859375,-4.644671875,-4.26822265625,-5.21558984375,-9.87278125,6.690078125,-10.5365703125,-12.031171875,-14.15154296875,-8.544953125,-17.59485546875,-8.97948046875,-7.32253515625,-7.855484375
17.14403125,13.74859765625,10.87576171875,0.70356640625,7.436078125,11.95708203125,15.2887578125,-1.672140625,6.06826953125,12.87323046875,12.3598515625,0.949429687499999,1.74179296875,2.342015625,12.05748046875,4.38135546875,-8.13330859375,-4.197671875,-2.77322265625,-6.09258984375,-12.41978125,6.485078125,-9.3125703125,-13.408171875,-19.28654296875,-14.799953125,-21.87885546875,-12.28848046875,-12.49453515625,-15.329484375
15.43303125,16.01359765625,12.08276171875,0.0155664062499996,11.091078125,14.27608203125,16.2377578125,-2.068140625,6.78526953125,15.00323046875,13.0128515625,1.0624296875,3.05979296875,4.778015625,13.41848046875,3.72835546875,-8.21430859375,-2.525671875,-0.82122265625,-7.15058984375,-14.52578125,5.384078125,-6.8245703125,-13.764171875,-22.74454296875,-20.039953125,-23.34785546875,-14.19448046875,-15.98653515625,-20.835484375
12.92903125,15.71759765625,9.90176171875,0.42756640625,13.504078125,13.96808203125,12.9377578125,-4.670140625,6.39826953125,15.45823046875,11.0408515625,-1.4565703125,4.05879296875,6.966015625,12.57248046875,1.62935546875,-8.42730859375,0.710328124999999,1.65277734375,-7.63258984375,-15.29178125,4.250078125,-2.8965703125,-12.378171875,-23.10154296875,-22.629953125,-21.03585546875,-13.70148046875,-16.52353515625,-22.630484375
9.44403125,12.49259765625,4.89676171875,1.53956640625,13.589078125,11.19908203125,6.3197578125,-8.883140625,5.35626953125,14.21323046875,7.3618515625,-5.9155703125,3.82679296875,8.710015625,10.04948046875,-1.01964453125,-8.44330859375,5.421328125,4.65877734375,-6.74958984375,-13.98178125,4.290078125,2.3934296875,-8.782171875,-19.60454296875,-21.402953125,-14.82885546875,-10.44248046875,-13.54753515625,-19.875484375
4.01503125,6.67659765625,-1.64823828125,2.58556640625,11.471078125,6.78308203125,-1.8472421875,-13.606140625,4.65226953125,11.79123046875,3.2798515625,-10.9175703125,1.92479296875,10.014015625,6.76648046875,-3.20164453125,-7.88130859375,10.713328125,7.91877734375,-4.19158984375,-10.43278125,6.209078125,8.4134296875,-3.201171875,-12.60854296875,-16.260953125,-5.72885546875,-5.02848046875,-7.60553515625,-13.114484375
-4.10196875,-0.69340234375,-8.20523828125,2.84156640625,8.437078125,1.91508203125,-9.4352421875,-17.587140625,5.09526953125,9.01723046875,-0.0131484374999999,-14.8725703125,-1.20120703125,10.904015625,3.64948046875,-4.19064453125,-6.53230859375,14.928328125,10.84477734375,-0.34958984375,-5.21778125,9.562078125,13.9754296875,3.377828125,-3.52854296875,-8.316953125,4.36814453125,1.06851953125,-0.24353515625,-4.147484375
-14.07396875,-8.00440234375,-13.46523828125,2.02556640625,6.093078125,-2.19991796875,-14.5442421875,-19.763140625,6.66026953125,6.63723046875,-1.7491484375,-16.5055703125,-4.37220703125,11.276015625,1.38548046875,-3.73264453125,-4.45330859375,16.299328125,12.78977734375,3.87641015625,0.56221875,12.864078125,17.7554296875,9.577828125,5.68745703125,0.489046875000001,13.35614453125,6.10651953125,6.59446484375,4.672515625
-22.82696875,-13.39740234375,-16.60223828125,0.44356640625,5.291078125,-4.69091796875,-16.0142421875,-19.459140625,8.33726953125,5.03323046875,-1.6441484375,-15.1955703125,-6.36420703125,10.908015625,0.35648046875,-1.99364453125,-1.92130859375,13.934328125,13.39977734375,7.54241015625,5.69221875,14.431078125,18.9154296875,14.223828125,13.26645703125,8.112046875,19.68514453125,8.80451953125,11.33246484375,11.328515625
-26.06696875,-15.33440234375,-17.31123828125,-1.19843359375,5.556078125,-5.18691796875,-13.6682421875,-16.497140625,8.63726953125,4.15123046875,0.1988515625,-11.0865703125,-6.62220703125,9.596015625,0.68748046875,0.61935546875,0.68769140625,8.438328125,12.82577734375,10.08341015625,9.25321875,13.308078125,17.5034296875,16.808828125,18.14145703125,13.075046875,22.81714453125,8.80251953125,13.27746484375,14.762515625
-20.78596875,-13.27240234375,-15.72423828125,-2.19043359375,5.435078125,-3.83491796875,-8.2632421875,-11.254140625,6.43726953125,3.64023046875,3.3758515625,-5.0235703125,-5.46720703125,7.312015625,2.28148046875,3.60335546875,2.97769140625,1.661328125,11.61777734375,11.44641015625,10.82721875,9.686078125,14.3874296875,17.572828125,20.11245703125,14.817046875,23.17914453125,6.61651953125,12.68446484375,14.992515625
-7.71996875,-8.06340234375,-12.32823828125,-2.23743359375,3.493078125,-1.23891796875,-1.2602421875,-4.679140625,1.64626953125,3.08923046875,7.2138515625,1.6294296875,-3.73020703125,4.289015625,4.78748046875,6.41735546875,4.57669140625,-4.270671875,10.37377734375,11.91141015625,10.47421875,4.638078125,10.7624296875,17.205828125,19.63945703125,13.633046875,21.72014453125,3.23251953125,10.42446484375,12.804515625
8.12403125,-1.75040234375,-7.90923828125,-1.63443359375,-0.711921875,1.66508203125,5.5377578125,1.820859375,-4.65973046875,2.24523046875,10.8108515625,7.2964296875,-2.19020703125,0.982015624999999,7.59048046875,8.49735546875,5.17469140625,-7.961671875,9.41877734375,11.79641015625,8.57621875,-0.457921875,7.6064296875,16.402828125,17.48345703125,10.376046875,19.40914453125,-0.37548046875,7.51746484375,9.284515625
19.58403125,3.26259765625,-3.44923828125,-1.05343359375,-6.291921875,3.87708203125,10.4407578125,6.706859375,-10.68573046875,1.10223046875,13.1958515625,10.6064296875,-1.21520703125,-2.039984375,9.92548046875,9.35335546875,4.61469140625,-9.167671875,8.69477734375,11.26141015625,5.67221875,-4.422921875,5.3674296875,15.537828125,14.37945703125,6.088046875,16.90514453125,-3.54048046875,4.77246484375,5.423515625
21.00803125,5.24159765625,0.0677617187500004,-1.08743359375,-11.438921875,4.68208203125,12.3417578125,8.775859375,-14.63373046875,-0.13476953125,13.6248515625,10.7944296875,-0.74820703125,-4.246984375,11.12648046875,8.72735546875,2.99369140625,-8.528671875,7.90677734375,10.28541015625,2.32721875,-6.497921875,3.9824296875,14.593828125,10.85845703125,1.695046875,14.47614453125,-5.96648046875,2.60346484375,1.899515625
11.28603125,3.80359765625,1.89176171875,-1.88243359375,-14.279921875,3.88208203125,10.9657578125,7.566859375,-15.35973046875,-1.16176953125,11.8668515625,7.9114296875,-0.53820703125,-5.305984375,10.88248046875,6.71535546875,0.68169140625,-6.986671875,6.77277734375,8.76941015625,-0.976781249999999,-6.400921875,3.0904296875,13.278828125,7.19045703125,-2.187953125,12.07814453125,-7.65648046875,1.02546484375,-1.012484375
-5.45896875,-0.0464023437499999,1.70476171875,-3.06243359375,-13.734921875,1.77508203125,6.8187578125,3.520859375,-12.74173046875,-1.72976953125,8.2998515625,2.7414296875,-0.38020703125,-5.201984375,9.31248046875,3.73735546875,-1.79530859375,-5.273671875,5.17477734375,6.62941015625,-3.91578125,-4.343921875,2.2604296875,11.207828125,3.43545703125,-5.335953125,9.49914453125,-8.80348046875,-0.24353515625,-3.404484375
-21.81796875,-4.47340234375,-0.28823828125,-3.91043359375,-9.989921875,-1.06191796875,0.928757812500001,-2.198140625,-7.68273046875,-1.79176953125,3.7528515625,-3.4765703125,-0.22320703125,-4.287984375,6.83248046875,0.37935546875,-3.95630859375,-3.733671875,3.15177734375,3.84341015625,-6.33278125,-1.038921875,1.1364296875,8.079828125,-0.46354296875,-7.838953125,6.50414453125,-9.68748046875,-1.60553515625,-5.592484375
-30.65096875,-7.64240234375,-3.39623828125,-3.64943359375,-4.415921875,-3.98991796875,-5.4272421875,-8.089140625,-1.78973046875,-1.55576953125,-0.8191484375,-9.3885703125,-0.12120703125,-3.198984375,3.91948046875,-2.79464453125,-5.51930859375,-2.414671875,0.804777343750001,0.481410156250001,-8.16378125,2.406078125,-0.4715703125,3.829828125,-4.50454296875,-9.898953125,2.97714453125,-10.56648046875,-3.35953515625,-7.873484375
-28.49096875,-8.42940234375,-6.59623828125,-1.74643359375,1.047078125,-6.44991796875,-10.9492421875,-12.760140625,3.20326953125,-1.35976953125,-4.6191484375,-13.8025703125,-0.0982070312499999,-2.586984375,0.95648046875,-5.33064453125,-6.40130859375,-1.258671875,-1.74422265625,-3.22258984375,-9.29178125,4.820078125,-2.5225703125,-1.234171875,-8.44254296875,-11.564953125,-0.93385546875,-11.54248046875,-5.50253515625,-10.263484375
-17.17296875,-6.78640234375,-8.81523828125,1.77656640625,4.788078125,-8.02891796875,-14.5432421875,-15.273140625,6.10226953125,-1.39076953125,-7.1341484375,-15.9205703125,-0.0512070312499997,-2.781984375,-1.75851953125,-6.88064453125,-6.58630859375,-0.237671875,-4.27822265625,-6.78458984375,-9.46878125,5.455078125,-4.6925703125,-6.377171875,-11.69354296875,-12.580953125,-4.73385546875,-12.46148046875,-7.63953515625,-12.362484375
-2.85796875,-3.64540234375,-9.29123828125,6.15756640625,6.273078125,-8.44991796875,-15.5382421875,-15.350140625,6.71126953125,-1.43476953125,-8.1211484375,-15.5255703125,0.26179296875,-3.571984375,-3.89951953125,-7.20464453125,-6.03330859375,0.571328124999999,-6.40022265625,-9.49058984375,-8.43378125,4.361078125,-6.4265703125,-10.563171875,-13.46154296875,-12.480953125,-7.64885546875,-12.91848046875,-9.08153515625,-13.462484375
7.14403125,-0.45840234375,-7.91223828125,10.02656640625,6.195078125,-7.56491796875,-13.8582421875,-13.418140625,5.78126953125,-0.920769531249999,-7.5711484375,-13.0915703125,1.12779296875,-4.300984375,-5.07151953125,-6.25664453125,-4.73830859375,0.939328124999999,-7.58522265625,-10.63158984375,-6.19778125,2.318078125,-7.1525703125,-12.779171875,-13.10954296875,-10.925953125,-8.89685546875,-12.44548046875,-9.14753515625,-12.878484375
8.16503125,1.46059765625,-5.33123828125,11.87056640625,5.864078125,-5.41291796875,-10.0922421875,-10.466140625,4.42026953125,0.70723046875,-5.7321484375,-9.7135703125,2.68479296875,-4.275984375,-4.93351953125,-4.32364453125,-2.90430859375,0.509328125,-7.40622265625,-9.87258984375,-3.30578125,0.309078125,-6.5755703125,-12.469171875,-10.58454296875,-8.073953125,-8.06085546875,-10.81048046875,-7.53153515625,-10.349484375
0.57003125,1.48859765625,-2.74423828125,10.66056640625,6.197078125,-2.36691796875,-5.4142421875,-7.710140625,3.31526953125,3.49623046875,-3.1521484375,-6.7805703125,4.68279296875,-3.205984375,-3.43951953125,-2.07664453125,-1.04530859375,-0.975671875000002,-5.79522265625,-7.52258984375,-0.80578125,-1.045921875,-4.8475703125,-9.818171875,-6.60954296875,-4.694953125,-5.34985546875,-8.22148046875,-4.52553515625,-6.261484375
-10.58796875,-0.10640234375,-1.38123828125,6.36656640625,7.015078125,0.784082031250001,-1.3052421875,-6.155140625,2.32726953125,6.74423046875,-0.6331484375,-5.4855703125,6.38779296875,-1.399984375,-1.00851953125,-0.43164453125,0.12669140625,-3.367671875,-3.13922265625,-4.49758984375,0.16821875,-1.662921875,-2.4775703125,-5.732171875,-2.46154296875,-1.900953125,-1.56385546875,-5.27248046875,-0.93653515625,-1.547484375
-18.50296875,-2.43940234375,-1.97823828125,0.12056640625,7.166078125,2.99008203125,0.904757812500001,-6.230140625,0.731269531250001,9.19923046875,0.9378515625,-6.3635703125,6.86279296875,0.409015624999999,1.51448046875,-0.24164453125,0.0076914062500002,-5.998671875,-0.171222656249999,-1.97358984375,-1.04878125,-1.732921875,-0.0695703125000002,-1.489171875,0.55145703125,-0.639953125,2.20514453125,-2.66448046875,2.26846484375,2.680515625
-18.46196875,-4.55740234375,-4.51123828125,-6.09543359375,5.359078125,3.32208203125,0.4787578125,-7.713140625,-2.10673046875,9.61123046875,0.8488515625,-9.1315703125,5.54679296875,1.455015625,3.12248046875,-1.97664453125,-1.60230859375,-7.956671875,2.30177734375,-0.91658984375,-4.31378125,-1.376921875,1.9234296875,1.739828125,1.61645703125,-1.274953125,4.99114453125,-0.86348046875,4.37746484375,5.547515625
-10.35196875,-5.93940234375,-8.29923828125,-10.19643359375,1.107078125,1.34308203125,-2.5312421875,-9.961140625,-6.10573046875,7.36323046875,-1.2041484375,-12.9195703125,2.71879296875,1.340015625,3.02648046875,-5.56164453125,-4.39430859375,-8.523671875,3.70077734375,-1.75258984375,-8.76778125,-0.474921875,3.3314296875,3.304828125,0.67645703125,-3.457953125,6.29614453125,0.0945195312500001,5.19946484375,6.693515625
1.57303125,-6.64440234375,-12.36123828125,-10.82643359375,-4.835921875,-2.69491796875,-7.4062421875,-12.280140625,-10.29773046875,2.82823046875,-4.9891484375,-16.7325703125,-0.54120703125,0.253015625,0.97348046875,-10.40664453125,-7.69730859375,-7.416671875,3.91077734375,-4.25858984375,-13.23778125,1.264078125,4.2874296875,3.257828125,-1.64054296875,-6.318953125,6.25014453125,0.59651953125,5.09246484375,6.329515625
11.29903125,-7.10940234375,-15.82523828125,-7.84943359375,-10.755921875,-7.88791796875,-13.0642421875,-14.231140625,-13.18973046875,-2.70776953125,-9.7751484375,-19.8555703125,-2.87020703125,-1.094984375,-2.62251953125,-15.58864453125,-10.77230859375,-4.722671875,3.33477734375,-7.68858984375,-16.69778125,4.085078125,5.1584296875,2.257828125,-4.34554296875,-8.830953125,5.51714453125,1.25651953125,4.76046484375,5.095515625
14.29503125,-7.78740234375,-18.18623828125,-2.29043359375,-14.725921875,-12.93691796875,-18.3962421875,-15.710140625,-13.47173046875,-7.55476953125,-14.5401484375,-22.0195703125,-3.25920703125,-1.795984375,-6.80951953125,-20.10964453125,-13.06930859375,-0.732671875000001,2.70277734375,-11.05858984375,-18.57578125,7.921078125,6.3954296875,1.255828125,-6.48054296875,-10.195953125,4.99414453125,2.62951953125,4.93946484375,3.793515625
9.48903125,-8.86740234375,-19.34023828125,4.11756640625,-15.423921875,-16.57691796875,-22.5602421875,-16.832140625,-10.70573046875,-10.29176953125,-18.2861484375,-23.3145703125,-1.43520703125,-1.198984375,-10.45151953125,-23.15464453125,-14.34230859375,4.135328125,2.69977734375,-13.47758984375,-18.84078125,12.211078125,8.3084296875,1.074828125,-7.44754296875,-10.108953125,5.40614453125,4.93951953125,6.08046484375,3.088515625
-0.81796875,-10.21640234375,-19.45923828125,9.49056640625,-12.629921875,-18.03291796875,-25.1542421875,-17.678140625,-5.62373046875,-10.32376953125,-20.3461484375,-23.9595703125,2.15379296875,0.728015624999999,-12.65451953125,-24.27164453125,-14.61730859375,9.258328125,3.59277734375,-14.43058984375,-17.88678125,15.977078125,10.8534296875,2.062828125,-7.13954296875,-8.820953125,6.98914453125,7.94251953125,8.16146484375,3.281515625
-12.60396875,-11.52940234375,-18.80123828125,12.30356640625,-7.241921875,-17.28191796875,-26.2042421875,-18.113140625,0.15826953125,-8.06176953125,-20.5671484375,-24.0695703125,6.57379296875,3.326015625,-13.09251953125,-23.43264453125,-14.05530859375,13.738328125,5.05577734375,-13.90558984375,-16.27778125,18.197078125,13.5524296875,3.971828125,-5.87954296875,-6.970953125,9.38614453125,10.97951953125,10.69646484375,4.231515625
-22.13496875,-12.51540234375,-17.59023828125,11.81456640625,-0.891921875,-14.96891796875,-25.9782421875,-17.762140625,4.84626953125,-4.70176953125,-19.2921484375,-23.5465703125,10.68979296875,5.506015625,-12.09351953125,-20.95664453125,-12.82430859375,16.483328125,6.29577734375,-12.32358984375,-14.48578125,18.276078125,15.6004296875,6.098828125,-4.21254296875,-5.267953125,11.80614453125,13.19951953125,12.92646484375,5.465515625
-27.22196875,-12.96040234375,-15.95823828125,8.30756640625,4.618078125,-12.05591796875,-24.7632421875,-16.206140625,7.18826953125,-1.69676953125,-17.1531484375,-22.1275703125,13.40479296875,6.226015625,-10.45451953125,-17.35464453125,-11.03330859375,16.537328125,6.42777734375,-10.31958984375,-12.72378125,16.307078125,16.1404296875,7.608828125,-2.66454296875,-4.191953125,13.36914453125,13.86151953125,14.11846484375,6.401515625
-27.40196875,-12.63940234375,-13.93523828125,3.04456640625,7.802078125,-9.42891796875,-22.7502421875,-13.234140625,6.81426953125,-0.16476953125,-14.7501484375,-19.5635703125,13.89079296875,4.963015625,-9.03951953125,-13.16064453125,-8.74730859375,13.566328125,4.92277734375,-8.45458984375,-10.92478125,12.965078125,14.6184296875,7.904828125,-1.54954296875,-3.834953125,13.48414453125,12.59951953125,13.85346484375,6.613515625
-23.38996875,-11.22040234375,-11.45823828125,-2.13843359375,7.844078125,-7.57891796875,-20.0422421875,-9.015140625,4.17526953125,-0.46576953125,-12.3901484375,-15.8025703125,11.83179296875,1.961015625,-8.34651953125,-8.78964453125,-6.04830859375,8.204328125,1.92077734375,-6.98358984375,-8.84378125,9.217078125,11.0604296875,6.881828125,-0.88054296875,-3.927953125,12.08814453125,9.55051953125,12.18446484375,5.995515625
-16.41596875,-8.36240234375,-8.43323828125,-5.44643359375,4.823078125,-6.46391796875,-16.6992421875,-4.087140625,0.24026953125,-2.11276953125,-9.9991484375,-11.0915703125,7.63879296875,-1.873984375,-8.24551953125,-4.47864453125,-3.09730859375,1.924328125,-1.77822265625,-5.78158984375,-6.23778125,5.968078125,6.1204296875,4.963828125,-0.42154296875,-4.033953125,9.62814453125,5.29451953125,9.57646484375,4.760515625
-7.82596875,-3.99440234375,-4.88923828125,-5.73943359375,-0.237921875000001,-5.61391796875,-12.8232421875,0.792859375,-3.82973046875,-4.05176953125,-7.2711484375,-5.9615703125,2.46179296875,-5.377984375,-8.05851953125,-0.31764453125,-0.14830859375,-3.630671875,-5.05422265625,-4.48758984375,-3.06678125,3.743078125,0.8144296875,2.880828125,0.13945703125,-3.789953125,6.79614453125,0.61551953125,6.65946484375,3.277515625
1.03903125,1.40459765625,-1.10723828125,-2.93143359375,-5.603921875,-4.45691796875,-8.6652421875,4.847859375,-6.94773046875,-5.17176953125,-3.9571484375,-1.1405703125,-2.16020703125,-7.639984375,-6.96651953125,3.61735546875,2.49569140625,-7.410671875,-6.98422265625,-2.76958984375,0.37221875,2.450078125,-3.8855703125,1.302828125,0.97545703125,-3.101953125,4.18514453125,-3.79548046875,3.94746484375,1.860515625
8.80803125,6.78559765625,2.35676171875,1.98456640625,-9.371921875,-2.69491796875,-4.6982421875,7.442859375,-8.36373046875,-4.81576953125,-0.1291484375,2.6054296875,-4.93120703125,-8.348984375,-4.52251953125,7.13135546875,4.55469140625,-9.306671875,-7.23922265625,-0.58758984375,3.44721875,1.413078125,-7.3845703125,0.519828125,1.99245703125,-2.177953125,2.05714453125,-7.52848046875,1.67246484375,0.655515625
14.09803125,10.80759765625,4.82176171875,7.28056640625,-10.193921875,-0.51191796875,-1.5742421875,8.189859375,-7.90673046875,-3.07076953125,3.7098515625,4.6614296875,-5.38720703125,-7.842984375,-0.98451953125,9.85035546875,5.81769140625,-9.896671875,-6.17222265625,1.71741015625,5.37921875,-0.234921875,-9.5415703125,0.353828125,2.86345703125,-1.386953125,0.34714453125,-10.43448046875,-0.16153515625,-0.325484375
15.65603125,12.28459765625,5.71076171875,11.02656640625,-7.911921875,1.47608203125,0.0347578125000005,6.979859375,-6.12373046875,-0.73776953125,6.7158515625,4.6904296875,-4.13220703125,-6.861984375,2.69248046875,11.28935546875,6.12469140625,-9.854671875,-4.59422265625,3.53641015625,5.57421875,-2.933921875,-10.5005703125,0.332828125,3.22245703125,-1.005953125,-1.12785546875,-12.44348046875,-1.58453515625,-1.066484375
12.65403125,10.56959765625,4.73476171875,11.57456640625,-3.757921875,2.44008203125,-0.3782421875,3.953859375,-4.15573046875,1.00823046875,7.9368515625,2.6654296875,-2.56520703125,-6.165984375,5.19848046875,11.01435546875,5.35069140625,-9.473671875,-3.36422265625,4.25041015625,3.95221875,-6.247921875,-10.4485703125,-0.00417187500000016,2.89845703125,-1.000953125,-2.40985546875,-13.39348046875,-2.49053515625,-1.413484375
5.07003125,5.77159765625,1.96576171875,7.94856640625,0.0490781249999994,1.59808203125,-2.9892421875,-0.528140625,-3.33073046875,1.08623046875,6.6218515625,-1.1735703125,-2.15720703125,-6.238984375,5.37148046875,8.82935546875,3.44569140625,-8.628671875,-3.04422265625,3.50441015625,1.07221875,-8.976921875,-9.5045703125,-0.854171875,2.05445703125,-0.995953125,-3.29185546875,-13.03448046875,-2.63553515625,-1.088484375
-5.92896875,-1.23940234375,-2.20723828125,0.21556640625,1.166078125,-1.49991796875,-7.5402421875,-5.905140625,-4.66973046875,-1.12276953125,2.4888515625,-6.3405703125,-3.62420703125,-7.224984375,2.65148046875,4.90535546875,0.54669140625,-7.184671875,-3.78322265625,1.34141015625,-2.06778125,-9.880921875,-7.8155703125,-2.110171875,1.10645703125,-0.487953125,-3.45385546875,-11.25148046875,-1.82953515625,0.138515625
-17.84796875,-9.02340234375,-7.19223828125,-10.28543359375,-1.946921875,-6.78691796875,-13.3352421875,-11.447140625,-8.54373046875,-5.64176953125,-4.1091484375,-12.1225703125,-6.50320703125,-9.076984375,-2.70351953125,-0.23264453125,-2.96230859375,-5.482671875,-5.42822265625,-1.84958984375,-4.50078125,-8.501921875,-5.7585703125,-3.520171875,0.46345703125,0.785046875,-2.76385546875,-8.31848046875,-0.18253515625,2.201515625
-27.30596875,-15.96340234375,-12.33723828125,-21.12143359375,-9.413921875,-13.64591796875,-19.4172421875,-16.362140625,-14.61373046875,-11.95576953125,-12.2021484375,-17.6515703125,-9.47920703125,-11.710984375,-9.68651953125,-5.86464453125,-6.52630859375,-4.409671875,-7.70622265625,-5.53158984375,-5.77178125,-5.467921875,-3.9935703125,-4.887171875,0.23945703125,2.562046875,-1.49985546875,-4.95748046875,1.80846484375,4.598515625
-31.26696875,-20.75140234375,-16.98323828125,-29.46243359375,-19.780921875,-21.03991796875,-24.8272421875,-19.934140625,-21.92373046875,-19.09476953125,-20.3691484375,-22.0775703125,-11.21920703125,-14.966984375,-16.81951953125,-11.28964453125,-9.62430859375,-4.877671875,-10.32122265625,-9.22258984375,-6.13478125,-2.057921875,-3.2435703125,-6.174171875,0.14145703125,4.079046875,-0.31285546875,-2.09648046875,3.42246484375,6.504515625
-28.59996875,-22.75340234375,-20.43523828125,-33.03143359375,-30.288921875,-27.65491796875,-28.7522421875,-21.649140625,-28.99073046875,-25.70476953125,-27.0141484375,-24.7525703125,-11.10720703125,-18.410984375,-22.51751953125,-15.97664453125,-11.94730859375,-7.058671875,-12.90322265625,-12.59658984375,-6.37278125,0.603078125,-3.8985703125,-7.455171875,-0.40654296875,4.389046875,0.07314453125,-0.45148046875,4.04946484375,7.112515625
-20.93096875,-22.06040234375,-21.95223828125,-30.84143359375,-37.584921875,-32.05091796875,-30.5302421875,-21.259140625,-33.94173046875,-30.20176953125,-30.6901484375,-25.3365703125,-9.38620703125,-21.205984375,-25.47151953125,-19.58264453125,-13.46830859375,-10.043671875,-14.97922265625,-15.49158984375,-7.37078125,2.111078125,-5.7445703125,-8.811171875,-2.00054296875,2.808046875,-0.82285546875,-0.23648046875,3.46246484375,5.989515625
-11.89096875,-19.19840234375,-20.87623828125,-23.42543359375,-38.851921875,-32.92691796875,-29.6342421875,-18.775140625,-34.91873046875,-31.15476953125,-30.4591484375,-23.8085703125,-6.71320703125,-22.303984375,-24.99351953125,-21.89364453125,-14.36630859375,-12.268671875,-16.07522265625,-17.89158984375,-9.69178125,2.766078125,-8.0345703125,-10.286171875,-5.02354296875,-0.776953124999999,-3.07085546875,-1.16348046875,1.86046484375,3.269515625
-5.01396875,-14.68740234375,-16.88823828125,-12.53543359375,-32.992921875,-29.52891796875,-25.8032421875,-14.443140625,-30.78373046875,-27.81476953125,-26.1711484375,-20.4175703125,-3.59020703125,-20.891984375,-21.23751953125,-22.76064453125,-14.87030859375,-12.394671875,-15.91022265625,-19.89558984375,-13.33578125,3.130078125,-9.8505703125,-11.897171875,-9.51254296875,-5.852953125,-6.35785546875,-2.66848046875,-0.28053515625,-0.424484375
-1.64896875,-8.78140234375,-10.23323828125,-0.47943359375,-21.237921875,-21.99891796875,-19.2372421875,-8.692140625,-21.78873046875,-20.46876953125,-18.5501484375,-15.6185703125,-0.10220703125,-16.802984375,-15.13251953125,-22.07764453125,-15.10430859375,-9.971671875,-14.50622265625,-21.62258984375,-17.72978125,3.604078125,-10.4785703125,-13.614171875,-15.11654296875,-11.476953125,-10.09485546875,-4.16248046875,-2.41053515625,-4.215484375
-0.35896875,-1.58040234375,-1.77123828125,10.61656640625,-6.714921875,-11.42091796875,-10.6992421875,-2.107140625,-9.67773046875,-10.40676953125,-9.0041484375,-10.0165703125,3.89679296875,-10.611984375,-8.01051953125,-19.81464453125,-15.01930859375,-5.513671875,-12.11322265625,-23.08458984375,-21.94778125,4.313078125,-9.5985703125,-15.288171875,-21.12654296875,-16.592953125,-13.53785546875,-5.16448046875,-4.04253515625,-7.263484375
1.77503125,6.57759765625,7.16376171875,19.30756640625,6.873078125,0.43508203125,-1.4482421875,4.561859375,2.88126953125,0.51223046875,0.7418515625,-4.3225703125,8.34379296875,-3.399984375,-1.12751953125,-16.11564453125,-14.45530859375,-0.103671875,-9.03322265625,-24.09458984375,-25.03978125,5.258078125,-7.2795703125,-16.590171875,-26.59654296875,-20.345953125,-15.91885546875,-5.32948046875,-4.81053515625,-8.993484375
6.84803125,14.75659765625,15.03776171875,24.94456640625,16.734078125,11.52308203125,6.9337578125,10.397859375,13.25326953125,10.44323046875,9.0508515625,0.682429687499999,12.65079296875,3.616015625,4.66748046875,-11.40764453125,-13.28830859375,5.096328125,-5.52022265625,-24.32658984375,-26.36978125,6.480078125,-3.8925703125,-17.070171875,-30.56654296875,-22.288953125,-16.63585546875,-4.49148046875,-4.52853515625,-9.237484375
14.41503125,21.44859765625,20.48476171875,27.48656640625,21.890078125,19.95508203125,12.8227578125,14.434859375,19.65426953125,18.03123046875,14.6788515625,4.2224296875,15.79279296875,9.374015625,8.98848046875,-6.43164453125,-11.53530859375,9.175328125,-1.82222265625,-23.48458984375,-25.81378125,8.049078125,-0.0305703125000001,-16.349171875,-32.33454296875,-22.438953125,-15.46985546875,-2.73548046875,-3.26153515625,-8.240484375
21.52203125,25.06159765625,22.65476171875,27.25556640625,23.089078125,24.40808203125,14.9537578125,15.921859375,21.51126953125,22.59923046875,16.9698515625,5.6924296875,16.78079296875,13.107015625,11.77048046875,-2.10364453125,-9.35430859375,11.560328125,1.71877734375,-21.49558984375,-23.76078125,9.890078125,3.5744296875,-14.322171875,-31.66754296875,-21.185953125,-12.70485546875,-0.46448046875,-1.36553515625,-6.551484375
24.56903125,24.67059765625,21.42176171875,24.74156640625,21.930078125,24.43508203125,12.8567578125,14.635859375,19.34926953125,24.06923046875,15.9208515625,4.8654296875,15.20979296875,14.375015625,13.10148046875,0.77935546875,-6.96430859375,11.980328125,4.62377734375,-18.57658984375,-20.90278125,11.576078125,6.1814296875,-11.255171875,-28.84854296875,-19.096953125,-9.06285546875,1.65151953125,0.581464843750001,-4.806484375
21.75103125,20.57759765625,17.37876171875,20.47456640625,19.717078125,20.49408203125,7.0857578125,11.045859375,14.35326953125,22.73323046875,12.1538515625,2.0244296875,11.50679296875,13.090015625,13.10348046875,1.82835546875,-4.56630859375,10.425328125,6.38977734375,-15.17258984375,-17.93378125,12.320078125,7.2354296875,-7.700171875,-24.54054296875,-16.691953125,-5.42885546875,2.87151953125,1.97246484375,-3.505484375
14.39903125,14.30259765625,11.60276171875,14.92556640625,16.725078125,13.68808203125,-0.8972421875,6.193859375,7.88926953125,19.02423046875,6.7288515625,-2.0995703125,6.69779296875,9.528015625,11.87348046875,1.19435546875,-2.35130859375,7.170328125,6.66977734375,-11.79258984375,-15.27878125,11.270078125,6.5714296875,-4.291171875,-19.53154296875,-14.269953125,-2.51285546875,2.68051953125,2.41646484375,-2.857484375
6.21003125,7.90159765625,5.29876171875,8.53256640625,12.308078125,5.37908203125,-9.1692421875,1.321859375,1.16326953125,13.40523046875,0.8388515625,-6.5485703125,1.87079296875,4.312015625,9.48348046875,-0.53664453125,-0.50630859375,2.830328125,5.43677734375,-8.87558984375,-12.99478125,8.042078125,4.5024296875,-1.528171875,-14.50854296875,-11.855953125,-0.61385546875,1.01951953125,1.89746484375,-2.741484375
0.85903125,2.96159765625,-0.51223828125,1.83456640625,5.729078125,-3.12791796875,-15.9262421875,-2.551140625,-4.92773046875,6.38723046875,-4.5161484375,-10.4175703125,-2.29120703125,-1.703984375,6.00148046875,-2.62064453125,0.81869140625,-1.702671875,2.98077734375,-6.72558984375,-10.89478125,3.154078125,1.7054296875,0.328828125,-9.94354296875,-9.284953125,0.37614453125,-1.66448046875,0.74746484375,-2.820484375
-0.38996875,-0.11340234375,-5.16223828125,-4.43743359375,-2.941921875,-10.79391796875,-20.0142421875,-4.906140625,-9.85673046875,-1.40776953125,-8.7681484375,-13.0685703125,-5.60320703125,-7.677984375,1.54848046875,-4.44664453125,1.57969140625,-5.530671875,-0.25422265625,-5.53958984375,-8.79478125,-2.053921875,-1.1005703125,1.215828125,-6.13254296875,-6.394953125,0.76614453125,-4.62948046875,-0.54953515625,-2.731484375
0.53103125,-2.11640234375,-8.34623828125,-9.46143359375,-12.513921875,-16.96791796875,-21.2402421875,-5.749140625,-13.50573046875,-9.24476953125,-11.8331484375,-14.2245703125,-8.12320703125,-13.062984375,-3.66051953125,-5.74264453125,1.84869140625,-8.151671875,-3.94322265625,-5.48058984375,-6.73778125,-6.093921875,-3.5475703125,1.115828125,-3.31154296875,-3.211953125,0.77714453125,-7.20348046875,-1.62953515625,-2.298484375
-0.14396875,-4.37340234375,-10.04623828125,-12.59043359375,-21.156921875,-21.42291796875,-20.3312421875,-5.445140625,-16.08173046875,-16.42776953125,-14.0091484375,-13.9765703125,-9.87420703125,-17.778984375,-9.31851953125,-6.62264453125,1.72569140625,-9.746671875,-8.05822265625,-6.71158984375,-5.04478125,-8.160921875,-5.8575703125,-0.0641718750000002,-1.74654296875,-0.0479531249999994,0.37814453125,-9.09948046875,-2.41153515625,-1.650484375
-5.41496875,-7.84240234375,-10.49023828125,-13.59443359375,-27.293921875,-24.28791796875,-18.5292421875,-4.493140625,-17.92173046875,-22.52376953125,-15.7691484375,-12.6935703125,-10.78620703125,-22.143984375,-15.03951953125,-7.46464453125,1.23969140625,-11.102671875,-12.81722265625,-9.35058984375,-4.17078125,-8.512921875,-8.7045703125,-2.472171875,-1.71154296875,2.557046875,-0.67985546875,-10.47148046875,-3.06953515625,-1.157484375
-15.40396875,-12.49640234375,-10.13223828125,-12.76243359375,-30.351921875,-25.92291796875,-17.0332421875,-3.383140625,-19.29373046875,-27.50476953125,-17.5451484375,-10.9165703125,-10.83320703125,-26.580984375,-20.41051953125,-8.69464453125,0.32269140625,-13.184671875,-18.40522265625,-13.34058984375,-4.47678125,-8.183921875,-12.7635703125,-6.126171875,-3.33054296875,4.023046875,-2.60985546875,-11.69148046875,-3.82553515625,-1.224484375
-27.03296875,-17.28040234375,-9.59223828125,-10.81443359375,-30.935921875,-26.79591796875,-16.5672421875,-2.555140625,-20.34773046875,-31.64976953125,-19.5191484375,-9.2535703125,-10.12520703125,-31.229984375,-25.01051953125,-10.56164453125,-1.10230859375,-16.560671875,-24.61122265625,-18.29558984375,-6.00878125,-8.290921875,-18.1625703125,-10.700171875,-6.37154296875,3.985046875,-5.30785546875,-13.01148046875,-4.70453515625,-2.035484375
-35.63796875,-20.62940234375,-9.45323828125,-8.63043359375,-30.352921875,-27.27691796875,-17.1932421875,-2.361140625,-21.10873046875,-35.17876953125,-21.4921484375,-8.2385703125,-8.86420703125,-35.642984375,-28.36651953125,-12.94864453125,-2.96830859375,-20.950671875,-30.58722265625,-23.38958984375,-8.37378125,-9.404921875,-24.1335703125,-15.400171875,-10.10154296875,2.529046875,-8.18585546875,-14.30848046875,-5.40853515625,-3.360484375
-37.49696875,-21.21340234375,-9.96123828125,-6.85143359375,-29.720921875,-27.36191796875,-18.3482421875,-2.958140625,-21.37673046875,-37.78676953125,-22.8501484375,-8.1465703125,-7.19620703125,-38.683984375,-29.86451953125,-15.28164453125,-4.93730859375,-25.110671875,-34.87522265625,-27.39858984375,-10.74078125,-11.270921875,-29.0635703125,-19.000171875,-13.31554296875,0.290046875,-10.22385546875,-15.05648046875,-5.36553515625,-4.528484375
-31.76796875,-18.53140234375,-10.81123828125,-5.55143359375,-29.180921875,-26.47691796875,-19.0712421875,-4.176140625,-20.57273046875,-38.42976953125,-22.7161484375,-8.8165703125,-5.12620703125,-38.758984375,-28.74851953125,-16.60764453125,-6.39930859375,-27.135671875,-35.75922265625,-28.92758984375,-11.98678125,-12.969921875,-30.9485703125,-20.100171875,-14.59054296875,-1.646953125,-10.25885546875,-14.51248046875,-3.92853515625,-4.598484375
-20.75996875,-13.09440234375,-11.21223828125,-4.20643359375,-27.732921875,-23.67991796875,-18.4072421875,-5.489140625,-17.81073046875,-35.61176953125,-20.3071484375,-9.6245703125,-2.57520703125,-34.387984375,-24.38451953125,-15.89564453125,-6.64530859375,-25.114671875,-31.88222265625,-26.85858984375,-11.01178125,-13.369921875,-28.1345703125,-17.558171875,-12.72654296875,-2.071953125,-7.39985546875,-12.06148046875,-0.65153515625,-2.706484375
-8.44196875,-6.15740234375,-10.29523828125,-2.04243359375,-23.890921875,-18.24091796875,-15.8692421875,-6.185140625,-12.38273046875,-28.19876953125,-15.3831484375,-9.6795703125,0.48379296875,-24.969984375,-16.70751953125,-12.48564453125,-5.15130859375,-17.960671875,-22.91822265625,-20.84458984375,-7.14778125,-11.679921875,-20.0515703125,-11.006171875,-7.25554296875,-0.117953125,-1.46485546875,-7.58448046875,4.43346484375,1.494515625
1.79903125,0.82559765625,-7.59923828125,1.47556640625,-16.737921875,-10.23991796875,-11.6752421875,-5.630140625,-4.38873046875,-16.28976953125,-8.5091484375,-8.1905703125,3.94479296875,-11.378984375,-6.60051953125,-6.46664453125,-1.84730859375,-6.104671875,-9.97422265625,-11.62358984375,-0.51878125,-7.830921875,-7.6485703125,-1.202171875,1.22645703125,4.315046875,6.76714453125,-1.66648046875,10.65846484375,7.517515625
8.69403125,6.73159765625,-3.34023828125,6.32156640625,-6.685921875,-0.725917968749999,-6.5732421875,-3.480140625,4.96426953125,-1.56476953125,-0.9151484375,-4.7845703125,7.61879296875,4.024015625,4.18948046875,1.27135546875,2.78669140625,8.333328125,4.55977734375,-0.89858984375,7.86821875,-2.537921875,6.7284296875,10.042828125,11.12045703125,10.407046875,15.65214453125,4.48851953125,16.79546484375,14.059515625
13.04903125,11.06159765625,1.74476171875,11.88756640625,4.568078125,8.68008203125,-1.3872421875,0.291859375,13.73326953125,13.23323046875,6.0478515625,0.364429687499999,11.35779296875,18.106015625,13.63948046875,9.36735546875,7.84669140625,22.101328125,17.75577734375,9.22841015625,16.37521875,3.034078125,20.0494296875,20.402828125,20.32045703125,16.644046875,23.17814453125,9.48451953125,21.42846484375,19.408515625
16.43603125,13.94059765625,6.84176171875,17.24456640625,14.839078125,16.48308203125,3.4127578125,5.478859375,20.09026953125,25.42823046875,11.5188515625,6.6194296875,15.08979296875,28.137015625,20.27648046875,16.52735546875,12.32269140625,32.011328125,27.15877734375,17.00841015625,23.25221875,7.822078125,29.6234296875,27.840828125,26.94045703125,21.340046875,27.68914453125,12.30251953125,23.47946484375,22.121515625
19.73003125,15.87959765625,11.46376171875,21.50456640625,22.446078125,21.91008203125,7.8007578125,11.726859375,23.12126953125,33.46423046875,15.4198515625,13.1114296875,18.68779296875,32.796015625,23.72348046875,21.92935546875,15.44869140625,36.237328125,31.58977734375,21.58441015625,27.15421875,11.385078125,33.9904296875,31.254828125,29.91245703125,23.212046875,28.46514453125,12.72751953125,22.64346484375,21.600515625
22.52203125,17.45059765625,15.54576171875,24.09256640625,26.802078125,25.05308203125,11.9457578125,18.547859375,23.11726953125,37.26423046875,18.2408515625,18.9584296875,21.80179296875,32.481015625,24.64348046875,25.30535546875,16.90269140625,35.016328125,31.33177734375,23.03541015625,27.47221875,14.052078125,33.2504296875,30.666828125,29.17845703125,21.750046875,25.87514453125,11.37351953125,19.47746484375,18.279515625
23.61003125,18.99359765625,19.21076171875,24.77656640625,28.327078125,26.51908203125,15.8207578125,25.282859375,21.24026953125,37.79923046875,20.4858515625,23.4334296875,23.84879296875,28.814015625,24.15548046875,26.72535546875,16.78569140625,30.280328125,27.68777734375,21.97741015625,24.37821875,16.565078125,28.7324296875,26.907828125,25.44045703125,17.286046875,21.03514453125,9.29751953125,15.08546484375,13.324515625
21.94103125,20.44959765625,22.46276171875,23.52656640625,27.889078125,26.85608203125,18.9687578125,31.124859375,18.80826953125,36.25123046875,22.1878515625,26.0494296875,24.19079296875,23.687015625,23.10848046875,26.29535546875,15.42869140625,24.458328125,22.20277734375,19.03941015625,18.67021875,19.413078125,22.2084296875,21.047828125,19.68845703125,10.796046875,15.20514453125,7.41151953125,10.59046484375,8.046515625
17.29203125,21.38459765625,25.03276171875,20.35856640625,26.176078125,26.15508203125,20.6207578125,35.258859375,16.60026953125,33.30223046875,22.7738515625,26.5994296875,22.38179296875,18.384015625,21.65548046875,24.00335546875,13.19369140625,19.185328125,16.00277734375,14.52741015625,11.50721875,22.273078125,15.1024296875,13.926828125,12.77745703125,3.572046875,9.26714453125,6.05151953125,6.69246484375,3.374515625
10.38803125,21.17359765625,26.45576171875,15.31756640625,23.275078125,24.02608203125,20.0417578125,37.069859375,14.45126953125,28.85023046875,21.3148515625,25.1244296875,18.32279296875,13.146015625,19.25148046875,19.74335546875,10.38569140625,14.662328125,9.48377734375,8.41141015625,4.06521875,23.959078125,8.0554296875,5.978828125,5.21845703125,-3.146953125,3.51314453125,4.89451953125,3.50246484375,-0.382484375
2.65103125,19.27159765625,26.24476171875,8.53956640625,18.555078125,19.82208203125,16.8217578125,36.291859375,11.26926953125,22.16223046875,16.9498515625,21.8114296875,12.29179296875,7.259015625,14.97648046875,13.46435546875,7.26069140625,9.892328125,2.40377734375,0.558410156250001,-2.80578125,22.925078125,0.9664296875,-2.637171875,-2.78854296875,-8.507953125,-2.21685546875,3.23551953125,0.68446484375,-3.444484375
-4.19096875,15.43359765625,24.02376171875,0.29256640625,10.899078125,12.91808203125,10.9537578125,33.047859375,5.47226953125,12.32023046875,9.2918515625,16.8834296875,4.87279296875,-0.450984375000001,7.97348046875,5.32635546875,4.06769140625,3.541328125,-5.74822265625,-8.95658984375,-8.76378125,18.099078125,-6.5995703125,-11.749171875,-11.12354296875,-12.220953125,-8.15385546875,0.43951953125,-2.21253515625,-6.240484375
-8.61096875,9.81359765625,19.64776171875,-8.98443359375,-0.692921875000001,2.98608203125,2.7967578125,27.809859375,-4.22573046875,-1.18276953125,-1.3391484375,10.5794296875,-3.20020703125,-10.909984375,-2.13851953125,-4.17364453125,1.05269140625,-5.109671875,-15.24622265625,-19.58158984375,-13.85478125,9.588078125,-14.8585703125,-20.879171875,-19.44454296875,-14.495953125,-14.19285546875,-3.64448046875,-5.39053515625,-9.049484375
-9.90996875,2.92259765625,13.32476171875,-18.62043359375,-16.335921875,-9.70391796875,-6.9162421875,21.335859375,-17.94473046875,-17.91776953125,-13.8771484375,3.2884296875,-11.21220703125,-24.137984375,-14.95451953125,-14.15364453125,-1.56430859375,-15.591671875,-25.73622265625,-30.21258984375,-18.17478125,-1.134921875,-23.4255703125,-29.132171875,-26.99954296875,-15.766953125,-19.70085546875,-8.50848046875,-8.59153515625,-11.765484375
-8.71296875,-4.49040234375,5.72976171875,-27.68343359375,-34.724921875,-24.05991796875,-17.0672421875,14.562859375,-34.10373046875,-36.26476953125,-26.7011484375,-4.3275703125,-18.53620703125,-38.908984375,-29.18551953125,-23.45264453125,-3.61630859375,-26.333671875,-36.13822265625,-39.39058984375,-21.59878125,-11.759921875,-31.2955703125,-35.366171875,-32.71454296875,-16.383953125,-23.67785546875,-13.15348046875,-11.16553515625,-13.905484375
-6.88096875,-11.57840234375,-2.03323828125,-35.10143359375,-53.144921875,-38.17891796875,-26.2502421875,8.447859375,-49.57773046875,-53.58476953125,-37.9811484375,-11.3545703125,-24.58620703125,-52.899984375,-42.82051953125,-30.89064453125,-5.02230859375,-35.274671875,-44.89622265625,-45.72458984375,-23.77078125,-20.075921875,-37.2005703125,-38.589171875,-35.57454296875,-16.444953125,-25.21885546875,-16.53048046875,-12.40553515625,-14.863484375
-6.69596875,-17.54440234375,-8.65223828125,-39.89343359375,-68.048921875,-49.63891796875,-33.0412421875,3.774859375,-60.52273046875,-66.78576953125,-46.0511484375,-16.8485703125,-28.74520703125,-63.266984375,-53.51351953125,-35.59064453125,-5.82530859375,-40.639671875,-50.43422265625,-48.34658984375,-24.35778125,-24.758921875,-40.1105703125,-38.366171875,-35.09554296875,-15.847953125,-24.00085546875,-18.01048046875,-11.94253515625,-14.253484375
-9.79696875,-21.79440234375,-12.95823828125,-41.36943359375,-75.956921875,-55.96091796875,-36.2702421875,1.018859375,-63.49573046875,-73.10476953125,-49.7161484375,-20.1045703125,-30.39920703125,-67.427984375,-59.08651953125,-37.19864453125,-6.20430859375,-41.490671875,-51.59522265625,-47.16358984375,-23.33878125,-25.602921875,-39.5995703125,-34.978171875,-31.60054296875,-14.459953125,-20.50885546875,-17.63048046875,-9.97653515625,-12.134484375
-16.56496875,-24.06440234375,-14.24523828125,-39.21643359375,-74.390921875,-55.17491796875,-35.2312421875,0.297859375,-56.41473046875,-70.86076953125,-48.4441484375,-20.8445703125,-29.11520703125,-63.790984375,-58.06251953125,-35.90664453125,-6.44330859375,-37.860671875,-47.92322265625,-42.76658984375,-21.08778125,-23.213921875,-35.9075703125,-29.251171875,-26.08454296875,-12.276953125,-15.82685546875,-15.98548046875,-7.16953515625,-8.983484375
-26.28796875,-24.47540234375,-12.46123828125,-33.54843359375,-62.648921875,-46.48791796875,-29.8482421875,1.398859375,-39.14073046875,-59.95676953125,-42.4661484375,-19.2445703125,-24.86320703125,-52.232984375,-50.13451953125,-32.28464453125,-6.82730859375,-30.547671875,-39.74522265625,-36.10558984375,-18.18878125,-18.528921875,-29.7365703125,-22.165171875,-19.73254296875,-9.455953125,-11.11285546875,-13.85848046875,-4.29553515625,-5.434484375
-37.79196875,-23.48040234375,-8.21123828125,-25.01143359375,-42.274921875,-30.87491796875,-20.8382421875,3.848859375,-13.60973046875,-42.03476953125,-32.7871484375,-15.8605703125,-18.15920703125,-34.242984375,-36.44351953125,-27.07964453125,-7.50030859375,-20.749671875,-28.10422265625,-28.12158984375,-15.11878125,-12.469921875,-21.9625703125,-14.484171875,-13.37954296875,-6.225953125,-7.03985546875,-11.81648046875,-1.83253515625,-1.949484375
-49.98596875,-21.75540234375,-2.62223828125,-14.83043359375,-16.985921875,-11.21591796875,-9.7562421875,6.993859375,16.46926953125,-20.23576953125,-21.0961484375,-11.5205703125,-10.05020703125,-12.696984375,-19.50751953125,-21.08764453125,-8.38530859375,-9.783671875,-14.60422265625,-19.56358984375,-12.05878125,-5.851921875,-13.4345703125,-6.619171875,-7.24354296875,-2.783953125,-3.55685546875,-10.01148046875,0.22746484375,1.357515625
-49.98596875,-21.75540234375,-2.62223828125,-14.83043359375,-16.985921875,-11.21591796875,-9.7562421875,6.993859375,16.46926953125,-20.23576953125,-21.0961484375,-11.5205703125,-10.05020703125,-12.696984375,-19.50751953125,-21.08764453125,-8.38530859375,-9.783671875,-14.60422265625,-19.56358984375,-12.05878125,-5.851921875,-13.4345703125,-6.619171875,-7.24354296875,-2.783953125,-3.55685546875,-10.01148046875,0.22746484375,1.357515625
