"Fp1","Fpz","Fp2","F7","F3","Fz","F4","F8","FC5","FC1","FC2","FC6","T7","C3","Cz","C4","T8","CP5","CP1","CP2","CP6","P7","P3","Pz","P4","P8","POz","O1","Oz","O2"
2.27270703125,1.0645390625,2.26109765625,7.24322265625,1.14990625,1.93611328125,0.15733203125,0.267347656250001,2.1711640625,2.723203125,-1.0528671875,4.452359375,3.372171875,-0.0879374999999998,7.41331640625,7.342421875,13.79187890625,5.90751953125,2.43776171875,6.3419765625,7.13029296875,3.6693203125,1.10612109375,1.77895703125,4.51620703125,8.0670703125,-1.29199609375,1.5610703125,2.05164453125,1.65000390625
4.44470703125,2.3775390625,2.90209765625,8.46422265625,2.41690625,3.48311328125,1.49833203125,3.31434765625,4.0661640625,4.778203125,1.8871328125,6.810359375,0.830171875,0.8910625,10.41331640625,9.045421875,13.83687890625,5.50751953125,3.66176171875,7.4229765625,8.03829296875,6.7863203125,2.66912109375,3.42995703125,4.94120703125,8.5270703125,0.97600390625,4.5480703125,2.79264453125,2.32500390625
5.75670703125,2.9715390625,2.69909765625,8.66722265625,3.26890625,4.43411328125,2.26033203125,4.92434765625,5.0141640625,6.709203125,3.5971328125,7.541359375,-2.096828125,1.8580625,12.38631640625,9.339421875,11.86787890625,5.40951953125,4.85776171875,7.6549765625,7.89929296875,9.2653203125,4.29812109375,4.24195703125,4.67620703125,8.1880703125,2.50900390625,7.2470703125,3.81864453125,2.82400390625
6.20270703125,2.8305390625,1.73809765625,7.89122265625,3.76690625,4.90311328125,2.47933203125,5.07134765625,4.9951640625,8.435203125,4.1161328125,6.678359375,-5.093828125,2.8910625,13.29331640625,8.334421875,8.10387890625,5.65551953125,6.01976171875,7.1309765625,6.96029296875,10.9953203125,6.05612109375,4.34595703125,3.96620703125,7.3810703125,3.55400390625,9.8680703125,5.34164453125,3.38200390625
6.04170703125,2.1795390625,0.444097656249999,6.54422265625,4.12890625,5.19711328125,2.38733203125,4.18334765625,4.3611640625,9.876203125,3.8901328125,4.829359375,-7.626828125,4.0980625,13.41631640625,6.662421875,3.63987890625,6.27451953125,7.16776171875,6.3039765625,5.89629296875,12.0373203125,8.02412109375,4.22895703125,3.39720703125,6.7540703125,4.69000390625,12.7640703125,7.54964453125,4.35800390625
5.62770703125,1.3755390625,-0.60190234375,5.18122265625,4.59590625,5.59111328125,2.26133203125,2.92134765625,3.7021640625,10.962203125,3.4921328125,2.885359375,-9.250828125,5.5490625,13.18931640625,5.175421875,0.00587890624999865,7.33051953125,8.34476171875,5.7869765625,5.46029296875,12.5693203125,10.25212109375,4.50395703125,3.62220703125,6.8770703125,6.52800390625,16.2030703125,10.51164453125,6.03300390625
5.21970703125,0.7245390625,-0.91790234375,4.22622265625,5.26290625,6.11911328125,2.23533203125,1.89034765625,3.5661640625,11.603203125,3.3151328125,1.636359375,-9.859828125,7.2030625,12.98031640625,4.572421875,-1.48812109375,8.87151953125,9.57776171875,6.0699765625,6.11029296875,12.7903203125,12.68312109375,5.61495703125,5.03920703125,7.9300703125,9.36500390625,20.1440703125,14.07664453125,8.45000390625
4.86970703125,0.3525390625,-0.34490234375,3.79922265625,5.97190625,6.51811328125,2.20933203125,1.43534765625,4.1841640625,11.658203125,3.3991328125,1.464359375,-9.670828125,8.8650625,12.91931640625,5.130421875,-0.317121093750002,10.80851953125,10.80576171875,7.2759765625,7.81429296875,12.8313203125,15.09812109375,7.61695703125,7.58620703125,9.6630703125,12.99900390625,24.1480703125,17.83264453125,11.37700390625
4.44970703125,0.1625390625,0.86809765625,3.72722265625,6.34390625,6.35211328125,1.91833203125,1.56234765625,5.3231640625,10.932203125,3.4551328125,2.226359375,-8.971828125,10.1930625,12.84531640625,6.600421875,3.01787890625,12.79151953125,11.82976171875,9.0649765625,10.08029296875,12.7283203125,17.11112109375,10.13195703125,10.74120703125,11.5630703125,16.75700390625,27.4750703125,21.16264453125,14.38300390625
3.77070703125,-0.0784609375,2.15209765625,3.67422265625,5.94490625,5.24511328125,1.11133203125,1.99634765625,6.3691640625,9.250203125,3.0551328125,3.386359375,-7.871828125,10.7550625,12.38831640625,8.319421875,7.21387890625,14.23351953125,12.33776171875,10.7619765625,12.17529296875,12.4623203125,18.26812109375,12.48595703125,13.70820703125,13.0900703125,19.73100390625,29.3140703125,23.39764453125,16.95700390625
2.73470703125,-0.5944609375,2.88909765625,3.34222265625,4.50590625,3.08411328125,-0.24666796875,2.36334765625,6.6031640625,6.573203125,1.8741328125,4.331359375,-6.235828125,10.1680625,11.16431640625,9.496421875,10.74687890625,14.49651953125,12.01276171875,11.6389765625,13.42229296875,12.0193203125,18.20512109375,13.97495703125,15.71420703125,13.8520703125,21.11200390625,29.0730703125,24.02464453125,18.61900390625
1.43670703125,-1.4484609375,2.72809765625,2.62822265625,2.07290625,0.13311328125,-1.90366796875,2.44834765625,5.5481640625,3.074203125,-0.1358671875,4.706359375,-3.829828125,8.2680625,8.97431640625,9.572421875,12.55687890625,13.19551953125,10.67476171875,11.2279765625,13.48129296875,11.3903203125,16.79312109375,14.12995703125,16.28220703125,13.7290703125,20.48900390625,26.6100703125,22.87364453125,19.06600390625
0.14670703125,-2.4744609375,1.77309765625,1.69422265625,-0.97709375,-3.01188671875,-3.41466796875,2.35034765625,3.2251640625,-0.847796874999999,-2.6838671875,4.580359375,-0.528828125,5.2500625,5.94331640625,8.477421875,12.44387890625,10.42951953125,8.39076171875,9.5229765625,12.49129296875,10.5503203125,14.19812109375,12.88595703125,15.38620703125,12.9340703125,17.98500390625,22.3120703125,20.21564453125,18.28800390625
-0.782292968750001,-3.3144609375,0.516097656249999,0.93922265625,-4.03209375,-5.59688671875,-4.35166796875,2.43634765625,0.2081640625,-4.607796875,-5.2238671875,4.380359375,3.512171875,1.6810625,2.53531640625,6.659421875,11.00087890625,6.81751953125,5.53676171875,6.9939765625,10.99429296875,9.4393203125,10.86912109375,10.60595703125,13.44620703125,11.9580703125,14.21000390625,16.9920703125,16.70364453125,16.61800390625
-1.04129296875,-3.5374609375,-0.410902343750001,0.885222656250001,-6.38009375,-6.91988671875,-4.47166796875,3.11334765625,-2.5218359375,-7.507796875,-7.0958671875,4.648359375,7.844171875,-1.6039375,-0.52768359375,4.881421875,9.20587890625,3.31551953125,2.77376171875,4.4239765625,9.68829296875,8.0203203125,7.43312109375,7.97095703125,11.17220703125,11.3800703125,10.04000390625,11.6400703125,13.15864453125,14.62200390625
-0.447292968750001,-2.8064609375,-0.49690234375,2.01522265625,-7.35909375,-6.50988671875,-3.73466796875,4.60334765625,-3.9078359375,-8.850796875,-7.7088671875,5.776359375,11.868171875,-3.7339375,-2.44468359375,3.893421875,7.94287890625,0.90051953125,0.88876171875,2.6409765625,9.11929296875,6.3473203125,4.55312109375,5.75595703125,9.29620703125,11.6080703125,6.33600390625,7.1440703125,10.27864453125,12.88100390625
0.99770703125,-1.0134609375,0.476097656249999,4.53122265625,-6.54609375,-4.24788671875,-2.23866796875,6.82434765625,-3.2338359375,-8.139796875,-6.7248671875,7.793359375,15.024171875,-4.0939375,-2.58368359375,4.114421875,7.68187890625,0.236519531249999,0.52776171875,2.2099765625,9.44229296875,4.5893203125,2.72712109375,4.56995703125,8.28620703125,12.6670703125,3.67100390625,4.0540703125,8.38464453125,11.72300390625
3.06770703125,1.6335390625,2.37309765625,8.13622265625,-3.94509375,-0.45688671875,-0.17266796875,9.39634765625,-0.4778359375,-5.293796875,-4.2058671875,10.309359375,16.881171875,-2.5979375,-0.74568359375,5.430421875,8.38687890625,1.40851953125,1.90776171875,3.2199765625,10.35329296875,2.9853203125,2.11812109375,4.60995703125,8.15120703125,14.1340703125,2.17600390625,2.4510703125,7.32364453125,11.05500390625
5.31870703125,4.6235390625,4.76209765625,11.96622265625,-0.0890937500000004,4.10111328125,2.14533203125,11.74234765625,3.5821640625,-0.801796875,-0.6768671875,12.631359375,17.119171875,0.2000625,2.66731640625,7.214421875,9.63487890625,3.85251953125,4.64576171875,5.2299765625,11.22829296875,1.7503203125,2.46412109375,5.57095703125,8.45620703125,15.3010703125,1.55000390625,1.9680703125,6.58464453125,10.41500390625
7.17170703125,7.2765390625,7.06509765625,14.83322265625,4.03690625,8.37411328125,4.25733203125,13.27634765625,7.6101640625,4.315203125,2.9751328125,14.032359375,15.549171875,3.2740625,6.69631640625,8.575421875,10.88087890625,6.51551953125,7.84276171875,7.4179765625,11.39829296875,0.9863203125,3.15112109375,6.75595703125,8.53320703125,15.4960703125,1.23500390625,1.9690703125,5.58564453125,9.25000390625
8.08370703125,8.9585390625,8.76009765625,15.69922265625,7.29390625,11.34611328125,5.66333203125,13.60534765625,10.2351640625,8.766203125,5.7551328125,14.050359375,12.252171875,5.5130625,10.11731640625,8.742421875,11.69487890625,8.26151953125,10.38076171875,8.8659765625,10.43329296875,0.6263203125,3.45312109375,7.36495703125,7.78320703125,14.3870703125,0.68100390625,1.8440703125,3.96064453125,7.23900390625
7.75070703125,9.3155390625,9.53709765625,14.16922265625,8.80190625,12.39711328125,6.02733203125,12.66034765625,10.6351640625,11.447203125,6.9211328125,12.667359375,7.779171875,6.1620625,11.90531640625,7.391421875,11.83187890625,8.35151953125,11.37176171875,8.9089765625,8.27929296875,0.481320312499999,2.85512109375,6.84995703125,5.95820703125,12.1160703125,-0.40399609375,1.2660703125,1.75364453125,4.49400390625
6.26470703125,8.4125390625,9.35009765625,10.73922265625,8.31390625,11.54211328125,5.37433203125,10.70934765625,8.9141640625,11.882203125,6.2811328125,10.299359375,3.215171875,5.1140625,11.66931640625,4.790421875,11.17487890625,6.79051953125,10.52876171875,7.4179765625,5.25829296875,0.3743203125,1.31712109375,5.16995703125,3.28820703125,9.2140703125,-1.90399609375,0.3340703125,-0.58035546875,1.52300390625
4.13670703125,6.7165390625,8.39509765625,6.67822265625,6.35290625,9.43311328125,4.12133203125,8.26634765625,6.0731640625,10.432203125,4.3021328125,7.618359375,-0.0288281250000002,2.9270625,9.83031640625,1.693421875,9.67887890625,4.33951953125,8.27576171875,4.8719765625,1.95129296875,0.2693203125,-0.667878906249999,2.80995703125,0.42320703125,6.4020703125,-3.31799609375,-0.478929687499999,-2.32935546875,-0.961996093750001
2.13270703125,4.9105390625,7.03909765625,3.54522265625,3.99790625,7.10311328125,2.91233203125,5.96034765625,3.5541640625,8.114203125,1.9291328125,5.312359375,-0.717828125,0.5560625,7.41431640625,-0.958578125000001,7.40787890625,2.15651953125,5.51676171875,2.1599765625,-0.955707031250002,0.311320312499999,-2.30087890625,0.543957031250001,-1.83179296875,4.3800703125,-3.98599609375,-0.549929687499999,-2.80435546875,-2.30199609375
0.974707031249999,3.6315390625,5.69309765625,2.53522265625,2.40390625,5.55211328125,2.32333203125,4.34634765625,2.5421640625,6.115203125,0.1891328125,3.836359375,1.582171875,-1.0899375,5.53431640625,-2.420578125,4.61787890625,1.22551953125,3.18476171875,0.1709765625,-2.87370703125,0.7193203125,-2.88287890625,-0.95704296875,-2.86279296875,3.6140703125,-3.43299609375,0.5830703125,-1.66535546875,-2.14699609375
1.01170703125,3.2295390625,4.67709765625,3.93922265625,2.27590625,5.34011328125,2.59333203125,3.71034765625,3.4081640625,5.251203125,-0.2478671875,3.272359375,6.114171875,-1.5699375,4.84731640625,-2.451578125,1.78487890625,1.87351953125,1.81776171875,-0.6260234375,-3.52470703125,1.6263203125,-2.17087890625,-1.47004296875,-2.54779296875,4.1500703125,-1.65299609375,2.9640703125,0.880644531250001,-0.62699609375
2.05170703125,3.6435390625,4.12109765625,7.03522265625,3.56790625,6.37911328125,3.52733203125,3.96634765625,5.5691640625,5.636203125,0.6501328125,3.313359375,11.081171875,-1.0639375,5.26331640625,-1.405578125,-0.499121093750002,3.65351953125,1.36676171875,-0.3930234375,-3.08570703125,2.9533203125,-0.50387890625,-1.31804296875,-1.33579296875,5.5260703125,0.83000390625,6.1530703125,4.09764453125,1.63600390625
3.42870703125,4.4425390625,3.96309765625,10.46022265625,5.53090625,8.00411328125,4.59933203125,4.71534765625,7.8341640625,6.689203125,2.2621328125,3.414359375,14.376171875,-0.2259375,6.02831640625,-0.0805781250000006,-1.75712109375,5.60851953125,1.30176171875,0.1519765625,-2.15970703125,4.3773203125,1.35912109375,-1.19004296875,-0.0937929687499999,6.8850703125,3.17100390625,9.3920703125,6.97864453125,3.73600390625
4.28870703125,5.0015390625,3.99409765625,12.82022265625,7.05990625,9.26711328125,5.16833203125,5.41534765625,8.9971640625,7.439203125,3.5621328125,3.020359375,14.567171875,0.1880625,6.12731640625,0.609421875,-1.86712109375,6.76051953125,0.927761718749999,0.0829765624999999,-1.54670703125,5.4263203125,2.59912109375,-1.78204296875,0.25220703125,7.3000703125,4.56700390625,11.9000703125,8.62964453125,4.83500390625
3.98470703125,4.7815390625,3.93009765625,13.23722265625,7.20490625,9.33611328125,4.73733203125,5.58234765625,8.4041640625,7.020203125,3.5591328125,1.812359375,11.624171875,-0.3009375,4.81631640625,0.00342187499999991,-1.11712109375,6.54751953125,-0.22423828125,-1.2660234375,-1.86570703125,5.6953203125,2.72312109375,-3.42104296875,-0.84279296875,6.2320703125,4.62800390625,13.1810703125,8.64764453125,4.54400390625
2.41370703125,3.5945390625,3.51309765625,11.63722265625,5.63590625,7.86811328125,3.18133203125,4.97434765625,6.2321640625,5.127203125,1.7751328125,-0.118640624999999,6.968171875,-1.6449375,2.04631640625,-2.004578125,-0.0371210937500024,5.05651953125,-2.10623828125,-3.9010234375,-3.20870703125,5.0863203125,1.81912109375,-5.83204296875,-3.22979296875,3.8580703125,3.57200390625,13.2130703125,7.31564453125,3.14000390625
0.11770703125,1.7395390625,2.65309765625,8.73222265625,2.83090625,5.20711328125,0.88633203125,3.73434765625,3.3871640625,2.209203125,-1.4438671875,-2.263640625,2.754171875,-3.2939375,-1.44568359375,-4.844578125,0.873878906249998,2.96251953125,-4.11823828125,-7.0820234375,-5.04370703125,3.9053203125,0.52712109375,-8.19304296875,-6.06579296875,1.0490703125,2.13000390625,12.4410703125,5.49064453125,1.47100390625
-1.96629296875,-0.1164609375,1.52109765625,5.69622265625,-0.13809375,2.27711328125,-1.34366796875,2.38934765625,1.0481640625,-0.757796874999999,-5.0158671875,-3.893640625,0.735171875,-4.4809375,-4.46068359375,-7.470578125,1.35487890625,1.20451953125,-5.39223828125,-9.6460234375,-6.46970703125,2.7263203125,-0.28787890625,-9.49704296875,-8.19679296875,-1.0799296875,1.16800390625,11.5170703125,4.17464453125,0.514003906249999
-2.98329296875,-1.2674609375,0.48109765625,3.63722265625,-2.16409375,0.14311328125,-2.62666796875,1.60934765625,0.0711640624999998,-2.803796875,-7.6128671875,-4.416640625,1.368171875,-4.6559375,-5.94968359375,-8.816578125,1.43287890625,0.540519531249999,-5.27423828125,-10.5820234375,-6.71270703125,2.0843203125,-0.00487890625000009,-9.07604296875,-8.72379296875,-1.7879296875,1.22800390625,10.9320703125,3.98664453125,0.83400390625
-2.60829296875,-1.3364609375,-0.136902343750001,3.10222265625,-2.68909375,-0.53788671875,-2.44866796875,1.83134765625,0.5651640625,-3.504796875,-8.3358671875,-3.686640625,3.656171875,-3.8239375,-5.56768359375,-8.321578125,1.32787890625,1.16451953125,-3.72723828125,-9.5660234375,-5.55670703125,2.1923203125,1.39612109375,-7.00004296875,-7.46379296875,-1.1499296875,2.23700390625,10.7340703125,4.82464453125,2.22700390625
-1.19729296875,-0.4744609375,-0.237902343750001,3.86322265625,-1.99309375,0.15511328125,-0.94466796875,3.00834765625,1.8581640625,-3.207796875,-7.1718671875,-2.081640625,5.778171875,-2.5589375,-3.85068359375,-6.206578125,1.28987890625,2.60251953125,-1.42923828125,-7.1210234375,-3.47270703125,2.8433203125,3.29412109375,-4.10504296875,-5.04079296875,-0.039929687499999,3.55200390625,10.5490703125,5.92564453125,3.78200390625
0.42570703125,0.7485390625,0.00609765624999969,5.12122265625,-1.01609375,1.50011328125,1.15533203125,4.66134765625,2.8781640625,-2.798796875,-4.9688671875,-0.295640624999999,6.142171875,-1.6849375,-1.92668359375,-3.342578125,1.46087890625,3.93451953125,0.51676171875,-4.3550234375,-1.35770703125,3.5223203125,4.72612109375,-1.61304296875,-2.56879296875,0.3140703125,4.31900390625,9.8510703125,6.26464453125,4.32800390625
1.40970703125,1.6605390625,0.29409765625,5.97422265625,-0.81109375,2.55811328125,2.89833203125,6.15634765625,2.7161640625,-3.169796875,-2.9488671875,1.018359375,4.318171875,-1.8129375,-0.939683593750001,-0.803578125,1.82187890625,4.25951953125,1.12176171875,-2.3970234375,-0.0497070312500014,3.6663203125,4.88512109375,-0.524042968749999,-1.07579296875,-0.9869296875,3.95400390625,8.3330703125,5.12264453125,3.06400390625
1.27970703125,1.8465390625,0.38609765625,5.88022265625,-1.94909375,2.66311328125,3.56333203125,7.00734765625,1.0761640625,-4.683796875,-2.0678671875,1.549359375,1.328171875,-3.0079375,-1.47768359375,0.655421875,2.20387890625,3.14951953125,0.0237617187499994,-1.8450234375,0.116292968749998,2.9423203125,3.56712109375,-1.09904296875,-0.962792968750001,-3.9379296875,2.51300390625,6.1520703125,2.53964453125,0.0630039062499996
0.12970703125,1.3285390625,0.22709765625,4.88922265625,-4.21009375,1.70811328125,2.99733203125,7.06534765625,-1.5748359375,-6.968796875,-2.5788671875,1.437359375,-0.913828125,-4.7519375,-3.32468359375,0.917421875,2.36287890625,0.878519531249999,-2.29823828125,-2.5170234375,-0.536707031250002,1.4263203125,1.31812109375,-2.73304296875,-1.80979296875,-7.5139296875,0.71700390625,3.9180703125,-0.616355468749999,-3.65299609375
-1.47729296875,0.5255390625,-0.0249023437500004,3.54822265625,-6.71109375,0.12711328125,1.66033203125,6.57434765625,-4.2508359375,-9.139796875,-3.9928671875,1.178359375,-0.743828125000001,-6.2089375,-5.62768359375,0.483421874999999,2.10787890625,-1.69448046875,-4.74923828125,-3.6200234375,-1.21870703125,-0.4106796875,-0.80487890625,-4.28504296875,-2.64979296875,-10.1149296875,-0.38899609375,2.4470703125,-3.05135546875,-6.55999609375
-2.80729296875,0.0175390624999998,-0.0979023437500004,2.54822265625,-8.39409375,-1.37288671875,0.36833203125,6.05234765625,-5.9258359375,-10.298796875,-5.4128671875,1.367359375,2.198171875,-6.6529375,-7.35568359375,0.156421874999999,1.43487890625,-3.54848046875,-6.16823828125,-4.2170234375,-1.11870703125,-1.9166796875,-1.75987890625,-4.67304296875,-2.52979296875,-10.3589296875,0.00400390624999947,2.3870703125,-3.69335546875,-7.37599609375
-3.30129296875,0.2585390625,0.202097656249999,2.30122265625,-8.58709375,-2.19988671875,-0.12666796875,6.02434765625,-6.0458359375,-10.005796875,-6.0368671875,2.399359375,6.653171875,-5.8459375,-7.81268359375,0.592421874999999,0.603878906249999,-4.00748046875,-5.88823828125,-3.7130234375,0.171292968749998,-2.5546796875,-1.04887890625,-3.43004296875,-1.02379296875,-7.7519296875,2.02600390625,3.9040703125,-2.22935546875,-5.66499609375
-2.81929296875,1.3495390625,0.85009765625,2.70622265625,-7.31709375,-2.16988671875,0.49733203125,6.72034765625,-4.7768359375,-8.483796875,-5.5448671875,4.248359375,10.360171875,-4.1699375,-6.92968359375,1.963421875,0.0838789062499981,-3.07848046875,-4.04623828125,-2.1220234375,2.46129296875,-2.1506796875,1.01912109375,-0.924042968749999,1.58120703125,-2.8689296875,5.04200390625,6.5690703125,0.77564453125,-1.97599609375
-1.66329296875,2.9905390625,1.59709765625,3.23522265625,-5.25809375,-1.55788671875,1.99833203125,7.93834765625,-2.8718359375,-6.482796875,-4.2088671875,6.465359375,11.236171875,-2.4419375,-5.24268359375,3.893421875,0.320878906249998,-1.42848046875,-1.49023828125,-0.0240234375000004,5.09729296875,-0.9766796875,3.46212109375,1.83195703125,4.46920703125,2.9610703125,7.95300390625,9.5030703125,4.18864453125,2.47200390625
-0.42229296875,4.6105390625,2.12609765625,3.25622265625,-3.35209375,-0.90788671875,3.72333203125,9.14634765625,-1.2448359375,-4.899796875,-2.6878671875,8.389359375,8.440171875,-1.5029375,-3.57368359375,5.677421875,1.43187890625,-0.021480468750001,0.64676171875,1.7519765625,7.28529296875,0.364320312499999,5.09612109375,3.67795703125,6.70220703125,8.2250703125,9.70500390625,11.7320703125,6.83964453125,6.33400390625
0.32270703125,5.6415390625,2.23909765625,2.39222265625,-2.32309375,-0.69788671875,4.94833203125,9.73434765625,-0.5068359375,-4.337796875,-1.6348671875,9.464359375,2.803171875,-1.7979375,-2.58668359375,6.668421875,3.03087890625,0.373519531249999,1.49076171875,2.5569765625,8.47029296875,1.2233203125,5.11012109375,3.85595703125,7.66720703125,11.7770703125,9.75600390625,12.5890703125,8.00964453125,8.62900390625
0.29670703125,5.8015390625,1.98409765625,0.74222265625,-2.30609375,-1.04388671875,5.26833203125,9.31734765625,-0.6798359375,-4.793796875,-1.3398671875,9.525359375,-3.548828125,-3.1339375,-2.43868359375,6.650421875,4.39487890625,-0.44248046875,0.84076171875,2.2589765625,8.56829296875,1.2503203125,3.47412109375,2.37795703125,7.33320703125,13.1670703125,8.28600390625,11.9990703125,7.66864453125,9.03800390625
-0.303292968750001,5.2665390625,1.66709765625,-1.10477734375,-2.77709375,-1.58288671875,4.81133203125,7.96234765625,-1.2258359375,-5.642796875,-1.5808671875,8.896359375,-8.115828125,-4.7469375,-2.70968359375,5.981421875,4.94387890625,-2.01648046875,-0.76723828125,1.3069765625,7.98829296875,0.5813203125,0.94512109375,0.0099570312500008,6.23420703125,12.7100703125,6.07600390625,10.5170703125,6.41664453125,7.93900390625
-0.89229296875,4.5905390625,1.72509765625,-2.28277734375,-2.84809375,-1.63088671875,4.15933203125,6.20634765625,-1.3498359375,-5.951796875,-1.7748671875,8.242359375,-9.094828125,-5.6499375,-2.66368359375,5.396421875,4.67187890625,-3.51548046875,-2.36523828125,0.4569765625,7.39029296875,-0.2396796875,-1.32687890625,-2.12904296875,5.14920703125,11.2540703125,4.09900390625,9.0460703125,5.12564453125,6.18100390625
-0.83329296875,4.4105390625,2.47209765625,-2.05177734375,-1.76309375,-0.57888671875,3.98933203125,4.78234765625,-0.4528359375,-4.982796875,-1.3588671875,8.200359375,-6.136828125,-5.1459375,-1.71568359375,5.542421875,4.13987890625,-4.19548046875,-3.07823828125,0.3129765625,7.29529296875,-0.5996796875,-2.40887890625,-3.16004296875,4.66420703125,9.7310703125,3.03700390625,8.3570703125,4.47564453125,4.64800390625
0.17170703125,5.0625390625,3.86009765625,-0.21177734375,0.63090625,1.69011328125,4.61633203125,4.18234765625,1.4871640625,-2.626796875,-0.1878671875,8.996359375,-0.483828125,-3.2159375,0.18531640625,6.541421875,4.00587890625,-3.80848046875,-2.59023828125,0.9459765625,7.76829296875,-0.204679687500001,-2.05887890625,-2.89704296875,4.83420703125,8.6930703125,2.95400390625,8.6610703125,4.60564453125,3.81700390625
1.86870703125,6.3665390625,5.40909765625,2.72122265625,3.73890625,4.62011328125,5.77033203125,4.37134765625,3.8271640625,0.465203125,1.3091328125,10.303359375,5.574171875,-0.5679375,2.46531640625,7.862421875,4.49387890625,-2.73448046875,-1.29723828125,1.8259765625,8.37829296875,0.7403203125,-0.81287890625,-1.91404296875,5.15420703125,8.0870703125,3.32100390625,9.5160703125,5.06464453125,3.56800390625
3.57770703125,7.7105390625,6.42009765625,5.72622265625,6.47890625,7.19611328125,6.73733203125,4.84434765625,5.5471640625,3.160203125,2.3221328125,11.423359375,9.675171875,1.7030625,4.21231640625,8.614421875,5.22987890625,-1.72748046875,-0.0682382812500002,2.1159765625,8.47429296875,1.6743203125,0.37012109375,-1.16804296875,4.86920703125,7.4240703125,3.37600390625,10.1330703125,5.12764453125,3.36900390625
4.55770703125,8.4055390625,6.31609765625,7.77122265625,7.82690625,8.44011328125,6.79233203125,4.94934765625,5.8081640625,4.405203125,2.1071328125,11.686359375,10.340171875,2.6930625,4.66431640625,8.064421875,5.54087890625,-1.42748046875,0.28076171875,1.1679765625,7.61129296875,2.0533203125,0.69712109375,-1.40304296875,3.44320703125,6.2150703125,2.62100390625,9.9020703125,4.29364453125,2.70600390625
4.41470703125,8.0835390625,4.93009765625,8.29822265625,7.34690625,7.89911328125,5.65033203125,4.25034765625,4.4641640625,3.769203125,0.4141328125,10.818359375,7.513171875,2.1640625,3.62731640625,6.065421875,4.94287890625,-1.94248046875,-0.52523828125,-1.0490234375,5.82329296875,1.7113203125,0.0171210937500001,-2.68704296875,0.92520703125,4.3570703125,1.14500390625,8.7760703125,2.63364453125,1.44300390625
3.28970703125,6.8965390625,2.57309765625,7.45122265625,5.39990625,5.85711328125,3.63933203125,2.72234765625,2.2251640625,1.662203125,-2.3438671875,9.063359375,2.483171875,0.6660625,1.59031640625,3.151421875,3.47087890625,-2.77248046875,-2.06023828125,-3.8860234375,3.60629296875,0.9383203125,-1.12587890625,-4.37304296875,-2.03679296875,2.2150703125,-0.43999609375,7.2750703125,0.75364453125,-0.114996093750001
1.77870703125,5.4405390625,-0.0939023437500004,5.95222265625,2.95190625,3.19011328125,1.54033203125,0.762347656250001,0.3401640625,-0.882796874999999,-5.2728671875,7.050359375,-2.694828125,-0.7689375,-0.52368359375,0.290421875,1.66287890625,-3.12548046875,-3.46223828125,-6.3180234375,1.64929296875,0.2833203125,-1.86287890625,-5.47404296875,-4.51579296875,0.380070312500001,-1.38299609375,6.1400703125,-0.578355468749999,-1.43399609375
0.64070703125,4.4605390625,-2.31190234375,4.71522265625,1.10290625,0.98011328125,0.19033203125,-0.940652343749999,-0.0408359374999998,-2.711796875,-7.3988671875,5.495359375,-6.030828125,-1.1629375,-1.79368359375,-1.567578125,0.255878906249999,-2.42748046875,-3.91123828125,-7.4390234375,0.510292968749998,0.223320312499999,-1.52687890625,-5.21104296875,-5.74579296875,-0.6559296875,-1.22799609375,5.9070703125,-0.85535546875,-2.05399609375
0.466707031249999,4.5175390625,-3.50990234375,4.42922265625,0.60590625,0.0611132812499999,0.0843320312499999,-1.66065234375,1.5531640625,-3.052796875,-8.0808671875,4.900359375,-6.349828125,-0.0739374999999995,-1.70468359375,-1.894578125,-0.189121093750002,-0.69448046875,-3.03723828125,-6.8510234375,0.410292968749998,0.9273203125,-0.0238789062499993,-3.40504296875,-5.42579296875,-0.7139296875,-0.02099609375,6.6380703125,-0.0473554687500002,-1.78499609375
1.45070703125,5.7545390625,-3.47290234375,5.29222265625,1.59990625,0.72411328125,1.18033203125,-0.903652343749999,4.6901640625,-1.793796875,-7.2278671875,5.393359375,-3.682828125,2.2290625,-0.32168359375,-0.765578125,0.500878906249998,1.47351953125,-1.05323828125,-4.7690234375,1.22629296875,2.1863203125,2.15712109375,-0.541042968749999,-3.76279296875,0.0810703124999996,1.77200390625,7.9380703125,1.46264453125,-0.729996093750001
3.34470703125,7.8585390625,-2.33290234375,7.01322265625,3.63390625,2.67611328125,2.98733203125,1.40234765625,8.2781640625,0.565203125,-5.2498671875,6.747359375,0.871171875,4.9520625,1.81531640625,1.279421875,2.15487890625,3.25351953125,1.39676171875,-1.8640234375,2.62229296875,3.5223203125,4.22512109375,2.49895703125,-1.30079296875,1.4540703125,3.55100390625,9.1930703125,3.12464453125,0.828003906249999
5.57470703125,10.2255390625,-0.414902343750001,8.97822265625,5.92590625,5.24211328125,4.85033203125,4.88634765625,11.0901640625,3.204203125,-2.8058671875,8.528359375,5.705171875,7.1880625,3.99331640625,3.547421875,4.43987890625,4.06351953125,3.55376171875,1.0599765625,4.24029296875,4.4063203125,5.48012109375,4.84995703125,1.33720703125,3.1560703125,4.87300390625,9.8740703125,4.47464453125,2.58400390625
7.46970703125,12.2115390625,1.90609765625,10.48122265625,7.69890625,7.65811328125,6.24033203125,8.82534765625,12.2881640625,5.370203125,-0.5158671875,10.259359375,9.381171875,8.3010625,5.65631640625,5.492421875,6.96587890625,3.83651953125,4.85976171875,3.3629765625,5.80729296875,4.5043203125,5.60012109375,6.01495703125,3.66520703125,5.0260703125,5.58900390625,9.7540703125,5.29064453125,4.30500390625
8.49670703125,13.3535390625,4.23909765625,10.96422265625,8.45890625,9.32311328125,6.91433203125,12.33434765625,11.7171640625,6.639203125,1.1991328125,11.512359375,11.082171875,8.1190625,6.58331640625,6.848421875,9.26587890625,2.97751953125,5.14076171875,4.7339765625,7.14529296875,3.8523203125,4.72712109375,5.99095703125,5.42020703125,6.9180703125,5.80500390625,8.9340703125,5.59464453125,5.82200390625
8.42670703125,13.4505390625,6.17209765625,10.23922265625,8.10690625,9.93611328125,6.92433203125,14.62134765625,9.8691640625,6.956203125,2.1321328125,11.947359375,10.664171875,6.9110625,6.84031640625,7.585421875,10.81987890625,2.06751953125,4.59076171875,5.1699765625,8.11429296875,2.8563203125,3.32712109375,5.15695703125,6.51920703125,8.6060703125,5.72500390625,7.7310703125,5.55264453125,6.97700390625
7.37670703125,12.5355390625,7.29409765625,8.59222265625,6.86690625,9.48811328125,6.49633203125,15.23334765625,7.5791640625,6.476203125,2.2111328125,11.349359375,8.413171875,5.1800625,6.57731640625,7.774421875,11.20987890625,1.54851953125,3.59476171875,4.8379765625,8.56529296875,2.0913203125,1.94612109375,4.00795703125,6.94120703125,9.7540703125,5.50100390625,6.5080703125,5.32264453125,7.57500390625
5.69970703125,10.7885390625,7.28509765625,6.64222265625,5.09290625,8.15611328125,5.87133203125,14.18634765625,5.6151640625,5.369203125,1.4361328125,9.669359375,4.770171875,3.4170625,5.82031640625,7.452421875,10.33887890625,1.52151953125,2.50276171875,3.9159765625,8.33929296875,1.9623203125,0.94612109375,2.89095703125,6.64720703125,9.9990703125,5.15200390625,5.5020703125,4.93864453125,7.38800390625
3.82970703125,8.4745390625,6.02509765625,5.00622265625,3.09090625,6.16611328125,5.16833203125,11.92234765625,4.3661640625,3.735203125,-0.1258671875,7.072359375,0.291171875,1.9090625,4.42731640625,6.576421875,8.52387890625,1.76351953125,1.47176171875,2.5209765625,7.32429296875,2.4413203125,0.37112109375,1.88395703125,5.59220703125,9.1320703125,4.59400390625,4.7330703125,4.30764453125,6.25200390625
2.15270703125,5.9325390625,3.69609765625,3.99522265625,1.07090625,3.75911328125,4.36533203125,9.15234765625,3.7871640625,1.659203125,-2.2958671875,3.954359375,-4.172828125,0.7080625,2.24931640625,5.115421875,6.39087890625,1.92051953125,0.45076171875,0.7379765625,5.56829296875,3.0483203125,-0.0158789062499993,0.84895703125,3.82820703125,7.2890703125,3.74900390625,4.0400703125,3.31264453125,4.21300390625
0.92770703125,3.5825390625,0.83809765625,3.54622265625,-0.80709375,1.23611328125,3.38933203125,6.66134765625,3.5631640625,-0.674796874999999,-4.7478671875,0.893359375000001,-7.425828125,-0.2769375,-0.631683593749999,3.173421875,4.62287890625,1.73551953125,-0.71223828125,-1.3150234375,3.32629296875,3.1333203125,-0.55187890625,-0.395042968749999,1.58420703125,4.9790703125,2.64700390625,3.2280703125,1.95464453125,1.61900390625
0.24670703125,1.8505390625,-1.75390234375,3.33922265625,-2.36509375,-1.00388671875,2.24333203125,5.08234765625,3.3361640625,-2.929796875,-7.0558671875,-1.509640625,-8.319828125,-1.1579375,-3.78868359375,1.029421875,3.65687890625,1.17251953125,-2.12723828125,-3.4440234375,0.991292968749998,2.2893203125,-1.46387890625,-1.91604296875,-0.77479296875,2.8700703125,1.46000390625,2.2260703125,0.40364453125,-0.973996093750001
0.0397070312499999,1.0565390625,-3.29490234375,3.01622265625,-3.39409375,-2.52488671875,1.08633203125,4.69634765625,2.8881640625,-4.654796875,-8.7768671875,-2.816640625,-6.456828125,-1.9619375,-6.52768359375,-0.948578125,3.46487890625,0.401519531249999,-3.74023828125,-5.3840234375,-1.06070703125,0.6423203125,-2.73087890625,-3.60804296875,-2.87379296875,1.4480703125,0.442003906249999,1.1720703125,-1.04035546875,-3.02399609375
0.18070703125,1.3235390625,-3.30190234375,2.39222265625,-3.65309375,-2.94988671875,0.25133203125,5.38834765625,2.2381640625,-5.372796875,-9.5318671875,-2.853640625,-2.624828125,-2.5699375,-8.10568359375,-2.403578125,3.57787890625,-0.291480468750001,-5.28423828125,-6.8160234375,-2.57470703125,-1.1836796875,-4.05887890625,-5.19404296875,-4.42379296875,0.8200703125,-0.158996093750001,0.389070312500001,-2.04335546875,-4.18899609375
0.64070703125,2.5855390625,-1.75590234375,1.60922265625,-2.90709375,-2.02488671875,0.17833203125,6.81234765625,1.6651640625,-4.699796875,-9.0398671875,-1.671640625,1.511171875,-2.6959375,-7.97868359375,-3.042578125,3.38887890625,-0.58548046875,-6.32323828125,-7.4040234375,-3.40370703125,-2.3976796875,-4.97187890625,-6.30204296875,-5.25079296875,0.7990703125,-0.16299609375,0.270070312500001,-2.31535546875,-4.36399609375
1.54970703125,4.6425390625,0.91609765625,1.10922265625,-1.01109375,0.31011328125,1.22633203125,8.61534765625,1.6111640625,-2.472796875,-7.1768671875,0.504359375000001,4.308171875,-1.9849375,-6.00168359375,-2.688578125,2.56887890625,-0.20548046875,-6.41323828125,-6.9050234375,-3.47170703125,-2.4506796875,-5.01487890625,-6.59204296875,-5.28679296875,1.1240703125,0.48400390625,1.1140703125,-1.69435546875,-3.62599609375
3.08770703125,7.1875390625,3.97709765625,1.37322265625,1.96290625,3.83111328125,3.40933203125,10.51834765625,2.4761640625,1.130203125,-4.0868671875,3.273359375,4.965171875,-0.2249375,-2.53068359375,-1.376578125,1.29587890625,0.957519531249999,-5.32023828125,-5.3270234375,-2.80370703125,-1.2646796875,-3.96087890625,-5.91404296875,-4.58379296875,1.6190703125,1.66400390625,2.9460703125,-0.20535546875,-2.18799609375
5.24270703125,9.7985390625,6.61109765625,2.59622265625,5.62390625,7.96211328125,6.25033203125,12.24734765625,4.3811640625,5.557203125,-0.2408671875,6.032359375,3.743171875,2.4480625,1.64231640625,0.557421874999999,0.106878906249998,2.75751953125,-3.17523828125,-3.0230234375,-1.61370703125,0.7983203125,-1.94287890625,-4.41404296875,-3.34379296875,2.1740703125,3.08600390625,5.4510703125,1.89464453125,-0.36999609375
7.67170703125,11.9875390625,8.20009765625,4.52522265625,9.32490625,11.87611328125,8.92033203125,13.49634765625,7.0591640625,10.015203125,3.6461328125,8.084359375,1.555171875,5.5250625,5.53531640625,2.543421875,-0.519121093750002,4.80251953125,-0.45723828125,-0.6200234375,-0.318707031250002,3.1613203125,0.59512109375,-2.49404296875,-1.89879296875,2.6710703125,4.37600390625,8.0660703125,4.16464453125,1.44600390625
9.77870703125,13.3405390625,8.54709765625,6.55422265625,12.37090625,14.78111328125,10.62333203125,14.01234765625,9.9261640625,13.726203125,6.8661328125,8.882359375,-0.614828125000001,8.3070625,8.32331640625,4.010421875,-0.509121093750002,6.59851953125,2.19976171875,1.2339765625,0.597292968749998,5.2683203125,3.08512109375,-0.623042968749999,-0.59579296875,2.9720703125,5.23600390625,10.2070703125,6.11764453125,2.93400390625
10.98170703125,13.6675390625,7.89309765625,7.97922265625,14.27090625,16.21311328125,10.95333203125,13.70134765625,12.2741640625,16.175203125,8.9571328125,8.265359375,-2.096828125,10.1780625,9.62531640625,4.634421875,-0.212121093750001,7.73851953125,4.27576171875,2.1479765625,0.792292968749998,6.7613203125,5.07612109375,0.870957031250001,0.34720703125,3.0020703125,5.58700390625,11.4940703125,7.40864453125,3.95300390625
10.98970703125,13.0625390625,6.70309765625,8.24422265625,14.87190625,16.16611328125,10.01933203125,12.64434765625,13.5281640625,17.232203125,9.8021328125,6.501359375,-2.605828125,10.8210625,9.58431640625,4.441421875,-0.120121093750003,8.02251953125,5.54276171875,2.1399765625,0.219292968749998,7.5293203125,6.37612109375,1.91695703125,0.93320703125,2.8120703125,5.58500390625,11.8690703125,7.95964453125,4.59000390625
9.92170703125,11.8295390625,5.39909765625,7.12822265625,14.32890625,15.01211328125,8.31033203125,11.05134765625,13.4321640625,17.089203125,9.5671328125,4.139359375,-2.149828125,10.2870625,8.71231640625,3.704421875,-0.534121093750002,7.48351953125,6.07976171875,1.5629765625,-0.867707031250003,7.6813203125,7.04712109375,2.65095703125,1.34120703125,2.5630703125,5.52800390625,11.5630703125,7.96164453125,5.08100390625
8.20070703125,10.3245390625,4.20409765625,4.83122265625,12.96090625,13.29311328125,6.43133203125,9.19334765625,12.1001640625,16.086203125,8.5641328125,1.763359375,-0.984828125,8.9080625,7.59431640625,2.760421875,-1.39412109375,6.31551953125,6.13376171875,0.8839765625,-2.03670703125,7.4593203125,7.28812109375,3.26595703125,1.78520703125,2.4170703125,5.68900390625,10.9550703125,7.73664453125,5.65400390625
6.31970703125,8.8115390625,3.15109765625,1.91622265625,11.08590625,11.48311328125,4.84233203125,7.33634765625,9.8891640625,14.525203125,7.1241328125,-0.232640624999999,0.388171875,7.1090625,6.60631640625,1.830421875,-2.33012109375,4.76051953125,5.92276171875,0.4339765625,-2.86070703125,7.1073203125,7.26812109375,3.85195703125,2.36120703125,2.4570703125,6.17200390625,10.3620703125,7.55164453125,6.39300390625
4.60770703125,7.3945390625,2.14609765625,-0.91077734375,8.91890625,9.80811328125,3.69533203125,5.65734765625,7.2051640625,12.558203125,5.4961328125,-1.765640625,1.336171875,5.2080625,5.77331640625,0.934421875,-2.87512109375,3.00751953125,5.50576171875,0.2799765625,-3.09370703125,6.7503203125,7.01212109375,4.30395703125,2.98820703125,2.6500703125,6.85400390625,9.8570703125,7.47264453125,7.18500390625
3.15470703125,6.0335390625,1.06109765625,-3.07977734375,6.56690625,8.23211328125,2.84333203125,4.19634765625,4.3831640625,10.220203125,3.8231328125,-3.013640625,1.404171875,3.3370625,4.85331640625,-0.041578125,-2.71712109375,1.17351953125,4.78376171875,0.2569765625,-2.73570703125,6.3513203125,6.41512109375,4.37395703125,3.46320703125,2.9190703125,7.44200390625,9.2370703125,7.35264453125,7.79500390625
1.89970703125,4.6545390625,-0.180902343750001,-4.34477734375,4.10090625,6.58811328125,2.00233203125,2.90834765625,1.6891640625,7.542203125,2.1901328125,-4.210640625,0.597171875,1.5090625,3.58631640625,-1.172578125,-1.85212109375,-0.635480468750001,3.64176171875,0.1329765625,-1.97770703125,5.7823203125,5.37812109375,3.84095703125,3.60420703125,3.2530703125,7.66100390625,8.2220703125,6.97664453125,8.04500390625
0.78070703125,3.2535390625,-1.56190234375,-4.80677734375,1.63290625,4.77611328125,0.95833203125,1.75234765625,-0.6108359375,4.686203125,0.7001328125,-5.431640625,-0.640828125,-0.2319375,1.94231640625,-2.339578125,-0.589121093750002,-2.24448046875,2.13676171875,-0.1970234375,-1.05770703125,4.9683203125,3.97212109375,2.73195703125,3.40620703125,3.7890703125,7.46400390625,6.7420703125,6.30264453125,7.97500390625
-0.16829296875,1.9455390625,-2.98690234375,-4.80177734375,-0.64609375,2.87011328125,-0.30466796875,0.748347656250001,-2.2368359375,1.981203125,-0.4988671875,-6.502640625,-1.797828125,-1.7079375,0.21031640625,-3.233578125,0.562878906249998,-3.37548046875,0.59076171875,-0.6120234375,-0.126707031250001,4.0153203125,2.51512109375,1.41795703125,3.10820703125,4.7550703125,7.13100390625,5.1020703125,5.59064453125,7.86300390625
-0.81829296875,0.9255390625,-4.34190234375,-4.69677734375,-2.48809375,1.10311328125,-1.61966796875,-0.0336523437499991,-2.9658359375,-0.150796874999999,-1.2478671875,-7.111640625,-2.652828125,-2.6229375,-1.13568359375,-3.517578125,1.07687890625,-3.71848046875,-0.49823828125,-0.8200234375,0.782292968749998,3.1903203125,1.46412109375,0.49495703125,3.08720703125,6.2650703125,7.13800390625,3.8460703125,5.27064453125,8.01600390625
-1.02429296875,0.3715390625,-5.50790234375,-4.69577734375,-3.66609375,-0.22088671875,-2.74066796875,-0.496652343749999,-2.7468359375,-1.360796875,-1.4538671875,-7.006640625,-3.296828125,-2.7079375,-1.70668359375,-3.029578125,0.622878906249999,-3.07448046875,-0.70323828125,-0.5540234375,1.67829296875,2.7483203125,1.16712109375,0.49495703125,3.62420703125,8.1090703125,7.83400390625,3.3790703125,5.60764453125,8.46300390625
-0.71629296875,0.3565390625,-6.34190234375,-4.74777734375,-4.05809375,-0.82988671875,-3.43766796875,-0.544652343749999,-1.7608359375,-1.520796875,-1.1258671875,-6.158640625,-3.819828125,-1.9029375,-1.41368359375,-1.869578125,-0.757121093750001,-1.51148046875,0.08676171875,0.2489765625,2.52129296875,2.7393203125,1.63712109375,1.57995703125,4.68220703125,9.7110703125,9.14200390625,3.6210703125,6.39364453125,8.77500390625
0.0497070312499996,0.8215390625,-6.68190234375,-4.62877734375,-3.69509375,-0.57488671875,-3.53166796875,-0.147652343749999,-0.3708359375,-0.764796875,-0.3518671875,-4.777640625,-4.011828125,-0.4569375,-0.48868359375,-0.345578125,-2.62812109375,0.57351953125,1.59476171875,1.3999765625,3.18729296875,2.9773203125,2.52612109375,3.43495703125,5.88620703125,10.3670703125,10.51000390625,3.9760703125,6.96364453125,8.20700390625
1.09070703125,1.5875390625,-6.38490234375,-4.14577734375,-2.75809375,0.49611328125,-2.92766796875,0.611347656250001,1.0181640625,0.582203125,0.7601328125,-3.219640625,-3.356828125,1.1340625,0.66031640625,1.189421875,-4.32512109375,2.56051953125,3.28776171875,2.5649765625,3.53529296875,3.2003203125,3.31412109375,5.39995703125,6.70120703125,9.6450703125,11.17200390625,3.6680703125,6.56064453125,6.13500390625
2.11570703125,2.3935390625,-5.39190234375,-3.31677734375,-1.57209375,2.08711328125,-1.67066796875,1.52934765625,2.0811640625,2.095203125,2.1011328125,-1.858640625,-1.338828125,2.3040625,1.63631640625,2.455421875,-5.20312109375,3.83651953125,4.59276171875,3.4059765625,3.51229296875,3.2613203125,3.56912109375,6.74095703125,6.68920703125,7.6980703125,10.52800390625,2.2060703125,4.78064453125,2.49400390625
2.78270703125,2.9345390625,-3.79590234375,-2.42377734375,-0.57409375,3.67411328125,-0.0376679687500001,2.36234765625,2.6061640625,3.323203125,3.5301328125,-1.005640625,2.131171875,2.5980625,2.13631640625,3.288421875,-4.88012109375,4.01851953125,5.04376171875,3.6539765625,3.18629296875,3.1703203125,3.09712109375,6.88695703125,5.66920703125,5.2290703125,8.39500390625,-0.357929687499999,1.78264453125,-2.11699609375
2.78970703125,2.9395390625,-1.87790234375,-1.89777734375,-0.21509375,4.62711328125,1.46733203125,2.91134765625,2.4671640625,3.865203125,4.8331328125,-0.855640624999999,6.457171875,1.7870625,1.95131640625,3.606421875,-3.40512109375,3.07351953125,4.36376171875,3.1299765625,2.69829296875,2.9983203125,1.93312109375,5.57295703125,3.73520703125,3.1350703125,5.02100390625,-3.5019296875,-1.82235546875,-6.70999609375
2.00970703125,2.2845390625,-0.0659023437500004,-2.09477734375,-0.79109375,4.45911328125,2.29133203125,3.10434765625,1.6431640625,3.478203125,5.7581328125,-1.452640625,10.432171875,-0.0649374999999996,0.98431640625,3.392421875,-1.25912109375,1.30651953125,2.52676171875,1.7879765625,2.17229296875,2.7533203125,0.25612109375,2.89395703125,1.20720703125,2.0530703125,0.94300390625,-6.5209296875,-5.26935546875,-10.34799609375
0.60870703125,1.0725390625,1.20009765625,-3.05177734375,-2.25909375,3.07711328125,2.10333203125,3.04034765625,0.2981640625,2.180203125,6.1081328125,-2.644640625,12.657171875,-2.5989375,-0.705683593750001,2.714421875,0.869878906249999,-0.739480468750001,-0.21423828125,-0.2370234375,1.65829296875,2.3383203125,-1.69687890625,-0.742042968749999,-1.48779296875,2.1110703125,-3.21999609375,-8.8269296875,-7.92335546875,-12.48699609375
-0.98129296875,-0.3724609375,1.64009765625,-4.42777734375,-4.21509375,0.86711328125,0.97333203125,2.94634765625,-1.1968359375,0.256203125000001,5.8211328125,-4.124640625,12.137171875,-5.2509375,-2.89868359375,1.727421875,2.40387890625,-2.49648046875,-3.40223828125,-2.6590234375,1.12329296875,1.5983203125,-3.71187890625,-4.75804296875,-3.95379296875,2.9420703125,-6.96399609375,-10.1239296875,-9.46835546875,-13.08999609375
-2.25729296875,-1.6384609375,1.20709765625,-5.68677734375,-6.07209375,-1.47588671875,-0.71166796875,3.01934765625,-2.3918359375,-1.868796875,4.9741328125,-5.571640625,8.793171875,-7.4749375,-5.29268359375,0.617421875,3.07987890625,-3.62648046875,-6.55223828125,-5.1430234375,0.472292968749998,0.4143203125,-5.66287890625,-8.60204296875,-5.96579296875,3.9190703125,-10.02099609375,-10.4669296875,-9.96035546875,-12.55199609375
-2.90029296875,-2.4184609375,0.0380976562499997,-6.43477734375,-7.34909375,-3.30088671875,-2.50666796875,3.24034765625,-2.9938359375,-3.800796875,3.7131328125,-6.807640625,3.623171875,-8.9919375,-7.62668359375,-0.492578125000001,2.91687890625,-4.19048046875,-9.32723828125,-7.4260234375,-0.407707031250002,-1.2106796875,-7.53587890625,-11.89504296875,-7.50079296875,4.4400703125,-12.35899609375,-10.1829296875,-9.72335546875,-11.48799609375
-2.92329296875,-2.6334609375,-1.62990234375,-6.64077734375,-7.88409375,-4.28888671875,-4.13566796875,3.33634765625,-3.0418359375,-5.298796875,2.2101328125,-7.856640625,-1.593828125,-9.8839375,-9.74268359375,-1.588578125,2.05787890625,-4.60848046875,-11.60423828125,-9.3630234375,-1.58570703125,-3.1046796875,-9.36887890625,-14.43504296875,-8.66079296875,4.1590703125,-14.05299609375,-9.7059296875,-9.15535546875,-10.47499609375
-2.62729296875,-2.4334609375,-3.49590234375,-6.58677734375,-7.85209375,-4.50788671875,-5.52466796875,2.96334765625,-2.8838359375,-6.303796875,0.6501328125,-8.848640625,-4.988828125,-10.4839375,-11.55968359375,-2.723578125,0.656878906249998,-5.39248046875,-13.41223828125,-10.8950234375,-3.03370703125,-4.9716796875,-11.15587890625,-16.11104296875,-9.54879296875,3.0500703125,-15.12299609375,-9.3839296875,-8.54835546875,-9.84899609375
-2.40029296875,-2.0714609375,-5.21990234375,-6.62677734375,-7.60309375,-4.25588671875,-6.66966796875,1.97534765625,-2.9728359375,-6.877796875,-0.7518671875,-9.877640625,-5.381828125,-11.1299375,-13.00068359375,-3.939578125,-1.13212109375,-6.81848046875,-14.78823828125,-11.9880234375,-4.62170703125,-6.4836796875,-12.77387890625,-16.82304296875,-10.19079296875,1.3230703125,-15.47699609375,-9.3389296875,-8.01335546875,-9.64799609375
-2.48629296875,-1.7564609375,-6.48390234375,-6.91477734375,-7.41309375,-3.82888671875,-7.48766796875,0.562347656250001,-3.5818359375,-7.099796875,-1.7578671875,-10.909640625,-2.790828125,-11.9389375,-13.90168359375,-5.200578125,-3.08312109375,-8.72048046875,-15.64823828125,-12.5710234375,-6.14070703125,-7.3746796875,-13.96387890625,-16.45504296875,-10.51879296875,-0.7149296875,-14.94599609375,-9.4459296875,-7.49835546875,-9.67299609375
-2.83629296875,-1.5374609375,-7.06490234375,-7.27677734375,-7.28009375,-3.33388671875,-7.75166796875,-0.813652343749999,-4.5948359375,-6.967796875,-2.1368671875,-11.756640625,1.593171875,-12.7089375,-13.98468359375,-6.348578125,-4.83812109375,-10.51448046875,-15.73823828125,-12.4940234375,-7.32970703125,-7.4866796875,-14.37787890625,-14.91304296875,-10.38179296875,-2.7289296875,-13.38299609375,-9.3939296875,-6.82335546875,-9.60499609375
-3.14529296875,-1.2964609375,-6.87890234375,-7.28777734375,-6.92709375,-2.65688671875,-7.15666796875,-1.61965234375,-5.5068359375,-6.384796875,-1.7158671875,-12.135640625,5.921171875,-12.9879375,-12.92868359375,-7.103578125,-5.94612109375,-11.44548046875,-14.72923828125,-11.5650234375,-7.90270703125,-6.8056796875,-13.69587890625,-12.19104296875,-9.58879296875,-4.3489296875,-10.74899609375,-8.8019296875,-5.73835546875,-9.09199609375
-3.07729296875,-0.8644609375,-5.98090234375,-6.55377734375,-6.02809375,-1.60288671875,-5.51966796875,-1.49065234375,-5.7098359375,-5.271796875,-0.4618671875,-11.787640625,8.417171875,-12.3279375,-10.57068359375,-7.157578125,-6.05412109375,-10.95448046875,-12.43523828125,-9.6830234375,-7.63870703125,-5.4956796875,-11.78887890625,-8.46304296875,-8.01379296875,-5.1849296875,-7.17799609375,-7.3849296875,-4.02435546875,-7.86999609375
-2.52929296875,-0.1944609375,-4.57090234375,-5.05277734375,-4.52109375,-0.14788671875,-3.00666796875,-0.448652343749999,-4.8888359375,-3.710796875,1.4361328125,-10.646640625,8.018171875,-10.5779375,-7.13468359375,-6.352578125,-5.13912109375,-9.00448046875,-9.03323828125,-6.9980234375,-6.51770703125,-3.8966796875,-8.85987890625,-4.14404296875,-5.73379296875,-4.9909296875,-3.03299609375,-5.1289296875,-1.65535546875,-5.91799609375
-1.76229296875,0.5415390625,-2.99990234375,-3.28577734375,-2.77609375,1.40911328125,-0.21566796875,1.03434765625,-3.2928359375,-2.020796875,3.5481328125,-8.952640625,4.717171875,-8.0599375,-3.29568359375,-4.852578125,-3.61212109375,-6.17248046875,-5.13023828125,-3.9840234375,-4.83070703125,-2.4406796875,-5.47687890625,0.120957031250001,-3.11679296875,-3.8669296875,1.11200390625,-2.3789296875,1.06964453125,-3.57599609375
-1.27629296875,1.0115390625,-1.69290234375,-2.08877734375,-1.46709375,2.53111328125,1.99833203125,2.18834765625,-1.6588359375,-0.649796875,5.3071328125,-7.189640625,-0.443828125,-5.4799375,0.000316406250000512,-3.151578125,-2.16412109375,-3.43848046875,-1.58823828125,-1.3300234375,-3.13170703125,-1.4846796875,-2.41387890625,3.61395703125,-0.75079296875,-2.2999296875,4.57600390625,0.2440703125,3.56264453125,-1.47299609375
-1.51029296875,0.9335390625,-1.00290234375,-2.17077734375,-1.21309375,2.74511328125,2.89333203125,2.31534765625,-0.8388359375,0.0392031250000002,6.2371328125,-5.868640625,-5.729828125,-3.6179375,1.91531640625,-1.861578125,-1.44112109375,-1.75048046875,0.81476171875,0.3319765625,-2.00970703125,-1.1296796875,-0.37287890625,5.78595703125,0.77220703125,-0.955929687499999,6.78800390625,2.1090703125,5.17564453125,-0.255996093750001
-2.55529296875,0.2905390625,-1.06490234375,-3.68077734375,-2.19809375,1.95111328125,2.22933203125,1.12434765625,-1.3438359375,-0.0057968749999997,6.1781328125,-5.277640625,-9.342828125,-2.9609375,2.10831640625,-1.397578125,-1.75212109375,-1.59048046875,1.72176171875,0.7259765625,-1.77270703125,-1.1526796875,0.33012109375,6.48895703125,1.14720703125,-0.3099296875,7.51400390625,2.8610703125,5.51664453125,-0.25099609375
-4.05729296875,-0.6074609375,-1.72790234375,-6.07377734375,-4.00909375,0.53911328125,0.42133203125,-1.11065234375,-3.0778359375,-0.453796875,5.4001328125,-5.308640625,-10.101828125,-3.4659375,0.90931640625,-1.720578125,-2.93912109375,-2.77548046875,1.35376171875,0.1069765625,-2.23970703125,-1.1066796875,-0.0888789062499997,6.05595703125,0.55520703125,-0.340929687499999,6.99000390625,2.5900703125,4.68164453125,-1.23899609375
-5.35529296875,-1.2534609375,-2.58690234375,-8.35877734375,-5.78509375,-0.76288671875,-1.61966796875,-3.65965234375,-5.3648359375,-0.721796875,4.5031328125,-5.488640625,-7.892828125,-4.5639375,-0.798683593750001,-2.305578125,-4.44712109375,-4.56548046875,0.40476171875,-0.8230234375,-2.75670703125,-0.5736796875,-0.97187890625,5.17695703125,-0.36279296875,-0.5069296875,5.84700390625,1.7730703125,3.25364453125,-2.50099609375
-5.80429296875,-1.2044609375,-3.10490234375,-9.58077734375,-6.62009375,-1.22788671875,-2.91366796875,-5.61165234375,-7.2478359375,-0.285796875,4.1281328125,-5.185640625,-3.690828125,-5.4229375,-1.98768359375,-2.390578125,-5.57012109375,-6.03448046875,-0.31323828125,-1.2510234375,-2.49770703125,0.5653203125,-1.55887890625,4.59795703125,-0.80279296875,-0.0379296875000001,4.82700390625,1.0150703125,2.02064453125,-3.16099609375
-5.09229296875,-0.3234609375,-2.83690234375,-9.28277734375,-5.99609375,-0.49388671875,-2.90566796875,-6.23965234375,-7.9278359375,1.013203125,4.6211328125,-3.945640625,0.831171875,-5.3599375,-1.97668359375,-1.418578125,-5.76112109375,-6.51548046875,-0.274238281250001,-0.6760234375,-0.925707031250003,2.0073203125,-1.39387890625,4.74795703125,-0.22679296875,1.5720703125,4.39600390625,0.703070312500001,1.54764453125,-2.68699609375
-3.40629296875,1.1305390625,-1.66090234375,-7.71677734375,-4.04309375,1.23111328125,-1.74866796875,-5.31665234375,-7.1338359375,2.848203125,5.8311328125,-1.781640625,3.945171875,-4.2049375,-0.76468359375,0.584421874999999,-4.87912109375,-5.90748046875,0.49676171875,0.8109765625,1.84229296875,3.1513203125,-0.58487890625,5.51195703125,1.30820703125,4.1950703125,4.48400390625,0.768070312500001,1.84364453125,-1.25499609375
-1.33829296875,2.6345390625,0.125097656249999,-5.67277734375,-1.45909375,3.27511328125,-0.18366796875,-3.22665234375,-5.2228359375,4.568203125,7.1881328125,0.781359375000001,4.551171875,-2.3769375,1.00331640625,2.939421875,-3.21412109375,-4.66548046875,1.46976171875,2.5459765625,4.99429296875,3.4103203125,0.26712109375,6.26295703125,3.13820703125,7.0620703125,4.50800390625,0.7340703125,2.34764453125,0.28900390625
0.40870703125,3.6845390625,1.95709765625,-4.03577734375,0.84590625,4.86411328125,0.92133203125,-0.763652343749999,-2.9638359375,5.547203125,8.0331328125,2.947359375,2.643171875,-0.6179375,2.41331640625,4.632421875,-1.31312109375,-3.48848046875,1.91276171875,3.6169765625,7.37129296875,2.5323203125,0.40612109375,6.18595703125,4.29720703125,9.1160703125,3.70000390625,0.0100703124999999,2.23364453125,0.878003906249999
1.36370703125,4.0575390625,3.31609765625,-3.30377734375,2.22090625,5.53611328125,1.09633203125,1.24834765625,-1.1118359375,5.553203125,8.0141328125,4.055359375,-0.662828125,0.4380625,2.78931640625,4.845421875,0.251878906249999,-2.89248046875,1.31776171875,3.3339765625,8.01229296875,0.7413203125,-0.640878906249999,4.71995703125,3.99120703125,9.5120703125,1.56000390625,-1.7439296875,0.889644531250001,-0.175996093750001
1.50570703125,3.9155390625,3.98509765625,-3.35677734375,2.59290625,5.37211328125,0.53333203125,2.31034765625,-0.00183593750000011,4.925203125,7.3381328125,3.920359375,-3.601828125,0.6410625,2.07531640625,3.413421875,1.03187890625,-2.92748046875,-0.28823828125,1.6209765625,6.61729296875,-1.3446796875,-2.78287890625,1.90795703125,2.02220703125,7.9820703125,-1.79999609375,-4.3939296875,-1.71835546875,-2.79699609375
1.27070703125,3.7185390625,4.13309765625,-3.50777734375,2.50490625,4.95611328125,-0.0286679687500002,2.42034765625,0.6141640625,4.478203125,6.7321328125,2.954359375,-4.541828125,0.4240625,0.90331640625,0.962421875,0.798878906249998,-3.18248046875,-2.28023828125,-0.8700234375,3.72129296875,-2.9726796875,-5.35287890625,-1.52504296875,-1.06279296875,4.9530703125,-5.60099609375,-7.3339296875,-4.94535546875,-6.14199609375
1.36770703125,4.0285390625,4.19509765625,-2.77677734375,2.85790625,5.11311328125,0.32233203125,2.05134765625,1.4091640625,5.181203125,7.1471328125,2.023359375,-2.686828125,0.6000625,0.32631640625,-1.317578125,-0.324121093750001,-3.02648046875,-3.67723828125,-2.9870234375,0.524292968749998,-3.5676796875,-7.37987890625,-4.39704296875,-4.14579296875,1.4200703125,-8.66599609375,-9.7079296875,-7.71735546875,-8.96199609375
2.46670703125,5.2915390625,4.67209765625,-0.282777343749999,4.47990625,6.56911328125,2.24533203125,1.95134765625,3.1031640625,7.725203125,9.3391328125,2.108359375,1.664171875,1.9620625,1.34531640625,-2.145578125,-1.77312109375,-1.94148046875,-3.55323828125,-3.5380234375,-1.55370703125,-2.9366796875,-7.98487890625,-5.51104296875,-5.96279296875,-1.3739296875,-9.87499609375,-10.7379296875,-8.98035546875,-10.11099609375
4.89070703125,7.6775390625,5.91609765625,4.36422265625,7.73490625,9.63111328125,5.85533203125,2.81634765625,6.0701640625,12.211203125,13.5091328125,3.892359375,7.379171875,4.8890625,4.46031640625,-0.680578125,-2.66212109375,0.229519531249999,-1.42723828125,-1.7720234375,-1.40870703125,-1.2876796875,-6.71487890625,-4.11404296875,-5.57679296875,-2.3639296875,-8.58899609375,-10.0039296875,-8.12835546875,-8.97899609375
8.43570703125,10.9855390625,7.98209765625,10.77422265625,12.34390625,14.00811328125,10.64933203125,4.94734765625,10.1401640625,18.052203125,19.1631328125,7.437359375,13.034171875,9.1580625,9.42431640625,3.133421875,-2.18212109375,3.21551953125,2.54176171875,2.3269765625,1.31029296875,0.9323203125,-3.69487890625,-0.20204296875,-2.72279296875,-1.0769296875,-4.87699609375,-7.5669296875,-5.22335546875,-5.69099609375
12.40070703125,14.6615390625,10.61309765625,17.78222265625,17.47690625,18.87011328125,15.65733203125,8.06534765625,14.6781640625,24.147203125,25.2321328125,12.112359375,17.410171875,14.0160625,15.28831640625,8.518421875,-0.0601210937500021,6.45451953125,7.59076171875,8.0109765625,6.04529296875,3.2443203125,0.441121093750001,5.43895703125,2.07220703125,2.1360703125,0.51500390625,-3.9199296875,-0.94435546875,-1.04299609375
15.83570703125,17.9415390625,13.33209765625,23.81222265625,22.05290625,23.12111328125,19.76133203125,11.40334765625,18.8581640625,29.230203125,30.4261328125,16.806359375,19.748171875,18.4810625,20.71931640625,14.159421875,3.22687890625,9.34551953125,12.61276171875,13.9949765625,11.52429296875,5.2823203125,4.78512109375,11.47895703125,7.63620703125,6.1840703125,6.41800390625,0.191070312500001,3.67764453125,3.76200390625
17.90570703125,20.0905390625,15.59309765625,27.45122265625,25.13190625,25.79811328125,22.04733203125,14.01834765625,21.9671640625,32.288203125,33.6481328125,20.352359375,19.791171875,21.6950625,24.44931640625,18.669421875,6.64787890625,11.49251953125,16.52676171875,18.8729765625,16.23729296875,6.8423203125,8.48112109375,16.48995703125,12.54020703125,9.6570703125,11.61100390625,3.9960703125,7.61264453125,7.49700390625
18.19770703125,20.6535390625,16.93309765625,27.99722265625,26.22190625,26.38911328125,22.10033203125,15.17434765625,23.6201640625,32.884203125,34.3181328125,21.944359375,17.710171875,23.1970625,25.69931640625,21.061421875,9.11787890625,12.79551953125,18.64376171875,21.5729765625,18.99729296875,7.8663203125,11.00712109375,19.42495703125,15.59420703125,11.4210703125,15.18900390625,6.9170703125,10.14964453125,9.31100390625
16.85970703125,19.6125390625,17.11009765625,25.74822265625,25.41390625,24.98511328125,20.13133203125,14.65234765625,23.8171640625,31.267203125,32.4861328125,21.411359375,14.005171875,23.0250625,24.41731640625,21.019421875,10.01287890625,13.39751953125,18.85176171875,21.6659765625,19.35429296875,8.4043203125,12.29212109375,19.92895703125,16.25020703125,11.0810703125,16.77700390625,8.7080703125,11.05864453125,8.99400390625
14.51770703125,17.3935390625,16.20209765625,21.91522265625,23.30590625,22.21511328125,16.91533203125,12.86734765625,22.8731640625,28.245203125,28.7571328125,19.238359375,9.448171875,21.6290625,21.23531640625,18.934421875,9.43387890625,13.52751953125,17.57176171875,19.4399765625,17.69529296875,8.5813203125,12.63312109375,18.37695703125,14.74120703125,9.0960703125,16.55200390625,9.4740703125,10.57164453125,7.02200390625
12.02470703125,14.7145390625,14.59309765625,18.16922265625,20.74990625,18.99811328125,13.52933203125,10.70734765625,21.2681640625,24.877203125,24.0961328125,16.355359375,5.022171875,19.6470625,17.20731640625,15.699421875,8.09787890625,13.38051953125,15.53076171875,15.7419765625,15.02729296875,8.5623203125,12.48112109375,15.65395703125,11.94920703125,6.5390703125,15.09700390625,9.5690703125,9.24664453125,4.36700390625
10.15470703125,12.3295390625,12.82209765625,15.94722265625,18.52490625,16.19811328125,10.98533203125,9.14034765625,19.4721640625,22.109203125,19.5531328125,13.773359375,1.789171875,17.6500625,13.42531640625,12.370421875,6.90987890625,13.06651953125,13.47076171875,11.6859765625,12.54629296875,8.5003203125,12.21112109375,12.77795703125,9.04720703125,4.6330703125,13.16000390625,9.4040703125,7.76864453125,2.12800390625
9.33170703125,10.7465390625,11.34009765625,15.84522265625,17.05690625,14.31811328125,9.90033203125,8.75234765625,17.7961640625,20.460203125,15.9771328125,12.197359375,0.610171875,15.9530625,10.65031640625,9.789421875,6.45687890625,12.59651953125,11.87676171875,8.2909765625,11.14629296875,8.4603203125,11.95812109375,10.50095703125,7.04020703125,4.2230703125,11.36000390625,9.2180703125,6.69364453125,1.08100390625
9.49670703125,10.0575390625,10.32609765625,17.40322265625,16.29090625,13.36511328125,10.30133203125,9.47534765625,16.3231640625,19.868203125,13.7661328125,11.773359375,1.786171875,14.5670625,9.09731640625,8.309421875,6.72387890625,11.86851953125,10.82576171875,6.1579765625,11.07429296875,8.3403203125,11.55612109375,9.04895703125,6.36820703125,5.3910703125,9.94300390625,8.9420703125,6.21864453125,1.33400390625
10.15270703125,9.9585390625,9.66409765625,19.40422265625,15.78090625,12.94111328125,11.66533203125,10.63934765625,14.9241640625,19.774203125,12.7921328125,12.097359375,4.849171875,13.2890625,8.45431640625,7.747421875,7.17687890625,10.70351953125,10.02276171875,5.3199765625,11.89329296875,7.9163203125,10.66912109375,8.13095703125,6.77820703125,7.4420703125,8.73100390625,8.2730703125,6.11464453125,2.31000390625
10.58570703125,9.9475390625,9.07709765625,20.49422265625,14.96090625,12.47511328125,13.13433203125,11.29834765625,13.3811640625,19.445203125,12.5471328125,12.476359375,8.673171875,11.8960625,8.14431640625,7.583421875,7.15187890625,8.95551953125,9.04976171875,5.3609765625,12.80129296875,7.0293203125,9.05412109375,7.24095703125,7.58420703125,9.3040703125,7.34300390625,6.9520703125,5.94064453125,3.13500390625
10.17870703125,9.5895390625,8.33309765625,19.79022265625,13.45090625,11.51011328125,13.86233203125,10.68934765625,11.5351640625,18.353203125,12.4511328125,12.306359375,11.941171875,10.3140625,7.66731640625,7.309421875,6.29187890625,6.69351953125,7.68676171875,5.7599765625,13.11929296875,5.7873203125,6.83512109375,6.07995703125,8.14520703125,10.1470703125,5.55800390625,5.0660703125,5.41664453125,3.22700390625
8.67870703125,8.7025390625,7.41809765625,17.18822265625,11.22890625,9.89511328125,13.33133203125,8.60234765625,9.4161640625,16.411203125,12.1451328125,11.359359375,13.680171875,8.6880625,6.85531640625,6.732421875,4.77887890625,4.31351953125,6.11476171875,6.2149765625,12.67429296875,4.6053203125,4.56612109375,4.82695703125,8.24920703125,9.7940703125,3.58800390625,3.1370703125,4.66964453125,2.66300390625
6.28770703125,7.3895390625,6.53809765625,13.27522265625,8.59790625,7.83011328125,11.55133203125,5.49034765625,7.2391640625,13.941203125,11.6071328125,9.838359375,13.551171875,7.2990625,5.89631640625,6.054421875,3.19587890625,2.45751953125,4.84976171875,6.7639765625,11.82229296875,4.0183203125,3.02012109375,4.07795703125,8.17120703125,8.6710703125,2.03400390625,1.8880703125,4.16364453125,2.07000390625
3.54470703125,5.9325390625,5.98009765625,8.94622265625,6.02690625,5.74011328125,9.04033203125,2.23834765625,5.3051640625,11.458203125,11.0491328125,8.190359375,11.748171875,6.4000625,5.17331640625,5.704421875,2.12487890625,1.71851953125,4.48776171875,7.6649765625,11.14229296875,4.3963203125,2.80612109375,4.50195703125,8.40420703125,7.3630703125,1.56600390625,1.8480703125,4.36664453125,2.12800390625
1.10870703125,4.6385390625,5.92009765625,5.01922265625,3.97790625,4.09311328125,6.63933203125,-0.246652343749999,3.8751640625,9.461203125,10.7371328125,6.874359375,8.713171875,6.1150625,5.05331640625,6.076421875,1.74287890625,2.33551953125,5.41176171875,9.1699765625,11.04929296875,5.7443203125,4.08012109375,6.44595703125,9.32020703125,6.1910703125,2.54500390625,3.0420703125,5.42164453125,3.07200390625
-0.46429296875,3.7385390625,6.36809765625,2.04722265625,2.82290625,3.24811328125,5.21533203125,-1.37765234375,3.1171640625,8.322203125,10.8661328125,6.216359375,4.927171875,6.4450625,5.75931640625,7.348421875,1.71587890625,4.07451953125,7.63676171875,11.3589765625,11.61329296875,7.7063203125,6.50612109375,9.73295703125,10.97620703125,5.1510703125,4.82600390625,4.9800703125,7.04964453125,4.57800390625
-0.87429296875,3.3365390625,7.24509765625,0.32722265625,2.77890625,3.36711328125,5.34833203125,-1.00865234375,3.1011640625,8.253203125,11.5101328125,6.387359375,0.885171875,7.3420625,7.30031640625,9.437421875,1.47687890625,6.36151953125,10.80976171875,14.0899765625,12.62829296875,9.7113203125,9.43412109375,13.71895703125,13.11920703125,4.1620703125,7.82500390625,6.9030703125,8.70364453125,6.01600390625
-0.16329296875,3.4005390625,8.46609765625,-0.0587773437500001,3.84690625,4.36111328125,7.07833203125,0.592347656250001,3.7871640625,9.259203125,12.5961328125,7.385359375,-2.837828125,8.7000625,9.46731640625,12.032421875,0.723878906249999,8.53251953125,14.33476171875,17.0399765625,13.79629296875,11.1883203125,12.15312109375,17.53995703125,15.32020703125,3.3280703125,10.75400390625,8.1080703125,9.84564453125,6.84400390625
1.30170703125,3.7795390625,9.92109765625,0.73922265625,5.75790625,5.87411328125,9.84933203125,2.83734765625,4.9921640625,11.092203125,13.8821328125,8.975359375,-5.597828125,10.2940625,11.86931640625,14.655421875,-0.220121093750002,10.04551953125,17.54876171875,19.7979765625,14.86729296875,11.7523203125,14.09612109375,20.41195703125,17.14820703125,2.9830703125,12.91600390625,8.2180703125,10.18464453125,6.85900390625
2.94870703125,4.2525390625,11.42409765625,2.32322265625,8.01390625,7.39311328125,12.71233203125,4.99534765625,6.3881640625,13.266203125,15.0041328125,10.674359375,-6.830828125,11.7470625,14.05431640625,16.762421875,-0.493121093750002,10.58651953125,19.89376171875,21.9789765625,15.70629296875,11.3163203125,14.93712109375,21.88595703125,18.32120703125,3.5310703125,13.93700390625,7.2920703125,9.77064453125,6.25200390625
4.20170703125,4.5945390625,12.71609765625,4.12422265625,10.01990625,8.43511328125,14.72633203125,6.42334765625,7.5631640625,15.179203125,15.6111328125,11.875359375,-6.313828125,12.6190625,15.66531640625,17.887421875,0.759878906249998,10.09851953125,21.04576171875,23.3159765625,16.27329296875,10.0903203125,14.60912109375,21.94495703125,18.76320703125,5.1950703125,13.84600390625,5.7660703125,8.92264453125,5.46300390625
4.65770703125,4.6365390625,13.54509765625,5.55822265625,11.27690625,8.73511328125,15.32933203125,6.76834765625,8.1361640625,16.321203125,15.5131328125,12.086359375,-4.413828125,12.5910625,16.53731640625,17.787421875,3.71687890625,8.75151953125,20.95176171875,23.6939765625,16.55429296875,8.4733203125,13.26312109375,20.93095703125,18.56720703125,7.8120703125,12.97600390625,4.2350703125,8.01764453125,4.94300390625
4.21370703125,4.3135390625,13.72609765625,6.18822265625,11.53890625,8.31411328125,14.51033203125,6.01934765625,7.9011640625,16.458203125,14.7621328125,11.124359375,-2.118828125,11.6380625,16.70931640625,16.503421875,7.59687890625,6.88051953125,19.80276171875,23.1479765625,16.46829296875,6.8873203125,11.20912109375,19.33195703125,17.87220703125,10.7780703125,11.74900390625,3.1900703125,7.29564453125,4.91800390625
3.07970703125,3.6865390625,13.17409765625,5.85222265625,10.89490625,7.42011328125,12.71533203125,4.39934765625,6.9421640625,15.728203125,13.6151328125,9.186359375,-0.673828125,10.0880625,16.35631640625,14.333421875,10.96987890625,4.90151953125,17.93176171875,21.8239765625,15.83129296875,5.6173203125,8.83012109375,17.54795703125,16.76320703125,13.1880703125,10.45800390625,2.8300703125,6.77964453125,5.27300390625
1.69670703125,2.9305390625,11.90309765625,4.71122265625,9.70690625,6.41011328125,10.58833203125,2.24234765625,5.6321640625,14.554203125,12.4001328125,6.754359375,-0.905828125,8.5030625,15.68531640625,11.722421875,12.44987890625,3.20951953125,15.67676171875,19.9159765625,14.44029296875,4.7193203125,6.49112109375,15.74495703125,15.22620703125,14.1500703125,9.14900390625,3.0180703125,6.31264453125,5.62000390625
0.57470703125,2.2895390625,10.04209765625,3.17222265625,8.45790625,5.62411328125,8.69133203125,-0.0986523437499986,4.4581640625,13.429203125,11.3761328125,4.404359375,-2.664828125,7.4150625,14.84431640625,9.134421875,11.32487890625,2.07851953125,13.27476171875,17.6099765625,12.22529296875,4.0513203125,4.44912109375,13.84795703125,13.20420703125,13.1500703125,7.65300390625,3.3720703125,5.67664453125,5.47600390625
0.10870703125,1.9985390625,7.84809765625,1.69222265625,7.54690625,5.28511328125,7.35333203125,-2.27865234375,3.7611640625,12.697203125,10.6541328125,2.639359375,-4.838828125,7.0710625,13.88831640625,6.959421875,7.81387890625,1.58751953125,10.84276171875,15.0879765625,9.39529296875,3.4203203125,2.83112109375,11.68395703125,10.72020703125,10.3160703125,5.75400390625,3.4680703125,4.73864453125,4.51700390625
0.43670703125,2.1935390625,5.68909765625,0.579222656250001,7.16990625,5.44011328125,6.66833203125,-3.97165234375,3.5681640625,12.449203125,10.2011328125,1.766359375,-6.014828125,7.3330625,12.79931640625,5.446421875,2.92787890625,1.61651953125,8.47076171875,12.5459765625,6.45129296875,2.7553203125,1.67912109375,9.16995703125,7.98320703125,6.4180703125,3.39700390625,3.0560703125,3.54564453125,2.74800390625
1.39270703125,2.8355390625,3.97909765625,-0.122777343749999,7.26890625,5.95111328125,6.55533203125,-4.91365234375,3.6111640625,12.531203125,9.8801328125,1.841359375,-5.400828125,7.7910625,11.51931640625,4.663421875,-1.93712109375,1.91151953125,6.28776171875,10.1779765625,4.00929296875,2.1613203125,1.00012109375,6.42195703125,5.35120703125,2.5730703125,0.799003906249999,2.1820703125,2.30464453125,0.512003906249999
2.54770703125,3.6725390625,3.03209765625,-0.60677734375,7.55790625,6.51911328125,6.76533203125,-5.00365234375,3.4941640625,12.617203125,9.4791328125,2.641359375,-3.378828125,7.9830625,9.96131640625,4.450421875,-5.50212109375,2.19151953125,4.44976171875,8.0759765625,2.51129296875,1.8183203125,0.76712109375,3.70195703125,3.14620703125,-0.228929687499999,-1.62999609375,1.1500703125,1.26264453125,-1.67699609375
3.33270703125,4.2855390625,2.88609765625,-1.20877734375,7.60490625,6.72911328125,6.86833203125,-4.42765234375,2.8761640625,12.308203125,8.7241328125,3.686359375,-1.294828125,7.5740625,7.99431640625,4.407421875,-7.06212109375,2.24251953125,3.04476171875,6.1499765625,1.97829296875,1.8243203125,0.88512109375,1.26895703125,1.47220703125,-1.5319296875,-3.48699609375,0.339070312500001,0.572644531250001,-3.37599609375
3.25470703125,4.2265390625,3.22009765625,-2.23777734375,6.98190625,6.16011328125,6.34033203125,-3.68665234375,1.6101640625,11.279203125,7.3301328125,4.367359375,-0.624828125,6.4530625,5.50131640625,3.997421875,-6.67512109375,1.97951953125,2.02376171875,4.1659765625,1.98529296875,2.1133203125,1.17612109375,-0.74704296875,0.16520703125,-1.5389296875,-4.56599609375,0.00407031250000145,0.236644531250001,-4.37199609375
2.12170703125,3.2315390625,3.49609765625,-3.79877734375,5.47090625,4.56511328125,4.82333203125,-3.38865234375,-0.1958359375,9.417203125,5.1341328125,4.194359375,-2.089828125,4.7480625,2.49431640625,2.778421875,-4.98912109375,1.46651953125,1.23176171875,1.9069765625,1.89229296875,2.4803203125,1.42412109375,-2.34604296875,-1.06079296875,-0.9159296875,-4.92399609375,0.1540703125,0.132644531250001,-4.70899609375
0.15570703125,1.3795390625,3.28309765625,-5.68577734375,3.19990625,2.03511328125,2.38833203125,-3.90065234375,-2.2088359375,6.897203125,2.2381328125,3.067359375,-5.260828125,2.7690625,-0.79068359375,0.666421874999999,-2.85012109375,0.888519531249999,0.49376171875,-0.6330234375,1.21529296875,2.6723203125,1.44212109375,-3.58004296875,-2.41379296875,-0.4359296875,-4.81199609375,0.553070312500001,0.0726445312500008,-4.60599609375
-2.11029296875,-0.9134609375,2.52309765625,-7.45777734375,0.60190625,-0.98488671875,-0.42966796875,-5.11565234375,-4.0048359375,4.110203125,-0.9538671875,1.357359375,-8.836828125,0.8760625,-3.93168359375,-1.980578125,-0.953121093750001,0.45351953125,-0.29623828125,-3.1980234375,-0.107707031250001,2.4883203125,1.13412109375,-4.48404296875,-3.86179296875,-0.6059296875,-4.52499609375,0.842070312500001,-0.11835546875,-4.32999609375
-4.10129296875,-3.0794609375,1.52809765625,-8.67477734375,-1.79309375,-3.87388671875,-2.89866796875,-6.52965234375,-5.2678359375,1.493203125,-3.8788671875,-0.287640624999999,-11.330828125,-0.6819375,-6.48868359375,-4.521578125,0.279878906249998,0.26751953125,-1.16223828125,-5.3710234375,-1.69270703125,1.8553203125,0.50212109375,-5.08004296875,-5.13179296875,-1.4539296875,-4.28299609375,0.714070312500001,-0.526355468749999,-4.05199609375
-5.47029296875,-4.6604609375,0.71309765625,-9.15677734375,-3.63609375,-6.12888671875,-4.48366796875,-7.58765234375,-5.9498359375,-0.665796875,-6.0718671875,-1.313640625,-11.729828125,-1.8789375,-8.20868359375,-6.366578125,0.660878906249998,0.245519531249999,-2.09523828125,-6.7950234375,-2.94770703125,0.8463203125,-0.38387890625,-5.43204296875,-5.83679296875,-2.5369296875,-4.18699609375,0.0630703125000007,-1.10535546875,-3.75799609375
-6.23129296875,-5.4934609375,0.29809765625,-9.09777734375,-4.90509375,-7.56588671875,-5.10466796875,-8.01965234375,-6.3078359375,-2.330796875,-7.3648671875,-1.584640625,-9.852828125,-2.9019375,-9.12868359375,-7.242578125,0.194878906249999,0.122519531249999,-3.12123828125,-7.3570234375,-3.40570703125,-0.3486796875,-1.44287890625,-5.67704296875,-5.70079296875,-3.2159296875,-4.27099609375,-0.982929687499999,-1.71435546875,-3.27899609375
-6.67929296875,-5.7344609375,0.18709765625,-8.95577734375,-5.86209375,-8.35588671875,-5.12466796875,-7.97565234375,-6.7668359375,-3.669796875,-7.9198671875,-1.450640625,-6.347828125,-4.0319375,-9.51468359375,-7.271578125,-0.924121093750001,-0.427480468750001,-4.29423828125,-7.2250234375,-2.98370703125,-1.4876796875,-2.61687890625,-5.98404296875,-4.72779296875,-3.0539296875,-4.57199609375,-2.1839296875,-2.23135546875,-2.45099609375
-7.20129296875,-5.7404609375,0.0410976562499998,-9.22677734375,-6.86009375,-8.90088671875,-5.14666796875,-7.90065234375,-7.7048359375,-4.916796875,-8.1098671875,-1.555640625,-2.420828125,-5.4769375,-9.71368359375,-6.863578125,-2.38112109375,-1.63448046875,-5.64323828125,-6.7340234375,-2.03370703125,-2.3766796875,-3.86987890625,-6.48204296875,-3.26579296875,-2.1379296875,-5.17099609375,-3.3739296875,-2.65735546875,-1.29699609375
-8.07029296875,-5.8964609375,-0.51790234375,-10.21877734375,-8.14109375,-9.64488671875,-5.74466796875,-8.26265234375,-9.2648359375,-6.238796875,-8.3498671875,-2.492640625,0.563171875,-7.2709375,-10.02568359375,-6.529578125,-3.92512109375,-3.51848046875,-7.12623828125,-6.2530234375,-1.19870703125,-2.9856796875,-5.19187890625,-7.22804296875,-1.91379296875,-1.0999296875,-6.18099609375,-4.5939296875,-3.15535546875,-0.123996093750002
-9.33329296875,-6.4694609375,-1.71890234375,-11.92177734375,-9.75109375,-10.89688671875,-7.25266796875,-9.27365234375,-11.2948359375,-7.702796875,-8.9808671875,-4.486640625,1.488171875,-9.2639375,-10.66768359375,-6.688578125,-5.52812109375,-5.86548046875,-8.66223828125,-6.0990234375,-1.12770703125,-3.5076796875,-6.60087890625,-8.23304296875,-1.32679296875,-0.7909296875,-7.69599609375,-6.0449296875,-3.98735546875,0.59200390625
-10.81829296875,-7.5224609375,-3.53190234375,-14.00777734375,-11.57409375,-12.72988671875,-9.65266796875,-10.76065234375,-13.4248359375,-9.324796875,-10.1978671875,-7.245640625,-0.199828125,-11.2059375,-11.76768359375,-7.539578125,-7.31212109375,-8.30448046875,-10.18523828125,-6.5070234375,-2.19070703125,-4.2976796875,-8.13887890625,-9.51604296875,-1.96879296875,-1.8009296875,-9.72199609375,-7.9149296875,-5.38335546875,0.425003906249999
-12.23429296875,-8.9124609375,-5.69990234375,-15.97977734375,-13.42609375,-14.98588671875,-12.58766796875,-12.26765234375,-15.2328359375,-11.117796875,-12.0288671875,-10.088640625,-4.313828125,-12.8569375,-13.36868359375,-9.029578125,-9.29012109375,-10.46348046875,-11.68123828125,-7.5990234375,-4.32570703125,-5.6726796875,-9.83687890625,-11.10304296875,-3.92379296875,-4.1079296875,-12.13699609375,-10.2089296875,-7.39635546875,-0.77999609375
-13.30929296875,-10.3574609375,-7.87190234375,-17.36577734375,-15.13809375,-17.36988671875,-15.48266796875,-13.33665234375,-16.4278359375,-13.088796875,-14.3498671875,-12.263640625,-9.904828125,-14.0819375,-15.40168359375,-10.917578125,-11.18012109375,-12.11248046875,-13.16023828125,-9.3500234375,-7.07770703125,-7.7116796875,-11.67187890625,-12.98304296875,-6.85579296875,-7.0719296875,-14.70799609375,-12.7199296875,-9.84835546875,-2.83199609375
-13.88329296875,-11.5414609375,-9.73790234375,-17.89077734375,-16.57909375,-19.55788671875,-17.73366796875,-13.73065234375,-16.9428359375,-15.190796875,-16.8888671875,-13.272640625,-15.442828125,-14.8849375,-17.66368359375,-12.877578125,-12.45212109375,-13.22348046875,-14.61323828125,-11.5630234375,-9.77070703125,-10.1926796875,-13.54887890625,-15.04104296875,-10.13079296875,-9.7219296875,-17.14799609375,-15.1319296875,-12.36735546875,-5.24499609375
-13.92229296875,-12.2114609375,-11.08190234375,-17.53577734375,-17.64809375,-21.27188671875,-18.90366796875,-13.47765234375,-16.9118359375,-17.272796875,-19.2578671875,-13.033640625,-19.262828125,-15.3799375,-19.83068359375,-14.594578125,-12.58012109375,-13.90648046875,-15.98823828125,-13.8840234375,-11.73470703125,-12.6836796875,-15.30787890625,-17.02504296875,-13.04179296875,-11.1819296875,-19.17399609375,-17.1519296875,-14.50835546875,-7.40099609375
-13.49529296875,-12.2554609375,-11.80490234375,-16.51777734375,-18.27409375,-22.33788671875,-18.86666796875,-12.78365234375,-16.5498359375,-19.087796875,-21.0388671875,-11.839640625,-20.212828125,-15.7389375,-21.53668359375,-15.836578125,-11.37312109375,-14.29648046875,-17.19123828125,-15.8840234375,-12.54070703125,-14.7056796875,-16.77187890625,-18.60404296875,-15.05379296875,-11.0689296875,-20.56899609375,-18.6039296875,-15.90435546875,-8.77799609375
-12.75029296875,-11.7564609375,-11.94590234375,-15.21277734375,-18.43709375,-22.74188671875,-17.86166796875,-11.93665234375,-16.0328359375,-20.362796875,-21.9418671875,-10.224640625,-18.188828125,-16.1179375,-22.49368359375,-16.529578125,-9.20012109375,-14.47548046875,-18.11623828125,-17.1930234375,-12.17570703125,-15.8926796875,-17.79687890625,-19.48804296875,-15.97179296875,-9.6979296875,-21.24299609375,-19.4609296875,-16.40935546875,-9.16899609375
-11.90029296875,-10.9914609375,-11.69090234375,-14.02477734375,-18.20609375,-22.64188671875,-16.43266796875,-11.24465234375,-15.4508359375,-20.925796875,-21.9598671875,-8.794640625,-14.193828125,-16.5799375,-22.59968359375,-16.771578125,-6.96912109375,-14.46348046875,-18.67023828125,-17.6370234375,-11.06970703125,-16.0846796875,-18.30887890625,-19.54804296875,-15.99779296875,-7.9969296875,-21.26699609375,-19.8219296875,-16.15135546875,-8.78199609375
-11.19629296875,-10.3534609375,-11.32890234375,-13.23277734375,-17.74709375,-22.30788671875,-15.22766796875,-10.98565234375,-14.8258359375,-20.792796875,-21.3988671875,-8.057640625,-9.826828125,-17.0419375,-21.95768359375,-16.789578125,-5.75412109375,-14.24448046875,-18.78423828125,-17.3020234375,-9.92870703125,-15.3646796875,-18.29787890625,-18.85904296875,-15.60779296875,-7.0959296875,-20.83299609375,-19.8209296875,-15.45835546875,-8.11999609375
-10.87029296875,-10.2054609375,-11.14490234375,-12.87577734375,-17.27609375,-22.02988671875,-14.73566796875,-11.34965234375,-14.1588359375,-20.172796875,-20.7478671875,-8.279640625,-6.529828125,-17.2879375,-20.80768359375,-16.833578125,-6.24812109375,-13.80448046875,-18.40223828125,-16.4830234375,-9.43170703125,-14.0016796875,-17.77287890625,-17.62904296875,-15.32379296875,-7.7809296875,-20.13999609375,-19.5309296875,-14.67335546875,-7.70799609375
-11.06329296875,-10.7294609375,-11.31190234375,-12.75577734375,-16.96609375,-22.01588671875,-15.06066796875,-12.37965234375,-13.4498359375,-19.353796875,-20.4348671875,-9.411640625,-5.076828125,-17.0609375,-19.41968359375,-17.063578125,-8.35312109375,-13.16148046875,-17.47823828125,-15.5430234375,-9.96570703125,-12.3216796875,-16.73287890625,-16.09004296875,-15.46479296875,-10.1229296875,-19.28899609375,-18.9239296875,-13.99535546875,-7.85099609375
-11.73929296875,-11.8384609375,-11.82590234375,-12.55077734375,-16.86409375,-22.31788671875,-15.87366796875,-13.91065234375,-12.7018359375,-18.567796875,-20.6168671875,-11.116640625,-5.510828125,-16.1979375,-18.01468359375,-17.483578125,-11.19712109375,-12.36148046875,-16.01223828125,-14.7570234375,-11.49470703125,-10.5946796875,-15.18287890625,-14.41904296875,-16.04379296875,-13.4759296875,-18.26499609375,-17.9329296875,-13.44435546875,-8.54499609375
-12.66129296875,-13.1934609375,-12.52990234375,-11.97877734375,-16.88509375,-22.79688671875,-16.59366796875,-15.54165234375,-11.9238359375,-17.910796875,-21.1128671875,-12.910640625,-7.370828125,-14.7209375,-16.75668359375,-17.952578125,-13.56012109375,-11.46148046875,-14.10523828125,-14.2390234375,-13.62070703125,-8.9946796875,-13.20387890625,-12.72104296875,-16.82679296875,-16.8319296875,-17.01799609375,-16.5579296875,-12.95335546875,-9.55999609375
-13.46629296875,-14.3384609375,-13.21990234375,-10.93377734375,-16.88709375,-23.18388671875,-16.70766796875,-16.74465234375,-11.1458359375,-17.360796875,-21.5188671875,-14.354640625,-9.934828125,-12.8559375,-15.77368359375,-18.256578125,-14.47012109375,-10.50748046875,-11.98623828125,-13.9620234375,-15.76470703125,-7.6406796875,-10.99087890625,-11.06904296875,-17.48979296875,-19.2889296875,-15.56999609375,-14.9439296875,-12.47435546875,-10.58099609375
-13.81929296875,-14.8984609375,-13.76290234375,-9.56577734375,-16.77209375,-23.20688671875,-16.05366796875,-17.09865234375,-10.4388359375,-16.863796875,-21.4308671875,-15.211640625,-12.355828125,-10.9539375,-15.15568359375,-18.214578125,-13.64812109375,-9.54948046875,-9.96623828125,-13.8150234375,-17.39970703125,-6.6336796875,-8.82687890625,-9.54704296875,-17.75579296875,-20.3649296875,-14.04899609375,-13.3679296875,-12.00935546875,-11.32199609375
-13.57329296875,-14.7384609375,-14.13690234375,-8.21077734375,-16.53309375,-22.72288671875,-14.87866796875,-16.51365234375,-9.8918359375,-16.412796875,-20.6488671875,-15.490640625,-13.765828125,-9.3709375,-14.91068359375,-17.743578125,-11.59212109375,-8.64248046875,-8.33623828125,-13.6620234375,-18.20070703125,-6.0486796875,-6.98887890625,-8.25804296875,-17.44479296875,-20.0419296875,-12.63199609375,-12.1329296875,-11.56735546875,-11.56499609375
-12.81729296875,-13.9994609375,-14.35190234375,-7.20777734375,-16.20309375,-21.74888671875,-13.65966796875,-15.25265234375,-9.5608359375,-16.051796875,-19.2498671875,-15.342640625,-13.456828125,-8.3319375,-14.88768359375,-16.851578125,-9.26212109375,-7.83848046875,-7.25423828125,-13.3630234375,-18.06970703125,-5.8816796875,-5.63987890625,-7.26904296875,-16.47979296875,-18.5999296875,-11.43899609375,-11.4249296875,-11.11635546875,-11.15999609375
-11.81329296875,-12.9844609375,-14.32890234375,-6.70577734375,-15.77509375,-20.40288671875,-12.80566796875,-13.75865234375,-9.4148359375,-15.823796875,-17.5158671875,-14.919640625,-11.155828125,-7.8469375,-14.79168359375,-15.583578125,-7.58612109375,-7.15348046875,-6.68823828125,-12.7870234375,-17.07370703125,-6.0056796875,-4.77387890625,-6.54504296875,-14.87379296875,-16.4229296875,-10.44799609375,-11.2189296875,-10.57435546875,-10.04499609375
-10.85229296875,-12.0084609375,-13.89990234375,-6.59277734375,-15.16809375,-18.84088671875,-12.46466796875,-12.45665234375,-9.3158359375,-15.687796875,-15.8008671875,-14.280640625,-7.244828125,-7.7219375,-14.28868359375,-13.988578125,-7.03612109375,-6.55148046875,-6.42923828125,-11.8230234375,-15.36470703125,-6.1686796875,-4.22987890625,-5.92104296875,-12.73579296875,-13.9119296875,-9.49899609375,-11.2909296875,-9.84735546875,-8.28699609375
-10.14729296875,-11.2844609375,-12.94490234375,-6.58977734375,-14.27309375,-17.24688671875,-12.53866796875,-11.64465234375,-9.0588359375,-15.504796875,-14.4248671875,-13.443640625,-2.731828125,-7.6379375,-13.19568359375,-12.141578125,-7.49412109375,-5.96248046875,-6.18823828125,-10.4420234375,-13.16970703125,-6.0746796875,-3.76587890625,-5.18404296875,-10.28379296875,-11.4959296875,-8.40199609375,-11.3359296875,-8.90635546875,-6.15099609375
-9.77729296875,-10.9094609375,-11.56090234375,-6.43777734375,-13.06309375,-15.84588671875,-12.83766796875,-11.47265234375,-8.4668359375,-15.111796875,-13.6358671875,-12.515640625,1.082171875,-7.2759375,-11.62768359375,-10.212578125,-8.43112109375,-5.31948046875,-5.74723828125,-8.7680234375,-10.81570703125,-5.5216796875,-3.18387890625,-4.22004296875,-7.85679296875,-9.6549296875,-7.09499609375,-11.1399296875,-7.87435546875,-4.10499609375
-9.70529296875,-10.8894609375,-10.09190234375,-6.06077734375,-11.66909375,-14.87288671875,-13.23566796875,-11.92165234375,-7.4928359375,-14.444796875,-13.5838671875,-11.760640625,3.131171875,-6.4429375,-9.98768359375,-8.488578125,-9.27312109375,-4.61448046875,-5.08823828125,-7.1180234375,-8.72270703125,-4.5126796875,-2.43987890625,-3.13004296875,-5.88079296875,-8.8309296875,-5.74399609375,-10.6949296875,-7.03735546875,-2.70799609375
-9.81629296875,-11.1714609375,-9.00190234375,-5.63077734375,-10.35909375,-14.49088671875,-13.70866796875,-12.78765234375,-6.2888359375,-13.614796875,-14.2818671875,-11.524640625,3.025171875,-5.1729375,-8.79968359375,-7.309578125,-9.71312109375,-3.92848046875,-4.39323828125,-5.9040234375,-7.31170703125,-3.2796796875,-1.67387890625,-2.21504296875,-4.74579296875,-9.2429296875,-4.69699609375,-10.1699296875,-6.73435546875,-2.38799609375
-9.96129296875,-11.6454609375,-8.66390234375,-5.49777734375,-9.42509375,-14.72088671875,-14.24966796875,-13.73165234375,-5.1948359375,-12.861796875,-15.5428671875,-12.068640625,1.193171875,-3.7559375,-8.45568359375,-6.937578125,-9.78212109375,-3.41448046875,-3.93023828125,-5.4480234375,-6.85270703125,-2.1966796875,-1.14387890625,-1.82104296875,-4.64779296875,-10.7589296875,-4.31899609375,-9.7999296875,-7.18235546875,-3.25299609375
-10.00229296875,-12.1744609375,-9.19690234375,-6.00377734375,-9.04609375,-15.40888671875,-14.76166796875,-14.40665234375,-4.6368359375,-12.444796875,-16.9788671875,-13.404640625,-1.337828125,-2.6529375,-9.04068359375,-7.421578125,-9.70012109375,-3.23648046875,-3.90423828125,-5.8280234375,-7.36370703125,-1.6426796875,-1.09287890625,-2.15804296875,-5.51279296875,-12.9359296875,-4.81499609375,-9.7459296875,-8.36235546875,-5.05199609375
-9.85229296875,-12.6294609375,-10.40190234375,-7.27777734375,-9.21609375,-16.26288671875,-15.00266796875,-14.58765234375,-4.9638359375,-12.522796875,-18.0848671875,-15.255640625,-3.400828125,-2.3079375,-10.31268359375,-8.535578125,-9.69612109375,-3.46848046875,-4.36323828125,-6.8440234375,-8.59370703125,-1.8516796875,-1.62887890625,-3.18104296875,-7.01679296875,-15.2039296875,-6.11399609375,-10.0169296875,-10.02435546875,-7.28899609375
-9.50529296875,-12.9164609375,-11.83290234375,-9.15477734375,-9.76509375,-16.93788671875,-14.68266796875,-14.25065234375,-6.2898359375,-13.094796875,-18.4058671875,-17.126640625,-4.189828125,-2.9379375,-11.81968359375,-9.830578125,-9.86312109375,-4.02448046875,-5.19123828125,-8.0970234375,-10.08770703125,-2.7796796875,-2.64187890625,-4.59304296875,-8.67479296875,-17.0039296875,-7.86699609375,-10.4369296875,-11.73835546875,-9.36299609375
-9.04929296875,-13.0074609375,-12.95090234375,-11.29477734375,-10.44609375,-17.15088671875,-13.65366796875,-13.55165234375,-8.4038359375,-14.000796875,-17.7158671875,-18.497640625,-3.629828125,-4.4109375,-13.09568359375,-10.794578125,-10.09212109375,-4.68248046875,-6.15123828125,-9.1420234375,-11.31470703125,-4.0716796875,-3.82087890625,-5.95904296875,-9.95979296875,-17.8549296875,-9.53499609375,-10.6999296875,-12.98435546875,-10.68999609375
-8.64229296875,-12.9414609375,-13.31290234375,-13.37577734375,-11.03809375,-16.80488671875,-12.07366796875,-12.73865234375,-10.8128359375,-14.995796875,-16.1198671875,-19.018640625,-2.439828125,-6.3099375,-13.84668359375,-11.070578125,-10.08612109375,-5.20248046875,-7.00123828125,-9.6630234375,-11.85770703125,-5.1946796875,-4.78987890625,-6.90004296875,-10.47179296875,-17.4309296875,-10.60499609375,-10.5129296875,-13.31135546875,-10.84799609375
-8.46129296875,-12.8154609375,-12.73090234375,-15.21977734375,-11.43709375,-16.03388671875,-10.40966796875,-12.01865234375,-12.9258359375,-15.869796875,-14.0458671875,-18.647640625,-1.835828125,-8.1329375,-14.05468359375,-10.616578125,-9.51712109375,-5.47548046875,-7.61923828125,-9.6250234375,-11.58770703125,-5.7486796875,-5.32987890625,-7.28904296875,-10.12479296875,-15.7059296875,-10.84199609375,-9.7979296875,-12.55835546875,-9.76399609375
-8.62829296875,-12.7424609375,-11.36590234375,-16.78377734375,-11.67809375,-15.15788671875,-9.25466796875,-11.47365234375,-14.2868359375,-16.546796875,-12.0908671875,-17.648640625,-2.954828125,-9.5189375,-13.95968359375,-9.713578125,-8.29612109375,-5.60148046875,-8.05523828125,-9.2800234375,-10.72570703125,-5.7326796875,-5.52787890625,-7.30804296875,-9.21779296875,-13.0719296875,-10.42799609375,-8.8029296875,-11.00935546875,-7.82799609375
-9.14029296875,-12.7964609375,-9.71090234375,-18.07077734375,-11.90209375,-14.55388671875,-9.04866796875,-11.07665234375,-14.7438359375,-17.083796875,-10.7898671875,-16.436640625,-6.209828125,-10.3679375,-13.88968359375,-8.799578125,-6.75612109375,-5.82648046875,-8.45323828125,-8.9970234375,-9.71770703125,-5.5676796875,-5.72287890625,-7.32204296875,-8.29179296875,-10.2619296875,-9.85899609375,-8.0229296875,-9.32235546875,-5.79399609375
-9.82929296875,-12.9614609375,-8.39890234375,-19.02977734375,-12.25809375,-14.47888671875,-9.85566796875,-10.74565234375,-14.4668359375,-17.583796875,-10.4068671875,-15.362640625,-10.899828125,-10.7919375,-14.04568359375,-8.216578125,-5.53312109375,-6.37748046875,-8.89923828125,-9.0020234375,-8.99770703125,-5.8376796875,-6.27187890625,-7.63004296875,-7.82579296875,-8.0759296875,-9.62799609375,-7.9309296875,-8.21435546875,-4.45199609375
-10.42029296875,-13.1314609375,-7.89890234375,-19.53977734375,-12.81209375,-14.94088671875,-11.32266796875,-10.37265234375,-13.8128359375,-18.112796875,-10.8468671875,-14.555640625,-15.391828125,-10.9719375,-14.38068359375,-8.043578125,-5.11112109375,-7.29848046875,-9.33623828125,-9.2420234375,-8.76670703125,-6.9226796875,-7.30387890625,-8.26704296875,-7.97779296875,-7.0479296875,-9.92799609375,-8.6749296875,-8.12035546875,-4.26999609375
-10.65229296875,-13.1574609375,-8.26690234375,-19.49577734375,-13.52209375,-15.69188671875,-12.85166796875,-9.83165234375,-13.1818359375,-18.686796875,-11.7388671875,-13.920640625,-17.907828125,-11.0529375,-14.65268359375,-8.103578125,-5.36712109375,-8.41648046875,-9.60423828125,-9.4540234375,-8.93870703125,-8.7776796875,-8.62487890625,-9.01104296875,-8.54479296875,-7.2339296875,-10.54499609375,-9.9629296875,-8.99035546875,-5.18499609375
-10.41229296875,-12.9344609375,-9.11990234375,-18.95577734375,-14.25909375,-16.34788671875,-13.87366796875,-9.00365234375,-12.9028359375,-19.287796875,-12.6188671875,-13.267640625,-17.521828125,-11.1159375,-14.60368359375,-8.131578125,-5.53812109375,-9.43248046875,-9.56123828125,-9.3700234375,-9.24770703125,-10.9466796875,-9.83287890625,-9.53704296875,-9.11779296875,-8.2159296875,-11.01299609375,-11.1949296875,-10.32635546875,-6.67199609375
-9.77729296875,-12.4524609375,-9.84390234375,-18.19977734375,-14.84209375,-16.57088671875,-14.06966796875,-7.83565234375,-13.1598359375,-19.858796875,-13.1128671875,-12.465640625,-14.696828125,-11.1919375,-14.09768359375,-7.966578125,-4.70312109375,-10.07248046875,-9.15723828125,-8.8790234375,-9.42370703125,-12.7816796875,-10.51587890625,-9.60204296875,-9.31679296875,-9.3119296875,-10.87899609375,-11.7849296875,-11.42535546875,-7.99999609375
-8.93329296875,-11.7864609375,-9.88390234375,-17.60277734375,-15.07009375,-16.17388671875,-13.39766796875,-6.35265234375,-13.9288359375,-20.264796875,-13.0228671875,-11.497640625,-10.969828125,-11.2529375,-13.15068359375,-7.622578125,-2.46812109375,-10.18848046875,-8.43523828125,-8.0510234375,-9.32170703125,-13.7286796875,-10.41287890625,-9.12804296875,-8.95379296875,-9.9159296875,-9.92599609375,-11.4489296875,-11.70435546875,-8.56599609375
-8.05029296875,-11.0394609375,-8.97990234375,-17.39377734375,-14.76109375,-15.13988671875,-12.00166796875,-4.63665234375,-14.9628359375,-20.286796875,-12.3228671875,-10.433640625,-8.049828125,-11.1969375,-11.87568359375,-7.238578125,0.650878906249998,-9.78148046875,-7.47823828125,-7.0440234375,-8.96870703125,-13.5336796875,-9.48087890625,-8.18004296875,-8.08479296875,-9.8039296875,-8.24599609375,-10.3069296875,-10.95935546875,-8.14699609375
-7.20629296875,-10.3014609375,-7.28490234375,-17.50277734375,-13.81909375,-13.59988671875,-10.13966796875,-2.83565234375,-15.8598359375,-19.724796875,-11.1278671875,-9.395640625,-6.997828125,-10.8659375,-10.43068359375,-6.977578125,3.43787890625,-8.98448046875,-6.38423828125,-6.0270234375,-8.53270703125,-12.3096796875,-7.87887890625,-6.91304296875,-6.94579296875,-9.2709296875,-6.17499609375,-8.7799296875,-9.41635546875,-6.96099609375
-6.41029296875,-9.6524609375,-5.32190234375,-17.61677734375,-12.29109375,-11.80188671875,-8.17366796875,-1.22765234375,-16.2058359375,-18.528796875,-9.6628671875,-8.559640625,-7.967828125,-10.1269375,-8.98868359375,-6.966578125,4.66487890625,-8.02548046875,-5.26423828125,-5.1290234375,-8.24070703125,-10.4676796875,-5.90887890625,-5.52204296875,-5.82179296875,-8.9559296875,-4.12799609375,-7.3599296875,-7.57035546875,-5.50599609375
-5.66329296875,-9.1734609375,-3.76690234375,-17.39177734375,-10.37109375,-10.04788671875,-6.53066796875,-0.206652343749999,-15.7178359375,-16.859796875,-8.1948671875,-8.119640625,-10.437828125,-8.9409375,-7.70268359375,-7.235578125,3.80487890625,-7.13448046875,-4.23823828125,-4.4240234375,-8.25370703125,-8.5486796875,-3.92287890625,-4.19604296875,-4.90779296875,-9.4229296875,-2.42499609375,-6.3729296875,-5.88235546875,-4.23199609375
-4.98829296875,-8.9334609375,-3.09490234375,-16.65677734375,-8.33209375,-8.55988671875,-5.56466796875,-0.120652343749999,-14.3328359375,-15.020796875,-6.9328671875,-8.167640625,-13.581828125,-7.3869375,-6.64568359375,-7.663578125,1.31187890625,-6.44248046875,-3.40523828125,-3.9110234375,-8.55070703125,-7.0566796875,-2.22587890625,-3.06204296875,-4.21579296875,-10.7249296875,-1.18299609375,-5.8699296875,-4.56035546875,-3.25899609375
-4.43329296875,-8.9464609375,-3.34190234375,-15.50377734375,-6.44609375,-7.39988671875,-5.39366796875,-1.07065234375,-12.2368359375,-13.309796875,-5.9578671875,-8.603640625,-16.507828125,-5.6529375,-5.79068359375,-7.999578125,-1.72012109375,-5.95648046875,-2.81923828125,-3.5290234375,-8.91370703125,-6.3256796875,-1.02487890625,-2.16804296875,-3.60279296875,-12.3019296875,-0.325996093750001,-5.6939296875,-3.54135546875,-2.34399609375
-4.06129296875,-9.1574609375,-4.15690234375,-14.24677734375,-4.93009375,-6.50488671875,-5.85566796875,-2.87265234375,-9.8418359375,-11.916796875,-5.2578671875,-9.174640625,-18.376828125,-4.0289375,-5.06568359375,-8.006578125,-4.25712109375,-5.64848046875,-2.51223828125,-3.2040234375,-9.08770703125,-6.4336796875,-0.42487890625,-1.52804296875,-2.92179296875,-13.3269296875,0.267003906249999,-5.6649296875,-2.67735546875,-1.15599609375
-3.92829296875,-9.4714609375,-5.08090234375,-13.26077734375,-3.92409375,-5.81288671875,-6.61866796875,-5.18665234375,-7.6948359375,-10.890796875,-4.8158671875,-9.643640625,-18.531828125,-2.8509375,-4.44568359375,-7.642578125,-5.85012109375,-5.55748046875,-2.52123828125,-2.9320234375,-8.97870703125,-7.1976796875,-0.47587890625,-1.18804296875,-2.19379296875,-13.2729296875,0.60100390625,-5.7399296875,-1.97535546875,0.36900390625
-4.04529296875,-9.7874609375,-5.80990234375,-12.77777734375,-3.46009375,-5.32688671875,-7.34166796875,-7.66265234375,-6.2958359375,-10.180796875,-4.6518671875,-9.923640625,-16.734828125,-2.3879375,-3.98868359375,-7.107578125,-6.66212109375,-5.79848046875,-2.89923828125,-2.8020234375,-8.75270703125,-8.2646796875,-1.18587890625,-1.23604296875,-1.66679296875,-12.2909296875,0.50700390625,-6.0419296875,-1.68335546875,1.86100390625
-4.34229296875,-10.0004609375,-6.27490234375,-12.75877734375,-3.43109375,-5.07788671875,-7.80566796875,-9.99265234375,-5.8928359375,-9.682796875,-4.7758671875,-10.092640625,-13.357828125,-2.7019375,-3.79068359375,-6.726578125,-7.12712109375,-6.45448046875,-3.65823828125,-2.9450234375,-8.73570703125,-9.2636796875,-2.49387890625,-1.75204296875,-1.69379296875,-11.1499296875,-0.262996093750001,-6.7649296875,-2.18135546875,2.65000390625
-4.64329296875,-10.0004609375,-6.55490234375,-12.91977734375,-3.57909375,-5.02688671875,-7.93266796875,-11.88565234375,-6.3448359375,-9.253796875,-5.1028671875,-10.273640625,-9.319828125,-3.5709375,-3.87768359375,-6.741578125,-7.56812109375,-7.44048046875,-4.69323828125,-3.4130234375,-9.19770703125,-9.9316796875,-4.21187890625,-2.70904296875,-2.50079296875,-10.7709296875,-1.85999609375,-8.0529296875,-3.73135546875,2.13100390625
-4.70429296875,-9.6834609375,-6.73890234375,-12.85577734375,-3.55109375,-5.01688671875,-7.74766796875,-13.07765234375,-7.1578359375,-8.708796875,-5.4068671875,-10.514640625,-5.685828125,-4.5379375,-4.11668359375,-7.143578125,-8.02312109375,-8.44848046875,-5.72923828125,-4.0690234375,-10.14070703125,-10.1516796875,-5.99187890625,-3.91004296875,-3.97679296875,-11.6469296875,-4.16499609375,-9.8649296875,-6.22935546875,0.145003906249999
-4.29029296875,-8.9934609375,-6.83190234375,-12.19077734375,-3.00109375,-4.79288671875,-7.30666796875,-13.39365234375,-7.6668359375,-7.849796875,-5.3668671875,-10.720640625,-3.145828125,-5.0409375,-4.20868359375,-7.649578125,-8.29012109375,-9.00048046875,-6.36023828125,-4.5800234375,-11.21970703125,-9.8766796875,-7.35187890625,-4.98404296875,-5.63879296875,-13.4909296875,-6.72599609375,-11.8779296875,-9.10835546875,-2.82699609375
-3.29229296875,-7.9524609375,-6.74290234375,-10.67477734375,-1.73309375,-4.10088671875,-6.66166796875,-12.84365234375,-7.3218359375,-6.520796875,-4.6848671875,-10.691640625,-1.739828125,-4.5989375,-3.77668359375,-7.824578125,-8.09312109375,-8.60748046875,-6.18023828125,-4.5370234375,-11.86270703125,-9.0656796875,-7.79487890625,-5.48104296875,-6.81979296875,-15.3449296875,-8.85899609375,-13.4889296875,-11.49535546875,-5.80899609375
-1.81729296875,-6.6904609375,-6.36390234375,-8.29377734375,0.18990625,-2.82288671875,-5.87766796875,-11.69465234375,-5.9118359375,-4.687796875,-3.2338671875,-10.232640625,-1.023828125,-2.9949375,-2.53668359375,-7.296578125,-7.26712109375,-6.96448046875,-4.94123828125,-3.6410234375,-11.55570703125,-7.6816796875,-6.99687890625,-5.03404296875,-6.95879296875,-16.0929296875,-9.88199609375,-14.0129296875,-12.55535546875,-7.75199609375
-0.17929296875,-5.4344609375,-5.68890234375,-5.35677734375,2.43590625,-1.09288671875,-5.05966796875,-10.43165234375,-3.6578359375,-2.493796875,-1.1508671875,-9.280640625,-0.508828125,-0.3889375,-0.45368359375,-5.946578125,-5.90112109375,-4.11248046875,-2.69123828125,-1.8670234375,-10.11670703125,-5.7766796875,-4.96787890625,-3.52904296875,-5.85179296875,-15.0539296875,-9.37999609375,-12.9889296875,-11.86435546875,-8.00999609375
1.23470703125,-4.4454609375,-4.85190234375,-2.44077734375,4.52190625,0.72011328125,-4.32066796875,-9.56465234375,-1.1058359375,-0.254796874999999,1.1991328125,-7.927640625,-0.0258281250000003,2.7050625,2.19831640625,-3.952578125,-4.32312109375,-0.475480468750001,0.20676171875,0.5089765625,-7.79370703125,-3.5656796875,-2.10787890625,-1.19004296875,-3.71979296875,-12.2869296875,-7.39399609375,-10.4429296875,-9.58135546875,-6.57199609375
2.17470703125,-3.8904609375,-4.04290234375,-0.15977734375,6.02790625,2.18811328125,-3.68666796875,-9.33565234375,1.1291640625,1.650203125,3.3801328125,-6.333640625,0.268171875,5.6120625,4.92731640625,-1.687578125,-2.92012109375,3.26351953125,3.16576171875,3.0129765625,-5.12570703125,-1.3936796875,0.92412109375,1.47795703125,-1.08579296875,-8.4739296875,-4.40699609375,-6.9099296875,-6.34135546875,-3.96099609375
2.68570703125,-3.7154609375,-3.37390234375,1.15522265625,6.81090625,3.04511328125,-3.01366796875,-9.52865234375,2.6611640625,2.941203125,5.0881328125,-4.590640625,0.184171875,7.7820625,7.22331640625,0.461421875,-1.89012109375,6.41451953125,5.58276171875,5.1739765625,-2.67270703125,0.4093203125,3.47212109375,3.87195703125,1.46920703125,-4.5239296875,-1.15099609375,-3.2269296875,-2.95035546875,-0.90799609375
3.08470703125,-3.6254609375,-2.80090234375,1.63822265625,7.07190625,3.31611328125,-2.03966796875,-9.57265234375,3.4891640625,3.564203125,6.2481328125,-2.682640625,-0.172828125,8.9980625,8.75231640625,2.226421875,-1.14212109375,8.51651953125,7.03376171875,6.6809765625,-0.797707031250003,1.6763203125,5.12212109375,5.48395703125,3.51220703125,-1.2039296875,1.65100390625,-0.2369296875,-0.0903554687499994,1.94200390625
3.74870703125,-3.2424609375,-2.19390234375,1.81522265625,7.20690625,3.25411328125,-0.56466796875,-8.87765234375,3.9361640625,3.677203125,6.9701328125,-0.578640624999999,-0.374828125,9.3940625,9.42831640625,3.487421875,-0.429121093750002,9.45451953125,7.36676171875,7.4299765625,0.372292968749998,2.4173203125,5.76612109375,6.00995703125,4.82020703125,1.0010703125,3.46800390625,1.4350703125,1.79664453125,4.12600390625
4.84270703125,-2.3614609375,-1.45590234375,2.32822265625,7.52590625,3.16111328125,1.35333203125,-7.21365234375,4.3971640625,3.507203125,7.3901328125,1.617359375,0.0551718749999996,9.3110625,9.36031640625,4.229421875,0.403878906249998,9.43051953125,6.65976171875,7.4459765625,0.851292968749998,2.7013203125,5.52912109375,5.39395703125,5.32420703125,1.8490703125,4.04500390625,1.4920703125,2.48364453125,5.32300390625
6.16970703125,-1.1254609375,-0.600902343750001,3.61222265625,8.04090625,3.21011328125,3.35733203125,-4.88365234375,5.0991640625,3.208203125,7.5731328125,3.596359375,1.319171875,9.0730625,8.73631640625,4.486421875,1.28187890625,8.81751953125,5.14876171875,6.8239765625,0.699292968749998,2.5433203125,4.64112109375,3.83195703125,5.04120703125,1.2870703125,3.41800390625,-0.00192968749999878,1.93464453125,5.34600390625
7.25370703125,0.0185390624999997,0.24709765625,5.69922265625,8.48690625,3.39311328125,4.96033203125,-2.60665234375,5.9921640625,2.833203125,7.5201328125,4.933359375,3.255171875,8.8590625,7.77131640625,4.330421875,1.93887890625,7.99251953125,3.19176171875,5.7279765625,0.00729296874999719,1.9013203125,3.38512109375,1.75795703125,4.08820703125,-0.5219296875,1.89800390625,-2.6439296875,0.347644531250001,4.22900390625
7.62570703125,0.5605390625,0.93609765625,8.21622265625,8.54790625,3.58611328125,5.82933203125,-1.15865234375,6.8271640625,2.407203125,7.2691328125,5.309359375,5.491171875,8.6840625,6.69731640625,3.889421875,2.09687890625,7.20451953125,1.23676171875,4.4319765625,-1.08070703125,0.7773203125,2.09012109375,-0.234042968749999,2.70820703125,-3.1419296875,-0.00499609375000087,-5.7809296875,-1.82435546875,2.31000390625
7.09970703125,0.2175390625,1.38209765625,10.56222265625,8.08990625,3.67511328125,5.95433203125,-0.975652343749999,7.3261640625,1.990203125,6.9431328125,4.709359375,7.612171875,8.4800625,5.75431640625,3.359421875,1.66087890625,6.52951953125,-0.266238281250001,3.2809765625,-2.35870703125,-0.6996796875,1.07612109375,-1.58004296875,1.23220703125,-5.9409296875,-1.75499609375,-8.6939296875,-3.99035546875,0.15200390625
5.87370703125,-0.9264609375,1.58609765625,12.14922265625,7.23490625,3.61811328125,5.60833203125,-1.95965234375,7.3111640625,1.637203125,6.6801328125,3.459359375,9.206171875,8.1790625,5.13131640625,2.931421875,0.807878906249998,5.90951953125,-1.02023828125,2.5579765625,-3.62970703125,-2.2796796875,0.55612109375,-1.95104296875,-0.0587929687499997,-8.3319296875,-2.97999609375,-10.8159296875,-5.66235546875,-1.71299609375
4.40770703125,-2.4844609375,1.57809765625,12.61722265625,6.24890625,3.42111328125,5.12233203125,-3.58265234375,6.7601640625,1.339203125,6.5161328125,2.074359375,9.894171875,7.7530625,4.87831640625,2.704421875,-0.062121093750001,5.24351953125,-0.98123828125,2.3679765625,-4.77870703125,-3.6596796875,0.56812109375,-1.37704296875,-1.02979296875,-10.0229296875,-3.58399609375,-11.8719296875,-6.63935546875,-3.02899609375
3.21670703125,-3.9444609375,1.35209765625,11.97222265625,5.39390625,3.10811328125,4.70533203125,-5.16965234375,5.8021640625,1.006203125,6.3601328125,1.046359375,9.490171875,7.2310625,4.90731640625,2.645421875,-0.501121093750001,4.49051953125,-0.33623828125,2.6299765625,-5.76570703125,-4.5616796875,1.00112109375,-0.16204296875,-1.67079296875,-11.0459296875,-3.66899609375,-11.8769296875,-6.99735546875,-3.82899609375
2.67470703125,-4.8684609375,0.90109765625,10.60022265625,4.83390625,2.73111328125,4.42133203125,-6.13665234375,4.6621640625,0.531203125,6.0841328125,0.682359375000001,8.234171875,6.6990625,5.07231640625,2.655421875,-0.207121093750002,3.72551953125,0.62876171875,3.1819765625,-6.52970703125,-4.8026796875,1.68512109375,1.31995703125,-1.96579296875,-11.5549296875,-3.36899609375,-11.0239296875,-6.91335546875,-4.22099609375
2.87270703125,-5.0374609375,0.30509765625,9.12322265625,4.58990625,2.36511328125,4.24133203125,-6.14065234375,3.5561640625,-0.147796875,5.6411328125,1.055359375,6.815171875,6.2490625,5.24431640625,2.661421875,0.818878906249998,3.10851953125,1.63876171875,3.8619765625,-6.93570703125,-4.3696796875,2.45412109375,2.78995703125,-1.83179296875,-11.5969296875,-2.74199609375,-9.5709296875,-6.50835546875,-4.19099609375
3.55770703125,-4.5544609375,-0.249902343750001,8.08222265625,4.51890625,2.02511328125,4.08433203125,-5.18365234375,2.5711640625,-1.060796875,5.0631328125,1.999359375,6.013171875,5.8760625,5.30831640625,2.611421875,2.20587890625,2.73551953125,2.45276171875,4.5129765625,-6.85870703125,-3.4586796875,3.11812109375,4.05595703125,-1.19179296875,-11.0799296875,-1.81299609375,-7.8189296875,-5.81435546875,-3.60899609375
4.19970703125,-3.8344609375,-0.59590234375,7.61722265625,4.32790625,1.56211328125,3.80933203125,-3.67165234375,1.6021640625,-2.236796875,4.3521328125,3.136359375,6.176171875,5.4060625,5.11531640625,2.409421875,3.26687890625,2.49351953125,2.83276171875,4.9279765625,-6.35570703125,-2.4556796875,3.42312109375,4.90195703125,-0.13379296875,-9.9609296875,-0.69799609375,-6.1249296875,-4.85435546875,-2.41399609375
4.21170703125,-3.4304609375,-0.73490234375,7.36722265625,3.68290625,0.70011328125,3.26933203125,-2.30565234375,0.4281640625,-3.697796875,3.4201328125,3.975359375,6.960171875,4.5490625,4.47531640625,1.872421875,3.22687890625,2.05351953125,2.55176171875,4.8409765625,-5.74270703125,-1.8296796875,3.07912109375,5.03595703125,1.02220703125,-8.4189296875,0.31900390625,-4.8699296875,-3.73735546875,-0.78999609375
3.27170703125,-3.7424609375,-0.846902343750001,6.70222265625,2.40290625,-0.75788671875,2.45233203125,-1.75465234375,-1.1018359375,-5.364796875,2.1701328125,4.113359375,7.610171875,3.0900625,3.25831640625,0.831421874999999,1.60287890625,1.07151953125,1.50176171875,4.0469765625,-5.43870703125,-1.9566796875,1.90912109375,4.21995703125,1.85320703125,-6.7989296875,0.886003906249999,-4.3349296875,-2.65335546875,0.873003906249999
1.55370703125,-4.7624609375,-1.13290234375,5.16522265625,0.63290625,-2.67288671875,1.60533203125,-2.28365234375,-2.9008359375,-6.964796875,0.6751328125,3.468359375,7.566171875,1.0990625,1.56531640625,-0.690578125,-1.41012109375,-0.52948046875,-0.15423828125,2.6029765625,-5.66070703125,-2.9266796875,0.0351210937499999,2.50795703125,2.09420703125,-5.3459296875,0.801003906249999,-4.5479296875,-1.76235546875,2.20800390625
-0.303292968750001,-6.0444609375,-1.59890234375,2.83422265625,-1.13409375,-4.50288671875,1.16333203125,-3.55765234375,-4.6028359375,-8.051796875,-0.7238671875,2.359359375,6.869171875,-1.0129375,-0.205683593750001,-2.363578125,-4.84612109375,-2.41348046875,-1.93623828125,0.9139765625,-6.22970703125,-4.4626796875,-2.06587890625,0.36995703125,1.82020703125,-4.0169296875,0.17500390625,-5.2459296875,-1.09735546875,3.08100390625
-1.51529296875,-6.9534609375,-1.99490234375,0.371222656250001,-2.26209375,-5.52488671875,1.44433203125,-4.78165234375,-5.7268359375,-8.214796875,-1.5458671875,1.356359375,6.057171875,-2.6419375,-1.49368359375,-3.659578125,-7.37112109375,-3.96648046875,-3.21923828125,-0.4290234375,-6.70670703125,-6.0626796875,-3.75687890625,-1.49504296875,1.32920703125,-2.6309296875,-0.64899609375,-6.0249296875,-0.64035546875,3.55800390625
-1.57629296875,-7.0314609375,-1.93990234375,-1.26777734375,-2.31409375,-5.20188671875,2.29833203125,-5.08165234375,-5.9348359375,-7.371796875,-1.4608671875,0.949359375000001,5.707171875,-3.2899375,-1.88368359375,-4.148578125,-7.96612109375,-4.62248046875,-3.57523828125,-1.0320234375,-6.76870703125,-7.3016796875,-4.58987890625,-2.56604296875,0.80020703125,-1.2629296875,-1.39499609375,-6.6059296875,-0.517355468749999,3.65300390625
-0.497292968750001,-6.2174609375,-1.13390234375,-1.27077734375,-1.28409375,-3.43888671875,3.04233203125,-3.88565234375,-5.2128359375,-5.889796875,-0.5018671875,1.288359375,6.043171875,-2.7809375,-1.34468359375,-3.746578125,-6.40812109375,-4.14148046875,-3.01523828125,-0.9650234375,-6.48870703125,-8.0736796875,-4.55387890625,-2.80904296875,0.0492070312499999,-0.4509296875,-2.08899609375,-6.9959296875,-1.09435546875,3.14900390625
1.29170703125,-4.7894609375,0.500097656249999,0.69022265625,0.46190625,-0.55688671875,2.81733203125,-1.11065234375,-3.8358359375,-4.376796875,0.9891328125,2.173359375,6.908171875,-1.2849375,-0.19368359375,-2.715578125,-3.19812109375,-2.65248046875,-1.91323828125,-0.6690234375,-6.25570703125,-8.5766796875,-4.00287890625,-2.61004296875,-1.34379296875,-0.9259296875,-3.01399609375,-7.4209296875,-2.79335546875,1.70700390625
3.29470703125,-3.1074609375,2.81009765625,4.36022265625,2.47790625,2.95811328125,1.19033203125,2.89334765625,-2.1558359375,-3.270796875,2.6301328125,3.279359375,8.018171875,0.8470625,1.17231640625,-1.423578125,0.898878906249998,-0.496480468750001,-0.694238281250001,-0.5710234375,-6.40770703125,-9.0746796875,-3.34087890625,-2.40904296875,-3.63079296875,-3.0109296875,-4.40099609375,-8.0849296875,-5.73235546875,-0.79599609375
5.25270703125,-1.3964609375,5.50009765625,9.01822265625,4.51090625,6.71211328125,-1.46266796875,7.53834765625,-0.4008359375,-2.558796875,4.2421328125,4.399359375,9.205171875,3.2590625,2.53631640625,-0.0935781250000005,5.28687890625,1.96551953125,0.44876171875,-0.7490234375,-6.91570703125,-9.6736796875,-2.75487890625,-2.36404296875,-6.57079296875,-6.2149296875,-6.16599609375,-8.9849296875,-9.49435546875,-4.00799609375
5.25270703125,-1.3964609375,5.50009765625,9.01822265625,4.51090625,6.71211328125,-1.46266796875,7.53834765625,-0.4008359375,-2.558796875,4.2421328125,4.399359375,9.205171875,3.2590625,2.53631640625,-0.0935781250000005,5.28687890625,1.96551953125,0.44876171875,-0.7490234375,-6.91570703125,-9.6736796875,-2.75487890625,-2.36404296875,-6.57079296875,-6.2149296875,-6.16599609375,-8.9849296875,-9.49435546875,-4.00799609375
