"Fp1","Fpz","Fp2","F7","F3","Fz","F4","F8","FC5","FC1","FC2","FC6","T7","C3","Cz","C4","T8","CP5","CP1","CP2","CP6","P7","P3","Pz","P4","P8","POz","O1","Oz","O2"
-10.2132890625,-9.9456875,-4.67453125,-7.002546875,-8.02141015625,-13.54518359375,-2.95855859375,1.344828125,-9.1512109375,-13.39708984375,-6.43866796875,3.590703125,-7.35412109375,-15.5991875,-16.6672109375,-13.776296875,14.7501171875,-14.072421875,-16.77532421875,-15.0300234375,-4.57277734375,-10.784140625,-13.081984375,-14.8365234375,-12.040203125,-0.522789062499999,-13.00066796875,-8.07505078125,-3.5468046875,-5.20984765625
-14.7412890625,-13.4606875,-5.00353125,-8.513546875,-10.77541015625,-15.98018359375,-6.71355859375,-1.379171875,-9.3732109375,-16.84008984375,-9.55166796875,2.267703125,-10.02212109375,-17.9411875,-20.0822109375,-14.954296875,14.9181171875,-13.646421875,-19.41432421875,-16.3510234375,-5.96477734375,-11.768140625,-14.518984375,-16.9755234375,-14.644203125,-1.8257890625,-15.04366796875,-9.38405078125,-4.0508046875,-6.97184765625
-17.3342890625,-15.5486875,-5.21553125,-9.581546875,-12.72341015625,-17.37518359375,-9.19855859375,-3.143171875,-9.3982109375,-18.82408984375,-11.33666796875,0.744703125,-12.10812109375,-19.2801875,-21.7682109375,-15.638296875,12.8081171875,-13.210421875,-20.80532421875,-16.9910234375,-6.68277734375,-12.149140625,-15.376984375,-18.3945234375,-16.239203125,-2.6077890625,-16.84866796875,-10.66405078125,-5.0128046875,-8.65684765625
-17.9182890625,-16.2366875,-5.57153125,-10.283546875,-13.95841015625,-17.83918359375,-10.46555859375,-4.165171875,-9.4782109375,-19.37008984375,-11.90866796875,-0.994296875,-13.55412109375,-19.6061875,-21.7822109375,-15.994296875,8.2681171875,-13.078421875,-20.90632421875,-17.0190234375,-6.82577734375,-12.021140625,-15.628984375,-19.0115234375,-16.786203125,-2.8817890625,-18.27066796875,-11.83305078125,-6.2958046875,-10.14984765625
-17.0592890625,-16.0656875,-6.45953125,-10.878546875,-14.90541015625,-17.92718359375,-11.11655859375,-5.027171875,-10.0082109375,-19.02108984375,-11.86766796875,-2.915296875,-14.46112109375,-19.2271875,-20.7972109375,-16.376296875,1.8881171875,-13.585421875,-20.06932421875,-16.7290234375,-6.68977734375,-11.644140625,-15.393984375,-18.9045234375,-16.505203125,-2.7677890625,-19.11266796875,-12.71305078125,-7.5108046875,-11.24084765625
-15.6102890625,-15.7746875,-8.15753125,-11.632546875,-16.07941015625,-18.34318359375,-12.03155859375,-6.306171875,-11.2582109375,-18.53608984375,-11.95566796875,-4.965296875,-14.97012109375,-18.5661875,-19.7392109375,-17.078296875,-5.2038828125,-14.797421875,-18.82332421875,-16.4500234375,-6.52977734375,-11.200140625,-14.807984375,-18.2015234375,-15.683203125,-2.3637890625,-19.12766796875,-13.01705078125,-8.1218046875,-11.62184765625
-14.2922890625,-15.9136875,-10.61553125,-12.605546875,-17.75341015625,-19.51318359375,-13.84555859375,-8.228171875,-13.1132109375,-18.49808984375,-12.66766796875,-7.098296875,-15.15212109375,-17.9091875,-19.3372109375,-18.147296875,-11.5878828125,-16.347421875,-17.61532421875,-16.3720234375,-6.41777734375,-10.628140625,-13.914984375,-16.9935234375,-14.533203125,-1.7117890625,-18.10266796875,-12.44505078125,-7.6318046875,-10.99484765625
-13.4482890625,-16.5916875,-13.39353125,-13.586546875,-19.74241015625,-21.32218359375,-16.50955859375,-10.550171875,-15.0442109375,-19.06708984375,-14.03066796875,-9.239296875,-14.96212109375,-17.2881875,-19.8392109375,-19.370296875,-15.8618828125,-17.542421875,-16.64332421875,-16.4940234375,-6.25577734375,-9.705140625,-12.668984375,-15.3495234375,-13.176203125,-0.869789062499999,-15.99366796875,-10.86205078125,-5.8328046875,-9.25284765625
-13.1022890625,-17.5086875,-15.81753125,-14.207546875,-21.47641015625,-23.16418359375,-19.23855859375,-12.719171875,-16.3552109375,-19.98408984375,-15.63366796875,-11.235296875,-14.29812109375,-16.5471875,-21.0052109375,-20.448296875,-17.0878828125,-17.719421875,-15.87332421875,-16.6960234375,-5.92077734375,-8.298140625,-11.044984375,-13.4005234375,-11.717203125,-0.00178906249999944,-13.05566796875,-8.47005078125,-2.9878046875,-6.65784765625
-13.1612890625,-18.2366875,-17.23953125,-14.165546875,-22.27641015625,-24.29718359375,-20.93255859375,-14.151171875,-16.5392109375,-20.80508984375,-16.91066796875,-12.834296875,-13.09912109375,-15.5461875,-22.3382109375,-21.201296875,-15.3088828125,-16.611421875,-15.18132421875,-16.8640234375,-5.40977734375,-6.581140625,-9.186984375,-11.4115234375,-10.326203125,0.602210937500001,-9.85766796875,-5.84905078125,0.1621953125,-3.85684765625
-13.5822890625,-18.5266875,-17.26653125,-13.393546875,-21.70041015625,-24.24918359375,-20.83155859375,-14.471171875,-15.4982109375,-21.17408984375,-17.44666796875,-13.772296875,-11.41512109375,-14.3341875,-23.3662109375,-21.654296875,-11.8058828125,-14.505421875,-14.51732421875,-16.9660234375,-4.88177734375,-5.023140625,-7.439984375,-9.7685234375,-9.243203125,0.6172109375,-7.12366796875,-3.78305078125,2.6521953125,-1.68784765625
-14.3592890625,-18.4096875,-15.89753125,-12.098546875,-19.75841015625,-23.02218359375,-18.96455859375,-13.659171875,-13.5372109375,-20.94708984375,-17.15266796875,-13.895296875,-9.42912109375,-13.1601875,-23.8052109375,-21.959296875,-8.7188828125,-12.088421875,-13.96232421875,-17.0400234375,-4.58077734375,-4.139140625,-6.236984375,-8.8315234375,-8.673203125,-0.162789062499999,-5.46166796875,-2.91805078125,3.7121953125,-0.82884765625
-15.3772890625,-18.0446875,-13.51853125,-10.655546875,-16.91041015625,-21.01018359375,-16.10855859375,-12.050171875,-11.1832109375,-20.13908984375,-16.19466796875,-13.251296875,-7.45312109375,-12.2951875,-23.5372109375,-22.210296875,-7.9798828125,-10.081421875,-13.63432421875,-17.1000234375,-4.68077734375,-4.177140625,-5.862984375,-8.7505234375,-8.643203125,-1.6737890625,-5.10866796875,-3.42905078125,3.1401953125,-1.44984765625
-16.2792890625,-17.4826875,-10.73553125,-9.413546875,-13.84141015625,-18.70518359375,-13.30155859375,-10.204171875,-8.9362109375,-18.78208984375,-14.79366796875,-12.056296875,-5.89312109375,-11.8191875,-22.5032109375,-22.326296875,-10.1318828125,-8.875421875,-13.52032421875,-17.0470234375,-5.17477734375,-4.932140625,-6.250984375,-9.3385234375,-8.929203125,-3.5247890625,-5.82566796875,-4.89505078125,1.4191953125,-3.07984765625
-16.5052890625,-16.5526875,-8.11053125,-8.517546875,-11.14041015625,-16.42318359375,-11.26055859375,-8.668171875,-7.0672109375,-16.83208984375,-13.05466796875,-10.581296875,-5.10012109375,-11.5011875,-20.6172109375,-22.065296875,-13.8678828125,-8.363421875,-13.37632421875,-16.6560234375,-5.87277734375,-5.808140625,-6.944984375,-10.1125234375,-9.122203125,-5.1187890625,-7.00966796875,-6.45305078125,-0.4858046875,-4.77384765625
-15.5102890625,-14.9656875,-5.94753125,-7.846546875,-9.05441015625,-14.20118359375,-10.07455859375,-7.745171875,-5.5752109375,-14.20708984375,-10.94066796875,-9.025296875,-5.11112109375,-10.9061875,-17.8212109375,-21.169296875,-16.7918828125,-8.055421875,-12.79732421875,-15.6740234375,-6.52477734375,-6.087140625,-7.277984375,-10.4845234375,-8.836203125,-5.9117890625,-7.95766796875,-7.18105078125,-1.5688046875,-5.53484765625
-13.0402890625,-12.5236875,-4.28053125,-7.107546875,-7.45641015625,-11.89418359375,-9.28055859375,-7.382171875,-4.3062109375,-10.93608984375,-8.40066796875,-7.471296875,-5.47112109375,-9.6521875,-14.2452109375,-19.553296875,-16.9688828125,-7.406421875,-11.45432421875,-14.0030234375,-6.99277734375,-5.281140625,-6.727984375,-10.0565234375,-7.927203125,-5.7097890625,-8.18666796875,-6.52605078125,-1.2608046875,-4.78884765625
-9.3222890625,-9.3176875,-3.04653125,-6.036546875,-6.02341015625,-9.39318359375,-8.22755859375,-7.258171875,-3.1532109375,-7.32608984375,-5.55466796875,-5.947296875,-5.37312109375,-7.7041875,-10.3592109375,-17.434296875,-14.1628828125,-6.179421875,-9.36932421875,-11.8610234375,-7.33877734375,-3.404140625,-5.237984375,-8.8455234375,-6.626203125,-4.8067890625,-7.65066796875,-4.57205078125,0.3021953125,-2.67384765625
-5.0872890625,-5.8166875,-2.25053125,-4.588546875,-4.51841015625,-6.81118359375,-6.50555859375,-7.012171875,-2.1782109375,-4.00908984375,-2.80666796875,-4.557296875,-4.16212109375,-5.4861875,-6.9562109375,-15.313296875,-9.9098828125,-4.593421875,-7.02432421875,-9.7950234375,-7.77477734375,-1.019140625,-3.311984375,-7.3215234375,-5.469203125,-3.8407890625,-6.75266796875,-2.01205078125,2.3641953125,0.0221523437500002
-1.4392890625,-2.8066875,-1.98853125,-3.021546875,-2.99541015625,-4.54918359375,-4.26955859375,-6.497171875,-1.6042109375,-1.79308984375,-0.779667968750001,-3.585296875,-1.85612109375,-3.7231875,-4.9212109375,-13.809296875,-6.4248828125,-3.192421875,-5.20332421875,-8.5060234375,-8.49577734375,0.995859375,-1.792984375,-6.2055234375,-5.050203125,-3.4487890625,-6.11566796875,0.170949218750001,3.9391953125,2.23415234375
0.462710937499999,-1.1436875,-2.36053125,-1.815546875,-1.82341015625,-3.18918359375,-2.27955859375,-5.890171875,-1.6902109375,-1.34808984375,-0.0986679687500001,-3.460296875,0.75987890625,-3.0951875,-4.8762109375,-13.426296875,-5.1588828125,-2.537421875,-4.64032421875,-8.5540234375,-9.55077734375,1.824859375,-1.458984375,-6.1345234375,-5.745203125,-3.9227890625,-6.26266796875,1.14194921875,4.2701953125,3.10815234375
-0.131289062500002,-1.4056875,-3.35253125,-1.442546875,-1.47941015625,-3.24418359375,-1.57155859375,-5.590171875,-2.5532109375,-2.88408984375,-1.10466796875,-4.534296875,2.58487890625,-3.8801875,-6.8842109375,-14.361296875,-6.0078828125,-2.917421875,-5.65632421875,-10.0930234375,-10.83277734375,1.082859375,-2.639984375,-7.3515234375,-7.527203125,-5.0807890625,-7.34466796875,0.57494921875,3.1521953125,2.35815234375
-3.1152890625,-3.5636875,-4.75953125,-2.048546875,-2.21041015625,-4.84918359375,-2.86055859375,-5.936171875,-4.0112109375,-5.97608984375,-3.64466796875,-6.782296875,2.89087890625,-5.7731875,-10.3492109375,-16.411296875,-7.6448828125,-4.212421875,-7.96832421875,-12.7470234375,-12.14677734375,-0.995140625,-5.039984375,-9.5435234375,-9.960203125,-6.3827890625,-9.05166796875,-1.22705078125,0.9871953125,0.35515234375
-7.3702890625,-6.8686875,-6.16153125,-3.266546875,-3.77441015625,-7.56718359375,-6.01955859375,-6.953171875,-5.5382109375,-9.63508984375,-7.02866796875,-9.622296875,1.72887890625,-7.9641875,-14.1542109375,-19.003296875,-8.6288828125,-5.920421875,-10.74332421875,-15.6960234375,-13.25677734375,-3.639140625,-7.824984375,-11.9225234375,-12.327203125,-7.2037890625,-10.74066796875,-3.46505078125,-1.3878046875,-2.06184765625
-11.1222890625,-10.0646875,-7.00453125,-4.299546875,-5.44241015625,-10.43118359375,-9.99155859375,-8.272171875,-6.4222109375,-12.60508984375,-10.19766796875,-12.051296875,-0.175121093750001,-9.4331875,-16.9902109375,-21.341296875,-8.3648828125,-7.349421875,-12.88932421875,-17.9410234375,-13.89477734375,-5.874140625,-9.937984375,-13.5035234375,-13.869203125,-7.1157890625,-11.71966796875,-5.18305078125,-3.0598046875,-3.97184765625
-12.6842890625,-11.8486875,-6.79253125,-4.274546875,-6.30241015625,-12.27618359375,-13.21055859375,-9.284171875,-6.0772109375,-13.79908984375,-12.07766796875,-13.080296875,-1.88812109375,-9.3661875,-17.7712109375,-22.647296875,-7.2618828125,-7.888421875,-13.46832421875,-18.6480234375,-13.81977734375,-6.940140625,-10.531984375,-13.4945234375,-14.049203125,-6.0807890625,-11.55566796875,-5.67005078125,-3.4408046875,-4.75784765625
-11.2052890625,-11.3816875,-5.32253125,-2.690546875,-5.69241015625,-12.19318359375,-14.30555859375,-9.403171875,-4.3332109375,-12.69708984375,-11.97566796875,-12.200296875,-2.76312109375,-7.5141875,-16.0112109375,-22.417296875,-6.1878828125,-7.263421875,-12.07232421875,-17.4620234375,-12.91577734375,-6.621140625,-9.326984375,-11.6395234375,-12.761203125,-4.4687890625,-10.28466796875,-4.76805078125,-2.5198046875,-4.33384765625
-7.0172890625,-8.6156875,-2.84253125,0.305453125,-3.52041015625,-9.92218359375,-12.71455859375,-8.307171875,-1.5442109375,-9.55308984375,-9.85166796875,-9.595296875,-2.67612109375,-4.3381875,-12.0142109375,-20.600296875,-5.8418828125,-5.678421875,-9.00132421875,-14.6400234375,-11.29577734375,-5.308140625,-6.758984375,-8.3635234375,-10.383203125,-2.8917890625,-8.40566796875,-2.94205078125,-0.8538046875,-3.11284765625
-1.4932890625,-4.3246875,-0.00853125000000077,3.920453125,-0.338410156249999,-6.00218359375,-8.91455859375,-6.097171875,1.5117890625,-5.31908984375,-6.36266796875,-6.019296875,-1.96512109375,-0.885187500000001,-6.8172109375,-17.637296875,-6.5288828125,-3.780421875,-5.17732421875,-10.9740234375,-9.31177734375,-3.803140625,-3.830984375,-4.6435234375,-7.659203125,-1.9517890625,-6.67766796875,-1.08005078125,0.6881953125,-1.77984765625
3.4737109375,0.1243125,2.35046875,7.002453125,2.84858984375,-1.62118359375,-4.19855859375,-3.294171875,3.8977890625,-1.31708984375,-2.66166796875,-2.452296875,-1.14512109375,1.5868125,-1.8832109375,-14.351296875,-8.2658828125,-2.446421875,-1.81432421875,-7.5280234375,-7.46477734375,-2.947140625,-1.726984375,-1.6535234375,-5.440203125,-2.0067890625,-5.80366796875,-0.10405078125,1.3221953125,-0.99684765625
6.1627109375,3.2453125,3.57846875,8.514453125,4.97058984375,1.82881640625,-0.11355859375,-0.679171874999999,4.8677890625,1.23791015625,0.0123320312499988,0.278703125,-0.62112109375,2.1088125,1.3837890625,-11.689296875,-10.8928828125,-2.419421875,0.0446757812499996,-5.2560234375,-6.23377734375,-3.248140625,-1.331984375,-0.293523437500001,-4.380203125,-3.0517890625,-6.12866796875,-0.55105078125,0.7061953125,-1.13484765625
5.6787109375,4.0263125,3.46046875,8.007453125,5.34458984375,3.32581640625,2.19744140625,1.011828125,4.1597890625,1.69191015625,0.810332031249999,1.734703125,-0.54512109375,0.432812499999999,2.1467890625,-10.386296875,-14.0028828125,-3.959421875,-0.0563242187500013,-4.6450234375,-5.89277734375,-4.652140625,-2.852984375,-0.817523437500002,-4.687203125,-4.7207890625,-7.47366796875,-2.31405078125,-0.8718046875,-2.11484765625
2.2947109375,2.3573125,2.25146875,5.820453125,3.97158984375,2.62981640625,2.38044140625,1.344828125,2.0827890625,0.157910156250001,-0.410667968750001,1.878703125,-0.89912109375,-2.8521875,0.437789062499998,-10.707296875,-16.8338828125,-6.685421875,-1.82732421875,-5.5590234375,-6.42477734375,-6.592140625,-5.748984375,-2.7555234375,-6.064203125,-6.4107890625,-9.21266796875,-4.69305078125,-2.6258046875,-3.43484765625
-2.7412890625,-0.959687499999999,0.44946875,2.866453125,1.48758984375,0.293816406249999,0.81644140625,0.283828125,-0.682210937500001,-2.60908984375,-3.10366796875,0.892703125,-1.66012109375,-6.5851875,-2.9192109375,-12.440296875,-18.3858828125,-9.739421875,-4.41232421875,-7.3700234375,-7.57477734375,-8.294140625,-8.993984375,-5.1775234375,-7.875203125,-7.4927890625,-10.58466796875,-6.74705078125,-3.6718046875,-4.41184765625
-7.8392890625,-4.6936875,-1.48853125,0.116453125,-1.20841015625,-2.74418359375,-1.79555859375,-1.880171875,-3.4302109375,-5.63008984375,-6.38666796875,-1.042296875,-2.86012109375,-9.5721875,-6.7172109375,-15.108296875,-17.8228828125,-12.188421875,-6.81632421875,-9.3160234375,-9.00177734375,-9.151140625,-11.558984375,-7.1775234375,-9.470203125,-7.5507890625,-11.08766796875,-7.75405078125,-3.5078046875,-4.53284765625
-11.7712890625,-7.8306875,-3.31453125,-1.872546875,-3.41341015625,-5.67018359375,-4.88455859375,-4.688171875,-5.6962109375,-8.14208984375,-9.49566796875,-3.836296875,-4.45412109375,-11.0901875,-9.8822109375,-18.221296875,-15.0198828125,-13.433421875,-8.34832421875,-10.8650234375,-10.41577734375,-8.971140625,-12.836984375,-8.2735234375,-10.480203125,-6.5497890625,-10.71666796875,-7.52905078125,-2.2658046875,-3.73384765625
-14.0382890625,-9.9696875,-4.99353125,-3.118546875,-4.88741015625,-8.11518359375,-8.19855859375,-7.663171875,-7.3242109375,-9.84908984375,-12.04666796875,-7.383296875,-6.13412109375,-11.0991875,-11.8342109375,-21.376296875,-10.8478828125,-13.380421875,-8.84132421875,-11.8770234375,-11.64977734375,-7.982140625,-12.787984375,-8.5275234375,-10.912203125,-4.8427890625,-9.91166796875,-6.42905078125,-0.5978046875,-2.41884765625
-14.7732890625,-11.2616875,-6.61453125,-4.018546875,-5.81241015625,-10.12118359375,-11.66655859375,-10.412171875,-8.3492109375,-10.86308984375,-13.99366796875,-11.397296875,-7.31912109375,-10.0751875,-12.5432109375,-24.214296875,-6.8768828125,-12.330421875,-8.54732421875,-12.5060234375,-12.65877734375,-6.631140625,-11.782984375,-8.3435234375,-11.017203125,-3.0167890625,-9.22266796875,-5.06005078125,0.7251953125,-1.22184765625
-14.4212890625,-12.0686875,-8.26453125,-4.988546875,-6.53641015625,-11.87118359375,-15.09455859375,-12.648171875,-8.8342109375,-11.46008984375,-15.41166796875,-15.318296875,-7.42112109375,-8.6261875,-12.3372109375,-26.344296875,-4.5158828125,-10.709421875,-7.83532421875,-12.9550234375,-13.47777734375,-5.333140625,-10.280984375,-8.1255234375,-11.055203125,-1.6937890625,-8.92966796875,-3.90305078125,1.2311953125,-0.66184765625
-13.4932890625,-12.6656875,-9.92953125,-6.198546875,-7.32641015625,-13.42918359375,-17.99855859375,-14.158171875,-8.7822109375,-11.84408984375,-16.31466796875,-18.419296875,-6.25012109375,-7.1661875,-11.6222109375,-27.387296875,-4.1818828125,-8.839421875,-6.92932421875,-13.2520234375,-14.13577734375,-4.309140625,-8.573984375,-8.0115234375,-11.108203125,-1.3387890625,-8.86366796875,-3.08505078125,0.9431953125,-0.90984765625
-12.5042890625,-13.1766875,-11.42553125,-7.547546875,-8.25241015625,-14.67118359375,-19.74355859375,-14.813171875,-8.1842109375,-12.06108984375,-16.63766796875,-20.044296875,-4.23812109375,-5.8041875,-10.7062109375,-27.113296875,-5.1608828125,-6.883421875,-5.81732421875,-13.1960234375,-14.56477734375,-3.554140625,-6.737984375,-7.8195234375,-11.037203125,-2.1147890625,-8.52266796875,-2.39905078125,0.3151953125,-1.73784765625
-11.9372890625,-13.6426875,-12.43053125,-8.792546875,-9.20741015625,-15.39718359375,-19.86055859375,-14.621171875,-7.1492109375,-12.05508984375,-16.31366796875,-19.856296875,-2.25312109375,-4.4431875,-9.7362109375,-25.526296875,-6.3238828125,-4.917421875,-4.35732421875,-12.4470234375,-14.52677734375,-2.917140625,-4.731984375,-7.1675234375,-10.539203125,-3.7617890625,-7.37366796875,-1.48605078125,-0.0238046875,-2.61184765625
-12.1072890625,-14.0606875,-12.59353125,-9.696546875,-9.97541015625,-15.48418359375,-18.28555859375,-13.765171875,-5.9592109375,-11.76608984375,-15.33666796875,-17.948296875,-1.14612109375,-2.9531875,-8.7292109375,-22.827296875,-7.0938828125,-3.039421875,-2.43732421875,-10.6890234375,-13.64377734375,-2.224140625,-2.542984375,-5.6965234375,-9.259203125,-5.5797890625,-5.15366796875,-0.0490507812499992,0.4621953125,-2.86784765625
-12.9852890625,-14.3686875,-11.72053125,-10.106546875,-10.34241015625,-14.97918359375,-15.38155859375,-12.531171875,-4.9822109375,-11.20708984375,-13.79966796875,-14.810296875,-1.36012109375,-1.3271875,-7.6512109375,-19.331296875,-7.8198828125,-1.440421875,-0.12532421875,-7.8230234375,-11.59077734375,-1.397140625,-0.285984375,-3.3005234375,-6.961203125,-6.6447890625,-2.05466796875,1.97494921875,1.9851953125,-1.96484765625
-14.1882890625,-14.4666875,-9.93953125,-10.000546875,-10.22941015625,-14.09518359375,-11.83755859375,-11.175171875,-4.5022109375,-10.49908984375,-11.93266796875,-11.213296875,-2.85612109375,0.243812499999999,-6.5242109375,-15.459296875,-9.2348828125,-0.417421874999999,2.26167578125,-4.1180234375,-8.35477734375,-0.543140625,1.752015625,-0.286523437500001,-3.724203125,-6.2047890625,1.28733203125,4.31894921875,4.3181953125,0.24115234375
-15.1682890625,-14.2766875,-7.75053125,-9.510546875,-9.78341015625,-13.15718359375,-8.52855859375,-9.845171875,-4.6112109375,-9.85508984375,-10.11766796875,-8.010296875,-5.28612109375,1.3958125,-5.5082109375,-11.797296875,-11.4978828125,-0.311421874999999,4.19167578125,-0.241023437500003,-4.38577734375,0.0418593749999996,3.147015625,2.6444765625,-0.0302031249999999,-4.0417890625,3.98833203125,6.41694921875,6.8371953125,3.35415234375
-15.4542890625,-13.7936875,-5.90053125,-8.914546875,-9.32641015625,-12.48718359375,-6.31555859375,-8.601171875,-5.2302109375,-9.50608984375,-8.81266796875,-5.906296875,-8.19212109375,1.7328125,-4.8902109375,-9.040296875,-13.6478828125,-1.364421875,5.08367578125,2.9009765625,-0.492777343749998,-0.0151406249999999,3.480015625,4.6324765625,3.359796875,-0.5687890625,5.25933203125,7.60494921875,8.7581953125,6.54515234375
-14.8222890625,-13.0716875,-5.09453125,-8.528546875,-9.13941015625,-12.28118359375,-5.74855859375,-7.487171875,-6.1962109375,-9.59708984375,-8.35666796875,-5.209296875,-11.08412109375,1.0098125,-4.9572109375,-7.763296875,-14.0118828125,-3.552421875,4.53667578125,4.4939765625,2.47222265625,-0.967140625,2.531015625,5.0154765625,5.704796875,3.3642109375,4.75133203125,7.41594921875,9.4701953125,8.88915234375
-13.3692890625,-12.2006875,-5.66853125,-8.566546875,-9.27741015625,-12.53618359375,-6.78355859375,-6.567171875,-7.3432109375,-10.13908984375,-8.79466796875,-5.694296875,-13.44812109375,-0.743187500000001,-5.8422109375,-8.121296875,-11.3718828125,-6.502421875,2.51967578125,4.1539765625,3.96322265625,-2.787140625,0.434015624999999,3.6294765625,6.596796875,6.8352109375,2.72833203125,5.84794921875,8.8111953125,9.76315234375
-11.5602890625,-11.3596875,-7.41453125,-9.085546875,-9.59041015625,-13.10818359375,-8.77055859375,-5.931171875,-8.5482109375,-11.03908984375,-9.84866796875,-6.684296875,-14.83012109375,-3.2421875,-7.4452109375,-9.727296875,-6.0538828125,-9.594421875,-0.594324218750002,2.1039765625,3.93322265625,-5.137140625,-2.324984375,0.891476562499999,6.112796875,9.1762109375,-0.03466796875,3.40894921875,7.1301953125,9.09615234375
-10.1872890625,-10.8806875,-9.67153125,-10.035546875,-9.94241015625,-13.85618359375,-10.78055859375,-5.652171875,-9.7582109375,-12.19808984375,-11.07766796875,-7.366296875,-15.03712109375,-6.0781875,-9.4782109375,-11.825296875,-0.0368828125,-12.188421875,-4.16532421875,-0.910023437500003,2.79622265625,-7.461140625,-5.075984375,-2.3745234375,4.742796875,10.1382109375,-2.56966796875,0.928949218750001,5.1221953125,7.36515234375
-10.1092890625,-11.1976875,-11.64653125,-11.330546875,-10.42341015625,-14.75118359375,-12.10055859375,-5.738171875,-10.9762109375,-13.57408984375,-12.12066796875,-7.198296875,-14.28412109375,-8.8701875,-11.5922109375,-13.651296875,4.1711171875,-13.856421875,-7.50932421875,-3.9350234375,1.21722265625,-9.153140625,-7.200984375,-5.2705234375,3.146796875,9.8682109375,-4.09966796875,-0.76605078125,3.5251953125,5.36515234375
-11.8242890625,-12.6306875,-12.75553125,-12.855546875,-11.31741015625,-15.85518359375,-12.53955859375,-6.079171875,-12.1752109375,-15.16008984375,-12.86666796875,-6.153296875,-13.13612109375,-11.3371875,-13.4842109375,-14.755296875,5.1281171875,-14.474421875,-10.08532421875,-6.1690234375,-0.148777343749999,-9.714140625,-8.318984375,-7.1575234375,1.887796875,8.7762109375,-4.30166796875,-1.16305078125,2.8611953125,3.86415234375
-15.0842890625,-15.0876875,-12.81153125,-14.404546875,-12.82441015625,-17.17018359375,-12.36055859375,-6.465171875,-13.2022109375,-16.86808984375,-13.40666796875,-4.652296875,-12.23712109375,-13.2651875,-14.9212109375,-15.075296875,3.3541171875,-14.147421875,-11.58232421875,-7.2120234375,-0.843777343749998,-8.902140625,-8.352984375,-7.8205234375,1.262796875,7.3882109375,-3.35066796875,-0.21305078125,3.2931953125,3.33015234375
-18.8312890625,-17.9016875,-11.98253125,-15.644546875,-14.75141015625,-18.47818359375,-11.95055859375,-6.667171875,-13.7592109375,-18.39908984375,-13.81466796875,-3.217296875,-11.96712109375,-14.4231875,-15.7052109375,-14.791296875,0.8611171875,-13.058421875,-11.89932421875,-7.0950234375,-0.684777343749999,-6.818140625,-7.462984375,-7.4355234375,1.283796875,6.2022109375,-1.76566796875,1.70394921875,4.6301953125,3.81915234375
-21.5482890625,-19.9746875,-10.58253125,-16.152546875,-16.42941015625,-19.31518359375,-11.47855859375,-6.518171875,-13.4822109375,-19.23808984375,-13.94766796875,-2.145296875,-12.22112109375,-14.5271875,-15.6472109375,-14.078296875,-0.264882812500001,-11.350421875,-11.09532421875,-6.1430234375,0.251222656250001,-3.894140625,-5.941984375,-6.3955234375,1.761796875,5.5512109375,-0.162667968749998,3.94494921875,6.4111953125,5.00515234375
-21.9042890625,-20.2266875,-8.85953125,-15.540546875,-16.96441015625,-19.11818359375,-10.77255859375,-5.936171875,-12.1072109375,-18.80808984375,-13.44866796875,-1.412296875,-12.39012109375,-13.3211875,-14.6022109375,-13.009296875,0.8171171875,-9.141421875,-9.35432421875,-4.7850234375,1.66322265625,-0.776140625,-4.133984375,-5.1355234375,2.400796875,5.4792109375,0.962332031250002,5.81694921875,8.0401953125,6.32715234375
-19.3522890625,-18.0976875,-6.92653125,-13.623546875,-15.69041015625,-17.47218359375,-9.46155859375,-4.911171875,-9.6062109375,-16.74408984375,-11.96066796875,-0.831296875,-11.61112109375,-10.7541875,-12.5572109375,-11.616296875,3.3551171875,-6.624421875,-6.98332421875,-3.4180234375,3.09322265625,1.873859375,-2.395984375,-4.0075234375,2.863796875,5.7062109375,1.34233203125,6.77294921875,8.9511953125,7.18315234375
-14.3372890625,-13.7926875,-4.84453125,-10.542546875,-12.53341015625,-14.30118359375,-7.21955859375,-3.499171875,-6.2482109375,-13.09008984375,-9.37066796875,-0.258296875,-9.23712109375,-7.1191875,-9.6912109375,-10.007296875,5.6461171875,-4.137421875,-4.37632421875,-2.3110234375,4.05622265625,3.563859375,-1.067984375,-3.2245234375,2.864796875,5.7572109375,0.964332031250001,6.55694921875,8.7871953125,7.15615234375
-8.0232890625,-8.1366875,-2.73753125,-6.755546875,-8.05341015625,-9.90018359375,-4.00455859375,-1.806171875,-2.5482109375,-8.32208984375,-5.88666796875,0.328703125,-5.29412109375,-3.0321875,-6.3412109375,-8.382296875,6.0831171875,-2.116421875,-1.92632421875,-1.5480234375,4.23322265625,4.118859375,-0.391984375,-2.8135234375,2.287796875,5.2252109375,0.0293320312500001,5.29594921875,7.5311953125,6.18615234375
-1.7782890625,-2.2376875,-0.78153125,-2.891546875,-3.16941015625,-4.83918359375,-0.155558593749999,0.0428281250000007,0.8747890625,-3.20508984375,-1.96166796875,0.878703124999999,-0.614121093750001,0.746812499999999,-2.8942109375,-6.933296875,3.9351171875,-0.926421874999999,0.0846757812499987,-1.0220234375,3.62622265625,3.731859375,-0.408984375000001,-2.6105234375,1.277796875,4.0262109375,-1.11466796875,3.47594921875,5.5571953125,4.62115234375
3.2377109375,2.8143125,0.881468749999999,0.420453125,1.18558984375,0.148816406249999,3.65044140625,1.908828125,3.4487890625,1.40291015625,1.83333203125,1.346703125,3.48887890625,3.5348125,0.305789062500001,-5.759296875,-0.4528828125,-0.718421874999999,1.53167578125,-0.515023437500002,2.56222265625,2.864859375,-0.932984375,-2.3355234375,0.199796875000001,2.4692109375,-2.08666796875,1.76994921875,3.5221953125,3.07115234375
6.2087109375,6.1083125,2.18946875,2.646453125,4.28358984375,4.25381640625,6.61344140625,3.597828125,4.7467890625,4.72991015625,4.90533203125,1.725703125,5.79687890625,4.9028125,2.9627890625,-4.881296875,-5.8838828125,-1.395421875,2.39967578125,0.137976562499997,1.50322265625,2.018859375,-1.657984375,-1.7465234375,-0.539203125,1.0742109375,-2.62166796875,0.732949218750001,2.0821953125,2.11515234375
6.6597109375,7.0283125,3.11746875,3.383453125,5.66158984375,6.70781640625,8.10544140625,4.825828125,4.5427890625,6.23591015625,6.73233203125,2.035703125,5.66987890625,4.7518125,4.8067890625,-4.317296875,-10.7088828125,-2.705421875,2.70667578125,0.910976562499998,0.814222656250001,1.484859375,-2.307984375,-0.783523437500001,-0.704203124999999,0.260210937500001,-2.66666796875,0.54194921875,1.5791953125,2.00915234375
4.5267109375,5.4173125,3.62046875,2.446453125,5.17258984375,7.01081640625,7.92344140625,5.291828125,2.9057890625,5.76991015625,7.01133203125,2.315703125,3.25287890625,3.3498125,5.6157890625,-4.102296875,-13.2388828125,-4.315421875,2.49967578125,1.6039765625,0.615222656250001,1.230859375,-2.734984375,0.417476562499999,-0.307203124999999,0.150210937500001,-2.35666796875,0.94994921875,1.8991953125,2.57615234375
0.321710937499999,1.7383125,3.68046875,0.0384531250000002,3.10358984375,5.20181640625,6.36944140625,4.873828125,0.2997890625,3.67891015625,5.81833203125,2.625703125,-0.60812109375,1.3048125,5.3377890625,-4.215296875,-12.2858828125,-5.820421875,1.92967578125,2.0099765625,0.84422265625,1.019859375,-2.848984375,1.6654765625,0.490796875000001,0.6012109375,-1.84266796875,1.49794921875,2.6661953125,3.37115234375
-4.8012890625,-2.9176875,3.39446875,-3.164546875,0.230589843750002,1.98481640625,4.13144140625,3.776828125,-2.4232109375,0.79291015625,3.67433203125,3.059703125,-4.63412109375,-0.5561875,4.2007890625,-4.465296875,-7.7448828125,-6.732421875,1.32567578125,2.1319765625,1.42522265625,0.668859375,-2.502984375,2.9004765625,1.566796875,1.4102109375,-1.11466796875,1.86794921875,3.5971953125,4.02115234375
-9.3162890625,-7.1116875,2.98246875,-6.167546875,-2.36941015625,-1.46018359375,2.01544140625,2.498828125,-4.2782109375,-1.80408984375,1.39733203125,3.721703125,-7.52612109375,-1.4241875,2.6997890625,-4.512296875,-0.8858828125,-6.564421875,1.14267578125,2.2439765625,2.39322265625,0.243859375,-1.464984375,4.2724765625,2.933796875,2.4812109375,0.0553320312500016,2.09594921875,4.7081953125,4.47815234375
-11.8792890625,-9.5696875,2.67046875,-8.049546875,-3.75241015625,-3.94518359375,0.65344140625,1.596828125,-4.5362109375,-3.16808984375,-0.233667968750002,4.678703125,-8.41612109375,-0.7991875,1.4087890625,-4.047296875,6.0301171875,-5.028421875,1.76267578125,2.7289765625,3.85122265625,0.0268593749999999,0.440015624999999,6.0084765625,4.666796875,3.8072109375,1.93433203125,2.48694921875,6.1991953125,5.00015234375
-11.8492890625,-9.6586875,2.51346875,-8.349546875,-3.52141015625,-4.77518359375,0.302441406250001,1.443828125,-3.0512109375,-2.87808984375,-0.829667968750002,5.887703125,-7.20512109375,1.2838125,0.715789062500001,-3.025296875,10.7121171875,-2.247421875,3.25267578125,3.7929765625,5.79122265625,0.285859375,3.110015625,8.1624765625,6.705796875,5.3122109375,4.52633203125,3.29694921875,8.1451953125,5.87615234375
-9.4572890625,-7.5836875,2.30546875,-7.240546875,-1.97141015625,-3.99218359375,0.815441406250001,2.058828125,-0.3252109375,-1.20608984375,-0.55066796875,7.132703125,-4.60012109375,4.2468125,0.652789062499998,-1.759296875,11.8291171875,1.181578125,5.25167578125,5.2649765625,7.93522265625,1.025859375,6.057015625,10.4414765625,8.714796875,6.7032109375,7.37533203125,4.43194921875,10.2621953125,7.09715234375
-5.6222890625,-4.2326875,1.67046875,-5.407546875,0.128589843750001,-2.27018359375,1.74044140625,3.071828125,2.7097890625,1.03991015625,0.0413320312499987,8.004703125,-1.76712109375,7.1738125,0.911789062499999,-0.793296874999999,9.4081171875,4.349578125,7.07067578125,6.6289765625,9.73622265625,1.942859375,8.535015625,12.2584765625,10.142796875,7.4832109375,9.65333203125,5.42594921875,11.9261953125,8.23615234375
-1.5822890625,-0.7986875,0.329468749999999,-3.728546875,1.95758984375,-0.537183593750001,2.53144140625,3.842828125,5.0737890625,2.90591015625,0.325332031249999,7.993703125,0.25187890625,9.1688125,1.0467890625,-0.610296875,4.5481171875,6.370578125,8.01367578125,7.2949765625,10.58922265625,2.606859375,9.874015625,13.0154765625,10.481796875,7.1672109375,10.54033203125,5.72494921875,12.4511953125,8.65415234375
1.4857109375,1.6243125,-1.58553125,-2.872546875,3.02158984375,0.45481640625,2.77244140625,3.735828125,6.1437890625,3.72591015625,-0.0516679687500012,6.716703125,0.998878906249999,9.7128125,0.736789062500002,-1.365296875,-1.1838828125,6.762578125,7.73067578125,6.9509765625,10.17022265625,2.749859375,9.831015625,12.4684765625,9.596796875,5.6062109375,9.68433203125,5.08694921875,11.5041953125,7.91815234375
2.7347109375,2.3483125,-3.42753125,-3.033546875,3.26758984375,0.398816406249999,2.31644140625,2.449828125,5.8687890625,3.37491015625,-1.03966796875,4.167703125,0.65087890625,8.8468125,-0.0322109375000004,-2.786296875,-6.2558828125,5.662578125,6.42467578125,5.7829765625,8.68022265625,2.425859375,8.742015625,10.9284765625,7.895796875,3.2112109375,7.46033203125,3.78394921875,9.3981953125,6.16215234375
1.8187109375,1.2363125,-4.31753125,-3.930546875,2.92158984375,-0.56418359375,1.26044140625,0.198828125,4.6797890625,2.22291015625,-2.28366796875,0.850703125,-0.31312109375,7.0988125,-0.9712109375,-4.296296875,-9.4728828125,3.751578125,4.76267578125,4.4079765625,6.82822265625,1.935859375,7.363015625,9.1714765625,6.208796875,0.904210937500001,4.85033203125,2.48694921875,7.0481953125,4.13615234375
-1.0132890625,-1.3026875,-3.66053125,-5.059546875,2.23658984375,-2.00418359375,-0.156558593750001,-2.382171875,3.1727890625,0.86491015625,-3.32166796875,-2.337296875,-1.49612109375,5.1888125,-1.6562109375,-5.257296875,-10.1748828125,1.921578125,3.53767578125,3.5889765625,5.52422265625,1.600859375,6.481015625,8.0874765625,5.416796875,-0.251789062499999,3.00033203125,1.90194921875,5.5291953125,2.87315234375
-4.9252890625,-4.4466875,-1.55153125,-5.997546875,1.36658984375,-3.41218359375,-1.60655859375,-4.517171875,1.8027890625,-0.20308984375,-3.77066796875,-4.413296875,-2.71212109375,3.6928125,-1.7452109375,-5.205296875,-8.3618828125,0.838578125000002,3.27467578125,3.8789765625,5.44522265625,1.562859375,6.515015625,8.2464765625,6.023796875,0.4262109375,2.68433203125,2.37294921875,5.5241953125,3.12315234375
-8.6942890625,-7.2036875,1.20946875,-6.546546875,0.408589843750001,-4.35618359375,-2.66455859375,-5.584171875,0.7717890625,-0.77308984375,-3.45366796875,-4.678296875,-3.82612109375,2.8398125,-1.1432109375,-4.024296875,-4.6618828125,0.654578125,3.98967578125,5.3639765625,6.70622265625,1.739859375,7.327015625,9.6184765625,7.907796875,2.8352109375,3.95333203125,3.70194921875,6.9721953125,4.90015234375
-11.1432890625,-8.7516875,3.50246875,-6.720546875,-0.522410156249999,-4.60518359375,-2.89655859375,-5.313171875,0.090789062499999,-0.94408984375,-2.48666796875,-3.016296875,-4.56412109375,2.5178125,-0.0442109375000008,-2.030296875,-0.1008828125,1.009578125,5.21167578125,7.6139765625,8.79922265625,1.939859375,8.337015625,11.5954765625,10.366796875,6.0722109375,6.14233203125,5.25594921875,9.1301953125,7.41115234375
-11.6272890625,-8.7376875,4.41346875,-6.625546875,-1.29041015625,-4.21918359375,-2.09055859375,-3.854171875,-0.2992109375,-0.999089843749999,-1.27766796875,0.0177031249999997,-4.53212109375,2.4508125,1.1427890625,0.0947031249999988,4.1801171875,1.312578125,6.26167578125,9.8419765625,10.81622265625,2.036859375,8.869015625,13.2904765625,12.447796875,8.8512109375,8.23933203125,6.31994921875,10.9671953125,9.47215234375
-10.2592890625,-7.3846875,3.62446875,-6.329546875,-1.79941015625,-3.53918359375,-0.49455859375,-1.694171875,-0.4182109375,-1.22508984375,-0.398667968750001,3.358703125,-3.46712109375,2.4058125,1.9527890625,1.546703125,7.1511171875,1.136578125,6.59667578125,11.2219765625,11.87922265625,2.071859375,8.520015625,13.9634765625,13.366796875,10.1352109375,9.39033203125,6.47194921875,11.6851953125,10.14915234375
-7.7422890625,-5.3376875,1.49346875,-5.790546875,-2.03941015625,-3.04818359375,1.19644140625,0.518828125000001,-0.2192109375,-1.78408984375,-0.355667968750002,5.833703125,-1.49512109375,2.2918125,2.0477890625,1.751703125,8.0701171875,0.473578125000001,6.04667578125,11.2199765625,11.54322265625,2.234859375,7.348015625,13.3344765625,12.820796875,9.6052109375,9.27633203125,5.77894921875,11.1021953125,9.22715234375
-5.0092890625,-3.3706875,-1.19553125,-4.914546875,-2.11641015625,-3.18118359375,2.11044140625,2.155828125,0.3387890625,-2.67308984375,-1.36566796875,6.588703125,0.84687890625,2.1128125,1.3257890625,0.589703125,6.6971171875,-0.306421875,4.82667578125,9.7749765625,9.95522265625,2.712859375,5.781015625,11.6354765625,11.028796875,7.7052109375,8.17033203125,4.70494921875,9.6881953125,7.24215234375
-2.9172890625,-2.1176875,-3.64253125,-3.730546875,-2.24541015625,-4.16018359375,1.58344140625,2.720828125,1.1557890625,-3.77108984375,-3.26666796875,5.352703125,2.85287890625,1.8558125,-0.074210937500002,-1.594296875,3.4351171875,-0.736421875,3.34367578125,7.2749765625,7.68522265625,3.516859375,4.334015625,9.4204765625,8.537796875,5.2992109375,6.69933203125,3.84494921875,8.2311953125,5.11315234375
-2.0452890625,-1.9066875,-5.38653125,-2.508546875,-2.70241015625,-5.91318359375,-0.55255859375,1.942828125,1.9177890625,-4.90008984375,-5.57766796875,2.408703125,3.96987890625,1.4348125,-1.8332109375,-4.192296875,-0.7818828125,-0.566421875,1.98067578125,4.3629765625,5.39522265625,4.434859375,3.325015625,7.2924765625,5.961796875,3.2092109375,5.49833203125,3.64894921875,7.3951953125,3.67615234375
-2.5612890625,-2.6996875,-6.41053125,-1.693546875,-3.68341015625,-8.05918359375,-3.88055859375,-0.118171874999999,2.2197890625,-5.86108984375,-7.68466796875,-1.592296875,3.99987890625,0.747812499999998,-3.5492109375,-6.576296875,-4.9218828125,0.0955781250000012,0.955675781249999,1.7059765625,3.56122265625,5.137859375,2.775015625,5.6854765625,3.776796875,1.9042109375,4.94733203125,4.28194921875,7.4411953125,3.35815234375
-4.1712890625,-4.1416875,-7.00653125,-1.688546875,-5.16841015625,-10.01818359375,-7.54455859375,-3.021171875,1.7817890625,-6.48808984375,-9.06066796875,-5.853296875,3.12187890625,-0.236187500000002,-4.8522109375,-8.298296875,-8.2938828125,0.849578125000001,0.286675781249999,-0.229023437500002,2.35022265625,5.345859375,2.452015625,4.7444765625,2.204796875,1.4362109375,5.04133203125,5.58894921875,8.2001953125,4.05915234375
-6.2922890625,-5.7666875,-7.51153125,-2.636546875,-6.91041015625,-11.26818359375,-10.60655859375,-6.060171875,0.6147890625,-6.72808984375,-9.49366796875,-9.604296875,1.76887890625,-1.4561875,-5.5692109375,-9.250296875,-10.7288828125,1.199578125,-0.207324218750001,-1.3410234375,1.62722265625,4.924859375,1.998015625,4.2814765625,1.161796875,1.5232109375,5.39933203125,7.11294921875,9.1721953125,5.20515234375
-8.3732890625,-7.2426875,-8.07153125,-4.325546875,-8.55541015625,-11.62218359375,-12.43755859375,-8.527171875,-0.9802109375,-6.71808984375,-9.20666796875,-12.274296875,0.45487890625,-2.8121875,-5.8222109375,-9.722296875,-12.3708828125,0.764578125,-0.85032421875,-1.9320234375,1.04422265625,3.884859375,1.061015625,3.8244765625,0.288796875000001,1.7052109375,5.38933203125,8.20194921875,9.6761953125,5.93815234375
-10.1012890625,-8.4746875,-8.53053125,-6.199546875,-9.78141015625,-11.31818359375,-12.93955859375,-9.967171875,-2.5242109375,-6.73408984375,-8.77766796875,-13.627296875,-0.37412109375,-4.1921875,-5.9742109375,-10.279296875,-13.2978828125,-0.559421875,-1.97532421875,-2.5560234375,0.219222656250001,2.362859375,-0.570984375,2.8074765625,-0.877203124999999,1.5452109375,4.38733203125,8.23694921875,9.0971953125,5.46515234375
-11.3042890625,-9.4656875,-8.51253125,-7.488546875,-10.33941015625,-10.79618359375,-12.44855859375,-10.282171875,-3.5042109375,-6.99708984375,-8.81766796875,-13.785296875,-0.449121093750001,-5.4461875,-6.3812109375,-11.427296875,-13.2668828125,-2.524421875,-3.72332421875,-3.7070234375,-1.05177734375,0.617859375,-2.841984375,0.8494765625,-2.643203125,0.845210937500001,2.09633203125,6.92394921875,7.2021953125,3.44515234375
-11.7132890625,-10.0586875,-7.66953125,-7.459546875,-10.02141015625,-10.34018359375,-11.42755859375,-9.671171875,-3.5292109375,-7.45708984375,-9.57866796875,-13.118296875,0.24287890625,-6.3241875,-7.1202109375,-13.245296875,-11.7678828125,-4.591421875,-5.88232421875,-5.5280234375,-2.67177734375,-0.988140625,-5.382984375,-1.9985234375,-4.930203125,-0.247789062499999,-1.23966796875,4.47994921875,4.3301953125,0.21315234375
-10.8602890625,-9.8416875,-5.91553125,-5.704546875,-8.65241015625,-9.83218359375,-10.19055859375,-8.472171875,-2.4652109375,-7.73508984375,-10.72966796875,-12.065296875,1.44287890625,-6.4891875,-7.8902109375,-15.258296875,-8.4018828125,-6.115421875,-7.90332421875,-7.7050234375,-4.28677734375,-2.095140625,-7.606984375,-5.2065234375,-7.261203125,-1.3157890625,-4.86566796875,1.56494921875,1.2751953125,-3.32884765625
-8.2892890625,-8.3366875,-3.49353125,-2.331546875,-6.16241015625,-8.81118359375,-8.79455859375,-6.990171875,-0.4592109375,-7.29508984375,-11.49066796875,-10.953296875,2.73587890625,-5.6291875,-8.1552109375,-16.648296875,-3.3578828125,-6.576421875,-9.10432421875,-9.6110234375,-5.45877734375,-2.482140625,-8.921984375,-7.9595234375,-8.975203125,-1.9057890625,-7.80266796875,-1.00305078125,-1.0798046875,-6.10384765625
-3.9252890625,-5.3506875,-0.824531250000001,2.068453125,-2.67041015625,-6.78518359375,-7.10155859375,-5.400171875,2.1657890625,-5.73808984375,-11.04266796875,-9.891296875,3.74787890625,-3.6131875,-7.4432109375,-16.685296875,2.3231171875,-5.742421875,-8.95832421875,-10.5800234375,-5.84377734375,-2.137140625,-8.932984375,-9.4865234375,-9.522203125,-1.7667890625,-9.22966796875,-2.58005078125,-2.1148046875,-7.31684765625
1.6807109375,-1.1946875,1.69246875,6.609453125,1.45358984375,-3.59018359375,-4.90955859375,-3.726171875,5.0507890625,-3.03908984375,-8.97466796875,-8.751296875,4.29087890625,-0.589187500000001,-5.5832109375,-15.088296875,7.0081171875,-3.705421875,-7.29632421875,-10.1650234375,-5.27477734375,-1.219140625,-7.543984375,-9.3355234375,-8.677203125,-0.949789062499999,-8.78166796875,-2.89005078125,-1.6528046875,-6.74584765625
7.4317109375,3.3563125,3.80246875,10.383453125,5.62658984375,0.41681640625,-2.11455859375,-1.928171875,7.8737890625,0.404910156250001,-5.49666796875,-7.271296875,4.36087890625,3.0408125,-2.7862109375,-12.143296875,9.2291171875,-0.798421874999999,-4.35432421875,-8.2760234375,-3.78277734375,0.0608593749999997,-4.945984375,-7.4955234375,-6.582203125,0.267210937500001,-6.64666796875,-2.03705078125,0.0271953125000002,-4.75884765625
12.0757109375,7.3483125,5.39746875,12.719453125,9.16658984375,4.42681640625,1.13344140625,0.00782812500000052,10.3487890625,3.91991015625,-1.36266796875,-5.230296875,4.06087890625,6.7448125,0.451789062500001,-8.549296875,8.4621171875,2.526578125,-0.679324218750001,-5.1860234375,-1.58577734375,1.542859375,-1.526984375,-4.3545234375,-3.661203125,1.5292109375,-3.45766796875,-0.38605078125,2.3131953125,-2.10784765625
14.6747109375,9.9973125,6.46046875,13.373453125,11.46658984375,7.49781640625,4.38144140625,1.998828125,12.2187890625,6.79191015625,2.44033203125,-2.621296875,3.55987890625,10.0118125,3.5377890625,-5.130296875,5.4111171875,5.816578125,3.05367578125,-1.4420234375,0.945222656250001,3.115859375,2.235015625,-0.530523437500001,-0.478203125,2.5472109375,-0.0386679687499996,1.58994921875,4.5081953125,0.40215234375
14.9277109375,10.9243125,7.01546875,12.556453125,12.16758984375,8.94181640625,6.99244140625,3.859828125,13.2867890625,8.50991015625,5.07033203125,0.263703125,3.10987890625,12.4588125,5.9577890625,-2.548296875,1.6161171875,8.681578125,6.21967578125,2.2849765625,3.34622265625,4.672859375,5.866015625,3.3114765625,2.414796875,3.1792109375,2.88133203125,3.47794921875,6.1231953125,2.22615234375
13.1827109375,10.2213125,7.08946875,10.787453125,11.26258984375,8.58581640625,8.38744140625,5.314828125,13.4547890625,8.90391015625,6.11933203125,2.895703125,3.04887890625,13.8668125,7.3947890625,-1.133296875,-1.4108828125,10.813578125,8.37167578125,5.3769765625,5.17922265625,6.063859375,8.959015625,6.6164765625,4.603796875,3.4062109375,4.88033203125,5.01694921875,7.0061953125,3.22415234375
10.2547109375,8.3543125,6.71546875,8.659453125,9.11258984375,6.80581640625,8.28744140625,6.050828125,12.7597890625,8.16491015625,5.69633203125,4.688703125,3.66687890625,14.1628125,7.7707890625,-0.843296875,-3.0258828125,11.986578125,9.29567578125,7.4039765625,6.15322265625,7.108859375,11.193015625,8.9934765625,5.859796875,3.2522109375,5.86933203125,6.09094921875,7.2541953125,3.56415234375
7.1637109375,5.9963125,5.95346875,6.668453125,6.34158984375,4.33781640625,6.82144140625,5.811828125,11.3897890625,6.73591015625,4.30133203125,5.230703125,4.96487890625,13.4048125,7.2097890625,-1.340296875,-3.7878828125,12.077578125,8.98567578125,8.2029765625,6.24022265625,7.640859375,12.317015625,10.2004765625,6.140796875,2.7072109375,5.95533203125,6.63494921875,7.0031953125,3.48215234375
4.8917109375,3.8653125,4.90246875,5.145453125,3.67058984375,1.98081640625,4.46144140625,4.539828125,9.6787890625,5.13591015625,2.55733203125,4.455703125,6.47587890625,11.7688125,5.9627890625,-2.144296875,-4.9788828125,11.102578125,7.60067578125,7.8629765625,5.70122265625,7.547859375,12.163015625,10.1244765625,5.558796875,1.7442109375,5.26833203125,6.54494921875,6.3021953125,3.08815234375
4.1007109375,2.5393125,3.69346875,4.261453125,1.72658984375,0.303816406249998,1.81944140625,2.489828125,8.0157890625,3.76291015625,0.948332031249999,2.686703125,7.39687890625,9.5498125,4.3217890625,-2.847296875,-7.4908828125,9.257578125,5.42067578125,6.6459765625,4.97722265625,6.809859375,10.711015625,8.8124765625,4.352796875,0.412210937500001,3.89233203125,5.69194921875,5.1111953125,2.35715234375
4.8667109375,2.2663125,2.49246875,4.039453125,0.878589843750001,-0.523183593750002,-0.588558593749999,0.212828125000001,6.7177890625,2.77191015625,-0.331667968750001,0.537703124999999,7.04187890625,7.1178125,2.5487890625,-3.291296875,-10.8168828125,6.911578125,2.81667578125,4.8859765625,4.46222265625,5.527859375,8.178015625,6.5374765625,2.835796875,-1.1047890625,1.93633203125,4.03494921875,3.4081953125,1.24715234375
6.5797109375,2.8233125,1.51346875,4.361453125,1.14158984375,-0.71118359375,-2.48055859375,-1.608171875,5.9327890625,2.06691015625,-1.38666796875,-1.293296875,5.29987890625,4.8558125,0.837789062500001,-3.615296875,-13.0388828125,4.549578125,0.22067578125,2.9119765625,4.30022265625,3.947859375,5.049015625,3.8114765625,1.333796875,-2.5167890625,-0.328667968749999,1.77094921875,1.3211953125,-0.15684765625
8.1427109375,3.5563125,0.970468749999999,4.998453125,2.14958984375,-0.706183593750001,-3.80255859375,-2.439171875,5.6027890625,1.38591015625,-2.49966796875,-2.284296875,2.75087890625,3.0608125,-0.719210937500002,-4.151296875,-12.0618828125,2.648578125,-1.95332421875,0.984976562499998,4.34522265625,2.426859375,1.985015625,1.2654765625,0.113796875,-3.5507890625,-2.44166796875,-0.619050781249999,-0.7838046875,-1.60584765625
8.4487109375,3.6463125,0.89246875,5.613453125,3.21558984375,-1.00818359375,-4.67655859375,-2.144171875,5.4837890625,0.416910156250001,-3.97266796875,-2.318296875,0.35587890625,1.8328125,-2.1612109375,-5.213296875,-7.2868828125,1.509578125,-3.44932421875,-0.750023437500003,4.29722265625,1.300859375,-0.410984375,-0.576523437500001,-0.691203124999999,-4.0717890625,-3.88866796875,-2.52705078125,-2.4008046875,-2.78884765625
6.8807109375,2.4963125,0.948468749999999,5.803453125,3.52258984375,-2.01118359375,-5.36355859375,-1.093171875,5.1927890625,-1.11508984375,-5.98366796875,-1.786296875,-1.04712109375,1.0098125,-3.6612109375,-6.919296875,-0.394882812500001,1.135578125,-4.30432421875,-2.3100234375,3.88422265625,0.728859375,-1.847984375,-1.5295234375,-1.134203125,-4.1657890625,-4.37366796875,-3.48905078125,-3.1488046875,-3.51684765625
3.6117109375,0.0273125000000007,0.51046875,5.209453125,2.44158984375,-3.87118359375,-6.18155859375,-0.00417187499999905,4.3267890625,-3.35608984375,-8.49466796875,-1.435296875,-1.11012109375,0.223812499999999,-5.4332109375,-9.100296875,5.4621171875,1.234578125,-4.84832421875,-3.8430234375,2.99022265625,0.613859375,-2.469984375,-1.8085234375,-1.446203125,-4.1167890625,-4.00066796875,-3.44005078125,-3.0208046875,-3.85284765625
-0.464289062500001,-3.2586875,-0.98553125,3.717453125,-0.134410156249999,-6.38318359375,-7.32955859375,0.398828125000001,2.6597890625,-6.21408984375,-11.22166796875,-1.977296875,-0.0321210937499998,-0.8951875,-7.5602109375,-11.347296875,7.5261171875,1.394578125,-5.53032421875,-5.5220234375,1.67722265625,0.691859375,-2.731984375,-1.8735234375,-1.927203125,-4.2807890625,-3.24566796875,-2.74005078125,-2.3828046875,-4.08084765625
-4.1282890625,-6.4746875,-3.60353125,1.599453125,-3.66041015625,-8.98418359375,-8.71255859375,-0.243171874999999,0.305789062500001,-9.28808984375,-13.68366796875,-3.652296875,1.64587890625,-2.4791875,-9.8362109375,-13.150296875,5.0821171875,1.314578125,-6.63932421875,-7.3980234375,0.137222656250001,0.729859375,-3.113984375,-2.1455234375,-2.785203125,-4.8997890625,-2.69666796875,-1.96505078125,-1.7238046875,-4.51284765625
-6.3682890625,-8.7056875,-6.75853125,-0.547546875,-7.13341015625,-10.93018359375,-9.93855859375,-1.751171875,-2.2952109375,-11.93808984375,-15.35566796875,-6.056296875,3.33987890625,-4.3121875,-11.7782109375,-14.089296875,-0.1418828125,0.945578125000001,-8.12332421875,-9.3230234375,-1.38177734375,0.668859375,-3.857984375,-2.7955234375,-4.011203125,-5.9677890625,-2.75666796875,-1.58505078125,-1.3778046875,-5.27584765625
-6.7842890625,-9.3756875,-9.46753125,-2.045546875,-9.53941015625,-11.62918359375,-10.53655859375,-3.507171875,-4.5432109375,-13.51908984375,-15.88166796875,-8.348296875,4.64487890625,-5.9331875,-12.8482109375,-14.008296875,-5.0378828125,0.439578125000001,-9.63732421875,-11.0170234375,-2.67277734375,0.614859375,-4.890984375,-3.7155234375,-5.393203125,-7.2427890625,-3.48366796875,-1.74905078125,-1.4098046875,-6.24184765625
-5.6582890625,-8.4636875,-10.84553125,-2.438546875,-10.27941015625,-10.91518359375,-10.21055859375,-4.757171875,-5.9012109375,-13.66508984375,-15.23766796875,-9.685296875,5.42687890625,-6.8891875,-12.7392109375,-13.065296875,-6.9918828125,-0.00342187499999902,-10.75832421875,-12.2100234375,-3.62077734375,0.722859375,-5.924984375,-4.6485234375,-6.638203125,-8.4007890625,-4.61766796875,-2.27305078125,-1.6668046875,-7.12384765625
-3.6882890625,-6.4466875,-10.52753125,-1.646546875,-9.36041015625,-9.10718359375,-9.00255859375,-4.967171875,-6.0602109375,-12.45108984375,-13.75166796875,-9.638296875,5.75487890625,-6.9521875,-11.5382109375,-11.640296875,-5.3648828125,-0.264421875,-11.20132421875,-12.7630234375,-4.19077734375,1.070859375,-6.625984375,-5.3405234375,-7.503203125,-9.2027890625,-5.72366796875,-2.78905078125,-1.9068046875,-7.65284765625
-1.5862890625,-4.0286875,-8.79853125,0.0564531250000009,-7.28741015625,-6.82718359375,-7.28855859375,-4.053171875,-5.0312109375,-10.33408984375,-11.93966796875,-8.371296875,5.72487890625,-6.2011875,-9.6822109375,-10.150296875,-1.6948828125,-0.336421874999999,-10.91132421875,-12.6930234375,-4.36977734375,1.627859375,-6.743984375,-5.6245234375,-7.856203125,-9.5657890625,-6.34466796875,-2.93305078125,-1.9218046875,-7.67384765625
0.201710937499998,-1.8326875,-6.38853125,2.198453125,-4.76841015625,-4.71518359375,-5.63255859375,-2.372171875,-3.1432109375,-7.92908984375,-10.27466796875,-6.500296875,5.29087890625,-4.9481875,-7.7392109375,-8.886296875,1.4141171875,-0.282421874999999,-10.03832421875,-12.1320234375,-4.11577734375,2.292859375,-6.191984375,-5.4445234375,-7.656203125,-9.4957890625,-6.14266796875,-2.47705078125,-1.6068046875,-7.11084765625
1.5127109375,-0.228687499999999,-4.04753125,4.299453125,-2.42441015625,-3.19718359375,-4.54855859375,-0.517171874999999,-0.9352109375,-5.76708984375,-8.99966796875,-4.737296875,4.27587890625,-3.5871875,-6.1792109375,-7.944296875,1.8651171875,-0.195421874999999,-8.85632421875,-11.2660234375,-3.36577734375,2.948859375,-5.063984375,-4.8615234375,-6.919203125,-8.9967890625,-5.00166796875,-1.38105078125,-0.9438046875,-5.91084765625
2.2927109375,0.667312500000001,-2.19753125,5.991453125,-0.617410156249999,-2.40118359375,-4.25855859375,0.966828125000001,1.0307890625,-4.16108984375,-8.08866796875,-3.535296875,2.56587890625,-2.4551875,-5.2322109375,-7.270296875,-0.852882812500001,-0.171421875,-7.68032421875,-10.3070234375,-2.13177734375,3.497859375,-3.610984375,-4.0465234375,-5.728203125,-8.0487890625,-3.08666796875,0.20394921875,0.0541953125000001,-4.06084765625
2.4607109375,0.918312500000001,-0.872531250000001,7.049453125,0.557589843750002,-2.20418359375,-4.56555859375,1.782828125,2.3467890625,-3.19808984375,-7.34066796875,-2.915296875,0.38187890625,-1.7451875,-4.8892109375,-6.777296875,-5.5478828125,-0.277421875,-6.78932421875,-9.4630234375,-0.608777343749999,3.855859375,-2.162984375,-3.2555234375,-4.264203125,-6.6797890625,-0.83266796875,1.95694921875,1.3241953125,-1.69784765625
1.9347109375,0.7023125,0.0984687499999994,7.370453125,1.17958984375,-2.32818359375,-4.91555859375,1.952828125,2.8527890625,-2.79108984375,-6.51866796875,-2.558296875,-1.63512109375,-1.4951875,-4.9812109375,-6.433296875,-10.0158828125,-0.525421874999999,-6.35532421875,-8.9050234375,0.816222656250002,3.943859375,-1.033984375,-2.7555234375,-2.819203125,-5.0517890625,1.17533203125,3.46494921875,2.6751953125,0.805152343750001
0.774710937499998,0.2503125,0.87246875,6.955453125,1.40058984375,-2.44418359375,-4.63455859375,1.764828125,2.6487890625,-2.73908984375,-5.46466796875,-2.061296875,-2.67112109375,-1.6141875,-5.2742109375,-6.255296875,-12.1278828125,-0.858421874999999,-6.37932421875,-8.6940234375,1.71022265625,3.711859375,-0.419984375,-2.7185234375,-1.728203125,-3.4527890625,2.39933203125,4.33794921875,3.7721953125,2.90115234375
-0.731289062500002,-0.219687499999999,1.48846875,5.918453125,1.35958984375,-2.26418359375,-3.22355859375,1.623828125,2.0217890625,-2.78308984375,-4.16066796875,-1.200296875,-2.24812109375,-1.9271875,-5.5322109375,-6.229296875,-10.7748828125,-1.159421875,-6.67832421875,-8.7430234375,1.79522265625,3.179859375,-0.345984375,-3.1475234375,-1.249203125,-2.2337890625,2.55033203125,4.33794921875,4.2541953125,4.06315234375
-2.1632890625,-0.578687499999999,1.87346875,4.462453125,1.12058984375,-1.66318359375,-0.61355859375,1.840828125,1.2957890625,-2.69008984375,-2.75166796875,-0.0402968750000001,-0.63612109375,-2.2321875,-5.5902109375,-6.269296875,-6.2578828125,-1.320421875,-6.96632421875,-8.8650234375,1.06822265625,2.427859375,-0.696984375000001,-3.8835234375,-1.481203125,-1.7087890625,1.66233203125,3.43894921875,3.8761953125,3.95615234375
-3.2042890625,-0.866687499999999,1.88346875,2.802453125,0.64358984375,-0.799183593750001,2.69444140625,2.469828125,0.6597890625,-2.38408984375,-1.54966796875,1.131703125,1.19287890625,-2.3981875,-5.4352109375,-6.278296875,-0.0108828125000002,-1.333421875,-7.01132421875,-8.8850234375,-0.245777343749999,1.521859375,-1.318984375,-4.7035234375,-2.354203125,-2.0767890625,0.0313320312500007,1.77394921875,2.5551953125,2.53215234375
-3.8432890625,-1.2946875,1.37346875,1.092453125,-0.184410156249999,-0.130183593750001,5.72344140625,3.324828125,0.0937890624999991,-2.03508984375,-0.99266796875,1.996703125,2.10187890625,-2.4361875,-5.2392109375,-6.255296875,6.0671171875,-1.341421875,-6.77232421875,-8.7480234375,-1.81677734375,0.439859375,-2.110984375,-5.4315234375,-3.664203125,-3.3567890625,-1.95066796875,-0.470050781249999,0.3481953125,0.0221523437500002
-4.3462890625,-2.1206875,0.30546875,-0.557546875,-1.42541015625,-0.223183593750001,7.36044140625,4.161828125,-0.538210937500001,-1.99108984375,-1.48066796875,2.422703125,1.46287890625,-2.4841875,-5.2762109375,-6.308296875,10.3361171875,-1.588421875,-6.41132421875,-8.5170234375,-3.30977734375,-0.903140625,-3.041984375,-5.9895234375,-5.129203125,-5.3177890625,-3.91566796875,-3.11105078125,-2.5288046875,-3.08684765625
-5.0022890625,-3.4136875,-1.17653125,-1.999546875,-2.96741015625,-1.40918359375,6.85744140625,4.866828125,-1.2972109375,-2.56008984375,-3.13666796875,2.562703125,-0.449121093750001,-2.6941875,-5.7412109375,-6.527296875,11.9641171875,-2.274421875,-6.15832421875,-8.2820234375,-4.42177734375,-2.550140625,-4.080984375,-6.3515234375,-6.416203125,-7.4737890625,-5.56666796875,-5.93705078125,-5.6488046875,-6.12484765625
-5.8422890625,-4.8836875,-2.74553125,-2.976546875,-4.49541015625,-3.52718359375,4.22844140625,5.481828125,-2.0642109375,-3.76708984375,-5.64066796875,2.757703125,-2.59812109375,-3.0791875,-6.5972109375,-6.846296875,11.1541171875,-3.420421875,-6.11432421875,-8.0570234375,-4.92377734375,-4.386140625,-5.109984375,-6.4755234375,-7.201203125,-9.2057890625,-6.67766796875,-8.63805078125,-8.4238046875,-8.38284765625
-6.5742890625,-5.9636875,-3.98153125,-3.164546875,-5.59541015625,-5.93918359375,0.28044140625,6.072828125,-2.5722109375,-5.28108984375,-8.29366796875,3.280703125,-3.75312109375,-3.4701875,-7.5612109375,-7.025296875,8.9401171875,-4.786421875,-6.16432421875,-7.7670234375,-4.71377734375,-6.128140625,-5.892984375,-6.2945234375,-7.273203125,-9.9907890625,-7.10466796875,-10.80505078125,-10.2908046875,-9.34984765625
-6.7992890625,-6.1386875,-4.48953125,-2.316546875,-5.94641015625,-7.84018359375,-3.74155859375,6.601828125,-2.5362109375,-6.58108984375,-10.31166796875,4.108703125,-3.17312109375,-3.5851875,-8.2512109375,-6.779296875,6.6561171875,-5.925421875,-6.03832421875,-7.3200234375,-3.85577734375,-7.437140625,-6.145984375,-5.7725234375,-6.633203125,-9.6187890625,-6.84166796875,-12.05805078125,-10.9318046875,-8.90984765625
-6.3172890625,-5.2876875,-4.03053125,-0.439546875,-5.50041015625,-8.65718359375,-6.74355859375,6.918828125,-1.8012109375,-7.24108984375,-11.19066796875,4.905703125,-0.98212109375,-3.2141875,-8.4082109375,-5.958296875,5.3971171875,-6.363421875,-5.51132421875,-6.7130234375,-2.56677734375,-8.085140625,-5.681984375,-4.9915234375,-5.535203125,-8.2897890625,-6.05666796875,-12.23305078125,-10.4068046875,-7.41984765625
-5.2902890625,-3.7596875,-2.64853125,2.123453125,-4.51741015625,-8.31518359375,-8.22655859375,6.850828125,-0.4382109375,-7.15408984375,-10.90966796875,5.213703125,1.99587890625,-2.3691875,-8.0462109375,-4.670296875,5.7111171875,-5.848421875,-4.59332421875,-6.0820234375,-1.16077734375,-8.079140625,-4.551984375,-4.1795234375,-4.396203125,-6.4997890625,-5.08366796875,-11.49905078125,-9.1578046875,-5.59084765625
-4.1312890625,-2.1446875,-0.699531250000001,4.789453125,-3.42641015625,-7.19318359375,-8.35655859375,6.328828125,1.2657890625,-6.54008984375,-9.86866796875,4.726703125,4.77987890625,-1.3001875,-7.4292109375,-3.251296875,7.5181171875,-4.497421875,-3.56232421875,-5.6450234375,0.0342226562500008,-7.626140625,-3.071984375,-3.6325234375,-3.631203125,-4.7987890625,-4.30766796875,-10.27905078125,-7.8488046875,-4.20184765625
-3.1812890625,-0.8696875,1.25846875,7.000453125,-2.55841015625,-5.82218359375,-7.63055859375,5.479828125,2.9367890625,-5.74308984375,-8.61266796875,3.508703125,6.76187890625,-0.349187500000001,-6.8742109375,-2.086296875,10.1921171875,-2.726421875,-2.79932421875,-5.5500234375,0.785222656250001,-6.972140625,-1.668984375,-3.5235234375,-3.446203125,-3.5417890625,-3.98866796875,-9.02705078125,-7.0588046875,-3.75484765625
-2.4292890625,0.0483124999999998,2.71046875,8.474453125,-1.93441015625,-4.54018359375,-6.41755859375,4.630828125,4.2977890625,-4.97708984375,-7.51666796875,2.033703125,7.87987890625,0.265812499999999,-6.5282109375,-1.363296875,12.7231171875,-1.001421875,-2.53632421875,-5.7390234375,1.04822265625,-6.237140625,-0.655984375000001,-3.7455234375,-3.731203125,-2.7597890625,-4.11866796875,-7.98605078125,-6.9768046875,-4.24484765625
-1.5692890625,0.9063125,3.37846875,9.239453125,-1.32241015625,-3.36218359375,-4.74355859375,4.169828125,5.2217890625,-4.22808984375,-6.67566796875,0.973703125,8.38987890625,0.550812499999999,-6.2882109375,-0.974296875,13.9161171875,0.389578125,-2.72932421875,-5.9620234375,0.973222656250002,-5.387140625,-0.0939843749999998,-3.9315234375,-4.133203125,-2.2597890625,-4.43666796875,-7.13605078125,-7.3338046875,-5.21584765625
-0.357289062500001,1.9403125,3.25546875,9.429453125,-0.52341015625,-2.14318359375,-2.45655859375,4.297828125,5.6477890625,-3.37608984375,-6.02066796875,0.833703125,8.47387890625,0.651812499999998,-5.9432109375,-0.634296875,12.6731171875,1.368578125,-3.13432421875,-5.9550234375,0.788222656250001,-4.356140625,0.150015625,-3.6895234375,-4.296203125,-1.8737890625,-4.62866796875,-6.34205078125,-7.6868046875,-6.09884765625
1.0367109375,3.0073125,2.52946875,9.072453125,0.37358984375,-0.847183593750001,0.392441406250001,4.885828125,5.4677890625,-2.40008984375,-5.52866796875,1.664703125,7.99787890625,0.6848125,-5.3922109375,-0.124296874999999,8.4521171875,1.958578125,-3.51232421875,-5.6370234375,0.63922265625,-3.164140625,0.232015624999999,-2.8875234375,-4.097203125,-1.6397890625,-4.55166796875,-5.54305078125,-7.7648046875,-6.57184765625
2.0317109375,3.6153125,1.48146875,8.060453125,0.99858984375,0.321816406249999,3.31944140625,5.540828125,4.5647890625,-1.48208984375,-5.30966796875,3.072703125,6.61487890625,0.631812499999999,-4.7432109375,0.558703125000001,1.8361171875,2.177578125,-3.77232421875,-5.1460234375,0.533222656250001,-1.930140625,0.234015625,-1.7375234375,-3.672203125,-1.7387890625,-4.29466796875,-4.79705078125,-7.5758046875,-6.65784765625
1.9797109375,3.2593125,0.394468749999999,6.296453125,0.961589843750001,1.01381640625,5.51644140625,5.807828125,2.9217890625,-0.932089843749999,-5.50566796875,4.473703125,4.12587890625,0.372812499999998,-4.2422109375,1.230703125,-5.2298828125,2.028578125,-3.96532421875,-4.7030234375,0.404222656250001,-0.790140625,0.178015624999999,-0.639523437500001,-3.252203125,-2.2377890625,-4.03866796875,-4.17905078125,-7.2448046875,-6.52984765625
0.568710937499999,1.7783125,-0.542531250000001,3.839453125,0.113589843750001,0.923816406249999,6.25244140625,5.350828125,0.7047890625,-1.01608984375,-6.12666796875,5.380703125,0.824878906249999,-0.224187500000001,-4.1052109375,1.695703125,-9.9868828125,1.539578125,-4.18632421875,-4.4370234375,0.235222656250001,0.167859375,0.0970156249999992,0.0914765624999987,-2.942203125,-2.8997890625,-3.86066796875,-3.66005078125,-6.8198046875,-6.24884765625
-1.9762890625,-0.5256875,-1.28753125,0.944453125000001,-1.38741015625,-0.024183593750001,5.28844140625,4.050828125,-1.7712109375,-1.81008984375,-6.96366796875,5.548703125,-2.43512109375,-1.2041875,-4.3672109375,1.918703125,-10.1608828125,0.791578125000001,-4.47532421875,-4.2850234375,0.114222656250001,0.910859375,0.0700156249999999,0.407476562499999,-2.619203125,-3.2417890625,-3.62966796875,-3.08005078125,-6.2098046875,-5.67084765625
-4.9732890625,-3.0186875,-1.88553125,-1.970546875,-3.14841015625,-1.56718359375,3.05544140625,2.070828125,-4.1152109375,-3.11408984375,-7.61766796875,4.974703125,-4.55912109375,-2.4561875,-4.8132109375,2.100703125,-5.3238828125,-0.064421874999999,-4.74732421875,-4.0160234375,0.225222656250001,1.464859375,0.221015625,0.552476562499999,-1.997203125,-2.7797890625,-3.04866796875,-2.21605078125,-5.2278046875,-4.53684765625
-7.5502890625,-4.9836875,-2.33353125,-4.404546875,-4.64441015625,-3.10718359375,0.507441406250001,-0.121171874999999,-5.9282109375,-4.45908984375,-7.61766796875,3.854703125,-4.76912109375,-3.6881875,-5.0002109375,2.624703125,2.6801171875,-0.827421874999999,-4.79332421875,-3.3150234375,0.76422265625,1.889859375,0.686015625,0.944476562499998,-0.784203124999999,-1.3077890625,-1.80466796875,-0.887050781249999,-3.6888046875,-2.66684765625
-8.9542890625,-5.8306875,-2.48253125,-5.890546875,-5.31741015625,-3.86518359375,-1.24755859375,-1.849171875,-6.8902109375,-5.21208984375,-6.56066796875,2.557703125,-3.10912109375,-4.4841875,-4.4082109375,3.892703125,10.6471171875,-1.279421875,-4.34932421875,-1.9090234375,1.85422265625,2.232859375,1.561015625,1.9814765625,1.150796875,0.983210937500001,0.245332031250001,0.93794921875,-1.5548046875,-0.10484765625
-8.7812890625,-5.2466875,-2.08853125,-6.139546875,-4.72341015625,-3.16718359375,-1.35255859375,-2.459171875,-6.8302109375,-4.79208984375,-4.27766796875,1.592703125,-0.521121093750001,-4.4541875,-2.6802109375,6.102703125,15.7341171875,-1.266421875,-3.23432421875,0.290976562499997,3.46522265625,2.445859375,2.835015625,3.8294765625,3.682796875,3.5752109375,2.93233203125,3.06094921875,0.9231953125,2.80415234375
-7.0882890625,-3.2916875,-0.99853125,-5.169546875,-2.74041015625,-0.77618359375,0.494441406250001,-1.592171875,-5.7922109375,-2.93608984375,-0.983667968750002,1.478703125,1.63087890625,-3.4231875,0.1567890625,9.078703125,16.8301171875,-0.769421874999999,-1.46932421875,3.0809765625,5.37622265625,2.357859375,4.353015625,6.3024765625,6.415796875,5.8382109375,5.76433203125,5.03694921875,3.1981953125,5.45815234375
-4.3772890625,-0.443687499999999,0.64246875,-3.371546875,0.23658984375,2.88381640625,3.86744140625,0.602828125,-4.0592109375,0.102910156250001,2.65833203125,2.511703125,2.30487890625,-1.5671875,3.5917890625,12.210703125,14.7781171875,0.0505781250000013,0.666675781249999,5.9429765625,7.17822265625,1.763859375,5.823015625,8.8884765625,8.782796875,7.2682109375,8.06633203125,6.28994921875,4.6291953125,7.17215234375
-1.4782890625,2.4813125,2.32146875,-1.441546875,3.30758984375,6.78181640625,7.65944140625,3.432828125,-2.1462109375,3.55491015625,5.68633203125,4.530703125,1.30687890625,0.596812499999999,6.7427890625,14.622703125,11.5061171875,0.870578125000002,2.70067578125,8.1659765625,8.36222265625,0.572859375,6.892015625,10.9274765625,10.206796875,7.6452109375,9.23633203125,6.34294921875,4.7621953125,7.42915234375
0.700710937499998,4.5703125,3.34946875,-0.148546875,5.39758984375,9.64581640625,10.42744140625,5.889828125,-0.6782109375,6.39691015625,7.18533203125,6.885703125,-0.72212109375,2.3908125,8.6947890625,15.532703125,8.8071171875,1.317578125,4.13267578125,9.1149765625,8.50122265625,-1.069140625,7.278015625,11.8874765625,10.310796875,7.0622109375,9.00733203125,5.06494921875,3.5361953125,6.11215234375
1.5007109375,5.1853125,3.22746875,0.00545312500000072,5.80258984375,10.54281640625,11.00244140625,7.096828125,-0.1522109375,7.78591015625,6.68833203125,8.687703125,-2.76312109375,3.2678125,8.9017890625,14.636703125,7.5571171875,1.152578125,4.65667578125,8.5129765625,7.45322265625,-2.770140625,6.912015625,11.5984765625,9.073796875,5.8292109375,7.55833203125,2.77994921875,1.3211953125,3.57615234375
0.778710937499998,4.2563125,1.94046875,-0.960546874999999,4.58958984375,9.32981640625,9.09644140625,6.732828125,-0.6852109375,7.43991015625,4.39933203125,9.224703125,-3.95712109375,3.0638125,7.4517890625,12.261703125,7.7091171875,0.430578125,4.31367578125,6.5869765625,5.45722265625,-4.010140625,6.020015625,10.3184765625,6.862796875,4.3152109375,5.45033203125,0.16694921875,-1.2118046875,0.50815234375
-1.0512890625,2.3003125,-0.00353124999999999,-2.529546875,2.58258984375,6.70981640625,5.48744140625,5.132828125,-1.9322109375,5.75891015625,1.10133203125,8.273703125,-3.92612109375,2.0658125,5.0337890625,9.191703125,8.7811171875,-0.488421874999998,3.46667578125,3.9689765625,3.02322265625,-4.338140625,5.053015625,8.5854765625,4.293796875,2.8032109375,3.38833203125,-2.00005078125,-3.3388046875,-2.35184765625
-3.2452890625,0.148312500000001,-1.80053125,-3.963546875,0.904589843750001,3.86781640625,1.65644140625,3.014828125,-3.2602109375,3.61391015625,-2.16666796875,6.171703125,-2.77012109375,0.8668125,2.6167890625,6.289703125,10.2411171875,-1.105421875,2.62167578125,1.4159765625,0.705222656250001,-3.534140625,4.492015625,6.9464765625,2.010796875,1.4242109375,1.93933203125,-3.14205078125,-4.5758046875,-4.48984765625
-5.0372890625,-1.4376875,-2.66953125,-4.645546875,0.426589843750001,1.91281640625,-0.93355859375,1.073828125,-4.0392109375,1.95591015625,-4.47966796875,3.652703125,-0.88312109375,0.0778124999999985,1.0447890625,4.222703125,11.4611171875,-1.024421875,2.18667578125,-0.460023437500002,-1.08077734375,-1.690140625,4.615015625,5.7404765625,0.485796875,0.195210937500001,1.34633203125,-3.05605078125,-4.8318046875,-5.71584765625
-5.8482890625,-1.9936875,-2.11953125,-4.280546875,1.45058984375,1.48581640625,-1.47955859375,-0.270171874999999,-3.8772109375,1.45591015625,-5.25366796875,1.552703125,1.27587890625,0.0788124999999997,0.756789062500001,3.387703125,11.5531171875,-0.129421874999998,2.32267578125,-1.3260234375,-2.08077734375,0.827859375,5.392015625,5.0514765625,-0.0602031249999992,-0.8627890625,1.52933203125,-1.90305078125,-4.3168046875,-6.08984765625
-5.3432890625,-1.3676875,-0.125531250000001,-2.905546875,3.74958984375,2.63081640625,-0.0825585937499991,-0.904171874999999,-2.7272109375,2.32491015625,-4.31366796875,0.507703125,3.33587890625,0.8928125,1.7257890625,3.970703125,9.5891171875,1.368578125,2.94067578125,-1.1230234375,-2.15277734375,3.487859375,6.529015625,4.8004765625,0.371796875000001,-1.6237890625,2.22833203125,-0.0800507812499998,-3.3308046875,-5.74784765625
-3.4342890625,0.3813125,2.82146875,-0.815546875,6.77358984375,4.91381640625,2.45044140625,-0.950171875,-0.881210937500001,4.32191015625,-1.88966796875,0.728703125,5.06687890625,2.2208125,3.5657890625,5.933703125,5.3301171875,2.997578125,3.78967578125,-0.00302343750000311,-1.28577734375,5.699859375,7.605015625,4.8624765625,1.589796875,-1.8897890625,3.15233203125,1.93494921875,-2.1418046875,-4.81684765625
-0.299289062500002,3.0243125,5.87046875,1.570453125,9.87858984375,7.65681640625,5.08144140625,-0.665171875,1.1577890625,6.90591015625,1.45433203125,1.962703125,6.33387890625,3.5988125,5.7337890625,8.932703125,-0.1118828125,4.193578125,4.58767578125,1.7119765625,0.317222656250001,6.958859375,8.229015625,5.1124765625,3.239796875,-1.5467890625,4.07133203125,3.67694921875,-1.0138046875,-3.46784765625
3.6337109375,6.1753125,8.14546875,3.832453125,12.49358984375,10.21181640625,7.04844140625,-0.309171875,2.8797890625,9.45991015625,4.96033203125,3.652703125,7.02487890625,4.6188125,7.7317890625,12.294703125,-4.4098828125,4.527578125,5.13967578125,3.6059765625,2.22322265625,6.989859375,8.166015625,5.4234765625,4.865796875,-0.715789062499999,4.81933203125,4.76894921875,-0.2308046875,-2.00084765625
7.7477109375,9.3263125,9.10546875,5.640453125,14.24758984375,12.16581640625,8.14944140625,-0.0281718749999991,3.9607890625,11.50891015625,7.89133203125,5.229703125,7.00087890625,5.1138125,9.2357890625,15.181703125,-5.1638828125,3.898578125,5.40667578125,5.2719765625,3.92122265625,5.871859375,7.421015625,5.6694765625,6.053796875,0.259210937500001,5.29433203125,4.99394921875,-0.0258046875,-0.82584765625
11.3387109375,11.9553125,8.72846875,6.783453125,15.01958984375,13.40881640625,8.69544140625,0.179828125000001,4.3277890625,12.83491015625,9.76133203125,6.355703125,6.10887890625,5.1898125,10.1317890625,16.911703125,-1.4288828125,2.563578125,5.49167578125,6.4229765625,5.04022265625,4.010859375,6.227015625,5.7414765625,6.584796875,0.956210937500001,5.44833203125,4.34494921875,-0.4908046875,-0.31784765625
13.7417109375,13.6373125,7.47446875,7.168453125,14.90758984375,14.04381640625,9.20144140625,0.395828125,4.0877890625,13.44891015625,10.45533203125,7.027703125,4.24887890625,5.1038125,10.4587890625,17.235703125,5.4301171875,1.003578125,5.54167578125,6.9519765625,5.48922265625,1.960859375,4.942015625,5.5734765625,6.496796875,1.0592109375,5.27433203125,3.02194921875,-1.5408046875,-0.66484765625
14.4947109375,14.1423125,6.06146875,6.830453125,14.13758984375,14.23981640625,10.02544140625,0.695828125000001,3.4447890625,13.49191015625,10.21733203125,7.502703125,1.50387890625,5.0968125,10.3527890625,16.445703125,12.2481171875,-0.278421874999999,5.66667578125,6.9369765625,5.42522265625,0.209859375,3.898015625,5.1764765625,6.010796875,0.4672109375,4.78933203125,1.36794921875,-2.9268046875,-1.77184765625
13.4937109375,13.4783125,5.17046875,5.927453125,12.97058984375,14.12481640625,11.14944140625,1.092828125,2.6417890625,13.13891015625,9.50933203125,8.077703125,-1.74412109375,5.2778125,10.0047890625,15.220703125,15.6991171875,-0.896421875,5.91367578125,6.5969765625,5.10422265625,-0.955140625,3.312015625,4.6544765625,5.403796875,-0.6777890625,4.04433203125,-0.21005078125,-4.2728046875,-3.29084765625
11.0417109375,11.8713125,5.18246875,4.675453125,11.60558984375,13.74981640625,12.15444140625,1.518828125,1.9137890625,12.54891015625,8.80733203125,8.823703125,-4.82012109375,5.6338125,9.6377890625,14.291703125,14.0861171875,-0.641421874999999,6.29767578125,6.2139765625,4.72422265625,-1.455140625,3.255015625,4.2054765625,4.881796875,-2.0517890625,3.13533203125,-1.34305078125,-5.1968046875,-4.75784765625
7.7307109375,9.6873125,6.04946875,3.274453125,10.14658984375,13.12181640625,12.42444140625,1.831828125,1.4367890625,11.85391015625,8.42333203125,9.481703125,-6.91912109375,6.0968125,9.4577890625,14.103703125,8.2541171875,0.517578125,6.83367578125,6.0399765625,4.35722265625,-1.360140625,3.684015625,4.0614765625,4.534796875,-3.2667890625,2.20733203125,-1.79505078125,-5.4868046875,-5.77484765625
4.2917109375,7.3563125,7.40346875,1.901453125,8.66158984375,12.28081640625,11.49744140625,1.887828125,1.3167890625,11.16991015625,8.43733203125,9.608703125,-7.36212109375,6.6198125,9.6047890625,14.650703125,1.1281171875,2.438578125,7.53267578125,6.2239765625,3.98522265625,-0.801140625,4.480015625,4.4054765625,4.357796875,-3.9947890625,1.43333203125,-1.52305078125,-5.2048046875,-6.14184765625
1.4637109375,5.3363125,8.77746875,0.781453125000001,7.28858984375,11.36181640625,9.42244140625,1.651828125,1.6197890625,10.60491015625,8.74233203125,8.874703125,-5.83112109375,7.1938125,10.1067890625,15.573703125,-3.7838828125,4.822578125,8.35867578125,6.7769765625,3.61022265625,0.100859375,5.480015625,5.3004765625,4.316796875,-4.0587890625,0.975332031250002,-0.680050781249999,-4.6018046875,-5.88184765625
-0.116289062500002,4.0583125,9.76246875,0.189453125,6.26158984375,10.54881640625,6.82944140625,1.252828125,2.3517890625,10.21391015625,9.14033203125,7.277703125,-2.50712109375,7.7778125,10.8297890625,16.383703125,-4.1298828125,7.240578125,9.16167578125,7.5669765625,3.31522265625,1.214859375,6.467015625,6.6284765625,4.388796875,-3.4557890625,0.921332031250001,0.45694921875,-3.9408046875,-5.16084765625
-0.124289062500001,3.7813125,10.04646875,0.323453125,5.76558984375,9.92381640625,4.61544140625,0.911828125000001,3.3717890625,9.91291015625,9.38833203125,5.142703125,1.90087890625,8.2068125,11.4397890625,16.675703125,0.2081171875,9.172578125,9.64267578125,8.3259765625,3.22322265625,2.337859375,7.153015625,8.0754765625,4.551796875,-2.3347890625,1.22133203125,1.56294921875,-3.3958046875,-4.19084765625
1.2387109375,4.4113125,9.42946875,1.134453125,5.73758984375,9.33781640625,3.40744140625,0.796828125000001,4.3237890625,9.43391015625,9.21433203125,2.967703125,6.29087890625,8.1708125,11.4727890625,16.248703125,7.1431171875,10.110578125,9.40467578125,8.7059765625,3.40022265625,3.155859375,7.203015625,9.1784765625,4.736796875,-0.962789062499999,1.66133203125,2.32794921875,-3.0798046875,-3.18484765625
3.2027109375,5.4403125,7.91346875,2.285453125,5.77758984375,8.43281640625,3.19644140625,0.926828125,4.7167890625,8.40391015625,8.36433203125,1.266703125,9.49387890625,7.3168125,10.5127890625,15.140703125,13.4261171875,9.721578125,8.11067578125,8.4019765625,3.79222265625,3.322859375,6.338015625,9.4644765625,4.790796875,0.309210937500001,1.92033203125,2.48994921875,-3.1058046875,-2.37684765625
4.6707109375,6.1083125,5.77246875,3.278453125,5.29758984375,6.84081640625,3.35944140625,1.191828125,4.1307890625,6.53591015625,6.70133203125,0.430703125,10.66287890625,5.4388125,8.4057890625,13.590703125,16.1481171875,7.969578125,5.66367578125,7.2769765625,4.22722265625,2.611859375,4.448015625,8.6074765625,4.480796875,1.0932109375,1.66933203125,1.83794921875,-3.6378046875,-2.06484765625
4.6557109375,5.7213125,3.49146875,3.661453125,3.83058984375,4.41381640625,3.07444140625,1.417828125,2.4127890625,3.82691015625,4.29733203125,0.563703125,9.57687890625,2.6088125,5.3677890625,11.905703125,14.0191171875,5.138578125,2.28867578125,5.4169765625,4.43422265625,1.018859375,1.648015625,6.5454765625,3.539796875,1.0312109375,0.678332031250001,0.22794921875,-4.9048046875,-2.59984765625
2.7637109375,4.0083125,1.57546875,3.219453125,1.35658984375,1.37481640625,1.85344140625,1.458828125,-0.2192109375,0.63091015625,1.48033203125,1.383703125,6.69787890625,-0.797187500000001,1.9307890625,10.333703125,7.8691171875,1.742578125,-1.50232421875,3.1009765625,4.11322265625,-1.204140625,-1.738984375,3.5004765625,1.776796875,-0.0857890624999995,-1.10366796875,-2.34305078125,-7.0908046875,-4.21684765625
-0.533289062500002,1.3083125,0.346468750000001,2.087453125,-1.58341015625,-1.68718359375,-0.10655859375,1.261828125,-3.1972109375,-2.41208984375,-1.21166796875,2.310703125,3.00687890625,-4.1771875,-1.2242109375,9.003703125,0.158117187499999,-1.601421875,-5.04532421875,0.734976562499998,3.06722265625,-3.603140625,-5.230984375,-0.0535234375000009,-0.790203125,-2.1817890625,-3.47266796875,-5.59205078125,-10.1068046875,-6.78884765625
-4.0332890625,-1.5076875,-0.13253125,0.714453125,-4.10541015625,-3.99218359375,-2.02955859375,0.879828125000001,-5.7622109375,-4.58708984375,-3.15866796875,2.747703125,-0.34212109375,-6.8551875,-3.4672109375,7.970703125,-6.2528828125,-4.302421875,-7.68732421875,-1.2480234375,1.34622265625,-5.607140625,-8.263984375,-3.4885234375,-3.835203125,-4.8367890625,-5.98366796875,-8.89605078125,-13.4228046875,-9.71084765625
-6.3702890625,-3.4076875,0.00446875000000002,-0.333546875,-5.42441015625,-4.87918359375,-3.05955859375,0.421828125000001,-7.2152109375,-5.35308984375,-3.85966796875,2.378703125,-2.42012109375,-8.2601875,-4.3902109375,7.255703125,-9.4278828125,-5.888421875,-8.95032421875,-2.5000234375,-0.707777343749999,-6.670140625,-10.285984375,-6.1765234375,-6.780203125,-7.3967890625,-8.05566796875,-11.42505078125,-16.1808046875,-12.07184765625
-6.7032890625,-3.6866875,0.58446875,-0.614546874999999,-5.21741015625,-4.08818359375,-2.78755859375,-0.00717187499999916,-7.1632109375,-4.52608984375,-3.12766796875,1.300703125,-2.83412109375,-8.0791875,-3.8942109375,6.861703125,-9.0978828125,-6.080421875,-8.63432421875,-2.8580234375,-2.58477734375,-6.429140625,-10.894984375,-7.6475234375,-8.981203125,-9.1937890625,-9.16466796875,-12.45705078125,-17.5658046875,-13.04784765625
-5.0732890625,-2.2596875,1.53046875,0.0314531250000005,-3.69141015625,-1.86118359375,-1.41255859375,-0.318171874999999,-5.6162109375,-2.32208984375,-1.15466796875,-0.0472968750000007,-1.80212109375,-6.3331875,-2.1822109375,6.781703125,-6.4578828125,-4.826421875,-6.84932421875,-2.3830234375,-3.83777734375,-4.834140625,-9.950984375,-7.7065234375,-9.959203125,-9.7827890625,-9.02666796875,-11.69305078125,-17.1858046875,-12.27584765625
-2.2532890625,0.373312500000001,2.86546875,1.471453125,-1.36141015625,1.18581640625,0.500441406249999,-0.426171875,-2.9332109375,0.76191015625,1.57233203125,-1.073296875,0.02587890625,-3.3511875,0.318789062499999,6.998703125,-3.1938828125,-2.300421875,-3.96032421875,-1.3120234375,-4.26977734375,-2.199140625,-7.635984375,-6.4695234375,-9.563203125,-9.0637890625,-7.68066796875,-9.39705078125,-15.2068046875,-9.99784765625
0.750710937499999,3.4473125,4.60646875,3.383453125,1.24058984375,4.33281640625,2.42744140625,-0.264171875,0.3287890625,4.14291015625,4.48133203125,-1.268296875,1.90987890625,0.3388125,3.0867890625,7.488703125,-0.4128828125,1.126578125,-0.485324218750002,0.0409765624999974,-3.96177734375,0.862859375,-4.423984375,-4.3075234375,-7.983203125,-7.2727890625,-5.45266796875,-6.27905078125,-12.2468046875,-6.91084765625
3.1917109375,6.2923125,6.65446875,5.390453125,3.75458984375,7.01181640625,4.12344140625,0.193828125,3.5787890625,7.33491015625,7.10233203125,-0.411296875000001,3.35987890625,4.1648125,5.6417890625,8.221703125,1.7511171875,4.943578125,3.03967578125,1.4019765625,-3.14877734375,3.614859375,-0.960984375000001,-1.7365234375,-5.653203125,-4.8717890625,-2.82366796875,-3.20605078125,-9.1308046875,-3.86284765625
4.8047109375,8.5213125,8.76346875,7.182453125,6.01358984375,8.94781640625,5.60744140625,0.927828125000001,6.3327890625,10.03191015625,9.16633203125,1.339703125,4.29987890625,7.6228125,7.6547890625,9.164703125,3.6021171875,8.572578125,6.16067578125,2.6079765625,-2.05877734375,5.427859375,2.117015625,0.723476562499998,-3.101203125,-2.4137890625,-0.280667968749999,-0.89605078125,-6.6158046875,-1.54284765625
5.6897109375,10.0013125,10.59746875,8.547453125,7.92558984375,10.11981640625,6.97344140625,1.864828125,8.2887890625,12.05391015625,10.55533203125,3.475703125,4.97887890625,10.3098125,8.9677890625,10.283703125,5.0461171875,11.447578125,8.54367578125,3.5919765625,-0.850777343749999,5.981859375,4.333015625,2.6384765625,-0.834203125,-0.4387890625,1.77833203125,0.27594921875,-5.1568046875,-0.31284765625
6.0327109375,10.6973125,11.80446875,9.323453125,9.33358984375,10.61781640625,8.18844140625,2.839828125,9.3047890625,13.25591015625,11.21733203125,5.323703125,5.65287890625,11.9078125,9.5417890625,11.506703125,5.3261171875,13.094578125,9.94967578125,4.3129765625,0.330222656250001,5.325859375,5.427015625,3.7054765625,0.745796875,0.6442109375,3.08433203125,0.30494921875,-4.8218046875,-0.18284765625
5.8967109375,10.5863125,12.10746875,9.374453125,9.98258984375,10.50981640625,9.03444140625,3.608828125,9.3247890625,13.48391015625,11.13033203125,6.308703125,6.27787890625,12.1868125,9.3827890625,12.677703125,3.6441171875,13.224578125,10.23767578125,4.6889765625,1.29722265625,3.810859375,5.362015625,3.7744765625,1.414796875,0.6902109375,3.51633203125,-0.52105078125,-5.3678046875,-0.86984765625
5.2707109375,9.7203125,11.42646875,8.660453125,9.66358984375,9.86281640625,9.24744140625,3.956828125,8.3797890625,12.67891015625,10.37033203125,6.221703125,6.44587890625,11.0948125,8.5517890625,13.587703125,0.0631171874999996,11.843578125,9.40567578125,4.6329765625,1.87922265625,1.951859375,4.309015625,2.9004765625,1.205796875,-0.0627890624999994,3.14733203125,-1.72805078125,-6.3698046875,-1.87284765625
4.2877109375,8.3513125,9.98946875,7.376453125,8.44858984375,8.87881640625,8.77344140625,3.883828125,6.6797890625,11.02391015625,9.21533203125,5.327703125,5.64187890625,8.8668125,7.2397890625,14.063703125,-4.1608828125,9.310578125,7.67467578125,4.1509765625,2.04322265625,0.289859375,2.630015625,1.3794765625,0.438796875000001,-1.0277890625,2.27833203125,-2.76905078125,-7.3308046875,-2.58984765625
3.3497109375,6.9733125,8.28846875,5.982453125,6.78758984375,7.96881640625,7.91244140625,3.664828125,4.6537890625,8.99491015625,8.14333203125,4.254703125,3.65487890625,6.0378125,5.8177890625,14.075703125,-7.2258828125,6.261578125,5.49367578125,3.4049765625,1.94022265625,-0.750140625,0.811015625,-0.2915234375,-0.381203124999999,-1.5137890625,1.37533203125,-3.17405078125,-7.7938046875,-2.52384765625
3.0087109375,6.1673125,6.88046875,5.026453125,5.35758984375,7.65581640625,7.21944140625,3.714828125,2.8417890625,7.23691015625,7.68333203125,3.688703125,0.85987890625,3.2918125,4.7757890625,13.764703125,-7.9678828125,3.382578125,3.42867578125,2.6839765625,1.81422265625,-0.970140625,-0.684984375000001,-1.5755234375,-0.787203125,-1.1127890625,0.899332031250001,-2.72305078125,-7.5318046875,-1.52684765625
3.6957109375,6.3513125,6.14946875,4.896453125,4.76158984375,8.33481640625,7.23944140625,4.343828125,1.6857890625,6.32291015625,8.19233203125,4.072703125,-1.81412109375,1.2388125,4.5657890625,13.406703125,-6.6228828125,1.183578125,1.98667578125,2.2999765625,1.84822265625,-0.456140625,-1.559984375,-2.0945234375,-0.543203125,0.0462109375000006,1.10933203125,-1.55005078125,-6.6988046875,0.0741523437500007
5.5367109375,7.6143125,6.20346875,5.667453125,5.27358984375,10.06181640625,8.25244140625,5.623828125,1.3917890625,6.53591015625,9.71433203125,5.463703125,-3.23512109375,0.234812499999999,5.4347890625,13.344703125,-4.4678828125,-0.0984218749999997,1.47767578125,2.4879765625,2.10822265625,0.493859375,-1.736984375,-1.7465234375,0.296796875,1.3812109375,1.97133203125,-0.0720507812499998,-5.7468046875,1.62915234375
8.3507109375,9.6983125,6.88646875,7.118453125,6.74558984375,12.49081640625,10.13644140625,7.378828125,1.9047890625,7.77991015625,11.96233203125,7.578703125,-2.61512109375,0.330812499999999,7.3197890625,13.880703125,-2.6398828125,-0.460421875,1.96467578125,3.3459765625,2.59322265625,1.519859375,-1.304984375,-0.687523437500001,1.502796875,2.2392109375,3.23633203125,1.24194921875,-5.1228046875,2.55415234375
11.7337109375,12.1103125,7.83846875,8.832453125,8.66958984375,14.95581640625,12.36544140625,9.270828125,2.9597890625,9.61291015625,14.39433203125,9.932703125,0.00587890624999954,1.3058125,9.8117890625,15.101703125,-1.2068828125,-0.0384218749999992,3.27567578125,4.7739765625,3.30122265625,2.332859375,-0.445984375,0.763476562499999,2.816796875,2.3102109375,4.58733203125,2.11594921875,-4.9838046875,2.67515234375
15.1757109375,14.2663125,8.56646875,10.315453125,10.34358984375,16.68981640625,14.16244140625,10.881828125,4.1517890625,11.39191015625,16.35133203125,11.971703125,3.61387890625,2.7498125,12.2347890625,16.750703125,0.6681171875,0.933578125,5.03867578125,6.4499765625,4.19122265625,2.760859375,0.601015624999999,2.2104765625,4.009796875,1.7592109375,5.74033203125,2.52794921875,-5.1918046875,2.26115234375
18.2027109375,15.6713125,8.58646875,11.161453125,11.15258984375,17.14481640625,14.85044140625,11.823828125,5.0727890625,12.49691015625,17.24433203125,13.180703125,6.61287890625,4.1788125,13.8537890625,18.267703125,3.7281171875,2.144578125,6.76067578125,7.8779765625,5.08122265625,2.743859375,1.559015625,3.2454765625,4.848796875,1.0182109375,6.45533203125,2.59994921875,-5.5188046875,1.73415234375
20.5707109375,16.1143125,7.61346875,11.210453125,10.88858984375,16.29481640625,14.25944140625,11.884828125,5.4727890625,12.60891015625,16.81033203125,13.234703125,7.58087890625,5.1888125,14.1847890625,19.062703125,7.7941171875,3.244578125,7.96567578125,8.5779765625,5.63522265625,2.307859375,2.157015625,3.5364765625,5.088796875,0.4642109375,6.54933203125,2.41894921875,-5.8568046875,1.33715234375
22.3897109375,15.8123125,5.73446875,10.623453125,9.91658984375,14.73181640625,12.89544140625,11.150828125,5.3517890625,11.87691015625,15.29933203125,12.147703125,5.97087890625,5.5878125,13.2447890625,18.861703125,11.8331171875,3.933578125,8.34667578125,8.3219765625,5.51822265625,1.546859375,2.218015625,2.9404765625,4.568796875,0.2452109375,5.94833203125,1.96894921875,-6.2538046875,1.03715234375
24.0287109375,15.3193125,3.42946875,9.804453125,9.01758984375,13.40581640625,11.68044140625,10.005828125,4.9007890625,10.86191015625,13.43533203125,10.326703125,2.33587890625,5.4198125,11.5627890625,17.854703125,14.7361171875,4.040578125,7.86367578125,7.2669765625,4.60522265625,0.581859375,1.727015625,1.5744765625,3.333796875,0.3112109375,4.75333203125,1.17294921875,-6.8348046875,0.68415234375
25.8037109375,15.2023125,1.41646875,9.223453125,8.95958984375,13.13081640625,11.39344140625,8.968828125,4.3577890625,10.23291015625,12.07633203125,8.426703125,-1.98612109375,4.8708125,9.9277890625,16.556703125,16.0341171875,3.551578125,6.71967578125,5.8769765625,3.08022265625,-0.488140625,0.821015624999999,-0.235523437500001,1.670796875,0.5322109375,3.24333203125,0.0119492187500008,-7.6668046875,0.21615234375
27.6647109375,15.6853125,0.377468749999999,9.216453125,10.01458984375,14.12581640625,12.18044140625,8.434828125,3.8857890625,10.38891015625,11.77433203125,7.066703125,-5.48612109375,4.1278125,9.0087890625,15.465703125,15.9691171875,2.583578125,5.25567578125,4.6839765625,1.35322265625,-1.593140625,-0.277984375000001,-2.0835234375,0.00779687500000037,0.796210937500001,1.78333203125,-1.39305078125,-8.6698046875,-0.25484765625
29.1197109375,16.5023125,0.637468749999999,9.831453125,11.74458984375,15.89281640625,13.48944140625,8.489828125,3.5197890625,11.24691015625,12.48333203125,6.582703125,-7.08912109375,3.2978125,9.0857890625,14.782703125,15.0221171875,1.338578125,3.82067578125,4.0519765625,-0.121777343749999,-2.665140625,-1.351984375,-3.6135234375,-1.259203125,1.0332109375,0.71133203125,-2.78405078125,-9.6118046875,-0.53084765625
29.4787109375,17.0823125,1.99046875,10.798453125,13.22258984375,17.48381640625,14.43044140625,8.906828125,3.1917890625,12.31691015625,13.63733203125,6.956703125,-6.50912109375,2.4398125,9.9847890625,14.362703125,13.3851171875,0.0725781250000015,2.69267578125,4.0779765625,-1.02277734375,-3.602140625,-2.238984375,-4.5995234375,-1.893203125,1.2162109375,0.233332031250001,-3.85005078125,-10.2318046875,-0.47484765625
28.2997109375,16.9203125,3.78946875,11.651453125,13.56458984375,17.99881640625,14.29444140625,9.309828125,2.8137890625,13.00891015625,14.49433203125,7.907703125,-4.25812109375,1.6488125,11.2467890625,13.916703125,10.7991171875,-0.928421875,2.04667578125,4.6569765625,-1.23977734375,-4.269140625,-2.841984375,-4.9525234375,-1.862203125,1.3322109375,0.376332031250001,-4.36205078125,-10.3778046875,-0.11984765625
25.7147109375,15.8723125,5.28346875,11.977453125,12.44358984375,17.02581640625,12.90744140625,9.391828125,2.3717890625,12.95691015625,14.53433203125,9.018703125,-1.31412109375,1.1008125,12.3677890625,13.283703125,6.7771171875,-1.391421875,1.95667578125,5.6129765625,-0.843777343749998,-4.534140625,-3.111984375,-4.6945234375,-1.292203125,1.3652109375,0.989332031250001,-4.27105078125,-10.0568046875,0.33315234375
22.4207109375,14.2073125,5.98046875,11.617453125,10.24958984375,14.80481640625,10.63344140625,9.032828125,1.9697890625,12.16191015625,13.66633203125,9.833703125,1.37287890625,0.9958125,13.0117890625,12.575703125,1.0931171875,-1.161421875,2.40667578125,6.7899765625,0.00722265625000151,-4.322140625,-3.042984375,-3.9395234375,-0.380203125,1.2692109375,1.79133203125,-3.71805078125,-9.3668046875,0.61615234375
19.3537109375,12.4363125,5.81346875,10.687453125,7.82958984375,12.04981640625,8.14744140625,8.294828125,1.7727890625,10.93591015625,12.19333203125,9.945703125,3.28987890625,1.4398125,13.0917890625,12.125703125,-5.6848828125,-0.317421874999999,3.30067578125,8.0739765625,1.18122265625,-3.627140625,-2.676984375,-2.8465234375,0.701796875000001,1.0092109375,2.48933203125,-2.93305078125,-8.4258046875,0.54815234375
17.2767109375,11.0613125,5.09346875,9.465453125,6.03958984375,9.61481640625,6.16144140625,7.337828125,1.9317890625,9.73091015625,10.62833203125,9.131703125,4.47387890625,2.3948125,12.7617890625,12.302703125,-11.9118828125,0.832578125000001,4.51067578125,9.3889765625,2.62522265625,-2.498140625,-2.072984375,-1.5565234375,1.890796875,0.646210937500001,2.92133203125,-2.08405078125,-7.3088046875,0.16215234375
16.5217109375,10.3793125,4.32946875,8.249453125,5.40658984375,8.17281640625,5.22244140625,6.341828125,2.5387890625,8.96891015625,9.47633203125,7.488703125,5.32487890625,3.7278125,12.3287890625,13.310703125,-15.2328828125,1.930578125,5.94167578125,10.6969765625,4.33722265625,-0.985140625,-1.241984375,-0.127523437500001,3.242796875,0.416210937500001,3.16933203125,-1.16205078125,-5.9938046875,-0.25384765625
16.9417109375,10.4263125,3.99446875,7.257453125,6.01758984375,8.01381640625,5.55144140625,5.450828125,3.6097890625,8.91491015625,9.06933203125,5.420703125,6.24687890625,5.2918125,12.1227890625,15.066703125,-13.6918828125,2.815578125,7.54867578125,11.9769765625,6.25222265625,0.855859375,-0.120984375000001,1.4604765625,4.867796875,0.6732109375,3.52233203125,-0.00605078124999991,-4.3598046875,-0.26784765625
18.0217109375,11.0063125,4.32046875,6.575453125,7.58058984375,8.98581640625,6.93044140625,4.733828125,5.0557890625,9.59391015625,9.48433203125,3.469703125,7.35587890625,6.9578125,12.3437890625,17.177703125,-7.0418828125,3.637578125,9.28667578125,13.1739765625,8.11522265625,2.920859375,1.375015625,3.2234765625,6.785796875,1.6872109375,4.28433203125,1.53894921875,-2.2978046875,0.470152343750001
19.0867109375,11.7993125,5.19546875,6.161453125,9.57058984375,10.57081640625,8.73544140625,4.205828125,6.6637890625,10.78491015625,10.54033203125,2.097703125,8.42187890625,8.5868125,12.9557890625,19.034703125,2.7011171875,4.740578125,11.02667578125,14.1579765625,9.45822265625,4.992859375,3.226015625,5.0574765625,8.796796875,3.4092109375,5.53633203125,3.43694921875,0.0991953125,1.99415234375
19.5677109375,12.4913125,6.25946875,5.916453125,11.43358984375,12.10581640625,10.20444140625,3.911828125,8.1347890625,12.10091015625,11.89033203125,1.577703125,9.08287890625,10.0078125,13.7177890625,20.008703125,12.0301171875,6.404578125,12.53267578125,14.7389765625,9.75722265625,6.751859375,5.219015625,6.7064765625,10.475796875,5.3782109375,7.00933203125,5.37394921875,2.4391953125,3.91715234375
19.2017109375,12.8983125,7.12446875,5.770453125,12.75358984375,13.05881640625,10.81744140625,3.978828125,9.1827890625,13.15791015625,13.15533203125,2.025703125,9.18687890625,11.0338125,14.3457890625,19.709703125,17.6121171875,8.607578125,13.53767578125,14.7699765625,8.70322265625,7.888859375,6.992015625,7.8444765625,11.320796875,6.8762109375,8.17833203125,6.85694921875,4.1541953125,5.55515234375
18.0867109375,13.0153125,7.57346875,5.719453125,13.32158984375,13.24581640625,10.56244140625,4.555828125,9.6347890625,13.73591015625,14.08733203125,3.430703125,8.98787890625,11.5368125,14.6937890625,18.187703125,17.8371171875,10.975578125,13.87867578125,14.2609765625,6.41722265625,8.249859375,8.177015625,8.2264765625,10.987796875,7.2482109375,8.53233203125,7.44794921875,4.7641953125,6.21815234375
16.5567109375,12.9803125,7.62946875,5.779453125,13.10358984375,12.86781640625,9.90644140625,5.691828125,9.4797890625,13.85991015625,14.65733203125,5.582703125,8.99687890625,11.5068125,14.8297890625,15.982703125,13.4521171875,12.938578125,13.59467578125,13.4299765625,3.46422265625,7.933859375,8.584015625,7.8264765625,9.492796875,6.2292109375,7.85333203125,6.99594921875,4.1041953125,5.53415234375
14.9897109375,12.9393125,7.51246875,5.934453125,12.19358984375,12.36481640625,9.48844140625,7.267828125,8.8717890625,13.74791015625,15.03533203125,7.971703125,9.54687890625,11.0628125,14.9607890625,13.942703125,7.1121171875,14.006578125,12.92067578125,12.6279765625,0.675222656250002,7.257859375,8.286015625,6.8684765625,7.253796875,4.1082109375,6.34733203125,5.73194921875,2.4181953125,3.65115234375
13.6687109375,12.9353125,7.49746875,6.101453125,10.81458984375,12.15781640625,9.71144140625,9.045828125,8.0707890625,13.64591015625,15.45533203125,9.867703125,10.41587890625,10.3928125,15.2687890625,12.865703125,2.1661171875,13.998578125,12.18467578125,12.1849765625,-1.15177734375,6.604859375,7.578015625,5.7394765625,4.945796875,1.6432109375,4.54633203125,4.16294921875,0.2891953125,1.19715234375
12.7167109375,12.8793125,7.73746875,6.151453125,9.29558984375,12.41981640625,10.49744140625,10.763828125,7.3377890625,13.65591015625,16.03333203125,10.639703125,10.89087890625,9.6508125,15.7587890625,13.139703125,1.1371171875,13.113578125,11.64767578125,12.2349765625,-1.54977734375,6.236859375,6.831015625,4.8324765625,3.223796875,-0.268789062499999,3.06333203125,2.81994921875,-1.5938046875,-1.00384765625
12.1297109375,12.6493125,8.11646875,5.939453125,7.98058984375,12.99781640625,11.36544140625,12.170828125,6.8037890625,13.66391015625,16.66433203125,10.105703125,10.29787890625,8.8928125,16.2417890625,14.571703125,4.4731171875,11.802578125,11.38967578125,12.6449765625,-0.565777343749999,6.186859375,6.325015625,4.3914765625,2.473796875,-1.0037890625,2.32333203125,2.01394921875,-2.7408046875,-2.30284765625
11.8377109375,12.1993125,8.27146875,5.375453125,7.09058984375,13.53281640625,11.77944140625,13.009828125,6.4167890625,13.42391015625,17.06233203125,8.633703125,8.56087890625,8.0888125,16.4317890625,16.506703125,10.2461171875,10.530578125,11.29667578125,13.0829765625,1.26422265625,6.284859375,6.145015625,4.4384765625,2.691796875,-0.4847890625,2.40533203125,1.73494921875,-3.0568046875,-2.47584765625
11.7277109375,11.5853125,7.77846875,4.459453125,6.61458984375,13.66581640625,11.46344140625,13.026828125,5.9897890625,12.71591015625,16.91633203125,6.881703125,6.30587890625,7.1678125,16.1067890625,18.157703125,15.0871171875,9.571578125,11.13467578125,13.1779765625,3.13622265625,6.287859375,6.173015625,4.7834765625,3.553796875,0.852210937500001,3.05833203125,1.73094921875,-2.7908046875,-1.74184765625
11.6277109375,10.8763125,6.40846875,3.258453125,6.30558984375,13.19281640625,10.48344140625,12.018828125,5.3157890625,11.46491015625,16.05833203125,5.374703125,4.42387890625,6.0768125,15.2037890625,18.946703125,15.9581171875,8.932578125,10.66167578125,12.6879765625,4.31322265625,5.990859375,6.155015625,5.1054765625,4.600796875,2.3452109375,3.84633203125,1.66894921875,-2.3288046875,-0.57184765625
11.2947109375,10.0653125,4.28046875,1.857453125,5.81758984375,12.10081640625,9.07544140625,9.928828125,4.2757890625,9.78291015625,14.55833203125,4.203703125,3.44087890625,4.8118125,13.8177890625,18.686703125,11.7691171875,8.422578125,9.71867578125,11.5869765625,4.41022265625,5.271859375,5.814015625,5.0624765625,5.420796875,3.4742109375,4.33733203125,1.26594921875,-2.0008046875,0.53515234375
10.5047109375,9.0933125,1.82046875,0.342453125,4.90458984375,10.56281640625,7.46944140625,6.930828125,2.9077890625,7.91991015625,12.70133203125,3.059703125,3.20487890625,3.4348125,12.1377890625,17.562703125,3.9461171875,7.811578125,8.28567578125,10.0419765625,3.51822265625,4.089859375,4.957015625,4.4034765625,5.764796875,4.0722109375,4.26033203125,0.367949218750001,-2.0098046875,1.22015234375
9.2067109375,7.9673125,-0.38753125,-1.118546875,3.58958984375,8.90981640625,5.85144140625,3.467828125,1.4367890625,6.19491015625,10.88133203125,1.570703125,3.07987890625,2.0928125,10.3757890625,15.973703125,-4.2518828125,7.002578125,6.49667578125,8.3339765625,2.08422265625,2.495859375,3.569015625,3.0504765625,5.566796875,4.2742109375,3.58233203125,-1.01205078125,-2.4068046875,1.31715234375
7.6227109375,6.8573125,-1.78853125,-2.228546875,2.17758984375,7.58481640625,4.44944140625,0.193828125,0.2267890625,4.93191015625,9.49033203125,-0.294296875000001,2.45787890625,0.997812499999998,8.7567890625,14.361703125,-9.2688828125,6.104578125,4.62867578125,6.7739765625,0.635222656250001,0.677859375,1.857015625,1.1584765625,4.899796875,4.2912109375,2.49833203125,-2.66805078125,-3.0628046875,0.84215234375
6.1847109375,6.0833125,-2.00753125,-2.620546875,1.10958984375,7.01881640625,3.55744140625,-2.203171875,-0.355210937500001,4.40791015625,8.85233203125,-2.046296875,1.21387890625,0.3798125,7.5377890625,13.126703125,-8.9288828125,5.368578125,3.05867578125,5.6509765625,-0.467777343749999,-1.024140625,0.216015624999999,-0.878523437500002,3.948796875,4.2262109375,1.36733203125,-4.21505078125,-3.6958046875,-0.0408476562499995
5.3397109375,5.9663125,-0.94353125,-2.044546875,0.754589843750001,7.47681640625,3.42544140625,-3.224171875,-0.1092109375,4.79091015625,9.18533203125,-2.878296875,-0.19812109375,0.407812499999999,7.0107890625,12.598703125,-3.4938828125,5.040578125,2.18267578125,5.2179765625,-1.09677734375,-2.178140625,-0.881984375,-2.4875234375,3.007796875,4.0642109375,0.630332031250001,-5.16805078125,-3.9558046875,-1.02384765625
5.3377109375,6.6353125,1.20446875,-0.544546875,1.27258984375,8.93781640625,4.10144140625,-2.718171875,0.9087890625,6.08291015625,10.52633203125,-2.133296875,-1.05512109375,1.1278125,7.4277890625,13.000703125,4.4451171875,5.218578125,2.31467578125,5.6809765625,-1.23777734375,-2.417140625,-1.028984375,-3.0695234375,2.455796875,3.8322109375,0.70533203125,-5.06205078125,-3.5068046875,-1.63584765625
6.1397109375,7.9283125,3.94646875,1.483453125,2.59158984375,11.07981640625,5.34444140625,-0.919171874999999,2.4097890625,8.07591015625,12.65933203125,0.251703125,-0.86812109375,2.4258125,8.8727890625,14.349703125,11.2651171875,5.814578125,3.56067578125,7.1259765625,-0.877777343749999,-1.601140625,-0.0259843750000002,-2.2065234375,2.669796875,3.7212109375,1.87933203125,-3.59805078125,-2.0708046875,-1.31184765625
7.4537109375,9.4463125,6.56546875,3.393453125,4.44458984375,13.37481640625,6.69744140625,1.627828125,3.9757890625,10.37191015625,15.09033203125,3.596703125,0.260878906249999,4.0418125,11.1387890625,16.359703125,14.1241171875,6.616578125,5.73567578125,9.4119765625,-0.0087773437499985,0.0878593749999999,2.014015625,0.114476562499998,3.848796875,4.0342109375,4.17033203125,-0.80105078125,0.4851953125,0.39615234375
8.8517109375,10.7073125,8.30046875,4.515453125,6.40758984375,15.24181640625,7.69244140625,4.210828125,5.1937890625,12.48291015625,17.17633203125,6.732703125,1.65187890625,5.6248125,13.7327890625,18.435703125,12.2521171875,7.381578125,8.37567578125,12.1159765625,1.27922265625,2.179859375,4.652015625,3.4184765625,5.860796875,4.9502109375,7.23133203125,2.88594921875,3.9721953125,3.49715234375
9.8947109375,11.3283125,8.63946875,4.424453125,7.98958984375,16.23981640625,8.10544140625,6.155828125,5.7857890625,13.99391015625,18.36633203125,8.523703125,2.48087890625,6.8478125,16.0397890625,19.894703125,7.0441171875,7.921578125,10.88267578125,14.6359765625,2.72522265625,4.092859375,7.244015625,6.8724765625,8.231796875,6.3262109375,10.38433203125,6.64694921875,7.7811953125,7.36615234375
10.2547109375,11.1493125,7.60946875,3.133453125,8.80258984375,16.21081640625,8.09544140625,7.026828125,5.7187890625,14.71591015625,18.46133203125,8.373703125,2.35187890625,7.5358125,17.5787890625,20.309703125,1.1121171875,8.176578125,12.76367578125,16.4419765625,3.96722265625,5.386859375,9.181015625,9.6264765625,10.332796875,7.7302109375,12.86433203125,9.55694921875,11.0471953125,10.90615234375
9.7937109375,10.2803125,5.79846875,1.098453125,8.72258984375,15.31981640625,8.08044140625,6.731828125,5.2007890625,14.74291015625,17.69133203125,6.421703125,1.61187890625,7.7438125,18.1927890625,19.746703125,-3.0258828125,8.235578125,13.82267578125,17.3279765625,4.69222265625,5.966859375,10.144015625,11.1814765625,11.677796875,8.7102109375,14.15733203125,10.98594921875,13.0531953125,13.05615234375
8.5847109375,9.0353125,4.04246875,-0.991546875,7.92258984375,13.93681640625,8.37144140625,5.480828125,4.5447890625,14.34391015625,16.55833203125,3.360703125,1.15287890625,7.7068125,18.0307890625,18.702703125,-3.9238828125,8.299578125,14.18667578125,17.4719765625,4.77522265625,6.102859375,10.208015625,11.5514765625,12.136796875,9.0662109375,14.23933203125,10.90794921875,13.5941953125,13.35215234375
6.8837109375,7.7933125,2.95546875,-2.526546875,6.74358984375,12.43281640625,8.88344140625,3.671828125,3.9847890625,13.75891015625,15.52533203125,0.0427031250000001,1.80687890625,7.6618125,17.3567890625,17.764703125,-1.5308828125,8.569578125,14.13567578125,17.2629765625,4.29322265625,6.239859375,9.735015625,11.1264765625,11.931796875,8.9302109375,13.54333203125,9.90394921875,13.0491953125,12.16115234375
5.0987109375,6.8483125,2.64746875,-3.167546875,5.52358984375,11.05281640625,9.19144140625,1.786828125,3.6067890625,13.05491015625,14.78033203125,-2.836296875,3.77787890625,7.6738125,16.3577890625,17.272703125,3.0021171875,9.116578125,13.88467578125,17.0249765625,3.44222265625,6.721859375,9.123015625,10.3554765625,11.435796875,8.5852109375,12.67133203125,8.81694921875,12.1521953125,10.41415234375
3.7127109375,6.3353125,2.77546875,-2.876546875,4.50158984375,9.90081640625,8.90444140625,0.313828125000001,3.3817890625,12.14891015625,14.21233203125,-4.880296875,6.50487890625,7.5818125,15.0837890625,17.179703125,7.8021171875,9.823578125,13.46167578125,16.8269765625,2.40922265625,7.578859375,8.596015625,9.4784765625,10.923796875,8.2022109375,12.05433203125,8.26294921875,11.5841953125,9.02515234375
3.1137109375,6.2113125,2.84846875,-1.833546875,3.79558984375,8.98381640625,7.96844140625,-0.377171874999999,3.2527890625,10.95191015625,13.56433203125,-5.989296875,8.98787890625,7.1148125,13.5287890625,17.163703125,10.8941171875,10.433578125,12.75867578125,16.4809765625,1.29422265625,8.515859375,8.138015625,8.4674765625,10.430796875,7.6982109375,11.77733203125,8.31294921875,11.6251953125,8.39215234375
3.3917109375,6.2803125,2.55946875,-0.349546875,3.39958984375,8.26581640625,6.68344140625,-0.185171874999999,3.1727890625,9.51191015625,12.62933203125,-6.287296875,10.33687890625,6.1018125,11.7637890625,16.861703125,10.9001171875,10.687578125,11.68867578125,15.7179765625,0.116222656250001,9.112859375,7.613015625,7.1854765625,9.809796875,6.8312109375,11.65533203125,8.55194921875,12.0591953125,8.31315234375
4.2457109375,6.2683125,1.94746875,1.188453125,3.18258984375,7.69981640625,5.44944140625,0.642828125,3.1187890625,8.05191015625,11.40933203125,-5.979296875,10.19887890625,4.6268125,10.0217890625,16.088703125,7.6481171875,10.465578125,10.33267578125,14.4209765625,-1.10677734375,9.089859375,6.954015625,5.6164765625,8.917796875,5.4522109375,11.47133203125,8.46394921875,12.4061953125,8.32015234375
5.0777109375,5.9423125,1.28246875,2.340453125,2.87158984375,7.23981640625,4.48544140625,1.571828125,3.0527890625,6.86891015625,10.13233203125,-5.205296875,8.84387890625,3.0338125,8.6567890625,14.944703125,2.3711171875,9.826578125,8.95067578125,12.7649765625,-2.28177734375,8.446859375,6.258015625,3.9804765625,7.790796875,3.7172109375,11.17733203125,7.83794921875,12.2931953125,8.13715234375
5.2187109375,5.1973125,0.769468749999999,2.611453125,2.07158984375,6.82181640625,3.67244140625,1.926828125,2.8237890625,6.17391015625,9.15633203125,-3.985296875,6.89687890625,1.7678125,8.0007890625,13.753703125,-2.7358828125,8.924578125,7.85267578125,11.1619765625,-3.26077734375,7.385859375,5.729015625,2.6534765625,6.680796875,2.0932109375,10.93333203125,6.92494921875,11.6431953125,7.92615234375
4.1407109375,4.0733125,0.32246875,1.497453125,0.344589843750001,6.33981640625,2.60844140625,1.086828125,2.1167890625,5.97691015625,8.81333203125,-2.300296875,4.94887890625,1.1578125,8.2097890625,12.891703125,-5.4998828125,7.869578125,7.23067578125,10.0669765625,-3.90377734375,6.121859375,5.526015625,1.9714765625,5.940796875,1.1512109375,10.98933203125,6.25594921875,10.5791953125,8.18415234375
1.6147109375,2.6863125,-0.37953125,-1.340546875,-2.61241015625,5.67681640625,0.84944140625,-1.306171875,0.564789062499999,6.12091015625,9.26733203125,-0.195296875,3.29687890625,1.2848125,9.2197890625,12.610703125,-4.7508828125,6.675578125,7.08467578125,9.7719765625,-4.15277734375,4.749859375,5.669015625,2.0734765625,5.841796875,1.2922109375,11.52733203125,6.29994921875,9.2371953125,9.40015234375
-2.2032890625,1.1563125,-1.57753125,-5.823546875,-6.76341015625,4.78281640625,-1.78555859375,-5.160171875,-1.9672109375,6.40391015625,10.44733203125,2.207703125,1.94887890625,1.9988125,10.8027890625,12.934703125,-0.748882812500001,5.321578125,7.27667578125,10.2739765625,-4.04777734375,3.285859375,6.065015625,2.8594765625,6.420796875,2.5342109375,12.55733203125,7.19194921875,7.6971953125,11.71915234375
-6.7722890625,-0.421687499999999,-3.17053125,-11.312546875,-11.64841015625,3.73181640625,-5.05355859375,-9.890171875,-5.1712109375,6.70891015625,12.06133203125,4.778703125,0.77787890625,3.0268125,12.6757890625,13.653703125,5.1231171875,3.853578125,7.63367578125,11.2789765625,-3.73077734375,1.766859375,6.596015625,4.0484765625,7.444796875,4.4762109375,13.91333203125,8.67394921875,6.0611953125,14.80315234375
-6.7722890625,-0.421687499999999,-3.17053125,-11.312546875,-11.64841015625,3.73181640625,-5.05355859375,-9.890171875,-5.1712109375,6.70891015625,12.06133203125,4.778703125,0.77787890625,3.0268125,12.6757890625,13.653703125,5.1231171875,3.853578125,7.63367578125,11.2789765625,-3.73077734375,1.766859375,6.596015625,4.0484765625,7.444796875,4.4762109375,13.91333203125,8.67394921875,6.0611953125,14.80315234375
