"Fp1","Fpz","Fp2","F7","F3","Fz","F4","F8","FC5","FC1","FC2","FC6","T7","C3","Cz","C4","T8","CP5","CP1","CP2","CP6","P7","P3","Pz","P4","P8","POz","O1","Oz","O2"
11.321140625,7.967140625,3.0977265625,16.1281953125,4.57078515625,10.67234765625,12.48273046875,14.5531875,7.23826953125,5.767703125,5.24607421875,18.76997265625,11.42557421875,5.86018359375,2.82528125,8.3278359375,17.3702421875,5.7971328125,3.94476171875,1.54660546875,3.31757421875,3.5826875,2.6672265625,2.48871875,-3.138953125,-2.56364453125,2.87744140625,3.72190625,-12.1891953125,-8.0148828125
6.285140625,6.133140625,0.2877265625,12.0981953125,2.55678515625,7.01934765625,6.46973046875,9.2191875,5.00626953125,3.872703125,2.21807421875,15.57397265625,10.91657421875,3.86418359375,0.61928125,4.9528359375,15.0682421875,5.8001328125,2.46676171875,-1.42839453125,0.80157421875,5.5766875,2.5792265625,0.83271875,-4.505953125,-3.34864453125,2.44344140625,5.61790625,-11.2591953125,-5.9278828125
3.501140625,5.047140625,-1.5022734375,9.9071953125,1.22678515625,4.57234765625,2.60473046875,5.9691875,3.67226953125,2.346703125,0.08507421875,13.34097265625,10.70057421875,2.38118359375,-1.11871875,2.5368359375,13.9882421875,5.4971328125,1.22976171875,-3.42539453125,-0.90742578125,6.6356875,1.8742265625,-0.74028125,-5.581953125,-3.52264453125,1.20244140625,6.29390625,-11.1291953125,-4.9278828125
2.962140625,4.735140625,-2.2552734375,9.4881953125,0.59178515625,3.36834765625,0.999730468749999,4.7851875,3.19626953125,1.259703125,-1.08292578125,12.12097265625,10.56757421875,1.47718359375,-2.31871875,1.2208359375,14.1472421875,4.8911328125,0.24776171875,-4.39039453125,-1.85242578125,6.7846875,0.6112265625,-2.18528125,-6.306953125,-3.22064453125,-0.82255859375,5.80090625,-11.7031953125,-5.0068828125
4.016140625,4.982140625,-2.1922734375,10.2081953125,0.46178515625,3.10734765625,1.17773046875,5.0301875,3.27426953125,0.603703125,-1.41592578125,11.69797265625,10.21457421875,1.12118359375,-2.97771875,0.9388359375,15.1392421875,4.1271328125,-0.47523828125,-4.52339453125,-2.30642578125,6.3876875,-0.8907734375,-3.43628125,-6.682953125,-2.76564453125,-3.31955859375,4.60890625,-12.6091953125,-5.7908828125
5.760140625,5.460140625,-1.5782734375,11.2721953125,0.58278515625,3.37634765625,2.37873046875,5.8431875,3.55326953125,0.332703125,-1.08992578125,11.74397265625,9.49557421875,1.25718359375,-3.09671875,1.5048359375,16.3382421875,3.4551328125,-0.88523828125,-4.12039453125,-2.58242578125,5.9136875,-2.2147734375,-4.40428125,-6.774953125,-2.47564453125,-5.85655859375,3.28390625,-13.4761953125,-6.7988828125
7.381140625,5.886140625,-0.6042734375,12.1081953125,0.77378515625,3.85634765625,3.84773046875,6.5301875,3.81826953125,0.409703125,-0.23392578125,12.00097265625,8.55357421875,1.83218359375,-2.66371875,2.6968359375,17.1922421875,3.1071328125,-0.88323828125,-3.41539453125,-2.85642578125,5.6266875,-3.0477734375,-5.01228125,-6.672953125,-2.50764453125,-8.08255859375,2.13090625,-14.1931953125,-7.6968828125
8.369140625,6.136140625,0.5967265625,12.5431953125,0.97878515625,4.40534765625,5.04473046875,6.7801875,4.03826953125,0.799703125,1.05707421875,12.36897265625,7.73057421875,2.75518359375,-1.69371875,4.2838359375,17.4592421875,3.1531328125,-0.41523828125,-2.51639453125,-3.11642578125,5.3856875,-3.3447734375,-5.23828125,-6.447953125,-2.79864453125,-9.86255859375,1.02190625,-14.9771953125,-8.4148828125
8.600140625,6.244140625,1.8807265625,12.7101953125,1.20078515625,5.00734765625,5.73473046875,6.6561875,4.28126953125,1.416703125,2.63307421875,12.84697265625,7.31457421875,3.82718359375,-0.30571875,6.0018359375,17.2532421875,3.4061328125,0.41576171875,-1.45939453125,-3.23742578125,4.7066875,-3.3507734375,-5.15528125,-6.121953125,-3.11064453125,-11.28155859375,-0.49709375,-16.2181953125,-9.0618828125
8.260140625,6.317140625,3.0477265625,12.7861953125,1.39778515625,5.63834765625,5.95273046875,6.4091875,4.55526953125,2.089703125,4.21307421875,13.42697265625,7.33657421875,4.73618359375,1.23828125,7.5528359375,16.8872421875,3.4851328125,1.32276171875,-0.30439453125,-3.11642578125,3.0686875,-3.4677734375,-4.91428125,-5.678953125,-3.11864453125,-12.50955859375,-2.85409375,-18.1891953125,-9.7228828125
7.672140625,6.435140625,3.8827265625,12.7661953125,1.42978515625,6.18234765625,5.87373046875,6.2761875,4.73326953125,2.594703125,5.42607421875,14.03297265625,7.55657421875,5.14418359375,2.58828125,8.6568359375,16.6452421875,3.0171328125,1.96176171875,0.80460546875,-2.75742578125,0.3216875,-4.0217734375,-4.67228125,-5.102953125,-2.52764453125,-13.61955859375,-6.06609375,-20.7831953125,-10.2798828125
7.126140625,6.598140625,4.2737265625,12.4291953125,1.13678515625,6.48034765625,5.71073046875,6.3641875,4.60326953125,2.766703125,5.96807421875,14.56397265625,7.63657421875,4.86318359375,3.44528125,9.1488359375,16.6502421875,1.8791328125,2.13776171875,1.67860546875,-2.26142578125,-3.0783125,-5.0497734375,-4.49228125,-4.419953125,-1.20964453125,-14.46655859375,-9.57009375,-23.4721953125,-10.4308828125
6.819140625,6.746140625,4.3157265625,11.5321953125,0.47878515625,6.46734765625,5.68973046875,6.6711875,4.02326953125,2.618703125,5.77707421875,14.97597265625,7.36057421875,3.99918359375,3.70728125,9.0588359375,16.8542421875,0.3141328125,1.95576171875,2.18260546875,-1.76542578125,-6.2053125,-6.2617734375,-4.28928125,-3.700953125,0.67835546875,-14.71955859375,-12.41309375,-25.4961953125,-9.8918828125
6.845140625,6.825140625,4.2997265625,10.0461953125,-0.36221484375,6.28434765625,6.03673046875,7.1701875,3.05326953125,2.371703125,5.12807421875,15.34297265625,6.73457421875,2.95318359375,3.55228125,8.6268359375,17.1202421875,-1.1428671875,1.80376171875,2.33760546875,-1.34842578125,-8.0763125,-7.1557734375,-3.85428125,-3.019953125,2.69535546875,-14.02255859375,-13.67509375,-26.1881953125,-8.6038828125
7.174140625,6.846140625,4.5507265625,8.2471953125,-1.01421484375,6.26334765625,6.92773046875,7.8541875,1.96826953125,2.391703125,4.55207421875,15.83997265625,5.92357421875,2.27318359375,3.38928125,8.2438359375,17.3372421875,-1.8988671875,2.16276171875,2.35060546875,-0.96642578125,-8.0963125,-7.2477734375,-2.94428125,-2.384953125,4.27735546875,-12.19155859375,-12.87709375,-25.2361953125,-6.7848828125
7.652140625,6.900140625,5.2357265625,6.6071953125,-1.07421484375,6.77434765625,8.40773046875,8.7431875,1.14026953125,3.036703125,4.62007421875,16.66697265625,5.09057421875,2.39418359375,3.68028125,8.3118359375,17.4812421875,-1.5688671875,3.33576171875,2.53260546875,-0.46342578125,-6.3143125,-6.2927734375,-1.42828125,-1.731953125,4.98135546875,-9.34955859375,-10.18409375,-22.8101953125,-4.8248828125
8.074140625,7.083140625,6.2637265625,5.5761953125,-0.32721484375,8.01834765625,10.34273046875,9.8341875,0.84926953125,4.459703125,5.66607421875,17.90797265625,4.30157421875,3.41218359375,4.67928125,9.0558359375,17.5962421875,-0.1818671875,5.24176171875,3.10360546875,0.30357421875,-3.4043125,-4.4317734375,0.55771875,-1.002953125,4.64535546875,-5.96055859375,-6.34909375,-19.5321953125,-3.1478828125
8.283140625,7.416140625,7.3187265625,5.3911953125,1.09978515625,9.87134765625,12.42373046875,11.0521875,1.15426953125,6.480703125,7.58807421875,19.42697265625,3.55557421875,5.00718359375,6.23528125,10.3628359375,17.7042421875,1.8031328125,7.37576171875,4.01160546875,1.31257421875,-0.4023125,-2.1887734375,2.55071875,-0.290953125,3.38435546875,-2.74055859375,-2.42809375,-16.2911953125,-2.1078828125
8.228140625,7.812140625,7.9997265625,5.9991953125,2.77478515625,11.88734765625,14.22773046875,12.2211875,1.87926953125,8.607703125,9.84107421875,20.87697265625,2.91857421875,6.58018359375,7.81628125,11.7748359375,17.7282421875,3.6811328125,8.99576171875,4.89460546875,2.29857421875,1.6846875,-0.2827734375,3.88671875,0.113046875,1.50535546875,-0.451558593750001,0.61990625,-13.9131953125,-1.8988828125
7.949140625,8.131140625,7.9867265625,7.1271953125,4.17078515625,13.46634765625,15.34573046875,13.0951875,2.72226953125,10.238703125,11.66807421875,21.84797265625,2.61857421875,7.53918359375,8.75628125,12.6658359375,17.5012421875,4.8251328125,9.45876171875,5.23660546875,2.85957421875,2.2546875,0.6772265625,3.98071875,-0.171953124999999,-0.60764453125,0.36644140625,2.27390625,-12.8401953125,-2.4798828125
7.578140625,8.256140625,7.1727265625,8.4601953125,4.93578515625,14.13634765625,15.53273046875,13.4531875,3.42226953125,10.919703125,12.43407421875,22.04297265625,2.98157421875,7.58418359375,8.59628125,12.5318359375,16.8632421875,4.9451328125,8.52576171875,4.64960546875,2.65957421875,1.2846875,0.4402265625,2.63371875,-1.387953125,-2.56364453125,-0.403558593750001,2.54690625,-12.9981953125,-3.5738828125
7.332140625,8.144140625,5.7117265625,9.8111953125,5.05478515625,13.76534765625,14.81573046875,13.2031875,3.89126953125,10.542703125,11.91707421875,21.39397265625,4.20257421875,6.81818359375,7.30828125,11.2308359375,15.7752421875,4.1651328125,6.46976171875,3.09660546875,1.63457421875,-0.7463125,-0.8017734375,0.15771875,-3.443953125,-4.04164453125,-2.41355859375,1.83990625,-13.9301953125,-4.8048828125
7.427140625,7.829140625,3.9527265625,11.1901953125,4.81678515625,12.60134765625,13.46773046875,12.4221875,4.23226953125,9.375703125,10.37807421875,20.06597265625,6.13257421875,5.65918359375,5.29028125,9.0468359375,14.3792421875,2.8921328125,3.94076171875,0.93560546875,0.0475742187499999,-3.1053125,-2.5267734375,-2.72928125,-5.889953125,-4.87564453125,-4.96855859375,0.67290625,-15.0591953125,-5.8718828125
7.946140625,7.402140625,2.2887265625,12.7211953125,4.62678515625,11.12534765625,11.87173046875,11.3211875,4.65326953125,7.927703125,8.40007421875,18.37797265625,8.28557421875,4.62018359375,3.16128125,6.5718359375,12.9552421875,1.6111328125,1.69376171875,-1.22439453125,-1.61842578125,-5.0863125,-4.1047734375,-5.18328125,-8.066953125,-5.10564453125,-7.26255859375,-0.49009375,-15.9001953125,-6.6608828125
8.767140625,6.981140625,1.0337265625,14.4901953125,4.78278515625,9.81434765625,10.38473046875,10.1671875,5.32326953125,6.717703125,6.61307421875,16.67597265625,10.08057421875,4.07818359375,1.47628125,4.4548359375,11.7982421875,0.6971328125,0.29376171875,-2.79439453125,-2.87842578125,-6.2193125,-5.0307734375,-6.57328125,-9.382953125,-4.98064453125,-8.63955859375,-1.32609375,-16.1401953125,-7.2158828125
9.621140625,6.646140625,0.3577265625,16.4171953125,5.32378515625,8.93934765625,9.25873046875,9.2001875,6.25226953125,6.039703125,5.40507421875,15.20497265625,11.13557421875,4.12218359375,0.48228125,3.1188359375,11.0682421875,0.3161328125,-0.09023828125,-3.47839453125,-3.48242578125,-6.3993125,-5.1297734375,-6.74328125,-9.596953125,-4.90664453125,-8.85455859375,-1.70709375,-15.6881953125,-7.6878828125
10.215140625,6.385140625,0.2787265625,18.2171953125,6.01878515625,8.46334765625,8.57773046875,8.5481875,7.24926953125,5.834703125,4.77807421875,14.02697265625,11.39057421875,4.53018359375,0.0262812500000003,2.5798359375,10.7082421875,0.3791328125,0.25476171875,-3.43939453125,-3.54742578125,-5.8953125,-4.6477734375,-6.09728125,-8.985953125,-5.32364453125,-8.22755859375,-1.76709375,-14.7531953125,-8.3038828125
10.312140625,6.077140625,0.6747265625,19.4741953125,6.47678515625,8.08934765625,8.20273046875,8.1511875,7.98826953125,5.744703125,4.38507421875,13.02397265625,11.01557421875,4.85518359375,-0.34571875,2.4418359375,10.4882421875,0.5781328125,0.69676171875,-3.23039453125,-3.48442578125,-5.2143125,-4.1787734375,-5.43728125,-8.261953125,-6.51264453125,-7.56455859375,-1.89809375,-13.8371953125,-9.3058828125
9.794140625,5.539140625,1.3207265625,19.8071953125,6.32178515625,7.42134765625,7.80273046875,7.7781875,8.13626953125,5.309703125,3.74307421875,11.98397265625,10.21857421875,4.61518359375,-1.14071875,2.1058359375,10.1592421875,0.4961328125,0.52376171875,-3.52739453125,-3.76242578125,-4.8803125,-4.4057734375,-5.59328125,-8.241953125,-8.38464453125,-7.80755859375,-2.60409375,-13.5721953125,-10.8028828125
8.695140625,4.631140625,1.9527265625,19.0561953125,5.34578515625,6.17234765625,6.99773046875,7.1351875,7.49226953125,4.193703125,2.48407421875,10.72897265625,9.13357421875,3.49718359375,-2.66871875,1.0728359375,9.5882421875,-0.2388671875,-0.75023828125,-4.78439453125,-4.63842578125,-5.2333125,-5.7847734375,-7.04728125,-9.440953125,-10.44064453125,-9.58155859375,-4.26309375,-14.4371953125,-12.6468828125
7.195140625,3.342140625,2.3297265625,17.3651953125,3.58978515625,4.30234765625,5.56173046875,6.0291875,6.06226953125,2.343703125,0.53507421875,9.21197265625,7.81557421875,1.49518359375,-4.89971875,-0.8111640625,8.7972421875,-1.7918671875,-3.17623828125,-7.02639453125,-6.04742578125,-6.3363125,-8.3297734375,-9.72828125,-11.820953125,-11.99764453125,-12.87255859375,-6.94909375,-16.5391953125,-14.4678828125
5.528140625,1.845140625,2.2817265625,15.1521953125,1.34378515625,2.05134765625,3.55073046875,4.4931875,4.07826953125,0.0137031250000001,-1.85392578125,7.55997265625,6.32257421875,-1.04481640625,-7.46771875,-3.2741640625,7.9052421875,-4.0158671875,-6.31923828125,-9.81739453125,-7.65542578125,-7.9803125,-11.5637734375,-13.04928125,-14.811953125,-12.52364453125,-17.00655859375,-10.35309375,-19.5661953125,-15.8568828125
3.920140625,0.478140625,1.7517265625,12.9921953125,-0.89621484375,-0.12765234375,1.34373046875,2.8311875,1.96626953125,-2.297296875,-4.19792578125,6.06997265625,4.80857421875,-3.48581640625,-9.78071875,-5.7051640625,7.0782421875,-6.4188671875,-9.37523828125,-12.41939453125,-9.00142578125,-9.6963125,-14.6547734375,-16.12328125,-17.524953125,-11.84764453125,-20.87955859375,-13.79509375,-22.8251953125,-16.4878828125
2.606140625,-0.359859375,0.8427265625,11.4511953125,-2.55121484375,-1.69665234375,-0.43626953125,1.5471875,0.26526953125,-3.996296875,-5.95092578125,5.11797265625,3.55757421875,-5.08681640625,-11.19871875,-7.3641640625,6.4972421875,-8.2478671875,-11.40823828125,-14.02239453125,-9.64442578125,-10.7743125,-16.6437734375,-18.04228125,-19.047953125,-10.11464453125,-23.30055859375,-16.27809375,-25.3351953125,-16.0798828125
1.840140625,-0.393859375,-0.1972734375,10.8921953125,-3.16121484375,-2.23865234375,-1.16426953125,1.1171875,-0.54273046875,-4.612296875,-6.72692578125,4.97097265625,2.87357421875,-5.27281640625,-11.26571875,-7.6981640625,6.2872421875,-8.7318671875,-11.68723828125,-14.03439453125,-9.31642578125,-10.4073125,-16.7547734375,-18.16328125,-18.742953125,-7.66764453125,-23.36655859375,-16.69609375,-26.0301953125,-14.3498828125
1.779140625,0.353140625,-1.0952734375,11.2811953125,-2.62121484375,-1.68465234375,-0.565269531250001,1.6701875,-0.26273046875,-4.035296875,-6.52292578125,5.56697265625,2.85157421875,-3.93881640625,-9.94571875,-6.6371640625,6.4082421875,-7.4588671875,-10.03623828125,-12.35739453125,-8.09042578125,-8.0623125,-14.7247734375,-16.36028125,-16.538953125,-5.02564453125,-20.80455859375,-14.29409375,-24.1931953125,-11.1758828125
2.301140625,1.504140625,-1.6852734375,12.1311953125,-1.31821484375,-0.430652343749999,1.03273046875,2.8331875,0.86126953125,-2.635296875,-5.77292578125,6.44497265625,3.19457421875,-1.58481640625,-7.71771875,-4.7001640625,6.6022421875,-4.6878671875,-6.98823828125,-9.51039453125,-6.44342578125,-3.9333125,-11.0117734375,-13.13028125,-13.061953125,-2.91364453125,-16.16955859375,-9.19409375,-19.9571953125,-6.9198828125
3.023140625,2.481140625,-1.9502734375,12.7211953125,-0.0052148437499997,0.82834765625,2.82973046875,3.9271875,2.22926953125,-1.111296875,-5.13992578125,6.95697265625,3.29057421875,0.86518359375,-5.39571875,-2.7691640625,6.5342421875,-1.3398671875,-3.58423828125,-6.43739453125,-5.06942578125,0.9056875,-6.6867734375,-9.42028125,-9.438953125,-2.11164453125,-10.70255859375,-2.61009375,-14.4711953125,-2.5628828125
3.535140625,2.806140625,-1.9342734375,12.4921953125,0.57478515625,1.47234765625,3.99973046875,4.4091875,3.20726953125,-0.145296875,-5.11892578125,6.66197265625,2.57757421875,2.51518359375,-3.73371875,-1.6041640625,6.0462421875,1.4181328125,-0.86223828125,-4.04239453125,-4.49642578125,4.8926875,-2.9757734375,-6.18128125,-6.789953125,-3.06864453125,-5.81355859375,3.56990625,-9.4571953125,0.642117187499999
3.675140625,2.358140625,-1.6562734375,11.3741953125,0.0827851562500004,1.29534765625,4.12973046875,4.1871875,3.47426953125,-0.045296875,-5.73192578125,5.61497265625,0.983574218749999,2.95618359375,-3.03071875,-1.4141640625,5.2942421875,2.7821328125,0.67076171875,-2.72339453125,-4.76342578125,6.8016875,-0.6567734375,-3.90228125,-5.663953125,-5.53364453125,-2.43255859375,7.69590625,-6.3381953125,1.8701171875
3.580140625,1.433140625,-1.1262734375,9.7811953125,-1.26221484375,0.55934765625,3.34373046875,3.5991875,3.14026953125,-0.653296875,-6.54492578125,4.31497265625,-0.902425781250002,2.42018359375,-3.04471875,-1.7931640625,4.6322421875,2.7161328125,1.20576171875,-2.23939453125,-5.41842578125,6.4376875,0.2862265625,-2.42228125,-5.818953125,-8.55964453125,-0.64155859375,9.17490625,-5.5021953125,1.2581171875
3.496140625,0.544140625,-0.4232734375,8.2911953125,-2.88321484375,-0.264652343750001,2.11973046875,3.1191875,2.55926953125,-1.555296875,-6.99492578125,3.36097265625,-2.11642578125,1.53418359375,-3.25171875,-2.0761640625,4.3292421875,1.8651328125,1.36676171875,-1.99339453125,-5.84642578125,4.7046875,0.5072265625,-1.19028125,-6.483953125,-10.96564453125,0.17244140625,8.65190625,-6.2291953125,-0.1668828125
3.542140625,0.111140625,0.2817265625,7.2431953125,-4.24121484375,-0.83965234375,0.97973046875,3.0751875,2.00726953125,-2.418296875,-6.78492578125,3.07297265625,-1.90742578125,0.86418359375,-3.25771875,-1.8351640625,4.3682421875,1.0521328125,1.70776171875,-1.52539453125,-5.69242578125,2.9296875,0.7652265625,0.23871875,-6.900953125,-11.95964453125,0.75744140625,7.41990625,-7.2901953125,-1.1408828125
3.569140625,0.234140624999999,0.7817265625,6.5691953125,-5.12421484375,-1.15165234375,0.244730468749999,3.5011875,1.49526953125,-3.193296875,-6.06092578125,3.33997265625,-0.235425781250001,0.58718359375,-3.04971875,-1.1611640625,4.4672421875,0.7531328125,2.35176171875,-0.82239453125,-5.05542578125,1.9816875,1.3932265625,1.84771875,-6.772953125,-11.47964453125,1.46844140625,6.53690625,-7.7581953125,-0.926882812500001
3.233140625,0.705140624999999,0.9307265625,5.9551953125,-5.66321484375,-1.44465234375,-0.06726953125,4.1611875,0.83726953125,-4.050296875,-5.28592578125,3.73897265625,2.19057421875,0.48318359375,-2.92671875,-0.5631640625,4.2612421875,0.8781328125,2.98976171875,-0.28739453125,-4.38742578125,1.8296875,2.1492265625,3.15971875,-6.355953125,-10.08164453125,2.09744140625,6.27390625,-7.4761953125,0.3141171875
2.232140625,1.174140625,0.7037265625,5.1601953125,-6.13021484375,-2.01265234375,-0.174269531250001,4.7001875,-0.13273046875,-5.178296875,-4.93892578125,3.81597265625,4.34557421875,0.15818359375,-3.23471875,-0.6181640625,3.5232421875,0.9691328125,3.12876171875,-0.42939453125,-4.18142578125,1.7756875,2.4502265625,3.55871875,-6.233953125,-8.54564453125,2.09044140625,6.17590625,-6.9921953125,1.6981171875
0.567140625,1.357140625,0.2047265625,4.2201953125,-6.74021484375,-3.00465234375,-0.350269531250001,4.8601875,-1.40173046875,-6.614296875,-5.25592578125,3.33397265625,5.46357421875,-0.69881640625,-4.14571875,-1.6141640625,2.3132421875,0.549132812499999,2.40076171875,-1.53539453125,-4.69042578125,1.0746875,1.7762265625,2.64871875,-6.950953125,-7.46464453125,0.93744140625,5.52990625,-7.1241953125,2.1621171875
-1.397859375,1.146140625,-0.3802734375,3.4201953125,-7.54421484375,-4.35065234375,-0.752269531250001,4.6301875,-2.76873046875,-8.213296875,-6.15692578125,2.37297265625,5.35957421875,-2.17181640625,-5.58171875,-3.4101640625,0.9762421875,-0.5928671875,0.72776171875,-3.50239453125,-5.81542578125,-0.5483125,-0.0367734375,0.45271875,-8.721953125,-7.04864453125,-1.53255859375,3.85590625,-8.4711953125,1.0411171875
-3.146859375,0.613140625,-0.8922734375,3.0881953125,-8.45321484375,-5.82165234375,-1.37626953125,4.2111875,-3.93673046875,-9.723296875,-7.34692578125,1.24797265625,4.38257421875,-4.11581640625,-7.30571875,-5.5311640625,-0.024757812499999,-2.3168671875,-1.66723828125,-5.90039453125,-7.20842578125,-2.7453125,-2.7037734375,-2.62028125,-11.334953125,-7.19764453125,-5.05455859375,1.16690625,-11.1081953125,-1.6148828125
-4.315859375,-0.0698593750000001,-1.2822734375,3.3951953125,-9.29621484375,-7.14265234375,-2.12226953125,3.8551875,-4.63373046875,-10.891296875,-8.49992578125,0.316972656250002,3.12357421875,-6.23381640625,-9.05271875,-7.4251640625,-0.393757812499999,-4.2328671875,-4.37523828125,-8.18939453125,-8.49442578125,-4.7863125,-5.6287734375,-5.97428125,-14.273953125,-7.71864453125,-9.05255859375,-2.07509375,-14.5511953125,-5.0928828125
-4.819859375,-0.730859375000001,-1.6212734375,4.2711953125,-9.89021484375,-8.08365234375,-2.84126953125,3.6991875,-4.71873046875,-11.559296875,-9.39492578125,-0.198027343749995,2.08057421875,-8.20381640625,-10.63671875,-8.6931640625,-0.186757812499998,-5.9248671875,-6.95923828125,-9.96239453125,-9.43942578125,-6.0033125,-8.1787734375,-9.06428125,-16.939953125,-8.48764453125,-12.87355859375,-5.20909375,-17.9901953125,-8.3828828125
-4.775859375,-1.262859375,-2.0072734375,5.4561953125,-10.10121484375,-8.51165234375,-3.37026953125,3.7311875,-4.24873046875,-11.709296875,-9.95392578125,-0.290027343749998,1.42857421875,-9.78081640625,-11.98271875,-9.2021640625,0.248242187500001,-7.1668671875,-9.09223828125,-11.07339453125,-9.97842578125,-6.1753125,-9.9657734375,-11.56628125,-18.866953125,-9.46664453125,-16.01855859375,-7.68909375,-20.6511953125,-10.6438828125
-4.355859375,-1.638859375,-2.4702734375,6.6241953125,-9.86721484375,-8.39865234375,-3.56926953125,3.8501875,-3.45973046875,-11.442296875,-10.20492578125,-0.113027343749998,1.00557421875,-10.84581640625,-13.09771875,-9.0621640625,0.5152421875,-8.0088671875,-10.63623828125,-11.62739453125,-10.14942578125,-5.6183125,-10.9787734375,-13.40528125,-19.860953125,-10.60564453125,-18.27155859375,-9.27909375,-22.1131953125,-11.5258828125
-3.711859375,-1.861859375,-2.9402734375,7.5481953125,-9.18021484375,-7.79465234375,-3.38726953125,3.9801875,-2.64373046875,-10.905296875,-10.19592578125,0.138972656250004,0.537574218749999,-11.37281640625,-13.99771875,-8.5161640625,0.4202421875,-8.6618671875,-11.61823828125,-11.86139453125,-10.00942578125,-4.9333125,-11.5037734375,-14.67028125,-20.004953125,-11.75864453125,-19.67855859375,-10.04109375,-22.4011953125,-11.2128828125
-2.927859375,-1.913859375,-3.2572734375,8.2221953125,-8.06421484375,-6.79065234375,-2.86126953125,4.1661875,-1.97873046875,-10.214296875,-9.93392578125,0.356972656250004,-0.0664257812500013,-11.36881640625,-14.64671875,-7.8101640625,0.0722421874999988,-9.2788671875,-12.13823828125,-11.98639453125,-9.58742578125,-4.5853125,-11.8717734375,-15.46428125,-19.541953125,-12.63264453125,-20.39055859375,-10.15209375,-21.8131953125,-10.1818828125
-2.019859375,-1.762859375,-3.2192734375,8.8141953125,-6.58921484375,-5.50665234375,-2.07326953125,4.5601875,-1.47273046875,-9.440296875,-9.36592578125,0.558972656250003,-0.600425781250002,-10.86081640625,-14.95371875,-7.0971640625,-0.210757812499999,-9.8148671875,-12.26523828125,-12.09139453125,-8.87742578125,-4.6193125,-12.2197734375,-15.78828125,-18.693953125,-12.80164453125,-20.47755859375,-9.69709375,-20.6161953125,-8.8368828125
-1.014859375,-1.408859375,-2.6742734375,9.4631953125,-4.93921484375,-4.11665234375,-1.14226953125,5.2811875,-1.06773046875,-8.644296875,-8.44292578125,0.813972656250003,-0.732425781250002,-9.95581640625,-14.82371875,-6.4261640625,-0.108757812499999,-10.0718671875,-12.01723828125,-12.12839453125,-7.85942578125,-4.7113125,-12.4237734375,-15.54828125,-17.552953125,-11.82164453125,-19.85055859375,-8.60709375,-18.8361953125,-7.2728828125
-0.0548593750000004,-0.920859375,-1.6302734375,10.0901953125,-3.41521484375,-2.85365234375,-0.22726953125,6.2711875,-0.782730468750001,-7.916296875,-7.19392578125,1.14897265625,-0.307425781250001,-8.88481640625,-14.22971875,-5.7731640625,0.524242187500001,-9.8718671875,-11.41823828125,-11.98739453125,-6.56242578125,-4.4683125,-12.2327734375,-14.64928125,-16.094953125,-9.48264453125,-18.35955859375,-6.79609375,-16.3431953125,-5.3478828125
0.624140625,-0.401859375,-0.2652734375,10.4471953125,-2.29821484375,-1.90965234375,0.55173046875,7.3341875,-0.70073046875,-7.316296875,-5.72092578125,1.53697265625,0.508574218749999,-7.92081640625,-13.20571875,-5.0611640625,1.6272421875,-9.1828671875,-10.53623828125,-11.55539453125,-5.08342578125,-3.7303125,-11.4487734375,-13.09328125,-14.293953125,-6.04264453125,-15.95955859375,-4.36109375,-13.1021953125,-2.9658828125
0.867140624999999,0.0931406249999993,1.1787265625,10.3551953125,-1.65721484375,-1.26665234375,1.25973046875,8.3611875,-0.83873046875,-6.767296875,-4.09792578125,2.01497265625,1.34957421875,-7.19281640625,-11.78571875,-4.1331640625,3.0402421875,-8.1018671875,-9.43923828125,-10.72139453125,-3.51942578125,-2.6523125,-10.0227734375,-10.97128125,-12.181953125,-2.21664453125,-12.79655859375,-1.65609375,-9.3681953125,-0.285882812500001
0.750140624999999,0.598140625,2.5487265625,9.8781953125,-1.25921484375,-0.65065234375,2.19373046875,9.4891875,-1.04773046875,-6.032296875,-2.30892578125,2.76997265625,1.90457421875,-6.58181640625,-9.95771875,-2.7511640625,4.6472421875,-6.7618671875,-8.13823828125,-9.37039453125,-1.86842578125,-1.5973125,-8.0407734375,-8.40228125,-9.846953125,1.13435546875,-9.16155859375,0.81890625,-5.6541953125,2.3151171875
0.520140625,1.187140625,3.8247265625,9.2571953125,-0.73121484375,0.30034765625,3.68573046875,10.9891875,-1.10073046875,-4.854296875,-0.31892578125,4.06397265625,2.11457421875,-5.81081640625,-7.72471875,-0.7121640625,6.3952421875,-5.2918671875,-6.59823828125,-7.43639453125,-0.0264257812500002,-0.9633125,-5.6857734375,-5.51128125,-7.415953125,3.40535546875,-5.39355859375,2.60490625,-2.5451953125,4.4461171875
0.415140624999999,1.890140625,5.0477265625,8.7011953125,0.17978515625,1.76334765625,5.80973046875,12.9771875,-0.86473046875,-3.163296875,1.80207421875,6.02297265625,2.20057421875,-4.65881640625,-5.20171875,1.9768359375,8.2112421875,-3.8208671875,-4.81223828125,-4.99039453125,2.09457421875,-1.0393125,-3.1987734375,-2.46428125,-5.051953125,4.48935546875,-1.81055859375,3.44590625,-0.477195312499997,5.8861171875
0.543140624999999,2.647140625,6.2237265625,8.2751953125,1.44178515625,3.60334765625,8.27873046875,15.2421875,-0.38273046875,-1.158296875,3.83607421875,8.47397265625,2.52657421875,-3.10781640625,-2.63171875,5.0308359375,9.9452421875,-2.4658671875,-2.83523828125,-2.26239453125,4.43757421875,-1.8703125,-0.8217734375,0.50271875,-2.928953125,4.73835546875,1.34444140625,3.37390625,0.4308046875,6.6681171875
0.897140625,3.342140625,7.2787265625,7.9401953125,2.79978515625,5.47634765625,10.58873046875,17.3451875,0.21026953125,0.798703125,5.53907421875,10.97697265625,3.38757421875,-1.32981640625,-0.27571875,7.9758359375,11.4042421875,-1.2718671875,-0.74923828125,0.44760546875,6.77757421875,-3.1783125,1.2862265625,3.14671875,-1.160953125,4.70035546875,3.94044140625,2.72790625,0.4338046875,7.0231171875
1.398140625,3.882140625,8.0667265625,7.6681953125,3.96978515625,7.05334765625,12.28073046875,18.8721875,0.81326953125,2.407703125,6.80407421875,13.03497265625,4.80457421875,0.43618359375,1.72328125,10.3528359375,12.4402421875,-0.176867187500001,1.37076171875,2.88160546875,8.82057421875,-4.4183125,3.0922265625,5.29471875,0.229046875000001,4.79935546875,5.95344140625,2.03990625,0.0498046875,7.2181171875
1.936140625,4.245140625,8.3907265625,7.5061953125,4.80878515625,8.16834765625,13.10873046875,19.6141875,1.41826953125,3.565703125,7.70607421875,14.30997265625,6.48457421875,1.98918359375,3.38528125,11.8788359375,13.0032421875,0.9391328125,3.44676171875,4.87560546875,10.33057421875,-5.0093125,4.6412265625,6.87771875,1.283046875,5.13635546875,7.40344140625,1.82290625,-0.179195312499999,7.4071171875
2.408140625,4.465140625,8.0617265625,7.5231953125,5.32378515625,8.82434765625,13.07273046875,19.5831875,2.03226953125,4.348703125,8.38807421875,14.70697265625,7.94157421875,3.18618359375,4.80028125,12.4708359375,13.1252421875,2.1381328125,5.33676171875,6.32260546875,11.20057421875,-4.5993125,5.9592265625,7.89271875,2.039046875,5.53635546875,8.28344140625,2.36890625,0.1048046875,7.6091171875
2.761140625,4.546140625,6.9757265625,7.6821953125,5.55578515625,9.06234765625,12.31073046875,18.8591875,2.56126953125,4.839703125,8.87407421875,14.27897265625,8.70157421875,3.90318359375,5.95928125,12.1578359375,12.8162421875,3.3281328125,6.80076171875,7.10060546875,11.43257421875,-3.2253125,6.9772265625,8.33871875,2.464046875,5.72935546875,8.54544140625,3.66690625,0.986804687500001,7.7991171875
2.977140625,4.392140625,5.1827265625,7.7391953125,5.45378515625,8.82634765625,10.94173046875,17.4271875,2.75726953125,4.977703125,8.94607421875,13.08497265625,8.45657421875,4.00418359375,6.65228125,10.9958359375,12.0042421875,4.2661328125,7.54276171875,7.04960546875,11.05857421875,-1.2923125,7.5332265625,8.18071875,2.452046875,5.53935546875,8.13044140625,5.43490625,2.2908046875,7.9901171875
3.030140625,3.833140625,2.9177265625,7.3201953125,4.87978515625,7.95934765625,8.99073046875,15.1831875,2.33126953125,4.563703125,8.25107421875,11.16097265625,7.14457421875,3.38018359375,6.54728125,9.0658359375,10.5822421875,4.6471328125,7.32476171875,6.04660546875,10.11857421875,0.5776875,7.4462265625,7.37671875,1.879046875,4.94435546875,7.03144140625,7.21390625,3.6538046875,8.2241171875
2.902140625,2.750140625,0.5817265625,6.1891953125,3.75878515625,6.34234765625,6.48873046875,12.1431875,1.18426953125,3.430703125,6.57207421875,8.64997265625,4.97557421875,2.07918359375,5.42528125,6.5888359375,8.5732421875,4.2791328125,6.12576171875,4.15860546875,8.71557421875,1.7866875,6.6362265625,5.96371875,0.702046875000001,4.03735546875,5.35044140625,8.50590625,4.6328046875,8.4961171875
2.661140625,1.217140625,-1.3432734375,4.5371953125,2.24378515625,4.09334765625,3.64873046875,8.6761875,-0.39573046875,1.664703125,4.09807421875,5.90997265625,2.40757421875,0.39818359375,3.41428125,3.9978359375,6.2522421875,3.2321328125,4.24976171875,1.75160546875,7.04957421875,2.0026875,5.2292265625,4.13671875,-0.950953124999999,2.93935546875,3.32344140625,8.94090625,4.8638046875,8.6881171875
2.488140625,-0.458859375,-2.4592734375,3.0271953125,0.73178515625,1.61334765625,0.90573046875,5.4801875,-1.77273046875,-0.335296875,1.44507421875,3.47597265625,0.0555742187499986,-1.14381640625,1.01828125,1.8518359375,4.0892421875,1.8721328125,2.26876171875,-0.57339453125,5.38357421875,1.3276875,3.5702265625,2.24971875,-2.788953125,1.72135546875,1.28144140625,8.41990625,4.2048046875,8.5831171875
2.571140625,-1.825859375,-2.6422734375,2.4801953125,-0.30121484375,-0.54465234375,-1.24626953125,3.2911875,-2.26073046875,-1.995296875,-0.60192578125,1.84197265625,-1.49042578125,-2.01781640625,-1.07371875,0.6068359375,2.5422421875,0.7201328125,0.80676171875,-2.21539453125,3.91657421875,0.2506875,2.1002265625,0.70571875,-4.476953125,0.38635546875,-0.467558593750001,7.15390625,2.7968046875,7.9261171875
2.983140625,-2.486859375,-2.0942734375,3.4081953125,-0.54521484375,-1.93065234375,-2.48526953125,2.5181875,-1.50873046875,-2.852296875,-1.47592578125,1.23397265625,-1.83342578125,-1.94481640625,-2.31371875,0.3888359375,1.8432421875,0.202132812499999,0.26376171875,-2.83639453125,2.70157421875,-0.6123125,1.1592265625,-0.21628125,-5.781953125,-1.08264453125,-1.77355859375,5.55590625,0.993804687500003,6.5391171875
3.655140625,-2.277859375,-1.2232734375,5.7091953125,-0.000214843749999805,-2.37465234375,-2.76526953125,3.0751875,0.29526953125,-2.772296875,-1.08892578125,1.50997265625,-0.844425781250002,-1.03181640625,-2.52671875,0.9398359375,1.9192421875,0.4471328125,0.66276171875,-2.49239453125,1.65957421875,-0.8163125,0.8522265625,-0.46628125,-6.633953125,-2.62764453125,-2.67155859375,4.07190625,-0.7521953125,4.4511171875
4.442140625,-1.333859375,-0.4192734375,8.7281953125,1.06778515625,-2.01365234375,-2.28626953125,4.4781875,2.53726953125,-1.977296875,0.16407421875,2.26697265625,1.36457421875,0.30818359375,-1.94171875,1.7688359375,2.4722421875,1.2751328125,1.68476171875,-1.55839453125,0.71257421875,-0.2553125,1.0572265625,-0.20528125,-7.062953125,-4.03564453125,-3.28955859375,3.04990625,-2.0021953125,2.0111171875
5.176140625,-0.00985937500000045,0.0987265625,11.5931953125,2.31278515625,-1.17365234375,-1.38126953125,6.1131875,4.51826953125,-0.874296875,1.64207421875,3.05697265625,4.47057421875,1.59518359375,-1.00771875,2.4228359375,3.1642421875,2.3381328125,2.87276171875,-0.50939453125,-0.0854257812500001,0.8626875,1.5452265625,0.32571875,-7.084953125,-4.94564453125,-3.69355859375,2.67290625,-2.4071953125,-0.139882812500001
5.685140625,1.272140625,0.3077265625,13.5631953125,3.46578515625,-0.20565234375,-0.399269531250001,7.4861875,5.75826953125,0.162703125,2.75607421875,3.59297265625,7.92857421875,2.49818359375,-0.15171875,2.6938359375,3.7722421875,3.2861328125,3.83176171875,0.29660546875,-0.53042578125,2.1706875,2.1172265625,0.92571875,-6.660953125,-4.98964453125,-3.81055859375,2.93890625,-1.7901953125,-1.2778828125
5.824140625,2.175140625,0.2907265625,14.2061953125,4.35878515625,0.63034765625,0.389730468749999,8.3321875,6.10326953125,0.912703125,3.17507421875,3.78797265625,10.97457421875,2.88718359375,0.37228125,2.6368359375,4.2162421875,3.8621328125,4.33976171875,0.70060546875,-0.39542578125,3.3106875,2.6492265625,1.48271875,-5.757953125,-3.99264453125,-3.48355859375,3.70190625,-0.195195312499997,-0.9038828125
5.516140625,2.503140625,0.1337265625,13.3911953125,4.84578515625,1.18534765625,0.834730468749999,8.5521875,5.60026953125,1.288703125,2.84207421875,3.65497265625,12.77557421875,2.76118359375,0.49328125,2.4198359375,4.4692421875,3.9151328125,4.34176171875,0.70460546875,0.37457421875,4.0806875,3.0772265625,1.93771875,-4.468953125,-2.12264453125,-2.61655859375,4.74890625,2.1278046875,1.0101171875
4.783140625,2.231140625,-0.1532734375,11.2111953125,4.76278515625,1.40034765625,0.88873046875,8.0931875,4.35526953125,1.283703125,1.88607421875,3.19297265625,12.73857421875,2.17518359375,0.25428125,2.1468359375,4.4382421875,3.4041328125,3.89976171875,0.36360546875,1.54057421875,4.4736875,3.3572265625,2.23071875,-3.079953125,0.10335546875,-1.31055859375,5.88390625,4.7928046875,3.9661171875
3.750140625,1.497140625,-0.6322734375,7.9831953125,4.02078515625,1.29634765625,0.600730468749999,6.9451875,2.50226953125,0.969703125,0.53607421875,2.38197265625,10.84357421875,1.24718359375,-0.23471875,1.8048359375,3.9592421875,2.4311328125,3.17676171875,-0.26539453125,2.63357421875,4.6306875,3.4552265625,2.29771875,-1.994953125,1.98335546875,0.11344140625,6.95790625,7.3588046875,7.1041171875
2.665140625,0.589140625,-1.3542734375,4.2861953125,2.76178515625,1.01434765625,0.155730468749999,5.2711875,0.30726953125,0.528703125,-0.90092578125,1.30597265625,7.73857421875,0.22518359375,-0.80671875,1.3538359375,2.9252421875,1.2561328125,2.43776171875,-1.09439453125,3.19657421875,4.7186875,3.3802265625,2.12271875,-1.528953125,2.93535546875,1.23944140625,7.85390625,9.4098046875,9.5031171875
1.872140625,-0.142859375,-2.2572734375,0.910195312499999,1.41078515625,0.79934765625,-0.130269531250001,3.4921875,-1.77073046875,0.247703125,-2.04992578125,0.214972656250005,4.52057421875,-0.52681640625,-1.24671875,0.8508359375,1.4452421875,0.2521328125,2.01576171875,-1.94239453125,3.04257421875,4.8436875,3.2142265625,1.79371875,-1.711953125,2.78335546875,1.77344140625,8.46690625,10.6318046875,10.5181171875
1.662140625,-0.427859375000001,-3.1362734375,-1.3818046875,0.51778515625,0.89634765625,0.0357304687499997,2.1251875,-3.19873046875,0.397703125,-2.56292578125,-0.545027343749997,2.25257421875,-0.67181640625,-1.35171875,0.4688359375,-0.1507578125,-0.2398671875,2.17776171875,-2.54339453125,2.35357421875,5.0196875,3.0972265625,1.50571875,-2.230953125,1.85635546875,1.71044140625,8.71190625,10.8918046875,10.0221171875
2.062140625,-0.209859375000001,-3.7312734375,-2.2198046875,0.45778515625,1.38534765625,0.699730468749999,1.4691875,-3.64273046875,1.071703125,-2.27792578125,-0.748027343749996,1.49957421875,-0.0998164062499995,-1.02071875,0.3948359375,-1.4837578125,-0.0728671875000004,2.97076171875,-2.64739453125,1.55957421875,5.1956875,3.1642265625,1.48071875,-2.597953125,0.82035546875,1.34344140625,8.56390625,10.2908046875,8.4651171875
2.765140625,0.314140624999999,-3.8412734375,-1.8428046875,1.19978515625,2.10634765625,1.59773046875,1.4111875,-3.18373046875,2.096703125,-1.31392578125,-0.440027343749996,2.09657421875,0.97718359375,-0.30271875,0.6988359375,-2.3087578125,0.6231328125,4.16776171875,-2.13739453125,1.10157421875,5.2986875,3.4762265625,1.87371875,-2.401953125,0.34835546875,1.09844140625,8.08490625,9.1458046875,6.6971171875
3.304140625,0.810140625,-3.4152734375,-0.9988046875,2.32878515625,2.75734765625,2.33873046875,1.5621875,-2.28673046875,3.113703125,-0.0129257812499999,0.0859726562500036,3.27757421875,2.12218359375,0.63828125,1.2938359375,-2.5667578125,1.5201328125,5.37176171875,-1.08339453125,1.22657421875,5.2866875,4.0012265625,2.70471875,-1.522953125,0.80535546875,1.30644140625,7.43290625,7.8748046875,5.5771171875
3.351140625,0.989140624999999,-2.5782734375,-0.5428046875,3.28378515625,3.08034765625,2.67573046875,1.5561875,-1.53273046875,3.776703125,1.23107421875,0.483972656250003,4.06257421875,2.89918359375,1.60028125,1.9788359375,-2.3237578125,2.2641328125,6.21276171875,0.28460546875,1.92057421875,5.1736875,4.6252265625,3.85371875,-0.181953125,2.11035546875,2.01644140625,6.79990625,6.8138046875,5.5721171875
2.909140625,0.753140624999999,-1.6332734375,-0.9958046875,3.66578515625,2.99334765625,2.62173046875,1.2641875,-1.31273046875,3.932703125,2.13507421875,0.555972656250002,3.68457421875,3.08518359375,2.40628125,2.5248359375,-1.6947578125,2.6281328125,6.50076171875,1.65560546875,2.96057421875,4.9836875,5.1872265625,5.08571875,1.168046875,3.83735546875,2.97944140625,6.30390625,6.0878046875,6.5771171875
2.295140625,0.216140625,-0.9632734375,-2.3238046875,3.40778515625,2.60234765625,2.38873046875,0.784187499999998,-1.67173046875,3.667703125,2.58707421875,0.336972656250005,1.87657421875,2.72218359375,2.92428125,2.7478359375,-0.8307578125,2.5601328125,6.24676171875,2.73060546875,4.05257421875,4.6776875,5.4982265625,6.10971875,2.067046875,5.49235546875,3.78244140625,5.91090625,5.6228046875,8.0801171875
1.967140625,-0.395859375000001,-0.8502734375,-4.0108046875,2.74278515625,2.12834765625,2.23473046875,0.311187499999999,-2.37373046875,3.222703125,2.62707421875,0.0459726562500045,-1.03942578125,2.03618359375,3.07628125,2.5638359375,0.095242187500002,2.1441328125,5.59076171875,3.30860546875,4.96957421875,4.1566875,5.3972265625,6.66571875,2.258046875,6.79035546875,4.08644140625,5.48990625,5.2848046875,9.5091171875
2.260140625,-0.864859375,-1.2882734375,-5.3638046875,2.05278515625,1.81734765625,2.32773046875,0.0101874999999989,-3.06673046875,2.853703125,2.38907421875,-0.0370273437499975,-4.24542578125,1.28818359375,2.87328125,2.0308359375,0.9202421875,1.5381328125,4.72276171875,3.34960546875,5.65257421875,3.3676875,4.8302265625,6.63571875,1.805046875,7.77235546875,3.80844140625,4.97390625,5.0168046875,10.5191171875
3.163140625,-1.056859375,-1.9452734375,-5.8678046875,1.67578515625,1.85734765625,2.67773046875,-0.0358125000000005,-3.47773046875,2.713703125,2.04707421875,0.308972656250003,-6.68742578125,0.65618359375,2.43428125,1.3608359375,1.5482421875,0.9241328125,3.82376171875,2.97460546875,6.19957421875,2.4146875,3.9062265625,6.08971875,1.031046875,8.69835546875,3.15044140625,4.48490625,4.8748046875,11.0601171875
4.281140625,-0.945859375,-2.3142734375,-5.4238046875,1.76378515625,2.31834765625,3.14573046875,0.161187499999999,-3.51173046875,2.811703125,1.75807421875,1.15597265625,-7.46242578125,0.19518359375,1.94728125,0.8348359375,1.9632421875,0.4581328125,3.03376171875,2.39960546875,6.76057421875,1.5686875,2.8682265625,5.25471875,0.347046875,9.80535546875,2.46444140625,4.29590625,4.9538046875,11.2771171875
5.062140625,-0.599859375,-1.9862734375,-4.3238046875,2.23678515625,3.12934765625,3.55573046875,0.513187499999999,-3.25473046875,3.022703125,1.61207421875,2.37397265625,-6.19842578125,-0.13881640625,1.57628125,0.6718359375,2.1812421875,0.2371328125,2.43076171875,1.83160546875,7.40157421875,1.1486875,1.9952265625,4.40171875,0.0430468750000008,11.08735546875,2.06344140625,4.66190625,5.3018046875,11.3571171875
5.161140625,-0.150859375,-0.8792734375,-3.0248046875,2.84978515625,4.09734765625,3.79573046875,0.875187499999999,-2.86073046875,3.164703125,1.61307421875,3.65997265625,-3.23742578125,-0.40881640625,1.36728125,0.9068359375,2.1952421875,0.2881328125,2.04076171875,1.39860546875,8.03057421875,1.3696875,1.5052265625,3.75271875,0.173046875000001,12.22735546875,2.07744140625,5.64190625,5.8748046875,11.4181171875
4.639140625,0.258140624999999,0.6857265625,-1.8998046875,3.32978515625,4.96434765625,3.86673046875,1.0661875,-2.45373046875,3.092703125,1.70707421875,4.64697265625,0.494574218749999,-0.62681640625,1.25728125,1.3958359375,1.9452421875,0.5941328125,1.85376171875,1.15060546875,8.44057421875,2.2326875,1.5132265625,3.44071875,0.567046875000001,12.72935546875,2.45544140625,7.02590625,6.5598046875,11.4801171875
3.880140625,0.533140625,2.1497265625,-1.1148046875,3.50278515625,5.50034765625,3.84273046875,0.9321875,-2.07673046875,2.774703125,1.83707421875,5.07997265625,3.87057421875,-0.72681640625,1.16928125,1.9458359375,1.3652421875,1.1031328125,1.87376171875,1.12260546875,8.45157421875,3.5276875,2.0372265625,3.53471875,0.977046875000001,12.20035546875,3.05944140625,8.44090625,7.2518046875,11.5221171875
3.333140625,0.669140625,3.0227265625,-0.6498046875,3.36978515625,5.60734765625,3.85173046875,0.449187499999999,-1.71573046875,2.329703125,2.02107421875,4.94397265625,6.00957421875,-0.57781640625,1.13228125,2.4778359375,0.4712421875,1.7511328125,2.15776171875,1.39760546875,8.07557421875,4.9196875,3.0362265625,4.08571875,1.274046875,10.64035546875,3.79744140625,9.54790625,7.9228046875,11.5761171875
3.282140625,0.738140625,3.1737265625,-0.3838046875,3.09778515625,5.38034765625,4.06673046875,-0.184812500000001,-1.33973046875,1.995703125,2.38007421875,4.47297265625,6.57757421875,-0.0468164062499996,1.32428125,3.1068359375,-0.556757812499999,2.4851328125,2.81676171875,2.12460546875,7.57757421875,6.1046875,4.4272265625,5.13571875,1.561046875,8.53435546875,4.68844140625,10.21490625,8.6408046875,11.7611171875
3.735140625,0.856140625,2.8737265625,-0.1748046875,2.93978515625,5.08134765625,4.65473046875,-0.613812500000002,-0.91873046875,2.042703125,3.07507421875,4.03097265625,5.83957421875,0.93218359375,1.98328125,4.0578359375,-1.3967578125,3.2871328125,3.94776171875,3.42560546875,7.36857421875,6.9386875,6.0982265625,6.68071875,2.119046875,6.66835546875,5.80744140625,10.56090625,9.5058046875,12.2141171875
4.448140625,1.115140625,2.5737265625,0.0851953124999998,3.12478515625,4.99734765625,5.66873046875,-0.514812500000001,-0.42973046875,2.642703125,4.17207421875,3.91497265625,4.48557421875,2.30718359375,3.23628125,5.4628359375,-1.7167578125,4.1681328125,5.50876171875,5.25960546875,7.77057421875,7.4646875,7.8922265625,8.59871875,3.207046875,5.75035546875,7.15144140625,10.82990625,10.5488046875,12.9931171875
5.084140625,1.536140625,2.5837265625,0.448195312499999,3.74278515625,5.28634765625,6.95873046875,0.181187499999998,0.13326953125,3.754703125,5.52607421875,4.19197265625,3.32857421875,3.86918359375,4.94428125,7.1738359375,-1.3677578125,5.1151328125,7.23676171875,7.33260546875,8.78457421875,7.8156875,9.5902265625,10.59971875,4.832046875,6.06235546875,8.53644140625,11.18790625,11.6558046875,14.0011171875
5.382140625,2.037140625,2.8787265625,0.8861953125,4.67478515625,5.86334765625,8.19373046875,1.1891875,0.73626953125,5.070703125,6.75407421875,4.64397265625,2.95857421875,5.27918359375,6.66828125,8.7228359375,-0.5077578125,6.0361328125,8.67476171875,9.11060546875,10.03257421875,8.0766875,10.9162265625,12.23871875,6.646046875,7.33435546875,9.59144140625,11.59090625,12.5768046875,15.0071171875
5.227140625,2.445140625,3.1267265625,1.2651953125,5.58478515625,6.41034765625,8.95173046875,1.9651875,1.26426953125,6.075703125,7.34707421875,4.85497265625,3.46757421875,6.12718359375,7.78528125,9.4748359375,0.4412421875,6.7311328125,9.31376171875,9.97460546875,10.89457421875,8.2106875,11.5782265625,13.02271875,8.028046875,8.88435546875,9.88044140625,11.81090625,13.0008046875,15.7101171875
4.568140625,2.551140625,2.8927265625,1.3271953125,6.01278515625,6.47334765625,8.83573046875,1.9221875,1.51126953125,6.219703125,6.85607421875,4.39497265625,4.38057421875,6.05318359375,7.72228125,8.8998359375,0.9712421875,6.9351328125,8.77876171875,9.43060546875,10.79157421875,8.0896875,11.3452265625,12.55971875,8.313046875,9.94035546875,9.07944140625,11.60090625,12.6728046875,15.8281171875
3.354140625,2.184140625,1.9037265625,0.7681953125,5.53978515625,5.64834765625,7.59873046875,0.703187499999999,1.23226953125,5.147703125,5.07807421875,3.02297265625,4.86957421875,4.86818359375,6.20928125,6.8278359375,0.7262421875,6.4181328125,6.97876171875,7.31460546875,9.45157421875,7.5896875,10.1232265625,10.71371875,7.089046875,9.96635546875,7.12844140625,10.86190625,11.4918046875,15.1821171875
1.614140625,1.291140625,0.2277265625,-0.5888046875,3.98278515625,3.77534765625,5.28373046875,-1.6128125,0.26326953125,2.868703125,2.16807421875,0.818972656250004,4.21357421875,2.66718359375,3.42928125,3.5628359375,-0.343757812499998,5.1101328125,4.15976171875,3.89560546875,7.04457421875,6.6936875,8.0112265625,7.69671875,4.424046875,8.88235546875,4.31344140625,9.71590625,9.5898046875,13.7891171875
-0.405859374999999,-0.0198593750000002,-1.7292734375,-2.6218046875,1.52278515625,1.05934765625,2.28373046875,-4.4778125,-1.35373046875,-0.195296875,-1.37992578125,-1.81202734375,2.25657421875,-0.152816406249999,-0.00971874999999978,-0.1881640625,-1.9517578125,3.1931328125,0.86576171875,-0.14939453125,4.15157421875,5.5606875,5.3422265625,4.07371875,0.937046875000001,7.08435546875,1.24144140625,8.47290625,7.3598046875,11.9281171875
-2.247859375,-1.479859375,-3.4232734375,-4.8878046875,-1.31221484375,-1.95165234375,-0.761269531250001,-7.0958125,-3.33073046875,-3.335296875,-4.87092578125,-4.27402734375,-0.411425781250001,-2.97481640625,-3.27571875,-3.5491640625,-3.5687578125,1.0951328125,-2.20823828125,-3.90339453125,1.56257421875,4.5146875,2.6482265625,0.62971875,-2.372953125,5.26435546875,-1.30255859375,7.52390625,5.3918046875,10.1291171875
-3.426859375,-2.739859375,-4.4252734375,-6.7808046875,-3.81421484375,-4.55365234375,-3.18826953125,-8.7698125,-5.20173046875,-5.784296875,-7.62192578125,-5.98902734375,-2.73442578125,-5.15981640625,-5.60571875,-5.7541640625,-4.6067578125,-0.643867187500001,-4.42123828125,-6.48139453125,-0.00342578125000015,3.9226875,0.5392265625,-1.85928125,-4.488953125,4.08535546875,-2.61355859375,7.19590625,4.2948046875,9.0231171875
-3.622859375,-3.498859375,-4.5762734375,-7.7808046875,-5.33621484375,-6.11165234375,-4.50926953125,-9.1738125,-6.46273046875,-6.974296875,-9.15492578125,-6.60102734375,-3.76142578125,-6.25981640625,-6.54771875,-6.3961640625,-4.6367578125,-1.5878671875,-5.37523828125,-7.31639453125,-0.15842578125,4.0076875,-0.4987734375,-2.87228125,-4.755953125,3.86935546875,-2.33255859375,7.61390625,4.4398046875,9.0941171875
-2.797859375,-3.628859375,-3.9702734375,-7.6638046875,-5.51621484375,-6.25965234375,-4.52626953125,-8.4148125,-6.74773046875,-6.691296875,-9.30692578125,-6.08702734375,-3.15342578125,-6.15181640625,-6.06371875,-5.5181640625,-3.5827578125,-1.5728671875,-4.99623828125,-6.33939453125,1.00757421875,4.7016875,-0.2757734375,-2.29328125,-3.123953125,4.44435546875,-0.59355859375,8.63490625,5.7738046875,10.4441171875
-1.212859375,-3.205859375,-2.8552734375,-6.5828046875,-4.36021484375,-4.98465234375,-3.35326953125,-6.9068125,-5.95973046875,-5.081296875,-8.22492578125,-4.71902734375,-1.29142578125,-5.01681640625,-4.43971875,-3.5501640625,-1.7677578125,-0.7318671875,-3.48923828125,-3.96639453125,2.96957421875,5.6716875,1.0552265625,-0.38528125,-0.125953125,5.25435546875,2.05044140625,9.90990625,7.8118046875,12.7051171875
0.628140624999999,-2.440859375,-1.5112734375,-4.9958046875,-2.18721484375,-2.59065234375,-1.36826953125,-5.1698125,-4.30673046875,-2.524296875,-6.25792578125,-2.91602734375,1.01557421875,-3.20581640625,-2.09771875,-1.1101640625,0.222242187500001,0.630132812499999,-1.20523828125,-0.89839453125,4.99257421875,6.5116875,3.1002265625,2.37071875,3.382046875,5.67535546875,4.88444140625,11.05090625,9.8478046875,15.1931171875
2.150140625,-1.568859375,-0.1622734375,-3.4718046875,0.52378515625,0.43934765625,0.925730468749999,-3.6298125,-2.22773046875,0.534703125,-3.80092578125,-1.07302734375,2.96257421875,-1.06281640625,0.60028125,1.2388359375,1.7992421875,2.2081328125,1.50776171875,2.17460546875,6.46357421875,6.9876875,5.4242265625,5.47271875,6.592046875,5.38435546875,7.35544140625,11.83590625,11.3158046875,17.2481171875
2.963140625,-0.759859375,1.0647265625,-2.4488046875,3.31178515625,3.62134765625,3.08573046875,-2.5198125,-0.20873046875,3.714703125,-1.17592578125,0.540972656250004,4.05857421875,1.18618359375,3.43928125,3.1688359375,2.6092421875,3.8131328125,4.38876171875,4.81460546875,7.15457421875,7.1676875,7.7092265625,8.55271875,9.056046875,4.57835546875,9.25744140625,12.33390625,12.0858046875,18.5671171875
3.036140625,-0.0818593750000005,2.1107265625,-2.0508046875,5.85278515625,6.59034765625,4.83773046875,-1.9128125,1.40426953125,6.740703125,1.40407421875,1.78697265625,4.24157421875,3.44518359375,6.30628125,4.6168359375,2.5932421875,5.3771328125,7.24876171875,6.90860546875,7.25857421875,7.3446875,9.8092265625,11.40171875,10.760046875,3.86235546875,10.71044140625,12.84290625,12.5058046875,19.3071171875
2.688140625,0.480140625,2.9337265625,-2.0488046875,8.02078515625,9.14334765625,6.07473046875,-1.8118125,2.52726953125,9.445703125,3.78707421875,2.59097265625,3.82157421875,5.69118359375,9.10228125,5.6878359375,1.8802421875,6.8871328125,9.91976171875,8.55460546875,7.16757421875,7.8226875,11.6702265625,13.89171875,11.963046875,3.84235546875,11.93544140625,13.67190625,13.1128046875,19.8561171875
2.424140625,0.977140625,3.4677265625,-1.9698046875,9.85778515625,11.20934765625,6.81773046875,-2.1978125,3.33626953125,11.756703125,5.85107421875,2.91797265625,3.32457421875,7.88818359375,11.66628125,6.5048359375,0.6342421875,8.3161328125,12.20676171875,9.87360546875,7.16857421875,8.7086875,13.2152265625,15.86971875,12.896046875,4.67235546875,13.00644140625,14.86890625,14.1818046875,20.3971171875
2.712140625,1.443140625,3.6617265625,-1.3408046875,11.48178515625,12.80334765625,7.18273046875,-2.9878125,4.14026953125,13.671703125,7.50107421875,2.78697265625,3.26057421875,9.94818359375,13.79228125,7.1158359375,-1.0007578125,9.5931328125,13.91376171875,10.88760546875,7.26257421875,9.8376875,14.2952265625,17.12271875,13.578046875,5.88935546875,13.75944140625,16.10790625,15.4518046875,20.6531171875
3.753140625,1.869140625,3.5177265625,0.0331953125000002,12.96078515625,13.96234765625,7.32973046875,-3.9918125,5.20126953125,15.227703125,8.69907421875,2.30697265625,3.88357421875,11.74018359375,15.29828125,7.4938359375,-2.8467578125,10.6401328125,14.93176171875,11.52760546875,7.23657421875,10.8716875,14.7642265625,17.48171875,13.844046875,6.67835546875,13.94044140625,16.85890625,16.2838046875,20.0491171875
5.338140625,2.206140625,3.1137265625,1.8941953125,14.22878515625,14.68034765625,7.37073046875,-4.9508125,6.56226953125,16.443703125,9.45707421875,1.66197265625,5.05457421875,13.14118359375,16.10328125,7.5998359375,-4.6237578125,11.4221328125,15.29576171875,11.73960546875,6.88657421875,11.4996875,14.6202265625,16.97471875,13.541046875,6.39735546875,13.47044140625,16.73390625,16.1318046875,18.2081171875
6.892140625,2.382140625,2.5787265625,3.6121953125,15.09478515625,14.89034765625,7.30073046875,-5.6528125,8.01726953125,17.274703125,9.79207421875,1.04897265625,6.28457421875,14.08618359375,16.24828125,7.4468359375,-5.9597578125,11.9591328125,15.18076171875,11.57860546875,6.22357421875,11.5826875,14.0732265625,15.89671875,12.709046875,4.99335546875,12.58944140625,15.72990625,14.9428046875,15.3441171875
7.769140625,2.338140625,2.0777265625,4.5041953125,15.34678515625,14.50834765625,7.04873046875,-6.0138125,9.22026953125,17.605703125,9.71707421875,0.599972656250003,6.99257421875,14.58418359375,15.85028125,7.1128359375,-6.5077578125,12.2901328125,14.81076171875,11.20360546875,5.51057421875,11.1686875,13.4662265625,14.70871875,11.615046875,3.04235546875,11.75744140625,14.19890625,13.1818046875,12.2261171875
7.604140625,2.054140625,1.7847265625,4.2061953125,14.89578515625,13.54234765625,6.59373046875,-6.0698125,9.88426953125,17.323703125,9.26507421875,0.340972656250003,6.84057421875,14.69518359375,15.06928125,6.7308359375,-6.1017578125,12.4471328125,14.36876171875,10.81460546875,5.13357421875,10.4396875,13.1142265625,13.83371875,10.636046875,1.42235546875,11.38444140625,12.60290625,11.5138046875,9.7691171875
6.485140625,1.584140625,1.8257265625,2.8561953125,13.86778515625,12.16434765625,6.02973046875,-5.9208125,9.93126953125,16.418703125,8.55207421875,0.221972656250003,5.96857421875,14.51118359375,14.07428125,6.4518359375,-4.8647578125,12.4691328125,13.94976171875,10.55560546875,5.37757421875,9.6576875,13.1862265625,13.48271875,10.072046875,0.83635546875,11.61844140625,11.29590625,10.4338046875,8.5561171875
4.873140625,1.048140625,2.1987265625,0.9951953125,12.57078515625,10.69134765625,5.53173046875,-5.6598125,9.51126953125,15.046703125,7.77807421875,0.171972656250002,4.95057421875,14.13118359375,13.04628125,6.3908359375,-3.1947578125,12.4341328125,13.56976171875,10.46560546875,6.25557421875,9.1426875,13.6802265625,13.60371875,9.998046875,1.48435546875,12.31044140625,10.46190625,10.0878046875,8.6181171875
3.384140625,0.595140625,2.7527265625,-0.7268046875,11.35378515625,9.47334765625,5.28073046875,-5.3268125,8.89126953125,13.497703125,7.17407421875,0.161972656250004,4.46357421875,13.65018359375,12.14628125,6.5848359375,-1.6207578125,12.4521328125,13.20476171875,10.48260546875,7.48657421875,9.1976875,14.4762265625,13.95871875,10.254046875,3.03035546875,13.15444140625,10.15990625,10.3428046875,9.5531171875
2.570140625,0.344140625,3.2387265625,-1.8388046875,10.45678515625,8.76734765625,5.38773046875,-4.9038125,8.30526953125,12.085703125,6.90907421875,0.217972656250005,4.85557421875,13.14018359375,11.49128125,6.9788359375,-0.5837578125,12.5851328125,12.82676171875,10.50060546875,8.63157421875,9.9556875,15.3882265625,14.27171875,10.565046875,4.85635546875,13.89344140625,10.37790625,10.9858046875,10.8351171875
2.710140625,0.335140624999999,3.4067265625,-2.2098046875,9.93178515625,8.63234765625,5.82873046875,-4.3738125,7.85126953125,11.032703125,7.01307421875,0.382972656250002,5.90857421875,12.62918359375,11.11728125,7.4418359375,-0.2607578125,12.7751328125,12.40976171875,10.43660546875,9.30757421875,11.2406875,16.1912265625,14.34971875,10.697046875,6.40635546875,14.42144140625,11.01990625,11.8598046875,12.1001171875
3.666140625,0.512140625,3.1017265625,-2.0308046875,9.65778515625,8.89634765625,6.39773046875,-3.8008125,7.46126953125,10.375703125,7.34407421875,0.660972656250003,6.95857421875,12.07318359375,10.95428125,7.8028359375,-0.534757812500001,12.8241328125,11.90276171875,10.23760546875,9.36257421875,12.5856875,16.6392265625,14.10871875,10.560046875,7.41435546875,14.75544140625,11.87190625,12.8628046875,13.2281171875
4.917140625,0.742140624999999,2.3287265625,-1.6428046875,9.40178515625,9.19234765625,6.75973046875,-3.3338125,6.94926953125,9.935703125,7.62007421875,0.970972656250003,7.29657421875,11.34418359375,10.81028125,7.8858359375,-1.1207578125,12.4731328125,11.19876171875,9.85260546875,8.91157421875,13.4206875,16.4992265625,13.51671875,10.201046875,7.93035546875,14.92444140625,12.64490625,13.8648046875,14.2471171875
5.790140625,0.851140624999999,1.2557265625,-1.3468046875,8.90478515625,9.08634765625,6.58973046875,-3.1358125,6.11626953125,9.371703125,7.50907421875,1.14597265625,6.54757421875,10.26418359375,10.39628125,7.5238359375,-1.7697578125,11.5261328125,10.13776171875,9.18760546875,8.22357421875,13.3276875,15.6032265625,12.52271875,9.726046875,8.17635546875,14.87444140625,13.06190625,14.6568046875,15.1741171875
5.767140625,0.675140625,0.1337265625,-1.2828046875,7.95778515625,8.22434765625,5.70673046875,-3.2988125,4.85926953125,8.308703125,6.74707421875,0.976972656250004,4.80957421875,8.67518359375,9.41328125,6.5808359375,-2.4167578125,9.9491328125,8.56276171875,8.11160546875,7.53857421875,12.2036875,13.9042265625,11.04371875,9.214046875,8.32935546875,14.48744140625,12.96190625,15.0008046875,15.9001171875
4.670140625,0.118140625,-0.8202734375,-1.4528046875,6.48478515625,6.46734765625,4.11373046875,-3.8228125,3.23326953125,6.508703125,5.22207421875,0.290972656250002,2.52957421875,6.54018359375,7.69028125,4.9898359375,-3.2017578125,7.9011328125,6.39876171875,6.51360546875,6.91357421875,10.2626875,11.5222265625,9.03071875,8.675046875,8.36535546875,13.65544140625,12.34690625,14.7398046875,16.2121171875
2.709140625,-0.814859375,-1.5052734375,-1.7888046875,4.58778515625,3.95734765625,1.98973046875,-4.6228125,1.45726953125,4.007703125,3.01507421875,-0.969027343749996,0.255574218749999,4.00518359375,5.28928125,2.8058359375,-4.3397578125,5.6901328125,3.73976171875,4.39560546875,6.22057421875,7.9326875,8.7472265625,6.57071875,8.066046875,8.05635546875,12.38744140625,11.36390625,13.9008046875,15.8991171875
0.414140625,-1.996859375,-1.9242734375,-2.1958046875,2.53678515625,1.09034765625,-0.32426953125,-5.5258125,-0.14773046875,1.133703125,0.38407421875,-2.68602734375,-1.54342578125,1.39518359375,2.50728125,0.2468359375,-5.9107578125,3.6811328125,0.86576171875,1.94160546875,5.27357421875,5.6926875,5.9882265625,3.93771875,7.369046875,7.13435546875,10.85244140625,10.23890625,12.7038046875,14.8931171875
-1.562859375,-3.209859375,-2.1192734375,-2.5728046875,0.68178515625,-1.61465234375,-2.39326953125,-6.2838125,-1.27073046875,-1.611296875,-2.31992578125,-4.56502734375,-2.55042578125,-0.87481640625,-0.22871875,-2.3281640625,-7.7197578125,2.1961328125,-1.82023828125,-0.50339453125,3.99457421875,3.9436875,3.6812265625,1.55071875,6.634046875,5.49935546875,9.35244140625,9.19790625,11.4758046875,13.3211171875
-2.735859375,-4.203859375,-2.1242734375,-2.8588046875,-0.69921484375,-3.71565234375,-3.84926953125,-6.6708125,-1.75373046875,-3.760296875,-4.76792578125,-6.23002734375,-2.60042578125,-2.44181640625,-2.53971875,-4.5291640625,-9.3147578125,1.4211328125,-3.92423828125,-2.54039453125,2.50057421875,2.9186875,2.1532265625,-0.16828125,5.969046875,3.32835546875,8.22344140625,8.39190625,10.5148046875,11.4571171875
-3.021859375,-4.788859375,-1.9592734375,-3.0858046875,-1.51721484375,-5.01965234375,-4.56926953125,-6.6038125,-1.67973046875,-5.077296875,-6.76992578125,-7.36402734375,-1.69342578125,-3.13481640625,-4.23271875,-6.0741640625,-10.1797578125,1.3581328125,-5.19823828125,-3.85839453125,1.06857421875,2.6616875,1.5322265625,-0.95228125,5.486046875,1.04235546875,7.72144140625,7.89390625,9.9978046875,9.6341171875
-2.731859375,-4.903859375,-1.6352734375,-3.3598046875,-1.89521484375,-5.61865234375,-4.71126953125,-6.2008125,-1.34173046875,-5.636296875,-8.29092578125,-7.84702734375,-0.0174257812500009,-3.03481640625,-5.32971875,-6.8971640625,-9.9777578125,1.8201328125,-5.59423828125,-4.33939453125,-0.00542578125000015,3.0436875,1.7152265625,-0.78128125,5.251046875,-0.84364453125,7.94444140625,7.72990625,9.9788046875,8.1751171875
-2.348859375,-4.636859375,-1.1682734375,-3.7798046875,-2.08021484375,-5.79165234375,-4.59826953125,-5.6988125,-1.08973046875,-5.730296875,-9.38492578125,-7.77902734375,2.04157421875,-2.42681640625,-5.98671875,-7.1431640625,-8.6987578125,2.5111328125,-5.22923828125,-4.07139453125,-0.54242578125,3.8136875,2.4472265625,0.14371875,5.283046875,-1.88764453125,8.81344140625,7.92290625,10.4478046875,7.3621171875
-2.275859375,-4.159859375,-0.6152734375,-4.3378046875,-2.28521484375,-5.82565234375,-4.54326953125,-5.3358125,-1.13973046875,-5.676296875,-10.08792578125,-7.38302734375,3.95757421875,-1.66381640625,-6.36271875,-7.0681640625,-6.6717578125,3.1471328125,-4.30423828125,-3.28239453125,-0.54442578125,4.6566875,3.4422265625,1.51571875,5.567046875,-1.86664453125,10.12344140625,8.49390625,11.3648046875,7.3891171875
-2.664859375,-3.645859375,-0.1172734375,-4.8828046875,-2.57021484375,-5.87765234375,-4.70926953125,-5.2488125,-1.46573046875,-5.628296875,-10.35792578125,-6.86202734375,5.18857421875,-1.00581640625,-6.52671875,-6.8901640625,-4.4457578125,3.5751328125,-3.02023828125,-2.23139453125,-0.16142578125,5.2766875,4.4912265625,3.04471875,6.068046875,-0.85464453125,11.61044140625,9.41190625,12.6448046875,8.3061171875
-3.365859375,-3.196859375,0.1367265625,-5.1568046875,-2.80121484375,-5.91465234375,-5.04426953125,-5.4428125,-1.81573046875,-5.501296875,-10.08992578125,-6.29702734375,5.33957421875,-0.50881640625,-6.43071875,-6.6761640625,-2.6127578125,3.8141328125,-1.52123828125,-1.11539453125,0.41757421875,5.5016875,5.5112265625,4.53971875,6.742046875,0.81535546875,13.02744140625,10.54490625,14.1158046875,9.9761171875
-3.990859375,-2.840859375,0.0157265625000003,-4.9088046875,-2.72321484375,-5.75465234375,-5.30126953125,-5.7878125,-1.85073046875,-5.028296875,-9.19592578125,-5.63402734375,4.31057421875,-0.00881640625000024,-5.94271875,-6.3071640625,-1.6057578125,4.0201328125,0.12476171875,-0.00639453124999989,1.07657421875,5.3676875,6.5292265625,5.92971875,7.543046875,2.66535546875,14.20344140625,11.67190625,15.5168046875,12.0781171875
-4.134859375,-2.550859375,-0.4532734375,-4.0578046875,-2.09221484375,-5.18465234375,-5.16426953125,-6.0938125,-1.33173046875,-3.926296875,-7.67692578125,-4.76802734375,2.34757421875,0.77418359375,-4.91271875,-5.5491640625,-1.5437578125,4.3941328125,1.91476171875,1.15060546875,1.81257421875,5.1126875,7.6272265625,7.23771875,8.430046875,4.23035546875,15.07244140625,12.55790625,16.5508046875,14.1511171875
-3.639859375,-2.263859375,-1.0682734375,-2.7888046875,-0.79921484375,-4.07965234375,-4.43226953125,-6.1848125,-0.24673046875,-2.055296875,-5.65592578125,-3.63902734375,-0.00842578125000149,2.08718359375,-3.24071875,-4.1771640625,-2.1777578125,5.0771328125,3.86776171875,2.49260546875,2.70657421875,5.0546875,8.8702265625,8.52771875,9.366046875,5.18335546875,15.65844140625,13.05390625,17.0018046875,15.6951171875
-2.684859375,-1.897859375,-1.5152734375,-1.4998046875,1.07978515625,-2.45965234375,-3.10226953125,-5.9358125,1.17426953125,0.498703125,-3.33392578125,-2.27702734375,-2.07742578125,3.99918359375,-0.92571875,-2.0881640625,-2.9827578125,6.0831328125,5.98276171875,4.16160546875,3.85657421875,5.3936875,10.2442265625,9.85471875,10.334046875,5.42135546875,16.04444140625,13.14090625,16.8328046875,16.3241171875
-1.642859375,-1.371859375,-1.4732734375,-0.592804687499999,3.31878515625,-0.456652343750001,-1.31626953125,-5.2668125,2.59026953125,3.456703125,-0.90092578125,-0.783027343749996,-3.25142578125,6.34518359375,1.91828125,0.6448359375,-3.3907578125,7.2741328125,8.20776171875,6.22060546875,5.30557421875,6.0686875,11.6222265625,11.21171875,11.346046875,5.07635546875,16.32944140625,12.89090625,16.2068046875,15.9101171875
-0.852859375,-0.656859375000001,-0.7342734375,-0.2778046875,5.61778515625,1.73234765625,0.720730468749999,-4.1518125,3.69926953125,6.445703125,1.51407421875,0.726972656250004,-3.23342578125,8.75018359375,5.04728125,3.7648359375,-3.0537578125,8.3871328125,10.39876171875,8.58360546875,6.97057421875,6.7416875,12.7782265625,12.50671875,12.428046875,4.42535546875,16.58044140625,12.37190625,15.3818046875,14.6141171875
-0.475859375,0.185140625,0.6727265625,-0.5088046875,7.68578515625,3.87334765625,2.77273046875,-2.6818125,4.33926953125,9.098703125,3.81307421875,2.13897265625,-2.18942578125,10.74118359375,8.11528125,6.8618359375,-2.0147578125,9.1111328125,12.29876171875,10.99160546875,8.61657421875,6.9546875,13.4432265625,13.56571875,13.557046875,3.74535546875,16.80144140625,11.59390625,14.5648046875,12.7961171875
-0.467859375000001,1.013140625,2.4597265625,-1.0718046875,9.28278515625,5.70934765625,4.57273046875,-1.1088125,4.50026953125,11.122703125,5.87107421875,3.33697265625,-0.71242578125,11.89118359375,10.72528125,9.4598359375,-0.655757812499999,9.1841328125,13.56876171875,13.05860546875,9.89957421875,6.3656875,13.3902265625,14.18171875,14.618046875,3.20135546875,16.94544140625,10.55790625,13.8348046875,10.8711171875
-0.630859375000001,1.654140625,4.2087265625,-1.7258046875,10.24478515625,7.01134765625,5.87773046875,0.242187499999998,4.26926953125,12.319703125,7.50807421875,4.19497265625,0.438574218749999,11.96418359375,12.50428125,11.1608359375,0.527242187500001,8.4841328125,13.88276171875,14.39260546875,10.49757421875,4.9346875,12.5272265625,14.19471875,15.420046875,2.82835546875,16.95144140625,9.33590625,13.1858046875,9.1961171875
-0.716859374999999,1.982140625,5.5607265625,-2.3288046875,10.48978515625,7.65634765625,6.55273046875,1.1281875,3.75726953125,12.613703125,8.54907421875,4.61397265625,0.673574218749999,10.99018359375,13.20528125,11.7888359375,1.1952421875,7.0601328125,13.06776171875,14.73060546875,10.26757421875,2.9166875,10.9252265625,13.54571875,15.779046875,2.59135546875,16.76344140625,8.08090625,12.6008046875,8.0101171875
-0.577859375,1.972140625,6.3587265625,-2.8888046875,10.02278515625,7.66534765625,6.60673046875,1.5131875,3.04726953125,12.056703125,8.89507421875,4.57397265625,-0.204425781250001,9.23918359375,12.77328125,11.4728359375,1.3262421875,5.1031328125,11.19676171875,14.03860546875,9.32757421875,0.6826875,8.7882265625,12.29771875,15.608046875,2.45335546875,16.32144140625,6.92790625,12.0658046875,7.3791171875
-0.247859375,1.700140625,6.6357265625,-3.5228046875,8.93478515625,7.18034765625,6.16273046875,1.5371875,2.18026953125,10.819703125,8.57307421875,4.16997265625,-1.98942578125,7.13318359375,11.38228125,10.5788359375,1.1872421875,2.8881328125,8.60976171875,12.51760546875,8.02457421875,-1.4573125,6.3982265625,10.60871875,14.965046875,2.39635546875,15.54244140625,5.89690625,11.5408046875,7.1751171875
0.107140625,1.288140625,6.5247265625,-4.3528046875,7.37778515625,6.37634765625,5.39973046875,1.4091875,1.18326953125,9.134703125,7.71307421875,3.57497265625,-4.23442578125,5.10018359375,9.37128125,9.5368359375,1.1472421875,0.7211328125,5.81676171875,10.50860546875,6.78357421875,-3.3203125,4.0452265625,8.66771875,14.016046875,2.39135546875,14.32044140625,4.89190625,10.9218046875,7.1011171875
0.315140625,0.816140625,6.1597265625,-5.4048046875,5.52678515625,5.35934765625,4.47473046875,1.2661875,0.11826953125,7.209703125,6.46107421875,2.94297265625,-6.44242578125,3.44718359375,7.12228125,8.6198359375,1.4562421875,-1.1178671875,3.30776171875,8.33760546875,5.90257421875,-4.7923125,1.9662265625,6.61571875,12.921046875,2.35435546875,12.56544140625,3.79590625,10.0518046875,6.7811171875
0.267140625,0.287140624999999,5.6117265625,-6.5638046875,3.54478515625,4.12834765625,3.44873046875,1.1061875,-0.90473046875,5.186703125,4.91707421875,2.31797265625,-8.20142578125,2.28318359375,4.93428125,7.8348359375,2.0832421875,-2.4298671875,1.36276171875,6.18760546875,5.42757421875,-5.7353125,0.3002265625,4.50871875,11.732046875,2.14135546875,10.24644140625,2.58390625,8.7918046875,5.8861171875
-0.0868593750000004,-0.341859375,4.8857265625,-7.5978046875,1.59178515625,2.62934765625,2.27873046875,0.816187499999998,-1.72973046875,3.177703125,3.12907421875,1.63697265625,-9.23442578125,1.54418359375,2.97528125,6.9888359375,2.7382421875,-3.1218671875,-0.0142382812499999,4.10860546875,5.18657421875,-5.9703125,-0.9137734375,2.34571875,10.385046875,1.64835546875,7.46044140625,1.37390625,7.1248046875,4.2951171875
-0.728859375,-1.072859375,3.9767265625,-8.2228046875,-0.14721484375,0.88934765625,0.914730468749999,0.276187499999999,-2.17973046875,1.322703125,1.16807421875,0.824972656250003,-9.38242578125,1.09018359375,1.31928125,5.8898359375,3.0382421875,-3.2168671875,-1.00923828125,2.12260546875,4.97057421875,-5.3443125,-1.6997734375,0.15171875,8.809046875,0.94435546875,4.48344140625,0.41090625,5.2518046875,2.2201171875
-1.549859375,-1.817859375,2.9397265625,-8.1828046875,-1.47821484375,-0.90965234375,-0.57426953125,-0.517812500000002,-2.11873046875,-0.197296875,-0.81192578125,-0.103027343749996,-8.61142578125,0.81218359375,0.0012812499999999,4.5218359375,2.7222421875,-2.8208671875,-1.83823828125,0.32360546875,4.69857421875,-3.8563125,-2.1017734375,-1.95628125,7.072046875,0.30135546875,1.72544140625,-0.0410937499999999,3.5738046875,0.179117187499999
-2.388859375,-2.429859375,1.9137265625,-7.3798046875,-2.26521484375,-2.49965234375,-1.99026953125,-1.4318125,-1.53273046875,-1.240296875,-2.60492578125,-1.02402734375,-7.05742578125,0.65018359375,-0.98571875,3.0668359375,1.7892421875,-2.1138671875,-2.63323828125,-1.12739453125,4.43457421875,-1.7263125,-2.1857734375,-3.79628125,5.400046875,0.0313554687500002,-0.41755859375,0.15390625,2.5238046875,-1.2538828125
-3.144859375,-2.799859375,1.0567265625,-6.0098046875,-2.55621484375,-3.70065234375,-3.15426953125,-2.2898125,-0.62073046875,-1.844296875,-4.06892578125,-1.80602734375,-5.08442578125,0.54118359375,-1.72971875,1.7608359375,0.4672421875,-1.3428671875,-3.44923828125,-2.13339453125,4.24757421875,0.5986875,-2.0837734375,-5.22028125,4.057046875,0.22435546875,-1.77155859375,0.87590625,2.3078046875,-1.8028828125
-3.851859375,-2.947859375,0.4527265625,-4.5878046875,-2.63621484375,-4.56165234375,-4.05426953125,-2.9808125,0.19426953125,-2.301296875,-5.23292578125,-2.43402734375,-3.28642578125,0.34418359375,-2.43171875,0.6918359375,-0.9327578125,-0.8038671875,-4.33523828125,-2.77739453125,4.04757421875,2.5476875,-2.0177734375,-6.22528125,3.170046875,0.59535546875,-2.49055859375,1.73390625,2.7378046875,-1.7018828125
-4.608859375,-3.023859375,0.0707265625,-3.7728046875,-2.95321484375,-5.33865234375,-4.84726953125,-3.4968125,0.40226953125,-3.069296875,-6.29592578125,-3.04302734375,-2.33542578125,-0.14081640625,-3.34671875,-0.276164062499999,-2.1837578125,-0.7738671875,-5.35323828125,-3.31239453125,3.56757421875,3.6066875,-2.2437734375,-6.94928125,2.664046875,0.62535546875,-2.95355859375,2.24290625,3.3198046875,-1.5598828125
-5.451859375,-3.216859375,-0.2022734375,-4.0608046875,-3.90221484375,-6.31465234375,-5.71026953125,-3.8638125,-0.35673046875,-4.520296875,-7.48592578125,-3.82502734375,-2.68242578125,-1.05481640625,-4.62471875,-1.3881640625,-3.2187578125,-1.3678671875,-6.49523828125,-3.98039453125,2.54257421875,3.5486875,-2.8827734375,-7.52028125,2.363046875,-0.08364453125,-3.46755859375,2.12590625,3.5748046875,-1.9298828125
-6.288859375,-3.605859375,-0.4942734375,-5.5278046875,-5.57621484375,-7.59265234375,-6.70726953125,-4.0878125,-2.06273046875,-6.678296875,-8.87392578125,-4.86402734375,-4.23442578125,-2.32781640625,-6.16671875,-2.7871640625,-4.0677578125,-2.4228671875,-7.58423828125,-4.80339453125,0.94357421875,2.5776875,-3.7667734375,-7.88328125,2.165046875,-1.48264453125,-4.00255859375,1.53490625,3.3788046875,-2.8808828125
-6.929859375,-4.089859375,-0.8742734375,-7.7848046875,-7.66721484375,-9.01165234375,-7.74426953125,-4.1558125,-4.28273046875,-9.130296875,-10.28792578125,-6.04902734375,-6.26542578125,-3.63981640625,-7.60571875,-4.3671640625,-4.7717578125,-3.5268671875,-8.27623828125,-5.50539453125,-0.91642578125,1.2616875,-4.4607734375,-7.76028125,2.141046875,-3.03664453125,-4.14555859375,0.99990625,3.0628046875,-3.9138828125
-7.158859375,-4.446859375,-1.3232734375,-10.1548046875,-9.58521484375,-10.21565234375,-8.62726953125,-4.0568125,-6.34973046875,-11.187296875,-11.38992578125,-7.12802734375,-7.71642578125,-4.55381640625,-8.48571875,-5.8071640625,-5.3337578125,-4.2258671875,-8.22023828125,-5.66439453125,-2.51642578125,0.2156875,-4.4857734375,-6.81528125,2.466046875,-4.01164453125,-3.35255859375,1.09290625,3.2038046875,-4.2628828125
-6.833859375,-4.489859375,-1.7492734375,-11.9768046875,-10.73621484375,-10.84565234375,-9.18326953125,-3.8218125,-7.67573046875,-12.217296875,-11.86692578125,-7.85702734375,-7.78742578125,-4.75081640625,-8.50671875,-6.7521640625,-5.7527578125,-4.3058671875,-7.28723828125,-4.98439453125,-3.39942578125,-0.2733125,-3.6257734375,-4.91328125,3.262046875,-3.87464453125,-1.32655859375,2.03190625,4.2448046875,-3.3568828125
-5.994859375,-4.197859375,-2.0502734375,-12.8808046875,-10.81021484375,-10.73865234375,-9.37326953125,-3.5368125,-8.01073046875,-11.952296875,-11.62092578125,-8.14202734375,-6.43742578125,-4.21581640625,-7.68771875,-7.0151640625,-6.0667578125,-3.9308671875,-5.70823828125,-3.50139453125,-3.40642578125,-0.4133125,-2.0907734375,-2.29028125,4.471046875,-2.55864453125,1.74444140625,3.50990625,6.2178046875,-1.1398828125
-4.910859375,-3.735859375,-2.1672734375,-12.8988046875,-9.89321484375,-10.00665234375,-9.31526953125,-3.3258125,-7.51673046875,-10.588296875,-10.82892578125,-8.08502734375,-4.42842578125,-3.25881640625,-6.33871875,-6.6691640625,-6.3427578125,-3.5478671875,-4.00723828125,-1.59039453125,-2.72342578125,-0.7253125,-0.4157734375,0.51371875,5.854046875,-0.44664453125,5.23644140625,4.86990625,8.7148046875,1.8971171875
-3.968859375,-3.359859375,-2.0642734375,-12.3578046875,-8.37721484375,-8.95365234375,-9.18226953125,-3.2748125,-6.61973046875,-8.655296875,-9.83192578125,-7.90402734375,-2.84342578125,-2.34881640625,-4.87671875,-5.9971640625,-6.6267578125,-3.5938671875,-2.74723828125,0.24060546875,-1.74442578125,-1.6223125,0.8262265625,2.89671875,7.108046875,1.84535546875,8.38044140625,5.51290625,11.0898046875,4.9341171875
-3.458859375,-3.270859375,-1.6982734375,-11.6438046875,-6.73621484375,-7.88065234375,-9.05426953125,-3.3598125,-5.75173046875,-6.736296875,-8.93492578125,-7.79502734375,-2.43842578125,-1.85881640625,-3.60971875,-5.3341640625,-6.8927578125,-4.2138671875,-2.24123828125,1.61660546875,-0.85242578125,-3.0723125,1.3432265625,4.48071875,8.019046875,3.73435546875,10.60044140625,5.24190625,12.7388046875,7.1431171875
-3.438859375,-3.513859375,-1.0382734375,-10.9958046875,-5.30521484375,-6.93665234375,-8.87426953125,-3.4418125,-5.12973046875,-5.207296875,-8.24992578125,-7.82402734375,-3.27042578125,-1.86881640625,-2.62471875,-4.9131640625,-7.0667578125,-5.1628671875,-2.40023828125,2.46760546875,-0.27242578125,-4.5953125,1.2342265625,5.24371875,8.530046875,4.84135546875,11.69444140625,4.29890625,13.2978046875,7.9621171875
-3.747859375,-3.958859375,-0.1402734375,-10.4288046875,-4.16421484375,-6.08665234375,-8.52626953125,-3.3518125,-4.67773046875,-4.127296875,-7.68292578125,-7.90302734375,-4.78042578125,-2.13281640625,-1.81271875,-4.7921640625,-7.0917578125,-5.9428671875,-2.81823828125,2.99160546875,-0.0454257812500001,-5.5823125,0.8712265625,5.44271875,8.697046875,5.02535546875,11.77344140625,3.11590625,12.6938046875,7.2301171875
-4.101859375,-4.361859375,0.8167265625,-9.7718046875,-3.16121484375,-5.16465234375,-7.91626953125,-2.9778125,-4.11073046875,-3.273296875,-7.02192578125,-7.84202734375,-6.18442578125,-2.20081640625,-0.98571875,-4.8581640625,-6.9747578125,-6.0588671875,-2.99823828125,3.48560546875,-0.0914257812500001,-5.6663125,0.6462265625,5.40571875,8.610046875,4.35235546875,11.06644140625,1.99990625,11.0988046875,5.1621171875
-4.174859375,-4.468859375,1.6047265625,-8.7738046875,-2.01321484375,-3.96965234375,-6.98226953125,-2.2798125,-3.08873046875,-2.279296875,-6.06292578125,-7.41602734375,-6.85342578125,-1.61581640625,0.0132812499999999,-4.8831640625,-6.7477578125,-5.2288671875,-2.57723828125,4.16460546875,-0.26642578125,-4.8683125,0.7762265625,5.35071875,8.353046875,3.05635546875,9.77744140625,1.00990625,8.8418046875,2.2321171875
-3.704859375,-4.129859375,2.0587265625,-7.2668046875,-0.46621484375,-2.37165234375,-5.70226953125,-1.3028125,-1.40073046875,-0.814296875,-4.70792578125,-6.45102734375,-6.53142578125,-0.10081640625,1.26328125,-4.6141640625,-6.4087578125,-3.4698671875,-1.44223828125,5.07260546875,-0.39542578125,-3.5093125,1.2612265625,5.32971875,8.017046875,1.49735546875,8.04544140625,0.03990625,6.3188046875,-0.9848828125
-2.635859375,-3.375859375,2.1127265625,-5.3208046875,1.55078515625,-0.424652343750001,-4.16926953125,-0.222812500000002,0.89926953125,1.253703125,-3.03692578125,-4.95002734375,-5.37142578125,2.31218359375,2.72628125,-3.9101640625,-5.9197578125,-1.0928671875,0.25276171875,6.07060546875,-0.32342578125,-2.0223125,1.9392265625,5.26771875,7.697046875,0.07535546875,5.98144140625,-1.01909375,3.8678046875,-3.9638828125
-1.197859375,-2.425859375,1.7617265625,-3.2948046875,3.82778515625,1.57134765625,-2.65926953125,0.627187499999998,3.46326953125,3.745703125,-1.32892578125,-3.19402734375,-3.84342578125,5.24218359375,4.22328125,-2.8641640625,-5.2927578125,1.3901328125,2.14476171875,6.89160546875,-0.00742578125000015,-0.8043125,2.5772265625,5.02471875,7.452046875,-0.90964453125,3.71044140625,-2.19709375,1.6628046875,-6.3478828125
0.189140624999999,-1.611859375,1.0267265625,-1.7188046875,5.92478515625,3.15534765625,-1.56226953125,0.845187499999998,5.77626953125,6.196703125,0.00507421874999991,-1.71702734375,-2.55942578125,8.07618359375,5.43628125,-1.8071640625,-4.6627578125,3.4211328125,3.77376171875,7.23260546875,0.42657421875,-0.1243125,2.9622265625,4.47571875,7.258046875,-1.35364453125,1.39344140625,-3.43309375,-0.282195312499997,-7.9988828125
1.123140625,-1.233859375,-0.0412734374999997,-1.0398046875,7.35778515625,3.90334765625,-1.21326953125,0.145187499999999,7.38226953125,8.037703125,0.57707421875,-1.10502734375,-2.02442578125,10.19818359375,6.01828125,-1.1661640625,-4.2667578125,4.6111328125,4.76376171875,6.90160546875,0.73957421875,-0.0433124999999999,3.0092265625,3.60071875,7.053046875,-1.34364453125,-0.73755859375,-4.56109375,-1.9721953125,-8.9368828125
1.382140625,-1.409859375,-1.3322734375,-1.4078046875,7.83478515625,3.64834765625,-1.73326953125,-1.4878125,8.08726953125,8.848703125,0.19507421875,-1.70002734375,-2.42342578125,11.25718359375,5.77728125,-1.2271640625,-4.3357578125,4.9191328125,4.97276171875,5.93660546875,0.71857421875,-0.3573125,2.8312265625,2.55571875,6.816046875,-1.03764453125,-2.36655859375,-5.29009375,-3.2521953125,-9.2148828125
0.954140625,-2.039859375,-2.6672734375,-2.6128046875,7.37278515625,2.54834765625,-2.99026953125,-3.7688125,8.00126953125,8.529703125,-1.05492578125,-3.41802734375,-3.54542578125,11.28718359375,4.79728125,-1.9941640625,-4.9727578125,4.6611328125,4.53576171875,4.61060546875,0.31457421875,-0.6463125,2.7062265625,1.63371875,6.605046875,-0.55964453125,-3.15555859375,-5.26309375,-3.7711953125,-8.8408828125
-0.0168593750000001,-2.882859375,-3.8322734375,-4.2168046875,6.23578515625,0.97134765625,-4.69026953125,-6.2308125,7.39226953125,7.289703125,-2.86792578125,-5.80202734375,-4.89242578125,10.59218359375,3.38728125,-3.2211640625,-6.1027578125,4.3001328125,3.73676171875,3.27260546875,-0.35242578125,-0.4833125,2.8862265625,1.09671875,6.475046875,0.0133554687500002,-2.93455859375,-4.24609375,-3.1991953125,-7.8338828125
-1.310859375,-3.711859375,-4.6492734375,-5.7798046875,4.72478515625,-0.735652343750001,-6.52926953125,-8.3998125,6.47726953125,5.462703125,-4.87592578125,-8.26002734375,-5.91042578125,9.48718359375,1.88428125,-4.5901640625,-7.5257578125,4.1151328125,2.78576171875,2.12660546875,-1.12142578125,0.2706875,3.3692265625,0.95671875,6.344046875,0.57135546875,-1.89355859375,-2.36109375,-1.5611953125,-6.3668828125
-2.727859375,-4.420859375,-5.0592734375,-7.0488046875,3.00378515625,-2.42265234375,-8.33326953125,-9.9558125,5.28126953125,3.310703125,-6.78992578125,-10.33402734375,-6.21442578125,8.08118359375,0.44928125,-5.9071640625,-9.0317578125,4.0021328125,1.65076171875,1.09260546875,-1.95442578125,1.3156875,3.7892265625,0.87571875,5.940046875,0.91335546875,-0.63655859375,-0.18909375,0.5788046875,-4.8568828125
-4.140859375,-5.021859375,-5.1642734375,-8.0308046875,1.04578515625,-4.16365234375,-10.08826953125,-10.8018125,3.66626953125,0.918703125,-8.47192578125,-11.83602734375,-5.72642578125,6.24518359375,-1.00871875,-7.1811640625,-10.4847578125,3.5321328125,0.0677617187499999,-0.14039453125,-2.97942578125,2.0256875,3.5422265625,0.27771875,4.880046875,0.79035546875,0.00144140624999967,1.40090625,2.2818046875,-3.8838828125
-5.477859375,-5.576859375,-5.1862734375,-8.9028046875,-1.27621484375,-6.11465234375,-11.84826953125,-11.0328125,1.47826953125,-1.767296875,-9.90192578125,-12.83902734375,-4.67942578125,3.77018359375,-2.72971875,-8.5661640625,-11.8127578125,2.2371328125,-2.25623828125,-1.91039453125,-4.36842578125,1.8116875,2.0872265625,-1.37728125,2.890046875,0.06935546875,-0.69255859375,1.63190625,2.6778046875,-3.9548828125
-6.659859375,-6.120859375,-5.3372734375,-9.8308046875,-4.02621484375,-8.33165234375,-13.59426953125,-10.8448125,-1.26673046875,-4.805296875,-11.11092578125,-13.54302734375,-3.51942578125,0.60818359375,-4.90571875,-10.2021640625,-12.9437578125,-0.0668671875000002,-5.39123828125,-4.34439453125,-6.15542578125,0.4726875,-0.7227734375,-4.28528125,0.00804687500000068,-1.12664453125,-2.96655859375,0.19190625,1.4198046875,-5.2498828125
-7.604859375,-6.638859375,-5.6992734375,-10.8428046875,-7.07021484375,-10.67765234375,-15.20626953125,-10.4638125,-4.29173046875,-8.101296875,-12.11892578125,-14.13302734375,-2.69742578125,-2.96481640625,-7.49171875,-12.0671640625,-13.7527578125,-3.1008671875,-9.03123828125,-7.22339453125,-8.11342578125,-1.6583125,-4.4897734375,-8.12628125,-3.338953125,-2.39764453125,-6.44555859375,-2.60109375,-1.1261953125,-7.4988828125
-8.291859375,-7.070859375,-6.1852734375,-11.8018046875,-10.06321484375,-12.86265234375,-16.52226953125,-10.1088125,-7.10573046875,-11.345296875,-12.90492578125,-14.68102734375,-2.45942578125,-6.37981640625,-10.13871875,-13.9311640625,-14.0877578125,-6.1918671875,-12.54923828125,-10.03239453125,-9.80842578125,-3.8983125,-8.3667734375,-12.13028125,-6.445953125,-3.22164453125,-10.25255859375,-5.94309375,-4.0611953125,-10.0558828125
-8.779859375,-7.351859375,-6.5842734375,-12.5028046875,-12.54821484375,-14.56865234375,-17.41126953125,-9.9408125,-9.18073046875,-14.073296875,-13.41192578125,-15.14202734375,-2.74642578125,-8.98981640625,-12.29771875,-15.4311640625,-13.8767578125,-8.5578671875,-15.22423828125,-12.15339453125,-10.79442578125,-5.5813125,-11.3887734375,-15.34328125,-8.582953125,-3.19864453125,-13.35055859375,-8.89309375,-6.3801953125,-12.1548828125
-9.150859375,-7.437859375,-6.6712734375,-12.7828046875,-14.14421484375,-15.58165234375,-17.77526953125,-10.0168125,-10.16173046875,-15.850296875,-13.55092578125,-15.41502734375,-3.28042578125,-10.36481640625,-13.45471875,-16.2371640625,-13.2267578125,-9.6508671875,-16.53023828125,-13.13139453125,-10.84642578125,-6.3793125,-12.8697734375,-17.00228125,-9.273953125,-2.28264453125,-14.95155859375,-10.74909375,-7.4261953125,-13.2418828125
-9.434859375,-7.316859375,-6.3382734375,-12.6098046875,-14.70021484375,-15.87065234375,-17.55726953125,-10.2798125,-10.02073046875,-16.462296875,-13.23492578125,-15.43202734375,-3.78242578125,-10.50581640625,-13.36871875,-16.2081640625,-12.4507578125,-9.4028671875,-16.34723828125,-12.85939453125,-10.10542578125,-6.4073125,-12.6677734375,-16.82128125,-8.485953125,-0.84464453125,-14.80255859375,-11.26009375,-7.1241953125,-13.1968828125
-9.598859375,-7.005859375,-5.6802734375,-12.0978046875,-14.34921484375,-15.60465234375,-16.79326953125,-10.6168125,-9.08573046875,-16.022296875,-12.43492578125,-15.21302734375,-4.18642578125,-9.85281640625,-12.19471875,-15.4531640625,-11.9427578125,-8.2458671875,-14.99123828125,-11.59739453125,-9.01342578125,-6.0743125,-11.2017734375,-15.05528125,-6.594953125,0.52135546875,-13.19655859375,-10.60609375,-5.8971953125,-12.3078828125
-9.570859375,-6.537859375,-4.9772734375,-11.4568046875,-13.43421484375,-15.06565234375,-15.64626953125,-10.9298125,-7.92073046875,-14.923296875,-11.21492578125,-14.84802734375,-4.70242578125,-9.07881640625,-10.40571875,-14.2461640625,-11.9627578125,-6.9108671875,-13.06323828125,-9.80439453125,-8.05242578125,-5.8343125,-9.2107734375,-12.32228125,-4.159953125,1.35735546875,-10.73855859375,-9.22009375,-4.3211953125,-10.9898828125
-9.247859375,-5.964859375,-4.5412734375,-10.8918046875,-12.35121484375,-14.51365234375,-14.36526953125,-11.1658125,-7.09873046875,-13.658296875,-9.72592578125,-14.43402734375,-5.70242578125,-8.75381640625,-8.56371875,-12.8641640625,-12.4587578125,-6.0918671875,-11.17323828125,-7.88539453125,-7.45042578125,-5.9783125,-7.4097734375,-9.30628125,-1.637953125,1.63835546875,-8.01655859375,-7.59709375,-2.8011953125,-9.5018828125
-8.553859375,-5.357859375,-4.5242734375,-10.5078046875,-11.39921484375,-14.07565234375,-13.18326953125,-11.3008125,-6.95473046875,-12.609296875,-8.15492578125,-14.02802734375,-7.45142578125,-9.07481640625,-7.07371875,-11.4601640625,-13.0797578125,-6.1438671875,-9.70023828125,-6.02739453125,-7.05442578125,-6.5373125,-6.2077734375,-6.49928125,0.774046875000001,1.75435546875,-5.38755859375,-6.17009375,-1.4491953125,-7.8848828125
-7.541859375,-4.800859375,-4.8322734375,-10.2648046875,-10.68421484375,-13.72965234375,-12.26026953125,-11.3258125,-7.43973046875,-11.897296875,-6.66992578125,-13.62302734375,-9.85542578125,-9.77681640625,-6.04771875,-10.0411640625,-13.3607578125,-6.9288671875,-8.67423828125,-4.19339453125,-6.45742578125,-7.2943125,-5.5937734375,-4.10828125,3.088046875,2.21135546875,-2.96955859375,-5.26709375,-0.2261953125,-6.1528828125
-6.441859375,-4.355859375,-5.2032734375,-10.0238046875,-10.13221484375,-13.38165234375,-11.66726953125,-11.2488125,-8.15773046875,-11.380296875,-5.37792578125,-13.18102734375,-12.39842578125,-10.27181640625,-5.31771875,-8.5461640625,-12.9687578125,-7.9038671875,-7.83423828125,-2.25839453125,-5.27442578125,-7.8903125,-5.2367734375,-2.10928125,5.347046875,3.26435546875,-0.77955859375,-5.08609375,0.8408046875,-4.5038828125
-5.573859375,-4.049859375,-5.3702734375,-9.6438046875,-9.58021484375,-12.94565234375,-11.38426953125,-11.0858125,-8.58573046875,-10.783296875,-4.31992578125,-12.67902734375,-14.35842578125,-9.96981640625,-4.59571875,-6.9581640625,-11.8527578125,-8.4028671875,-6.81323828125,-0.19139453125,-3.40742578125,-8.0043125,-4.7217734375,-0.38928125,7.475046875,4.74735546875,1.12244140625,-5.68209375,1.5578046875,-3.3438828125
-5.189859375,-3.871859375,-5.2092734375,-9.0908046875,-8.89821484375,-12.40165234375,-11.32126953125,-10.8528125,-8.35273046875,-9.899296875,-3.48792578125,-12.14602734375,-15.17142578125,-8.59481640625,-3.67171875,-5.3841640625,-10.2557578125,-7.9808671875,-5.36023828125,1.84960546875,-1.14342578125,-7.5213125,-3.7957734375,1.12171875,9.239046875,6.15535546875,2.58044140625,-6.94809375,1.6458046875,-3.0948828125
-5.391859375,-3.786859375,-4.7832734375,-8.4908046875,-8.07221484375,-11.78465234375,-11.36426953125,-10.5618125,-7.43173046875,-8.702296875,-2.84992578125,-11.66602734375,-14.70542578125,-6.34781640625,-2.53871875,-4.0331640625,-8.5947578125,-6.6378671875,-3.48823828125,3.54560546875,0.95357421875,-6.5953125,-2.4907734375,2.39171875,10.336046875,6.91635546875,3.40944140625,-8.63709375,0.929804687500003,-3.9338828125
-6.152859375,-3.744859375,-4.2672734375,-8.0678046875,-7.18421484375,-11.14465234375,-11.42126953125,-10.2088125,-6.11873046875,-7.348296875,-2.35292578125,-11.33502734375,-13.26142578125,-3.81581640625,-1.36771875,-3.1121640625,-7.2727578125,-4.7948671875,-1.47823828125,4.58960546875,2.30157421875,-5.5503125,-1.0847734375,3.31671875,10.537046875,6.66635546875,3.52044140625,-10.41809375,-0.5051953125,-5.6578828125
-7.330859375,-3.671859375,-3.8262734375,-7.9848046875,-6.33521484375,-10.48665234375,-11.40026953125,-9.7458125,-4.84373046875,-6.051296875,-1.89592578125,-11.18102734375,-11.35842578125,-1.69881640625,-0.35971875,-2.6861640625,-6.4767578125,-3.0638671875,0.26176171875,4.86260546875,2.58857421875,-4.6943125,0.0742265624999998,3.79871875,9.840046875,5.43635546875,3.02044140625,-11.95709375,-2.2881953125,-7.7528828125
-8.654859375,-3.480859375,-3.5312734375,-8.2028046875,-5.58621484375,-9.75065234375,-11.16326953125,-9.0728125,-3.94173046875,-4.967296875,-1.32892578125,-11.12702734375,-9.49142578125,-0.52281640625,0.38528125,-2.6251640625,-6.0977578125,-1.9528671875,1.37876171875,4.51860546875,1.92057421875,-4.1563125,0.7312265625,3.80471875,8.515046875,3.65335546875,2.19244140625,-13.01409375,-3.8891953125,-9.6048828125
-9.771859375,-3.092859375,-3.3882734375,-8.4978046875,-4.95321484375,-8.86165234375,-10.55926953125,-8.1118125,-3.54473046875,-4.158296875,-0.50692578125,-11.02802734375,-8.03042578125,-0.49881640625,0.88228125,-2.6621640625,-5.8377578125,-1.6908671875,1.69676171875,3.89460546875,0.74757421875,-3.8823125,0.8012265625,3.38171875,7.003046875,1.94835546875,1.37144140625,-13.50409375,-4.8381953125,-10.7518828125
-10.362859375,-2.481859375,-3.4022734375,-8.6058046875,-4.44921484375,-7.80665234375,-9.53526953125,-6.9398125,-3.60373046875,-3.619296875,0.616074218750001,-10.77102734375,-7.17642578125,-1.53981640625,1.18628125,-2.5621640625,-5.4457578125,-2.2188671875,1.22876171875,3.30560546875,-0.39442578125,-3.7433125,0.3322265625,2.61871875,5.699046875,0.85335546875,0.78044140625,-13.50909375,-4.9331953125,-11.0608828125
-10.237859375,-1.698859375,-3.5732734375,-8.3828046875,-4.10621484375,-6.66665234375,-8.19426953125,-5.8228125,-3.96773046875,-3.326296875,1.94807421875,-10.34802734375,-6.92742578125,-3.37181640625,1.29828125,-2.2401640625,-4.9087578125,-3.2878671875,0.12676171875,2.89260546875,-1.14042578125,-3.6603125,-0.5627734375,1.61371875,4.772046875,0.56935546875,0.44544140625,-13.20209375,-4.2991953125,-10.7408828125
-9.360859375,-0.868859375,-3.8152734375,-7.8568046875,-3.95321484375,-5.57965234375,-6.73326953125,-5.0838125,-4.45973046875,-3.256296875,3.29407421875,-9.83602734375,-7.04342578125,-5.62081640625,1.16228125,-1.7801640625,-4.4497578125,-4.5828671875,-1.36723828125,2.60360546875,-1.40242578125,-3.6493125,-1.7507734375,0.46771875,4.133046875,0.93135546875,0.24044140625,-12.73109375,-3.2831953125,-10.2018828125
-7.877859375,-0.149859375,-3.9172734375,-7.2108046875,-3.98821484375,-4.69365234375,-5.35626953125,-4.8978125,-4.92573046875,-3.389296875,4.43207421875,-9.32302734375,-7.15342578125,-7.88681640625,0.72228125,-1.3481640625,-4.3287578125,-5.8138671875,-2.97323828125,2.29060546875,-1.29942578125,-3.7833125,-3.0877734375,-0.70228125,3.561046875,1.57935546875,0.00644140624999956,-12.15709375,-2.2461953125,-9.8228828125
-6.154859375,0.322140624999999,-3.6352734375,-6.7168046875,-4.17021484375,-4.13565234375,-4.23326953125,-5.1768125,-5.26773046875,-3.702296875,5.17307421875,-8.84002734375,-6.96242578125,-9.79881640625,-0.00771875,-1.0831640625,-4.6257578125,-6.7828671875,-4.42023828125,1.83860546875,-1.01642578125,-4.1303125,-4.4147734375,-1.77328125,2.898046875,2.19735546875,-0.33355859375,-11.48609375,-1.3901953125,-9.7438828125
-4.731859375,0.482140625,-2.8552734375,-6.6458046875,-4.43421484375,-3.98965234375,-3.50026953125,-5.6128125,-5.44773046875,-4.162296875,5.40007421875,-8.36402734375,-6.46942578125,-11.07281640625,-0.91771875,-1.0431640625,-5.1417578125,-7.4098671875,-5.49423828125,1.23360546875,-0.68642578125,-4.7163125,-5.5787734375,-2.64028125,2.167046875,2.66435546875,-0.72355859375,-10.74809375,-0.715195312499999,-9.8068828125
-4.116859375,0.345140625,-1.7022734375,-7.1638046875,-4.72921484375,-4.27165234375,-3.22226953125,-5.8318125,-5.46373046875,-4.722296875,5.09507421875,-7.87702734375,-6.00542578125,-11.56581640625,-1.83471875,-1.2201640625,-5.5137578125,-7.7298671875,-6.09523828125,0.54760546875,-0.36542578125,-5.5093125,-6.4677734375,-3.26028125,1.541046875,3.03935546875,-1.03655859375,-10.07109375,-0.121195312499999,-9.6928828125
-4.552859375,-0.0248593750000001,-0.5102734375,-8.2438046875,-5.05021484375,-4.90765234375,-3.38126953125,-5.5958125,-5.33473046875,-5.317296875,4.33907421875,-7.42702734375,-6.07242578125,-11.32481640625,-2.59571875,-1.6091640625,-5.4467578125,-7.8638671875,-6.26523828125,-0.13939453125,-0.0754257812500001,-6.4273125,-7.0517734375,-3.68628125,1.169046875,3.40935546875,-1.19255859375,-9.69309375,0.4278046875,-9.2088828125
-5.936859375,-0.562859375,0.2897265625,-9.6658046875,-5.43621484375,-5.75365234375,-3.91226953125,-4.9568125,-5.11373046875,-5.883296875,3.27107421875,-7.15302734375,-7.04442578125,-10.57581640625,-3.11971875,-2.2661640625,-4.9257578125,-7.9588671875,-6.18723828125,-0.81339453125,0.10957421875,-7.3383125,-7.3907734375,-4.06928125,1.001046875,3.72635546875,-1.25455859375,-9.88309375,0.818804687500002,-8.4948828125
-7.888859375,-1.217859375,0.3417265625,-11.0878046875,-5.93621484375,-6.63065234375,-4.77326953125,-4.2808125,-4.89573046875,-6.363296875,2.03107421875,-7.24602734375,-8.88542578125,-9.63881640625,-3.42771875,-3.3011640625,-4.2647578125,-8.1048671875,-6.10523828125,-1.53539453125,0.0315742187499999,-8.0673125,-7.5867734375,-4.59228125,0.760046875,3.75935546875,-1.39755859375,-10.79909375,0.867804687500001,-7.9978828125
-9.893859375,-1.946859375,-0.4712734375,-12.1538046875,-6.54821484375,-7.36065234375,-5.93726953125,-4.0888125,-4.78973046875,-6.709296875,0.725074218750001,-7.87102734375,-11.06342578125,-8.78781640625,-3.60271875,-4.7911640625,-3.9717578125,-8.2828671875,-6.21223828125,-2.38939453125,-0.49842578125,-8.4103125,-7.7167734375,-5.36028125,0.103046875,3.21835546875,-1.77255859375,-12.34309375,0.503804687500001,-8.1808828125
-11.449859375,-2.699859375,-1.9422734375,-12.6048046875,-7.18821484375,-7.80065234375,-7.33726953125,-4.7758125,-4.85673046875,-6.865296875,-0.56392578125,-9.07302734375,-12.73342578125,-8.14781640625,-3.71471875,-6.6761640625,-4.4957578125,-8.3588671875,-6.54523828125,-3.38939453125,-1.58242578125,-8.1913125,-7.7817734375,-6.31828125,-1.124953125,1.95335546875,-2.35755859375,-14.11509375,-0.0921953124999995,-9.1758828125
-12.237859375,-3.401859375,-3.6242734375,-12.3878046875,-7.71121484375,-7.87865234375,-8.82426953125,-6.4018125,-5.07173046875,-6.772296875,-1.75692578125,-10.72202734375,-13.12642578125,-7.68781640625,-3.76371875,-8.7021640625,-6.0077578125,-8.1698671875,-6.98523828125,-4.44039453125,-3.13742578125,-7.3333125,-7.7227734375,-7.25328125,-2.745953125,0.09735546875,-2.92955859375,-15.54009375,-0.523195312499999,-10.6378828125
-12.241859375,-3.951859375,-5.0332734375,-11.6838046875,-7.97921484375,-7.61565234375,-10.18826953125,-8.6288125,-5.35573046875,-6.398296875,-2.76392578125,-12.51702734375,-11.95442578125,-7.31381640625,-3.67671875,-10.4811640625,-8.3037578125,-7.6498671875,-7.34323828125,-5.35939453125,-4.88642578125,-5.9323125,-7.4977734375,-7.90828125,-4.329953125,-1.96164453125,-3.20455859375,-16.12309375,-0.408195312499998,-11.9138828125
-11.709859375,-4.233859375,-5.8362734375,-10.8108046875,-7.90521484375,-7.07765234375,-11.18226953125,-10.8188125,-5.61173046875,-5.755296875,-3.45092578125,-14.04002734375,-9.58142578125,-6.95981640625,-3.35271875,-11.6011640625,-10.8467578125,-6.8968671875,-7.46223828125,-5.95239453125,-6.45142578125,-4.2913125,-7.1627734375,-8.12628125,-5.416953125,-3.74664453125,-3.04355859375,-15.73309375,0.3548046875,-12.4328828125
-10.951859375,-4.142859375,-5.9172734375,-10.0078046875,-7.45421484375,-6.30165234375,-11.53526953125,-12.2248125,-5.73373046875,-4.881296875,-3.63192578125,-14.86702734375,-6.84542578125,-6.61881640625,-2.72271875,-11.7631640625,-12.9107578125,-6.1488671875,-7.27623828125,-6.08739453125,-7.48642578125,-2.8893125,-6.8847734375,-7.93028125,-5.754953125,-4.86964453125,-2.59355859375,-14.72709375,1.4698046875,-12.0598828125
-10.151859375,-3.621859375,-5.3402734375,-9.2828046875,-6.62121484375,-5.26565234375,-11.03726953125,-12.2708125,-5.59373046875,-3.802296875,-3.11492578125,-14.71402734375,-4.61242578125,-6.29881640625,-1.78071875,-10.8671640625,-13.8087578125,-5.6518671875,-6.81223828125,-5.73739453125,-7.80042578125,-2.2513125,-6.8697734375,-7.49428125,-5.400953125,-5.17664453125,-2.24555859375,-13.82609375,2.3428046875,-11.1868828125
-9.330859375,-2.708859375,-4.2822734375,-8.4378046875,-5.42121484375,-3.94165234375,-9.68526953125,-10.8138125,-5.06373046875,-2.520296875,-1.82092578125,-13.55702734375,-3.35642578125,-5.97681640625,-0.59171875,-9.0621640625,-13.1627578125,-5.5138671875,-6.15323828125,-4.97339453125,-7.43042578125,-2.7463125,-7.2427734375,-7.03328125,-4.667953125,-4.79064453125,-2.43655859375,-13.78509375,2.3638046875,-10.5278828125
-8.430859375,-1.555859375,-2.9742734375,-7.2518046875,-3.91221484375,-2.38365234375,-7.74026953125,-8.2288125,-4.06673046875,-1.044296875,0.11407421875,-11.67202734375,-2.99942578125,-5.58181640625,0.73628125,-6.7061640625,-11.0837578125,-5.6238671875,-5.38823828125,-3.91039453125,-6.61342578125,-4.3583125,-7.9287734375,-6.67528125,-3.927953125,-4.05564453125,-3.38355859375,-14.98009375,1.2528046875,-10.6838828125
-7.392859375,-0.393859375,-1.6462734375,-5.6698046875,-2.20921484375,-0.761652343750001,-5.62226953125,-5.2238125,-2.63773046875,0.567703125,2.36007421875,-9.51702734375,-3.07742578125,-5.01981640625,2.10128125,-4.2431640625,-8.1497578125,-5.6858671875,-4.54823828125,-2.62539453125,-5.65142578125,-6.5943125,-8.6287734375,-6.38328125,-3.391953125,-3.35464453125,-4.90555859375,-17.16309375,-0.716195312499998,-11.7578828125
-6.225859375,0.552140625,-0.5022734375,-3.8798046875,-0.48421484375,0.680347656249999,-3.71326953125,-2.5158125,-0.94373046875,2.182703125,4.51207421875,-7.54002734375,-3.09642578125,-4.22281640625,3.43528125,-2.0551640625,-5.1787578125,-5.3728671875,-3.58823828125,-1.14139453125,-4.75942578125,-8.6653125,-8.9247734375,-5.98128125,-3.009953125,-2.92564453125,-6.46855859375,-19.54309375,-2.7861953125,-13.2638828125
-5.052859375,1.152140625,0.2777265625,-2.2628046875,1.04178515625,1.69134765625,-2.23326953125,-0.5808125,0.72526953125,3.591703125,6.22907421875,-6.03402734375,-2.83742578125,-3.22081640625,4.67428125,-0.3801640625,-2.9097578125,-4.5308671875,-2.45823828125,0.49960546875,-4.02142578125,-9.8903125,-8.5087734375,-5.29928125,-2.570953125,-2.79564453125,-7.45755859375,-21.21809375,-4.0991953125,-14.4208828125
-4.111859375,1.389140625,0.5727265625,-1.2488046875,2.10678515625,2.06534765625,-1.25426953125,0.415187499999998,2.01026953125,4.521703125,7.31207421875,-5.09702734375,-2.46042578125,-2.18381640625,5.70328125,0.6888359375,-1.7637578125,-3.3238671875,-1.22723828125,2.11160546875,-3.45342578125,-10.0793125,-7.3887734375,-4.34528125,-1.926953125,-2.87464453125,-7.52055859375,-21.66109375,-4.1621953125,-14.6468828125
-3.632859375,1.314140625,0.3917265625,-1.1338046875,2.47378515625,1.70534765625,-0.742269531250001,0.5731875,2.59826953125,4.714703125,7.71607421875,-4.68202734375,-2.35542578125,-1.38281640625,6.33828125,1.1548359375,-1.7647578125,-2.1798671875,-0.11123828125,3.34960546875,-3.10142578125,-9.5833125,-5.9167734375,-3.34928125,-1.144953125,-3.10664453125,-6.73155859375,-20.93709375,-3.0801953125,-13.8898828125
-3.685859375,1.009140625,-0.0752734374999999,-1.9148046875,2.04178515625,0.68534765625,-0.58026953125,0.164187499999999,2.37426953125,4.064703125,7.54407421875,-4.64402734375,-2.85242578125,-1.04481640625,6.40928125,1.1148359375,-2.5977578125,-1.5408671875,0.61876171875,3.84960546875,-3.05342578125,-8.9553125,-4.5817734375,-2.63128125,-0.452953124999999,-3.51464453125,-5.47355859375,-19.49909375,-1.3931953125,-12.5788828125
-4.106859375,0.580140624999999,-0.5332734375,-3.2568046875,0.97078515625,-0.71865234375,-0.59226953125,-0.492812500000001,1.52126953125,2.736703125,7.03107421875,-4.77102734375,-3.99942578125,-1.21481640625,5.88028125,0.7668359375,-3.7577578125,-1.5868671875,0.81076171875,3.44760546875,-3.35842578125,-8.4983125,-3.7057734375,-2.38828125,-0.0639531249999994,-4.13164453125,-4.16055859375,-17.77609375,0.314804687500001,-11.2908828125
-4.556859375,0.166140625,-0.7562734375,-4.5988046875,-0.33221484375,-2.11565234375,-0.59226953125,-1.1338125,0.47326953125,1.153703125,6.47707421875,-4.84102734375,-5.53442578125,-1.71681640625,4.91828125,0.3838359375,-4.7277578125,-2.1218671875,0.51176171875,2.29760546875,-3.95242578125,-8.0663125,-3.2947734375,-2.57828125,-0.0289531249999992,-4.89164453125,-3.04255859375,-15.91909375,1.7108046875,-10.4168828125
-4.650859375,-0.098859375,-0.7132734375,-5.3688046875,-1.37521484375,-3.14965234375,-0.43926953125,-1.6068125,-0.28073046875,-0.184296875,6.13907421875,-4.69902734375,-7.05342578125,-2.29381640625,3.81028125,0.2068359375,-5.1357578125,-2.7288671875,-0.0972382812500001,0.79660546875,-4.65142578125,-7.2803125,-3.1357734375,-3.00428125,-0.252953124999999,-5.60564453125,-2.22855859375,-13.90209375,2.7298046875,-10.0488828125
-4.105859375,-0.153859375000001,-0.5442734375,-5.2218046875,-1.82221484375,-3.65365234375,-0.0892695312500003,-1.8608125,-0.42273046875,-0.936296875,6.13607421875,-4.33602734375,-8.21042578125,-2.78381640625,2.82328125,0.3358359375,-4.8757578125,-3.0538671875,-0.83523828125,-0.62539453125,-5.24942578125,-5.9273125,-3.0457734375,-3.49328125,-0.618953125,-6.05264453125,-1.81755859375,-11.81609375,3.3748046875,-10.1008828125
-2.909859375,-0.045859375,-0.4282734375,-4.1988046875,-1.64721484375,-3.70965234375,0.37573046875,-1.9208125,0.0462695312500001,-1.059296875,6.41507421875,-3.90102734375,-8.81342578125,-3.21781640625,2.08028125,0.6768359375,-4.1347578125,-3.0058671875,-1.62923828125,-1.69639453125,-5.64342578125,-4.2163125,-3.0407734375,-4.01828125,-1.113953125,-6.13964453125,-1.98155859375,-10.04709375,3.5478046875,-10.4778828125
-1.427859375,0.0981406250000001,-0.4502734375,-2.7428046875,-1.12521484375,-3.57865234375,0.75073046875,-1.8488125,0.82526953125,-0.775296875,6.80207421875,-3.63502734375,-8.77442578125,-3.76281640625,1.55728125,1.0018359375,-3.3187578125,-2.7668671875,-2.50123828125,-2.37539453125,-5.92242578125,-2.6883125,-3.3077734375,-4.68128125,-1.858953125,-6.01064453125,-2.89155859375,-9.14809375,3.0678046875,-11.1558828125
-0.291859375,0.166140625,-0.5562734375,-1.5128046875,-0.66321484375,-3.54665234375,0.799730468749999,-1.7058125,1.47726953125,-0.425296875,7.11907421875,-3.73902734375,-8.03442578125,-4.57481640625,1.15528125,1.0758359375,-2.8847578125,-2.6328671875,-3.49823828125,-2.79939453125,-6.33942578125,-1.8753125,-4.0317734375,-5.59828125,-3.029953125,-6.02964453125,-4.55855859375,-9.50909375,1.8408046875,-12.1438828125
-0.0628593750000004,0.130140624999999,-0.6112734375,-1.0638046875,-0.58821484375,-3.75265234375,0.427730468749999,-1.5008125,1.66026953125,-0.292296875,7.27907421875,-4.26702734375,-6.57742578125,-5.67281640625,0.78728125,0.7758359375,-3.1367578125,-2.8228671875,-4.61623828125,-3.16539453125,-7.18142578125,-1.9863125,-5.2337734375,-6.79228125,-4.732953125,-6.62264453125,-6.74455859375,-11.10609375,-0.00519531249999972,-13.4278828125
-0.893859375000001,0.063140625,-0.5092734375,-1.5608046875,-0.98221484375,-4.12665234375,-0.216269531250001,-1.1898125,1.29426953125,-0.483296875,7.31407421875,-5.07102734375,-4.55342578125,-6.90281640625,0.43328125,0.1438359375,-4.0747578125,-3.3688671875,-5.77423828125,-3.61739453125,-8.59542578125,-2.8293125,-6.7257734375,-8.15028125,-6.899953125,-8.04064453125,-9.02155859375,-13.48509375,-2.1281953125,-14.9298828125
-2.372859375,0.0781406249999996,-0.2132734375,-2.6828046875,-1.66221484375,-4.44465234375,-0.752269531250001,-0.740812500000001,0.59626953125,-0.903296875,7.32107421875,-5.84902734375,-2.35942578125,-8.01481640625,0.13428125,-0.6331640625,-5.3747578125,-4.1228671875,-6.83123828125,-4.17939453125,-10.46442578125,-3.9703125,-8.1947734375,-9.45128125,-9.243953125,-10.14964453125,-10.91655859375,-15.98809375,-4.0941953125,-16.4838828125
-3.619859375,0.245140624999999,0.2817265625,-3.7538046875,-2.27121484375,-4.45265234375,-0.67026953125,-0.187812500000001,-0.0317304687500002,-1.329296875,7.37607421875,-6.25702734375,-0.566425781250001,-8.77681640625,-0.04771875,-1.3131640625,-6.5157578125,-4.8508671875,-7.62423828125,-4.75139453125,-12.41442578125,-4.9973125,-9.3377734375,-10.44028125,-11.307953125,-12.38264453125,-12.05255859375,-18.03109375,-5.5131953125,-17.8038828125
-3.567859375,0.533140625,1.0367265625,-4.0188046875,-2.45721484375,-3.98265234375,0.536730468749999,0.394187499999999,-0.17873046875,-1.545296875,7.49007421875,-6.04902734375,0.300574218749999,-9.07681640625,-0.0797187500000001,-1.6991640625,-6.9957578125,-5.3548671875,-8.00823828125,-5.17039453125,-13.96442578125,-5.6983125,-9.9757734375,-10.90728125,-12.610953125,-13.92664453125,-12.22855859375,-19.28909375,-6.1321953125,-18.5178828125
-1.388859375,0.835140624999999,2.1677265625,-2.9658046875,-2.02621484375,-2.99865234375,3.20173046875,0.959187499999999,0.39626953125,-1.447296875,7.62907421875,-5.16102734375,-0.0164257812500015,-8.94881640625,0.0172812499999999,-1.7101640625,-6.5377578125,-5.5508671875,-7.90923828125,-5.30239453125,-14.75342578125,-6.0883125,-10.0967734375,-10.76528125,-12.839953125,-14.11464453125,-11.44355859375,-19.74209375,-5.8831953125,-18.3248828125
3.046140625,1.056140625,3.7297265625,-0.560804687499999,-1.01721484375,-1.59365234375,7.27873046875,1.5041875,1.67526953125,-1.068296875,7.75707421875,-3.71802734375,-1.40442578125,-8.52581640625,0.19228125,-1.3961640625,-5.1957578125,-5.4758671875,-7.37023828125,-5.12139453125,-14.72242578125,-6.3033125,-9.8227734375,-10.09028125,-12.016953125,-12.79864453125,-9.89055859375,-19.59409375,-4.9111953125,-17.1958828125
8.948140625,1.193140625,5.5827265625,2.7001953125,0.34078515625,0.0463476562499991,12.23673046875,2.0481875,3.38826953125,-0.527296875,7.86407421875,-1.97502734375,-3.41642578125,-7.96381640625,0.40228125,-0.902164062500001,-3.3267578125,-5.2468671875,-6.56823828125,-4.72639453125,-14.15842578125,-6.4723125,-9.3487734375,-9.10728125,-10.544953125,-10.49364453125,-7.92755859375,-19.16209375,-3.5381953125,-15.4698828125
8.948140625,1.193140625,5.5827265625,2.7001953125,0.34078515625,0.0463476562499991,12.23673046875,2.0481875,3.38826953125,-0.527296875,7.86407421875,-1.97502734375,-3.41642578125,-7.96381640625,0.40228125,-0.902164062500001,-3.3267578125,-5.2468671875,-6.56823828125,-4.72639453125,-14.15842578125,-6.4723125,-9.3487734375,-9.10728125,-10.544953125,-10.49364453125,-7.92755859375,-19.16209375,-3.5381953125,-15.4698828125
