"Fp1","Fpz","Fp2","F7","F3","Fz","F4","F8","FC5","FC1","FC2","FC6","T7","C3","Cz","C4","T8","CP5","CP1","CP2","CP6","P7","P3","Pz","P4","P8","POz","O1","Oz","O2"
-1.5159140625,5.67819140625,7.08235546875,-0.2899921875,1.0749609375,9.47808203125,3.14119140625,2.81070703125,-1.20841796875,1.00798828125,4.80898828125,0.255105468749999,6.86965625,2.22160546875,3.16407421875,1.68808984375,2.46015625,0.89545703125,1.3487265625,-2.7784375,1.29901171875,0.24898828125,-0.56343359375,1.94848828125,3.244765625,1.3731953125,-2.64483984375,-3.22671875,-0.187578125,1.9738984375
0.0540859374999999,4.30419140625,4.73035546875,1.7370078125,1.5539609375,7.77808203125,2.63519140625,2.12370703125,0.46558203125,0.68298828125,3.18198828125,0.32610546875,8.70165625,3.94960546875,2.00507421875,-0.0779101562499998,1.56615625,2.65845703125,2.7487265625,-4.9084375,-1.49798828125,1.77398828125,1.05956640625,1.78848828125,0.763765625,-1.1528046875,-2.61083984375,-2.72771875,-0.263578125,0.4438984375
1.3140859375,3.43319140625,3.17335546875,3.1360078125,1.6559609375,6.99308203125,2.36319140625,1.47570703125,1.33958203125,0.83998828125,2.44598828125,0.915105468749999,9.59265625,5.37460546875,1.66307421875,-0.740910156249999,1.08615625,3.81145703125,4.1997265625,-5.7724375,-2.94398828125,2.87498828125,2.49656640625,2.22348828125,-0.700234375,-2.9048046875,-2.00583984375,-1.58371875,0.323421875,-0.3621015625
2.1020859375,3.03519140625,2.39235546875,3.6200078125,1.3649609375,7.04008203125,2.27619140625,0.75770703125,1.26158203125,1.39798828125,2.67598828125,1.83210546875,9.14865625,6.20560546875,2.24307421875,-0.291910156249999,1.02215625,4.07145703125,5.3667265625,-5.4044375,-3.01598828125,3.36298828125,3.46456640625,3.05348828125,-1.205234375,-3.7618046875,-0.99983984375,0.0382812499999994,1.404421875,-0.4411015625
2.2660859375,2.90519140625,2.11435546875,3.0210078125,0.7909609375,7.56208203125,2.26619140625,-0.10629296875,0.33058203125,2.09798828125,3.65698828125,2.70510546875,7.18965625,6.15660546875,3.54107421875,0.90108984375,1.22615625,3.29845703125,5.8017265625,-4.2974375,-2.14898828125,3.18698828125,3.66056640625,3.80148828125,-1.151234375,-3.8618046875,-0.00283984375000035,1.70328125,2.566421875,-0.0131015625000002
1.7080859375,2.77819140625,2.00235546875,1.3780078125,0.1149609375,8.15408203125,2.24319140625,-1.07029296875,-1.14141796875,2.64198828125,4.96298828125,3.19910546875,3.84365625,5.10460546875,5.08307421875,2.25208984375,1.47715625,1.59545703125,5.1787265625,-3.1684375,-0.99898828125,2.50798828125,2.94156640625,3.96648828125,-1.034234375,-3.5218046875,0.57316015625,2.94528125,3.398421875,0.6208984375
0.4560859375,2.47319140625,1.86735546875,-0.9999921875,-0.4630390625,8.55908203125,2.21419140625,-1.94629296875,-2.72541796875,2.82698828125,6.14098828125,3.20610546875,-0.38934375,3.21060546875,6.29807421875,3.22508984375,1.59015625,-0.63154296875,3.5247265625,-2.6174375,-0.12498828125,1.70998828125,1.48256640625,3.31548828125,-1.140234375,-3.0598046875,0.56716015625,3.53628125,3.742421875,1.2508984375
-1.2469140625,1.99019140625,1.77235546875,-3.5489921875,-0.7460390625,8.75408203125,2.30819140625,-2.46729296875,-3.98141796875,2.64298828125,6.89698828125,2.90510546875,-4.64734375,0.961605468749999,6.75707421875,3.55608984375,1.51815625,-2.72254296875,1.3067265625,-2.8514375,0.28001171875,1.31598828125,-0.174433593750001,2.06848828125,-1.373234375,-2.6078046875,0.20416015625,3.63128125,3.797421875,1.8768984375
-2.9589140625,1.48319140625,1.93135546875,-5.5679921875,-0.5660390625,8.90908203125,2.73519140625,-2.39829296875,-4.54541796875,2.26798828125,7.19898828125,2.67310546875,-7.87334375,-0.945394531250001,6.35707421875,3.34708984375,1.37215625,-3.94854296875,-0.6952734375,-3.6114375,0.44101171875,1.77398828125,-1.28743359375,0.836488281249999,-1.317234375,-2.0718046875,0.00116015624999966,3.68728125,3.988421875,2.6818984375
-4.1889140625,1.15319140625,2.47535546875,-6.4559921875,0.1379609375,9.22808203125,3.64319140625,-1.65629296875,-4.22441796875,1.97198828125,7.21798828125,2.85110546875,-9.15034375,-1.84939453125,5.32507421875,2.96908984375,1.34015625,-3.78054296875,-1.6942734375,-4.3494375,0.80801171875,3.20598828125,-1.22243359375,0.34248828125,-0.512234375,-1.2548046875,0.49116015625,4.19528125,4.689421875,3.8578984375
-4.6109140625,1.11519140625,3.27735546875,-5.9469921875,1.2699609375,9.77008203125,4.97619140625,-0.37729296875,-3.07141796875,1.98098828125,7.17798828125,3.52510546875,-8.08334375,-1.38239453125,4.08907421875,2.84308984375,1.58415625,-2.12554296875,-1.2172734375,-4.5174375,1.74501171875,5.25198828125,0.250566406249999,1.07448828125,1.243765625,-0.0468046875,1.91616015625,5.37128125,5.972421875,5.4228984375
-4.1889140625,1.33719140625,3.96235546875,-4.2229921875,2.5789609375,10.39308203125,6.44119140625,1.10870703125,-1.39141796875,2.38098828125,7.21698828125,4.45610546875,-5.02734375,0.37560546875,3.08607421875,3.24308984375,2.15815625,0.61045703125,0.6957265625,-3.8264375,3.31401171875,7.16798828125,2.83556640625,3.05448828125,3.761765625,1.4691953125,4.08316015625,7.01328125,7.537421875,7.1338984375
-3.1079140625,1.69919140625,4.14835546875,-1.7989921875,3.7779609375,10.88108203125,7.64619140625,2.43770703125,0.39458203125,3.14998828125,7.38298828125,5.26210546875,-0.95834375,2.97660546875,2.65207421875,4.21908984375,2.99415625,3.68245703125,3.5557265625,-2.3294375,5.26001171875,8.15298828125,5.84756640625,5.83848828125,6.564765625,3.0491953125,6.45216015625,8.59428125,8.870421875,8.5708984375
-1.5729140625,2.13119140625,3.74835546875,0.7590078125,4.7079609375,11.16008203125,8.34319140625,3.40970703125,1.95858203125,4.25398828125,7.71898828125,5.70010546875,2.96865625,5.84660546875,2.99307421875,5.65708984375,3.92515625,6.32445703125,6.6777265625,-0.3314375,7.18601171875,7.77098828125,8.52656640625,8.74248828125,9.124765625,4.4091953125,8.40116015625,9.54728125,9.501421875,9.3398984375
0.3050859375,2.70519140625,3.09835546875,3.0890078125,5.4369609375,11.39808203125,8.57319140625,4.05870703125,3.24358203125,5.71398828125,8.31698828125,5.82810546875,5.92165625,8.55360546875,4.18807421875,7.36708984375,4.75515625,8.05445703125,9.4997265625,1.7855625,8.75901171875,6.16898828125,10.34656640625,11.13448828125,11.081765625,5.3381953125,9.49016015625,9.53028125,9.226421875,9.2658984375
2.4580859375,3.59419140625,2.77935546875,5.1080078125,6.1769609375,11.87008203125,8.62519140625,4.54870703125,4.43858203125,7.55298828125,9.26398828125,5.92410546875,7.64965625,10.91360546875,6.15607421875,9.13908984375,5.30615625,8.78945703125,11.7507265625,3.6985625,9.81101171875,3.98198828125,11.14456640625,12.63448828125,12.306765625,5.7331953125,9.58416015625,8.54128125,8.142421875,8.4578984375
4.7040859375,4.89819140625,3.22135546875,6.8990078125,7.0869609375,12.71808203125,8.81719140625,4.99170703125,5.77658203125,9.65398828125,10.51298828125,6.26110546875,8.37865625,12.89460546875,8.59207421875,10.73708984375,5.47015625,8.75445703125,13.4187265625,5.1815625,10.32001171875,1.97398828125,11.05856640625,13.13348828125,12.823765625,5.5671953125,8.80816015625,6.83328125,6.545421875,7.2328984375
6.6870859375,6.49919140625,4.42135546875,8.5290078125,8.0989609375,13.80908203125,9.28519140625,5.38770703125,7.28858203125,11.68598828125,11.81298828125,6.94410546875,8.52665625,14.45060546875,10.97907421875,11.92108984375,5.24815625,8.28145703125,14.5937265625,6.0785625,10.33801171875,0.69298828125,10.35956640625,12.71848828125,12.695765625,4.8831953125,7.42316015625,4.77928125,4.774421875,5.9508984375
7.9590859375,8.06019140625,5.95735546875,9.9260078125,8.9239609375,14.77308203125,9.90519140625,5.69470703125,8.70658203125,13.16198828125,12.76398828125,7.89810546875,8.43765625,15.42360546875,12.71807421875,12.49408984375,4.76615625,7.65145703125,15.3237265625,6.2875625,9.94101171875,0.32498828125,9.32256640625,11.57848828125,11.974765625,3.8191953125,5.73916015625,2.75828125,3.122421875,4.8898984375
8.1480859375,9.15919140625,7.24835546875,10.8680078125,9.1849609375,15.16008203125,10.35919140625,5.90370703125,9.55058203125,13.59398828125,12.95898828125,8.92910546875,8.25965625,15.57060546875,13.31507421875,12.35208984375,4.23415625,7.02045703125,15.5497265625,5.7565625,9.21001171875,0.75098828125,8.16056640625,9.95448828125,10.710765625,2.6181953125,4.05116015625,1.11128125,1.799421875,4.1728984375
7.1120859375,9.45519140625,7.83235546875,11.0560078125,8.5799609375,14.59208203125,10.26219140625,6.02670703125,9.35658203125,12.66598828125,12.11498828125,9.77710546875,7.93065625,14.67260546875,12.53207421875,11.48008984375,3.83715625,6.40745703125,15.1237265625,4.4815625,8.19801171875,1.67598828125,6.99656640625,8.08248828125,8.971765625,1.5271953125,2.58216015625,0.0852812499999995,0.909421875,3.7648984375
5.0180859375,8.79819140625,7.51435546875,10.2760078125,6.9959609375,12.90108203125,9.31519140625,6.01370703125,7.93858203125,10.35298828125,10.15998828125,10.14510546875,7.26565625,12.65160546875,10.43507421875,9.91908984375,3.63815625,5.71845703125,13.8807265625,2.5105625,6.90201171875,2.71898828125,5.84056640625,6.13648828125,6.833765625,0.6161953125,1.41416015625,-0.252718750000001,0.411421874999999,3.4828984375
2.3510859375,7.28119140625,6.39635546875,8.5640078125,4.5759609375,10.21108203125,7.43319140625,5.73570703125,5.51558203125,6.97798828125,7.27798828125,9.76110546875,6.08965625,9.66260546875,7.38207421875,7.76808984375,3.55815625,4.81845703125,11.7577265625,-0.0404374999999999,5.28001171875,3.49798828125,4.60056640625,4.19548828125,4.386765625,-0.3028046875,0.45516015625,-0.0567187500000004,0.125421875,3.0668984375
-0.2049140625,5.23019140625,4.82835546875,6.2980078125,1.7269609375,6.93808203125,4.82319140625,5.07070703125,2.64158203125,3.17198828125,3.90198828125,8.49110546875,4.41265625,6.10160546875,3.96407421875,5.23508984375,3.46615625,3.62645703125,8.9077265625,-2.9324375,3.33901171875,3.70898828125,3.15256640625,2.28248828125,1.759765625,-1.5368046875,-0.48183984375,0.36128125,-0.179578125,2.2948984375
-1.9839140625,3.13119140625,3.30135546875,4.0970078125,-0.9720390625,3.68508203125,1.95219140625,4.03370703125,-0.0214179687499998,-0.27201171875,0.641988281249999,6.45810546875,2.51865625,2.53060546875,0.899074218749999,2.68208984375,3.28915625,2.18545703125,5.7297265625,-5.7784375,1.23201171875,3.20898828125,1.43956640625,0.44648828125,-0.834234375,-3.2358046875,-1.55083984375,0.68628125,-0.649578125000001,1.1028984375
-2.6059140625,1.47319140625,2.25935546875,2.5560078125,-2.9620390625,1.05308203125,-0.60080859375,2.81670703125,-1.95941796875,-2.65001171875,-1.89301171875,4.04110546875,0.88665625,-0.480394531250001,-1.17192578125,0.564089843750001,3.03815625,0.65145703125,2.7687265625,-8.1054375,-0.72998828125,2.04898828125,-0.46843359375,-1.19151171875,-3.113234375,-5.1938046875,-2.76083984375,0.74128125,-1.251578125,-0.3581015625
-2.1629140625,0.54219140625,1.86835546875,1.9670078125,-3.9410390625,-0.56891796875,-2.36280859375,1.66770703125,-2.98541796875,-3.61601171875,-3.31101171875,1.74110546875,-0.0703437499999997,-2.55339453125,-1.93292578125,-0.761910156249999,2.74315625,-0.78654296875,0.4877265625,-9.5294375,-2.19598828125,0.45898828125,-2.40943359375,-2.48551171875,-4.804234375,-6.9038046875,-3.98583984375,0.526281249999999,-1.794578125,-1.7791015625
-1.2299140625,0.27119140625,1.88935546875,2.1840078125,-4.0010390625,-1.17291796875,-3.16280859375,0.71670703125,-3.26641796875,-3.35401171875,-3.62001171875,-0.0258945312500005,-0.26934375,-3.64439453125,-1.58692578125,-1.23591015625,2.37615625,-2.00254296875,-0.962273437499999,-9.9604375,-2.95198828125,-1.19601171875,-4.22143359375,-3.38451171875,-5.770234375,-7.8378046875,-5.06483984375,0.14828125,-2.067578125,-2.8331015625
-0.6259140625,0.25919140625,1.77035546875,2.7340078125,-3.5900390625,-1.14691796875,-3.21180859375,-0.12329296875,-3.20541796875,-2.54201171875,-3.24701171875,-1.09189453125,-0.00734374999999998,-4.05939453125,-0.83292578125,-1.17991015625,1.85515625,-2.97454296875,-1.8412734375,-9.6924375,-3.05298828125,-2.49301171875,-5.82243359375,-4.01251171875,-6.089234375,-7.7348046875,-5.91283984375,-0.28271875,-1.971578125,-3.3191015625
-1.0339140625,-0.0108085937500002,0.96935546875,3.0810078125,-3.3100390625,-1.10491796875,-2.99980859375,-1.05829296875,-3.23041796875,-2.06901171875,-2.86201171875,-1.57389453125,0.27065625,-4.29739453125,-0.60192578125,-1.16891015625,1.12715625,-3.75254296875,-2.6862734375,-9.3144375,-2.80198828125,-3.07301171875,-7.21143359375,-4.63451171875,-6.030234375,-6.7248046875,-6.56183984375,-0.71371875,-1.568578125,-3.2241015625
-2.6339140625,-0.88380859375,-0.67564453125,2.8900078125,-3.6450390625,-1.58091796875,-3.05680859375,-2.19929296875,-3.60041796875,-2.62401171875,-3.06801171875,-1.77389453125,0.27465625,-4.78639453125,-1.62192578125,-1.75691015625,0.23915625,-4.37954296875,-3.9962734375,-9.4284375,-2.58598828125,-2.77801171875,-8.39343359375,-5.50451171875,-5.914234375,-5.2348046875,-7.08283984375,-1.12471875,-1.003578125,-2.6751015625
-4.9819140625,-2.33380859375,-2.78564453125,2.1580078125,-4.7410390625,-2.74891796875,-3.66780859375,-3.41729296875,-4.29041796875,-4.36001171875,-4.11601171875,-1.99889453125,0.02065625,-5.65139453125,-4.04792578125,-3.17891015625,-0.66384375,-4.81754296875,-5.8952734375,-10.3444375,-2.66498828125,-1.72301171875,-9.28443359375,-6.64951171875,-5.927234375,-3.7488046875,-7.46083984375,-1.46371875,-0.384578125,-1.8301015625
-7.1929140625,-3.97080859375,-4.59764453125,1.1780078125,-6.3150390625,-4.32591796875,-4.70680859375,-4.35329296875,-5.01341796875,-6.80201171875,-5.76001171875,-2.38189453125,-0.25134375,-6.61839453125,-7.32592578125,-5.19791015625,-1.39684375,-4.92854296875,-7.9782734375,-11.8694375,-3.02598828125,-0.26201171875,-9.66743359375,-7.76951171875,-5.994234375,-2.5888046875,-7.51683984375,-1.59671875,0.301421875,-0.7761015625
-8.3519140625,-5.21880859375,-5.34264453125,0.3930078125,-7.7490390625,-5.67991796875,-5.66080859375,-4.57729296875,-5.33141796875,-9.03201171875,-7.33701171875,-2.77989453125,-0.27734375,-7.11939453125,-10.38292578125,-7.15191015625,-1.77284375,-4.52154296875,-9.4372734375,-13.3384375,-3.35898828125,1.16498828125,-9.25443359375,-8.30751171875,-5.789234375,-1.8188046875,-6.93883984375,-1.32171875,1.164421875,0.4908984375
-7.9279140625,-5.55680859375,-4.62664453125,0.2150078125,-8.3360390625,-6.08991796875,-5.88380859375,-3.79429296875,-4.81741796875,-10.06201171875,-8.04301171875,-2.82689453125,0.0826562500000003,-6.54639453125,-12.07092578125,-8.20391015625,-1.64184375,-3.44154296875,-9.4292734375,-13.8834375,-3.20598828125,2.20498828125,-7.81643359375,-7.69751171875,-4.907234375,-1.2998046875,-5.45483984375,-0.466718750000001,2.301421875,2.0048984375
-6.0009140625,-4.73280859375,-2.61264453125,0.8740078125,-7.5940390625,-5.09191796875,-4.93980859375,-2.01729296875,-3.24041796875,-9.26401171875,-7.29701171875,-2.15489453125,0.81165625,-4.55239453125,-11.65092578125,-7.69991015625,-0.95684375,-1.66954296875,-7.5102734375,-12.8234375,-2.21198828125,2.71998828125,-5.34643359375,-5.67051171875,-3.108234375,-0.8358046875,-3.03483984375,0.97228125,3.668421875,3.7198984375
-3.2339140625,-2.86380859375,0.0503554687500003,2.3250078125,-5.5150390625,-2.73891796875,-2.88180859375,0.34270703125,-0.72441796875,-6.66501171875,-5.04301171875,-0.666894531250001,1.76265625,-1.29239453125,-9.12892578125,-5.48091015625,0.12715625,0.59945703125,-3.9212734375,-10.0284375,-0.35498828125,2.76698828125,-2.16643359375,-2.45751171875,-0.509234375,-0.3168046875,-0.0118398437500002,2.74928125,5.008421875,5.4318984375
-0.5969140625,-0.41780859375,2.50335546875,4.2560078125,-2.6270390625,0.355082031249999,-0.27480859375,2.56570703125,2.19858203125,-2.99101171875,-1.81901171875,1.31910546875,2.68465625,2.54060546875,-5.27892578125,-1.99391015625,1.24015625,2.96145703125,0.4257265625,-6.0364375,1.98401171875,2.47998828125,1.08156640625,1.21748828125,2.387765625,0.2161953125,2.97816015625,4.39428125,5.920421875,6.7998984375
1.0450859375,1.94119140625,4.02735546875,6.2000078125,0.1979609375,3.29008203125,2.06019140625,3.89670703125,4.73058203125,0.62298828125,1.46098828125,3.17710546875,3.24465625,5.92560546875,-1.34192578125,1.86008984375,1.93215625,4.89245703125,4.2877265625,-1.8764375,4.16001171875,1.95498828125,3.61556640625,4.38448828125,4.858765625,0.5781953125,5.21416015625,5.38328125,6.036421875,7.4738984375
1.2850859375,3.60119140625,4.31535546875,7.7030078125,2.1089609375,5.29708203125,3.45719140625,3.89570703125,6.12558203125,3.10798828125,3.91298828125,4.31010546875,3.12465625,7.92460546875,1.47607421875,5.07908984375,1.89215625,5.93945703125,6.6077265625,1.3485625,5.54301171875,1.25598828125,4.80156640625,6.20748828125,6.243765625,0.5121953125,6.17316015625,5.35628125,5.203421875,7.2448984375
0.3020859375,4.23419140625,3.55135546875,8.4630078125,2.6559609375,6.06008203125,3.74419140625,2.66770703125,6.03858203125,3.90898828125,5.05398828125,4.48610546875,2.20565625,8.08960546875,2.49607421875,6.95808984375,1.13015625,5.91845703125,6.9637265625,2.9235625,5.77801171875,0.50598828125,4.44156640625,6.33748828125,6.217765625,-0.2168046875,5.73316015625,4.27428125,3.573421875,6.1338984375
-1.3019140625,3.92319140625,2.26235546875,8.3880078125,1.9569609375,5.77908203125,3.29619140625,0.84570703125,4.70458203125,3.17098828125,4.95498828125,3.97810546875,0.71965625,6.65260546875,1.80507421875,7.34408984375,-0.0208437500000005,4.99645703125,5.7027265625,2.8035625,4.90701171875,-0.0640117187500002,2.86656640625,5.05548828125,4.925765625,-1.7008046875,4.21216015625,2.44828125,1.547421875,4.3798984375
-2.8229140625,3.09519140625,1.06635546875,7.5880078125,0.5779609375,4.97808203125,2.79519140625,-0.65929296875,2.80758203125,1.58698828125,4.12698828125,3.41810546875,-0.77634375,4.37860546875,0.141074218749999,6.64408984375,-1.03884375,3.59845703125,3.7227265625,1.5815625,3.34101171875,-0.22001171875,0.77256640625,3.13048828125,2.922765625,-3.7778046875,2.22716015625,0.42228125,-0.368578125,2.3568984375
-3.7499140625,2.30619140625,0.45135546875,6.3270078125,-0.8050390625,4.21308203125,2.85019140625,-1.03929296875,1.10758203125,-0.00301171874999984,3.22398828125,3.46010546875,-1.66134375,2.16660546875,-1.50892578125,5.60108984375,-1.43384375,2.17045703125,1.9997265625,0.1715625,1.70201171875,0.10198828125,-1.12243359375,1.45748828125,0.953765625,-5.9958046875,0.44916015625,-1.22271875,-1.706578125,0.4688984375
-3.8959140625,1.97819140625,0.65935546875,4.9510078125,-1.7450390625,3.82008203125,3.70919140625,0.0817070312500001,0.0565820312500003,-1.01301171875,2.73798828125,4.44710546875,-1.63234375,0.60860546875,-2.37992578125,4.93408984375,-0.93484375,0.95545703125,1.1237265625,-0.6454375,0.57901171875,0.69098828125,-2.39343359375,0.65748828125,-0.348234375000001,-7.7338046875,-0.63883984375,-2.07471875,-2.162578125,-0.9461015625
-3.3609140625,2.21319140625,1.66735546875,3.7830078125,-2.1790390625,3.80808203125,5.15619140625,2.51170703125,-0.38141796875,-1.33901171875,2.79998828125,6.22810546875,-0.93734375,-0.254394531250001,-2.24092578125,5.01308984375,0.40815625,-0.09354296875,1.0807265625,-0.5624375,0.29001171875,1.15298828125,-3.04243359375,0.84648828125,-0.711234375,-8.4568046875,-0.88683984375,-2.01571875,-1.676578125,-1.7061015625
-2.4149140625,2.78719140625,3.24035546875,3.0090078125,-2.3590390625,3.93608203125,6.62919140625,5.59170703125,-0.61741796875,-1.28401171875,3.18498828125,8.22210546875,-0.27334375,-0.852394531250001,-1.41492578125,5.71608984375,2.23815625,-1.21954296875,1.3637265625,0.1815625,0.76101171875,1.10698828125,-3.40643359375,1.65148828125,-0.310234375,-7.9758046875,-0.46883984375,-1.25171875,-0.454578125,-1.8411015625
-1.3879140625,3.31919140625,5.00635546875,2.6030078125,-2.6290390625,3.91808203125,7.48319140625,8.47670703125,-1.12841796875,-1.28501171875,3.48998828125,9.70110546875,-0.37234375,-1.76139453125,-0.50892578125,6.54908984375,4.03215625,-2.65554296875,1.3227265625,1.0155625,1.59301171875,0.38198828125,-3.90543359375,2.45948828125,0.354765625,-6.5438046875,0.24016015625,-0.18971875,1.086421875,-1.5701015625
-0.6329140625,3.49319140625,6.52635546875,2.3300078125,-3.2110390625,3.59708203125,7.28319140625,10.45270703125,-2.16741796875,-1.62301171875,3.39698828125,10.16110546875,-1.56134375,-3.31039453125,-0.0349257812500001,6.95708984375,5.32815625,-4.44554296875,0.5587265625,1.3945625,2.28601171875,-0.93201171875,-4.78943359375,2.75348828125,0.748765625,-4.7098046875,0.85916015625,0.74928125,2.472421875,-1.1941015625
-0.4979140625,3.21319140625,7.36735546875,1.8530078125,-4.1010390625,3.01008203125,6.00419140625,11.14570703125,-3.62541796875,-2.28301171875,2.86598828125,9.54610546875,-3.59034375,-5.35439453125,-0.129925781250001,6.62708984375,5.90515625,-6.37554296875,-0.8722734375,1.0715625,2.49601171875,-2.56101171875,-5.99343359375,2.35048828125,0.561765625,-3.0238046875,1.15416015625,1.31528125,3.337421875,-0.9511015625
-1.2319140625,2.59319140625,7.19035546875,0.9330078125,-5.1050390625,2.34808203125,4.03919140625,10.58270703125,-5.11041796875,-3.00601171875,2.13398828125,8.22210546875,-5.79134375,-7.32839453125,-0.54392578125,5.59708984375,5.81215625,-8.05354296875,-2.5152734375,0.1405625,2.14601171875,-4.16901171875,-7.18443359375,1.42348828125,-0.187234375,-1.7948046875,1.07216015625,1.49928125,3.532421875,-0.9381015625
-2.8289140625,1.84619140625,5.89635546875,-0.3919921875,-5.9480390625,1.85308203125,2.01719140625,9.11170703125,-6.15241796875,-3.46801171875,1.54798828125,6.73010546875,-7.44534375,-8.54239453125,-0.86792578125,4.13608984375,5.22815625,-9.06954296875,-3.7672734375,-1.1184375,1.38501171875,-5.43601171875,-7.92943359375,0.33548828125,-1.244234375,-1.0368046875,0.69116015625,1.47528125,3.138421875,-1.1141015625
-4.9299140625,1.15119140625,3.73235546875,-1.7709921875,-6.3930390625,1.71908203125,0.52419140625,7.20670703125,-6.41841796875,-3.44701171875,1.34698828125,5.49210546875,-8.10234375,-8.51539453125,-0.818925781250001,2.54208984375,4.31015625,-9.15154296875,-4.1672734375,-2.4514375,0.44501171875,-6.08101171875,-7.90243359375,-0.57951171875,-2.304234375,-0.5758046875,0.14216015625,1.48928125,2.408421875,-1.3531015625
-6.9129140625,0.59719140625,1.27235546875,-2.7009921875,-6.3060390625,1.99208203125,-0.11680859375,5.27070703125,-5.83841796875,-2.92501171875,1.53798828125,4.65010546875,-7.73834375,-7.20339453125,-0.398925781250001,1.01008984375,3.16315625,-8.24354296875,-3.5702734375,-3.7134375,-0.44798828125,-5.88001171875,-7.00743359375,-1.14551171875,-3.134234375,-0.1928046875,-0.41983984375,1.75028125,1.675421875,-1.4961015625
-8.1649140625,0.17619140625,-0.79764453125,-2.8099921875,-5.6940390625,2.53808203125,0.0811914062500003,3.52470703125,-4.59941796875,-2.06401171875,1.91998828125,4.09610546875,-6.70134375,-4.98839453125,0.13707421875,-0.352910156249999,1.94315625,-6.50254296875,-2.1662734375,-4.8334375,-1.10298828125,-4.73301171875,-5.39343359375,-1.35651171875,-3.593234375,0.3061953125,-0.80783984375,2.39028125,1.256421875,-1.3831015625
-8.3679140625,-0.18580859375,-1.98264453125,-2.0839921875,-4.7110390625,3.09808203125,0.848191406250001,2.03570703125,-3.05741796875,-1.12801171875,2.21498828125,3.63310546875,-5.53634375,-2.49239453125,0.44307421875,-1.47091015625,0.93315625,-4.23954296875,-0.3682734375,-5.7374375,-1.33598828125,-2.76401171875,-3.37943359375,-1.29751171875,-3.595234375,1.0601953125,-0.83083984375,3.43628125,1.363421875,-0.8891015625
-7.6009140625,-0.58180859375,-2.16564453125,-0.8789921875,-3.6190390625,3.40908203125,1.83019140625,0.83170703125,-1.60241796875,-0.36701171875,2.21898828125,3.16610546875,-4.73534375,-0.312394531250001,0.264074218749999,-2.24391015625,0.47815625,-1.84154296875,1.3737265625,-6.3174375,-0.98598828125,-0.35201171875,-1.33543359375,-1.05651171875,-3.075234375,2.1371953125,-0.34483984375,4.80928125,2.033421875,0.0278984375000002
-6.2169140625,-1.04080859375,-1.55464453125,0.3010078125,-2.7020390625,3.32208203125,2.75019140625,-0.01429296875,-0.53241796875,0.0689882812500002,1.90998828125,2.78810546875,-4.50534375,1.18860546875,-0.43692578125,-2.52791015625,0.80315625,0.33745703125,2.7397265625,-6.4444375,0.04601171875,1.97698828125,0.460566406249999,-0.65151171875,-1.984234375,3.5051953125,0.68716015625,6.35028125,3.139421875,1.2978984375
-4.6199140625,-1.47680859375,-0.47464453125,1.0810078125,-2.1640390625,2.85708203125,3.49019140625,-0.39329296875,0.0215820312500004,0.16798828125,1.46198828125,2.72910546875,-4.65834375,1.96960546875,-1.46092578125,-2.14791015625,1.86515625,2.07745703125,3.6387265625,-6.0044375,1.74901171875,3.76298828125,1.90656640625,-0.00551171875000023,-0.308234375000001,5.0361953125,2.18116015625,7.86128125,4.456421875,2.7568984375
-3.1329140625,-1.70080859375,0.78035546875,1.3820078125,-2.0770390625,2.18308203125,4.06019140625,-0.24129296875,0.0965820312500003,0.0279882812499999,1.16398828125,3.18810546875,-4.71334375,2.24760546875,-2.45292578125,-0.945910156249999,3.33315625,3.33545703125,4.2007265625,-4.9254375,3.98701171875,4.79498828125,3.06556640625,0.99948828125,1.892765625,6.5491953125,3.94716015625,9.14228125,5.750421875,4.1878984375
-2.0009140625,-1.52080859375,1.96235546875,1.3620078125,-2.3890390625,1.54008203125,4.52119140625,0.40170703125,-0.14741796875,-0.20001171875,1.29898828125,4.19010546875,-4.18434375,2.36460546875,-3.05092578125,1.12508984375,4.73515625,4.21645703125,4.6637265625,-3.2004375,6.51901171875,5.13998828125,4.07156640625,2.42748828125,4.461765625,7.8731953125,5.73816015625,10.02628125,6.834421875,5.3958984375
-1.4309140625,-0.84980859375,2.83735546875,1.2480078125,-2.9570390625,1.14208203125,4.93319140625,1.39270703125,-0.48541796875,-0.37201171875,2.02498828125,5.56310546875,-2.86834375,2.64760546875,-3.02192578125,3.92508984375,5.67615625,4.87945703125,5.2437265625,-0.9074375,9.05101171875,5.02898828125,5.02956640625,4.21148828125,7.159765625,8.9101953125,7.31416015625,10.39228125,7.591421875,6.2648984375
-1.5249140625,0.24019140625,3.20735546875,1.1960078125,-3.5630390625,1.11808203125,5.36019140625,2.53370703125,-0.67641796875,-0.37101171875,3.32298828125,7.03510546875,-0.94734375,3.33060546875,-2.32092578125,7.10408984375,6.01515625,5.45145703125,6.0447265625,1.7925625,11.30501171875,4.68998828125,5.95756640625,6.16348828125,9.717765625,9.6571953125,8.51716015625,10.19128125,7.972421875,6.7908984375
-2.1379140625,1.54119140625,3.00935546875,1.2790078125,-3.9350390625,1.51408203125,5.88819140625,3.64470703125,-0.52641796875,-0.10601171875,5.02098828125,8.35610546875,1.12865625,4.49860546875,-1.05792578125,10.18808984375,5.89315625,5.96445703125,7.0537265625,4.6725625,13.07301171875,4.24798828125,6.80956640625,8.06148828125,11.903765625,10.1611953125,9.32116015625,9.47728125,7.999421875,7.0698984375
-2.8219140625,2.81919140625,2.41035546875,1.5410078125,-3.8130390625,2.34708203125,6.60019140625,4.63670703125,0.0655820312500004,0.50498828125,6.86998828125,9.38010546875,2.87465625,6.08060546875,0.59207421875,12.72408984375,5.61915625,6.36445703125,8.1977265625,7.4865625,14.24701171875,3.73998828125,7.53356640625,9.75748828125,13.571765625,10.4531953125,9.83116015625,8.41128125,7.766421875,7.2218984375
-2.9889140625,3.95719140625,1.84335546875,2.0390078125,-3.0300390625,3.61808203125,7.52519140625,5.52970703125,1.08958203125,1.53498828125,8.64498828125,10.09810546875,3.95865625,7.87760546875,2.49307421875,14.44508984375,5.52315625,6.55145703125,9.4127265625,10.0365625,14.82501171875,3.16098828125,8.13156640625,11.24348828125,14.684765625,10.5101953125,10.23716015625,7.24128125,7.422421875,7.3388984375
-2.2369140625,5.03119140625,1.88635546875,2.8030078125,-1.5910390625,5.26608203125,8.59019140625,6.40570703125,2.41558203125,3.00598828125,10.21498828125,10.63410546875,4.27265625,9.60060546875,4.58307421875,15.35908984375,5.83415625,6.42045703125,10.6497265625,12.2095625,14.90601171875,2.49598828125,8.64756640625,12.61248828125,15.314765625,10.2961953125,10.70816015625,6.22428125,7.136421875,7.4488984375
-0.6029140625,6.23319140625,3.01335546875,3.7440078125,0.2759609375,7.09208203125,9.63119140625,7.30970703125,3.79858203125,4.81898828125,11.53498828125,11.18410546875,3.89765625,10.90960546875,6.81007421875,15.70508984375,6.59515625,5.86845703125,11.8207265625,13.9725625,14.64701171875,1.67898828125,9.08156640625,13.94548828125,15.588765625,9.8141953125,11.29516015625,5.51928125,7.029421875,7.5248984375
1.4210859375,7.67519140625,5.28735546875,4.6220078125,2.1509609375,8.77308203125,10.44619140625,8.19070703125,4.88258203125,6.70898828125,12.59198828125,11.90310546875,2.99465625,11.46060546875,9.02407421875,15.80908984375,7.64815625,4.78045703125,12.7297265625,15.3165625,14.21401171875,0.57298828125,9.29356640625,15.18748828125,15.620765625,9.1481953125,11.86816015625,5.10328125,7.116421875,7.5178984375
3.1340859375,9.22019140625,8.23435546875,5.1320078125,3.5589609375,9.96708203125,10.89119140625,8.93170703125,5.28858203125,8.29598828125,13.36298828125,12.81010546875,1.70565625,10.98260546875,10.93407421875,15.92108984375,8.68615625,3.06245703125,13.0847265625,16.2105625,13.73101171875,-0.95701171875,9.00856640625,16.11048828125,15.459765625,8.4461953125,12.16816015625,4.77628125,7.292421875,7.3808984375
3.9830859375,10.50119140625,11.02935546875,5.0890078125,4.1889609375,10.47508203125,10.97119140625,9.43270703125,4.76058203125,9.24298828125,13.83198828125,13.75710546875,0.0886562500000001,9.40060546875,12.20207421875,16.11908984375,9.38915625,0.73245703125,12.6027265625,16.5925625,13.24001171875,-2.89601171875,7.94556640625,16.39248828125,15.077765625,7.8401953125,11.93016015625,4.27428125,7.371421875,7.0888984375
3.8390859375,11.09819140625,12.89835546875,4.5480078125,4.0469609375,10.33908203125,10.84019140625,9.67170703125,3.30658203125,9.41898828125,14.01598828125,14.47410546875,-1.88234375,6.92160546875,12.57207421875,16.28108984375,9.54615625,-2.00454296875,11.1407265625,16.3595625,12.65701171875,-4.98501171875,5.97556640625,15.73948828125,14.363765625,7.3351953125,11.00216015625,3.41228125,7.159421875,6.6158984375
3.0140859375,10.73319140625,13.45035546875,3.7670078125,3.4419609375,9.81408203125,10.70019140625,9.68270703125,1.24058203125,8.95498828125,13.94598828125,14.65510546875,-4.26034375,4.01660546875,11.96307421875,16.10608984375,9.07915625,-4.77854296875,8.7737265625,15.3635625,11.76001171875,-6.79301171875,3.20756640625,13.99248828125,13.136765625,6.7431953125,9.38916015625,2.17728125,6.527421875,5.9078984375
2.0420859375,9.36619140625,12.72835546875,3.0130078125,2.7929609375,9.21608203125,10.64219140625,9.45770703125,-0.92241796875,8.14498828125,13.61498828125,14.07710546875,-6.97034375,1.27560546875,10.46907421875,15.20908984375,7.99315625,-7.15654296875,5.7817265625,13.4405625,10.25601171875,-7.90801171875,-0.02843359375,11.18548828125,11.207765625,5.7571953125,7.24716015625,0.74528125,5.477421875,4.9168984375
1.3300859375,7.18319140625,10.99935546875,2.3850078125,2.4049609375,8.72208203125,10.55719140625,8.88270703125,-2.64441796875,7.28198828125,12.94298828125,12.70010546875,-9.65634375,-0.77039453125,8.31007421875,13.29408984375,6.34015625,-8.75754296875,2.5917265625,10.5105625,7.94701171875,-8.08301171875,-3.24943359375,7.57848828125,8.501765625,4.1741953125,4.85416015625,-0.57671875,4.196421875,3.6828984375
0.9120859375,4.51519140625,8.52635546875,1.7690078125,2.3269609375,8.26408203125,10.18419140625,7.77470703125,-3.55741796875,6.51298828125,11.81498828125,10.69010546875,-11.66434375,-1.80139453125,5.78107421875,10.34408984375,4.26215625,-9.31954296875,-0.3172734375,6.7015625,4.91201171875,-7.27101171875,-5.90943359375,3.62448828125,5.184765625,2.1111953125,2.56616015625,-1.42971875,3.032421875,2.4118984375
0.4420859375,1.75919140625,5.49935546875,0.9670078125,2.3639609375,7.59508203125,9.25819140625,6.01070703125,-3.58641796875,5.81898828125,10.17898828125,8.35710546875,-12.29934375,-1.75939453125,3.19407421875,6.70808984375,2.04115625,-8.74954296875,-2.5242734375,2.4095625,1.57101171875,-5.59901171875,-7.52243359375,-0.11851171875,1.687765625,0.0351953125,0.75616015625,-1.51071875,2.383421875,1.4438984375
-0.5439140625,-0.70380859375,2.13835546875,-0.1219921875,2.2219609375,6.49008203125,7.68119140625,3.67170703125,-2.95141796875,5.08498828125,8.12198828125,6.03210546875,-11.22434375,-0.825394531250001,0.817074218749999,3.02608984375,0.0611562499999998,-7.15554296875,-3.7542734375,-1.7654375,-1.43098828125,-3.33401171875,-7.79143359375,-3.13351171875,-1.406234375,-1.4288046875,-0.28283984375,-0.67371875,2.531421875,1.1208984375
-2.2579140625,-2.58080859375,-1.17764453125,-1.3689921875,1.6969609375,4.93008203125,5.61419140625,1.06870703125,-2.03141796875,4.21298828125,5.88998828125,4.00310546875,-8.73534375,0.682605468749999,-1.16892578125,0.00908984375000088,-1.32784375,-4.84654296875,-3.9392734375,-5.1924375,-3.47398828125,-0.85101171875,-6.71143359375,-5.07251171875,-3.556234375,-1.8048046875,-0.42583984375,1.02228125,3.508421875,1.6198984375
-4.4309140625,-3.71580859375,-3.90864453125,-2.4279921875,0.8099609375,3.16108203125,3.44419140625,-1.36429296875,-1.17241796875,3.21198828125,3.81098828125,2.48110546875,-5.67434375,2.41760546875,-2.68192578125,-1.82191015625,-1.97384375,-2.27854296875,-3.2092734375,-7.4084375,-4.20998828125,1.41498828125,-4.58043359375,-5.84651171875,-4.454234375,-0.9978046875,0.23316015625,3.30128125,5.057421875,2.8388984375
-6.3829140625,-4.09080859375,-5.49664453125,-2.8959921875,-0.1980390625,1.59608203125,1.63219140625,-3.23329296875,-0.54341796875,2.20198828125,2.17198828125,1.56910546875,-3.01334375,4.07860546875,-3.71092578125,-2.31491015625,-1.97984375,0.05945703125,-1.8602734375,-8.2564375,-3.68998828125,3.05198828125,-1.92543359375,-5.63751171875,-4.136234375,0.6611953125,1.37816015625,5.71928125,6.695421875,4.3908984375
-7.3729140625,-3.78380859375,-5.57464453125,-2.5219921875,-1.0010390625,0.634082031249999,0.50819140625,-4.31129296875,-0.11841796875,1.36198828125,1.11598828125,1.20210546875,-1.40334375,5.44160546875,-4.28492578125,-1.70291015625,-1.62384375,1.78145703125,-0.2752734375,-7.9064375,-2.31598828125,3.78998828125,0.66756640625,-4.82351171875,-2.958234375,2.5741953125,2.56016015625,7.75828125,7.858421875,5.7268984375
-7.0239140625,-2.92980859375,-4.16364453125,-1.3739921875,-1.3610390625,0.474082031249999,0.14519140625,-4.56029296875,0.21858203125,0.82498828125,0.618988281249999,1.12610546875,-0.911343749999999,6.35560546875,-4.44492578125,-0.464910156249999,-1.19184375,2.71645703125,1.1797265625,-6.7504375,-0.65298828125,3.62398828125,2.73256640625,-3.83851171875,-1.449234375,4.1531953125,3.35516015625,8.98528125,8.122421875,6.3438984375
-5.5559140625,-1.72880859375,-1.73964453125,0.1460078125,-1.2580390625,1.00308203125,0.35919140625,-4.11029296875,0.53658203125,0.59998828125,0.525988281249999,0.986105468749999,-1.09734375,6.72860546875,-4.24392578125,0.88708984375,-0.84884375,2.92845703125,2.2477265625,-5.2284375,0.79601171875,2.84398828125,4.05156640625,-3.01851171875,-0.0952343750000004,5.0681953125,3.53116015625,9.22128125,7.383421875,6.0098984375
-3.6839140625,-0.45880859375,0.87035546875,1.4390078125,-0.9220390625,1.82008203125,0.81419140625,-3.19929296875,0.77658203125,0.53698828125,0.623988281249999,0.50910546875,-1.35834375,6.52360546875,-3.76692578125,1.98408984375,-0.61184375,2.64945703125,2.8077265625,-3.6864375,1.75401171875,1.92498828125,4.64956640625,-2.51251171875,0.824765625,5.3481953125,3.12716015625,8.61628125,5.915421875,4.8638984375
-2.2129140625,0.53819140625,2.77235546875,1.9530078125,-0.7340390625,2.41308203125,1.17619140625,-2.12829296875,0.78358203125,0.36798828125,0.714988281249998,-0.32889453125,-1.33534375,5.75760546875,-3.13992578125,2.68708984375,-0.42184375,2.13545703125,2.8547265625,-2.3064375,2.20801171875,1.29998828125,4.69556640625,-2.29251171875,1.295765625,5.2881953125,2.40916015625,7.59128125,4.255421875,3.3498984375
-1.6149140625,0.93419140625,3.32035546875,1.4160078125,-1.0360390625,2.38808203125,1.22719140625,-1.19929296875,0.41658203125,-0.16901171875,0.660988281249999,-1.27889453125,-1.14234375,4.51160546875,-2.49492578125,3.06608984375,-0.233843750000001,1.56445703125,2.4697265625,-1.1274375,2.34801171875,1.18798828125,4.38456640625,-2.22551171875,1.492765625,5.2521953125,1.73016015625,6.66928125,2.980421875,2.0158984375
-1.8759140625,0.51719140625,2.32535546875,-0.0449921874999997,-1.9540390625,1.59908203125,0.89419140625,-0.66629296875,-0.35241796875,-1.22101171875,0.385988281249999,-1.98489453125,-1.25934375,2.92460546875,-1.94692578125,3.28208984375,-0.0628437500000003,0.99345703125,1.7947265625,-0.1334375,2.41401171875,1.56198828125,3.86656640625,-2.16851171875,1.649765625,5.4841953125,1.38216015625,6.28228125,2.490421875,1.2948984375
-2.6719140625,-0.73280859375,0.0453554687499995,-1.9959921875,-3.3540390625,0.14608203125,0.18219140625,-0.69029296875,-1.42641796875,-2.76201171875,-0.168011718750002,-2.24489453125,-2.17434375,1.16960546875,-1.59792578125,3.43208984375,0.0171562499999998,0.40145703125,0.9867265625,0.6395625,2.53501171875,2.24398828125,3.23556640625,-2.04451171875,1.913765625,6.0181953125,1.48916015625,6.64228125,2.877421875,1.3628984375
-3.6839140625,-2.63380859375,-2.97264453125,-3.9139921875,-4.9440390625,-1.72891796875,-0.91480859375,-1.30229296875,-2.64041796875,-4.61801171875,-1.07401171875,-2.16589453125,-3.98834375,-0.591394531250001,-1.58892578125,3.43208984375,-0.0748437500000003,-0.25154296875,0.1607265625,1.0255625,2.64101171875,3.01698828125,2.54256640625,-1.89051171875,2.264765625,6.6941953125,1.97016015625,7.70228125,3.928421875,2.1158984375
-4.7809140625,-4.84880859375,-6.09764453125,-5.4089921875,-6.4310390625,-3.73991796875,-2.43580859375,-2.38129296875,-3.82241796875,-6.51601171875,-2.39801171875,-2.11289453125,-6.23334375,-2.21939453125,-2.08192578125,3.02008984375,-0.382843750000001,-0.96754296875,-0.6552734375,0.7735625,2.48601171875,3.69398828125,1.80956640625,-1.84051171875,2.512765625,7.2531953125,2.59316015625,9.20028125,5.230421875,3.2328984375
-5.9529140625,-6.95080859375,-8.74164453125,-6.3029921875,-7.6120390625,-5.60691796875,-4.37580859375,-3.69329296875,-4.81241796875,-8.14801171875,-4.11701171875,-2.47589453125,-8.03034375,-3.57939453125,-3.17192578125,1.90608984375,-0.890843750000001,-1.67054296875,-1.5012734375,-0.3134375,1.80001171875,4.13598828125,1.06156640625,-2.05351171875,2.391765625,7.4331953125,3.07116015625,10.76228125,6.337421875,4.3008984375
-7.1259140625,-8.50080859375,-10.41764453125,-6.5739921875,-8.3630390625,-7.07091796875,-6.58180859375,-4.94629296875,-5.44441796875,-9.21701171875,-6.04401171875,-3.41489453125,-8.50434375,-4.50739453125,-4.75392578125,-0.035910156249999,-1.52284375,-2.21154296875,-2.4092734375,-2.2044375,0.46301171875,4.28898828125,0.347566406249999,-2.60951171875,1.680765625,7.0611953125,3.17516015625,12.02628125,6.941421875,4.9578984375
-8.0399140625,-9.13880859375,-10.75964453125,-6.2469921875,-8.5840390625,-7.87891796875,-8.69780859375,-5.84429296875,-5.55841796875,-9.49301171875,-7.80501171875,-4.72189453125,-7.21834375,-4.82839453125,-6.45592578125,-2.60691015625,-2.15784375,-2.40954296875,-3.3012734375,-4.5664375,-1.37098828125,4.22698828125,-0.240433593750001,-3.43651171875,0.335765625,6.1151953125,2.81416015625,12.75628125,6.986421875,5.0208984375
-8.2989140625,-8.66480859375,-9.58564453125,-5.3389921875,-8.1790390625,-7.78091796875,-10.19980859375,-6.13229296875,-5.03941796875,-8.84601171875,-8.91801171875,-5.88789453125,-4.37634375,-4.40639453125,-7.71292578125,-5.28491015625,-2.65084375,-2.11054296875,-3.9502734375,-6.8314375,-3.28698828125,4.16798828125,-0.56343359375,-4.30451171875,-1.457234375,4.7721953125,2.06716015625,12.90928125,6.672421875,4.5568984375
-7.5749140625,-7.09380859375,-6.96064453125,-3.8899921875,-7.0720390625,-6.61691796875,-10.54480859375,-5.68429296875,-3.87341796875,-7.28801171875,-8.95401171875,-6.33389453125,-0.709343749999999,-3.22939453125,-7.96192578125,-7.37891015625,-2.87184375,-1.25754296875,-4.0372734375,-8.3924375,-4.77198828125,4.40398828125,-0.47943359375,-4.91151171875,-3.325234375,3.3691953125,1.14116015625,12.61028125,6.340421875,3.8278984375
-5.8149140625,-4.66680859375,-3.23864453125,-2.0449921875,-5.2680390625,-4.43191796875,-9.39480859375,-4.58029296875,-2.19141796875,-4.99301171875,-7.72701171875,-5.70289453125,2.86165625,-1.47239453125,-6.89192578125,-8.28991015625,-2.75484375,0.0574570312500002,-3.3232734375,-8.8344375,-5.43798828125,5.12798828125,0.0745664062499998,-5.03651171875,-4.854234375,2.2721953125,0.26616015625,12.04328125,6.264421875,3.1348984375
-3.3099140625,-1.82380859375,0.96935546875,-0.0859921874999996,-2.9110390625,-1.55291796875,-6.80480859375,-3.12929296875,-0.27341796875,-2.30301171875,-5.42901171875,-4.06989453125,5.56365625,0.512605468749999,-4.62892578125,-7.76391015625,-2.32784375,1.58645703125,-1.8142734375,-8.1144375,-5.19098828125,6.28098828125,0.996566406249999,-4.67851171875,-5.765234375,1.7001953125,-0.42983984375,11.33628125,6.488421875,2.6378984375
-0.5949140625,0.87619140625,4.88935546875,1.6430078125,-0.3140390625,1.48308203125,-3.28380859375,-1.75329296875,1.51558203125,0.32898828125,-2.61001171875,-1.94089453125,6.98465625,2.28560546875,-1.74792578125,-6.01291015625,-1.71284375,2.98145703125,0.1797265625,-6.5834375,-4.26198828125,7.53898828125,2.00756640625,-4.10451171875,-6.033234375,1.6241953125,-0.99883984375,10.50428125,6.786421875,2.2708984375
1.7390859375,2.86419140625,7.71435546875,2.8500078125,2.0709609375,4.09108203125,0.31919140625,-0.82829296875,2.82958203125,2.42798828125,-0.0130117187500014,-0.0318945312500007,7.12565625,3.47360546875,0.91207421875,-3.64291015625,-1.09884375,3.91445703125,2.1427265625,-4.8584375,-3.08798828125,8.45698828125,2.75856640625,-3.74151171875,-5.873234375,1.8041953125,-1.62283984375,9.49428125,6.785421875,1.8038984375
3.1910859375,3.71119140625,8.78335546875,3.3750078125,3.7629609375,5.79308203125,3.08519140625,-0.54529296875,3.44158203125,3.61098828125,1.68498828125,1.05510546875,6.27965625,3.91260546875,2.57507421875,-1.42791015625,-0.697843750000001,4.20945703125,3.5677265625,-3.5774375,-2.13698828125,8.69298828125,3.00456640625,-3.96251171875,-5.597234375,1.9521953125,-2.47483984375,8.28828125,6.180421875,1.0268984375
3.4490859375,3.27319140625,7.80535546875,3.2040078125,4.3959609375,6.32208203125,4.33019140625,-0.87129296875,3.29658203125,3.69398828125,2.10998828125,1.07310546875,4.83165625,3.70960546875,2.82207421875,-0.011910156249999,-0.68884375,3.90645703125,4.1657265625,-3.1444375,-1.72798828125,8.17398828125,2.74156640625,-4.87451171875,-5.433234375,1.8821953125,-3.56383984375,6.97628125,4.918421875,-0.0891015624999998
2.4600859375,1.76319140625,5.02535546875,2.4130078125,3.8399609375,5.67208203125,3.83619140625,-1.58729296875,2.50858203125,2.75898828125,1.30498828125,0.17110546875,3.07965625,3.17760546875,1.72807421875,0.32708984375,-1.15584375,3.23445703125,3.9717265625,-3.5634375,-1.92798828125,7.11798828125,2.21156640625,-6.23551171875,-5.407234375,1.5711953125,-4.67883984375,5.75228125,3.245421875,-1.3421015625
0.4800859375,-0.30580859375,1.22735546875,1.1410078125,2.2659609375,4.09108203125,1.92119140625,-2.40629296875,1.30758203125,1.13598828125,-0.319011718750001,-1.25189453125,1.20365625,2.68060546875,-0.217925781250001,-0.267910156249999,-2.04484375,2.49445703125,3.2747265625,-4.4624375,-2.56598828125,5.90598828125,1.76656640625,-7.56951171875,-5.359234375,1.1051953125,-5.47983984375,4.82328125,1.595421875,-2.4061015625
-1.9409140625,-2.29180859375,-2.49164453125,-0.4199921875,0.1309609375,2.02308203125,-0.67980859375,-3.08529296875,-0.00141796874999978,-0.68701171875,-2.14901171875,-2.74089453125,-0.605343749999999,2.47560546875,-2.34692578125,-1.33991015625,-3.13884375,1.93345703125,2.4497265625,-5.2874375,-3.32598828125,4.89198828125,1.68556640625,-8.39151171875,-5.067234375,0.5911953125,-5.67983984375,4.30628125,0.385421875,-3.0241015625
-4.1109140625,-3.62780859375,-5.10164453125,-2.0149921875,-1.9420390625,0.00208203124999962,-3.07480859375,-3.46829296875,-1.10141796875,-2.21401171875,-3.58001171875,-3.90589453125,-2.02034375,2.62760546875,-4.05092578125,-2.33091015625,-4.09784375,1.67545703125,1.7797265625,-5.5554375,-3.87498828125,4.26098828125,2.04756640625,-8.42751171875,-4.388234375,0.0931953125,-5.21183984375,4.16828125,-0.166578125,-3.1541015625
-5.4339140625,-3.98480859375,-5.98264453125,-3.3619921875,-3.3720390625,-1.45791796875,-4.48680859375,-3.44829296875,-1.74141796875,-3.07801171875,-4.18701171875,-4.44789453125,-2.61234375,3.03660546875,-4.96492578125,-2.77491015625,-4.55284375,1.71945703125,1.3737265625,-5.0514375,-3.95998828125,3.99898828125,2.71956640625,-7.70851171875,-3.354234375,-0.3808046875,-4.27083984375,4.25328125,-0.117578125000001,-2.9801015625
-5.6259140625,-3.33580859375,-5.06664453125,-4.2219921875,-3.8360390625,-1.98991796875,-4.46280859375,-2.92129296875,-1.82341796875,-3.14501171875,-3.81101171875,-4.16589453125,-2.09834375,3.51360546875,-5.02492578125,-2.42591015625,-4.23684375,1.98345703125,1.1907265625,-3.8694375,-3.45698828125,3.96298828125,3.45256640625,-6.50751171875,-2.159234375,-0.8388046875,-3.22583984375,4.36128125,0.264421875,-2.7801015625
-4.7899140625,-1.91180859375,-2.75464453125,-4.4589921875,-3.3680390625,-1.46991796875,-2.94280859375,-1.79329296875,-1.42141796875,-2.52001171875,-2.54401171875,-2.97389453125,-0.59834375,3.88760546875,-4.41392578125,-1.27991015625,-3.07484375,2.34445703125,1.1257265625,-2.3124375,-2.36998828125,3.99898828125,4.00456640625,-5.18451171875,-1.060234375,-1.2418046875,-2.42283984375,4.34928125,0.649421875,-2.7481015625
-3.3279140625,-0.0988085937500003,0.27535546875,-4.0829921875,-2.3070390625,-0.06591796875,-0.22980859375,-0.0572929687499997,-0.71841796875,-1.49601171875,-0.662011718750001,-0.943894531250001,1.31065625,4.06460546875,-3.43092578125,0.480089843750001,-1.20684375,2.68745703125,1.0997265625,-0.7154375,-0.81098828125,4.00998828125,4.23656640625,-4.01551171875,-0.247234375000001,-1.4638046875,-2.02683984375,4.17928125,0.797421875,-2.8841015625
-1.7669140625,1.67619140625,3.26235546875,-3.2619921875,-1.1350390625,1.81508203125,3.10219140625,2.14470703125,0.0695820312500004,-0.44701171875,1.47498828125,1.67810546875,2.84665625,4.04060546875,-2.35892578125,2.55708984375,1.04915625,2.92645703125,1.0957265625,0.6785625,1.02301171875,3.96098828125,4.12056640625,-3.12351171875,0.231765625,-1.3378046875,-1.97983984375,3.90328125,0.643421875,-3.0241015625
-0.5539140625,3.05319140625,5.52735546875,-2.2939921875,-0.3000390625,3.68408203125,6.32919140625,4.53470703125,0.74758203125,0.30498828125,3.50098828125,4.50610546875,3.38565625,3.86360546875,-1.37592578125,4.63208984375,3.27315625,3.00245703125,1.1427265625,1.7705625,2.87601171875,3.81398828125,3.69756640625,-2.49151171875,0.457765625,-0.7658046875,-2.08683984375,3.59228125,0.282421875,-2.9711015625
0.0960859374999999,3.84719140625,6.66435546875,-1.5099921875,-0.0470390625000001,5.16608203125,8.76719140625,6.76370703125,1.16458203125,0.60998828125,5.14298828125,7.11910546875,2.74265625,3.61060546875,-0.51092578125,6.45508984375,5.04015625,2.87545703125,1.3027265625,2.6045625,4.46701171875,3.46998828125,3.03156640625,-2.02751171875,0.561765625,0.1781953125,-2.14683984375,3.26828125,-0.0885781250000006,-2.6201015625
0.2760859375,4.12519140625,6.71035546875,-1.1259921875,-0.3050390625,6.12908203125,10.00319140625,8.50670703125,1.26258203125,0.58398828125,6.30898828125,9.18110546875,1.22965625,3.39560546875,0.36107421875,7.91408984375,6.05315625,2.53445703125,1.6617265625,3.3325625,5.56401171875,2.79998828125,2.20956640625,-1.61851171875,0.648765625,1.2521953125,-2.03583984375,2.88428125,-0.265578125,-2.0091015625
0.3380859375,4.20119140625,6.17735546875,-1.1299921875,-0.6970390625,6.70808203125,10.06219140625,9.54870703125,1.11658203125,0.59598828125,7.10798828125,10.50710546875,-0.49034375,3.37360546875,1.46107421875,9.02408984375,6.23815625,2.02245703125,2.3187265625,4.1455625,6.03901171875,1.72998828125,1.35056640625,-1.18251171875,0.755765625,2.1471953125,-1.73783984375,2.36228125,-0.115578125,-1.2941015625
0.6970859375,4.49019140625,5.82935546875,-1.2879921875,-0.7130390625,7.19408203125,9.38119140625,9.83970703125,0.92658203125,1.10798828125,7.77598828125,11.05110546875,-1.68434375,3.69960546875,2.98207421875,9.85108984375,5.77615625,1.44545703125,3.3177265625,5.1615625,5.88801171875,0.32098828125,0.58856640625,-0.70551171875,0.839765625,2.6371953125,-1.33783984375,1.64928125,0.353421875,-0.6761015625
1.5630859375,5.28119140625,6.25735546875,-1.2959921875,0.0149609374999997,7.83908203125,8.57119140625,9.48070703125,0.92258203125,2.42698828125,8.52298828125,10.84710546875,-1.87034375,4.43660546875,4.94807421875,10.40608984375,5.02115625,0.94645703125,4.5697265625,6.3215625,5.20701171875,-1.21701171875,0.0285664062499995,-0.256511718750001,0.810765625,2.6891953125,-0.98983984375,0.763281249999999,0.996421875,-0.3211015625
2.7800859375,6.53919140625,7.51435546875,-0.9689921875,1.5019609375,8.68008203125,8.13119140625,8.65070703125,1.23958203125,4.49398828125,9.40498828125,9.99010546875,-1.03234375,5.47660546875,7.14507421875,10.61208984375,4.35715625,0.64945703125,5.8047265625,7.3615625,4.15101171875,-2.57901171875,-0.29243359375,0.0274882812500001,0.573765625,2.4641953125,-0.86883984375,-0.18271875,1.599421875,-0.2991015625
3.9010859375,7.88819140625,9.07635546875,-0.3459921875,3.3809609375,9.51408203125,8.25319140625,7.54070703125,1.83758203125,6.84898828125,10.28198828125,8.65310546875,0.38865625,6.53160546875,9.14407421875,10.35008984375,4.04315625,0.58845703125,6.6297265625,7.8795625,2.88001171875,-3.45901171875,-0.440433593750001,-0.0255117187499998,0.0637656249999994,2.1971953125,-1.11983984375,-1.02071875,1.966421875,-0.5711015625
4.4500859375,8.76919140625,10.14735546875,0.3390078125,5.0399609375,9.99508203125,8.78119140625,6.32270703125,2.50558203125,8.78398828125,10.85298828125,7.09210546875,1.70365625,7.20360546875,10.39507421875,9.51508984375,4.10415625,0.66145703125,6.6217265625,7.4405625,1.49001171875,-3.67001171875,-0.60143359375,-0.61851171875,-0.782234375000001,1.9911953125,-1.86083984375,-1.63171875,1.952421875,-1.0801015625
4.1540859375,8.67619140625,10.07435546875,0.7620078125,5.8399609375,9.76708203125,9.28019140625,5.13970703125,2.93058203125,9.57898828125,10.73598828125,5.54110546875,2.30365625,7.10560546875,10.34507421875,8.04008984375,4.29815625,0.63245703125,5.4577265625,5.6875625,-0.0459882812500001,-3.23901171875,-1.07343359375,-1.97051171875,-2.073234375,1.6901953125,-3.20183984375,-2.04371875,1.438421875,-1.8571015625
3.0180859375,7.37819140625,8.63035546875,0.6670078125,5.3449609375,8.56508203125,9.19019140625,4.07970703125,2.81458203125,8.75498828125,9.57598828125,4.09910546875,1.94265625,6.00660546875,8.61107421875,5.91408984375,4.19515625,0.23745703125,3.0297265625,2.4935625,-1.84798828125,-2.41501171875,-2.15143359375,-4.24251171875,-3.939234375,0.9431953125,-5.19883984375,-2.42571875,0.334421874999999,-3.0341015625
1.2710859375,5.03219140625,6.09535546875,0.00100781250000015,3.5059609375,6.30908203125,8.07619140625,3.15270703125,2.03358203125,6.27198828125,7.20598828125,2.70610546875,0.85465625,3.98460546875,5.17807421875,3.23108984375,3.36615625,-0.64154296875,-0.4362734375,-1.8904375,-3.99998828125,-1.53601171875,-3.93443359375,-7.35651171875,-6.398234375,-0.5548046875,-7.73083984375,-2.95771875,-1.333578125,-4.6921015625
-0.6899140625,2.16419140625,3.14335546875,-1.0009921875,0.7399609375,3.22208203125,5.86919140625,2.32870703125,0.76758203125,2.61598828125,3.80198828125,1.26610546875,-0.33434375,1.48560546875,0.53607421875,0.266089843750001,1.61215625,-1.82154296875,-4.3232734375,-6.7584375,-6.38298828125,-0.84901171875,-6.14343359375,-10.84951171875,-9.192234375,-2.7898046875,-10.37983984375,-3.63071875,-3.300578125,-6.6641015625
-2.3529140625,-0.50180859375,0.58435546875,-1.8709921875,-2.1680390625,-0.13091796875,2.96519140625,1.60370703125,-0.49741796875,-1.28601171875,-0.0660117187500013,-0.202894531250001,-0.86934375,-0.753394531250001,-4.35292578125,-2.51491015625,-0.898843750000001,-2.82954296875,-7.7232734375,-11.0674375,-8.61298828125,-0.39101171875,-8.11643359375,-13.90651171875,-11.749234375,-5.3328046875,-12.45383984375,-4.17071875,-5.034578125,-8.4731015625
-3.2199140625,-2.32680859375,-0.97664453125,-2.1099921875,-4.3350390625,-3.00391796875,0.0911914062500001,1.02570703125,-1.15641796875,-4.36201171875,-3.58201171875,-1.53489453125,-0.21234375,-1.96539453125,-8.32492578125,-4.54891015625,-3.66284375,-3.08554296875,-9.7172734375,-13.7534375,-10.15698828125,-0.00601171875000039,-9.03143359375,-15.61651171875,-13.328234375,-7.4698046875,-13.20983984375,-4.13071875,-5.894578125,-9.4911015625
-3.0069140625,-3.01280859375,-1.42264453125,-1.4469921875,-5.1180390625,-4.76291796875,-1.99780859375,0.65770703125,-0.78141796875,-5.78901171875,-5.95801171875,-2.48689453125,1.68265625,-1.66539453125,-10.41692578125,-5.35491015625,-6.02784375,-2.18854296875,-9.7262734375,-14.1144375,-10.54898828125,0.53698828125,-8.26543359375,-15.35351171875,-13.307234375,-8.4968046875,-12.16183984375,-3.12371875,-5.386578125,-9.2331015625
-1.8219140625,-2.70580859375,-1.17964453125,-0.0259921875,-4.3830390625,-5.16791796875,-2.84280859375,0.47570703125,0.61958203125,-5.31401171875,-6.73201171875,-2.86289453125,4.31065625,0.12560546875,-10.22292578125,-4.71191015625,-7.45384375,-0.12854296875,-7.7662734375,-12.0814375,-9.59798828125,1.39698828125,-5.70843359375,-13.06851171875,-11.466234375,-8.0338046875,-9.33783984375,-1.06971875,-3.419578125,-7.6041015625
-0.1849140625,-1.89080859375,-0.99764453125,1.6020078125,-2.5920390625,-4.46491796875,-2.46780859375,0.32670703125,2.56358203125,-3.34601171875,-5.94101171875,-2.60489453125,6.82565625,2.86560546875,-8.04792578125,-2.77391015625,-7.73884375,2.66145703125,-4.4832734375,-8.2544375,-7.48998828125,2.55798828125,-1.86543359375,-9.35151171875,-8.130234375,-6.2188046875,-5.32983984375,1.70128125,-0.405578125,-4.9811015625
1.1550859375,-1.11780859375,-1.51764453125,2.7010078125,-0.6240390625,-3.26491796875,-1.35580859375,-0.0192929687499999,4.26958203125,-0.78401171875,-4.11301171875,-1.83589453125,8.40865625,5.68360546875,-4.78492578125,-0.0699101562499997,-7.10184375,5.45345703125,-0.9202734375,-3.7074375,-4.75698828125,3.81198828125,2.29756640625,-5.22251171875,-4.106234375,-3.6788046875,-1.11883984375,4.51828125,2.838421875,-2.1021015625
1.5620859375,-0.72580859375,-2.84664453125,2.7010078125,0.6039609375,-2.28491796875,-0.22580859375,-0.70329296875,5.00558203125,1.35298828125,-2.06001171875,-0.84189453125,8.58665625,7.69760546875,-1.57492578125,2.65308984375,-6.05484375,7.48445703125,1.8727265625,0.3825625,-2.09998828125,4.83098828125,5.69556640625,-1.75151171875,-0.407234375000001,-1.2598046875,2.26416015625,6.62528125,5.384421875,0.2158984375
0.8300859375,-0.69980859375,-4.40164453125,1.5010078125,0.5599609375,-2.02891796875,0.32019140625,-1.59829296875,4.40658203125,2.34698828125,-0.538011718750001,0.0381054687499995,7.36565625,8.34260546875,0.633074218749999,4.70008984375,-5.11084375,8.24045703125,3.2317265625,3.1415625,-0.12298828125,5.30898828125,7.50856640625,0.336488281249999,2.133765625,0.3581953125,4.10816015625,7.49328125,6.552421875,1.3958984375
-0.6949140625,-0.73780859375,-5.19964453125,-0.4689921875,-0.6710390625,-2.56591796875,0.0821914062500007,-2.26429296875,2.62558203125,2.05798828125,0.0719882812499986,0.566105468749999,5.15565625,7.56560546875,1.43607421875,5.69008984375,-4.48584375,7.64045703125,3.0997265625,4.2725625,0.91001171875,5.12498828125,7.46356640625,0.89648828125,3.177765625,0.9481953125,4.26816015625,7.02428125,6.170421875,1.3228984375
-2.2949140625,-0.49080859375,-4.45364453125,-2.4779921875,-2.4940390625,-3.53991796875,-0.67280859375,-2.16329296875,0.22658203125,0.91398828125,-0.102011718750001,0.70910546875,2.57565625,5.80560546875,1.06907421875,5.67208984375,-4.02884375,6.02945703125,1.9697265625,4.0785625,1.13901171875,4.39798828125,5.87356640625,0.32748828125,2.963765625,0.7561953125,3.15916015625,5.54928125,4.598421875,0.3558984375
-3.2759140625,0.18519140625,-2.10664453125,-3.8909921875,-4.1730390625,-4.42991796875,-1.40780859375,-1.00029296875,-2.11241796875,-0.38301171875,-0.563011718750001,0.604105468749999,0.20365625,3.75060546875,0.20707421875,5.02008984375,-3.40684375,3.98845703125,0.5707265625,3.2265625,0.95101171875,3.40398828125,3.44356640625,-0.700511718750001,2.108765625,0.2591953125,1.51916015625,3.61828125,2.512421875,-0.8961015625
-3.3179140625,1.12219140625,1.04135546875,-4.4719921875,-5.2080390625,-4.86691796875,-1.65580859375,1.03170703125,-3.90541796875,-1.24601171875,-0.769011718750002,0.444105468749999,-1.63434375,2.00360546875,-0.414925781250001,4.19708984375,-2.40984375,2.06245703125,-0.5182734375,2.3955625,0.72301171875,2.37598828125,0.92356640625,-1.60551171875,1.244765625,-0.1558046875,0.0511601562499999,1.72128125,0.586421875,-1.8931015625
-2.5689140625,1.91719140625,3.70535546875,-4.4029921875,-5.5000390625,-4.79491796875,-1.25580859375,3.30670703125,-4.98841796875,-1.44801171875,-0.420011718750001,0.369105468749999,-2.94034375,0.85360546875,-0.357925781250001,3.54208984375,-1.13184375,0.55145703125,-1.1152734375,1.9925625,0.63401171875,1.38198828125,-1.19843359375,-2.14251171875,0.706765625,-0.3798046875,-0.86983984375,0.10528125,-0.773578125,-2.4051015625
-1.4499140625,2.16419140625,4.75835546875,-4.0699921875,-5.2350390625,-4.39191796875,-0.364808593749999,5.07770703125,-5.44341796875,-1.11301171875,0.447988281249999,0.478105468749999,-3.94734375,0.24760546875,0.402074218749999,3.20308984375,0.0961562499999995,-0.52154296875,-1.4132734375,2.0745625,0.64901171875,0.34898828125,-2.81243359375,-2.41251171875,0.453765625,-0.5468046875,-1.28683984375,-1.23271875,-1.516578125,-2.5461015625
-0.3509140625,1.69419140625,3.81535546875,-3.7719921875,-4.6350390625,-3.87391796875,0.73019140625,5.82170703125,-5.43441796875,-0.50701171875,1.57898828125,0.862105468749999,-4.90734375,-0.0453945312500004,1.57407421875,3.17208984375,0.927156249999999,-1.29554296875,-1.7602734375,2.4515625,0.63301171875,-0.77701171875,-4.09743359375,-2.69451171875,0.207765625,-0.8528046875,-1.54783984375,-2.41671875,-1.868578125,-2.6281015625
0.5930859375,0.69619140625,1.42735546875,-3.5339921875,-3.7750390625,-3.32291796875,1.82319140625,5.44770703125,-5.06541796875,0.18598828125,2.70598828125,1.59710546875,-5.86434375,-0.216394531250001,2.79507421875,3.36208984375,1.19915625,-1.92454296875,-2.3992734375,2.8545625,0.48201171875,-1.90501171875,-5.31243359375,-3.22151171875,-0.319234375000001,-1.3808046875,-2.06883984375,-3.55771875,-2.159578125,-2.9421015625
1.5170859375,-0.34180859375,-1.17264453125,-3.1339921875,-2.5740390625,-2.65491796875,2.84719140625,4.27470703125,-4.33541796875,0.95998828125,3.69098828125,2.65410546875,-6.57834375,-0.28639453125,3.81807421875,3.62908984375,0.97015625,-2.46454296875,-3.3272734375,3.0575625,0.16801171875,-2.82601171875,-6.61643359375,-4.05051171875,-1.265234375,-2.0458046875,-3.11983984375,-4.68271875,-2.649578125,-3.6171015625
2.6450859375,-0.87680859375,-2.68464453125,-2.3019921875,-0.9760390625,-1.73691796875,3.75719140625,2.83670703125,-3.20541796875,1.89298828125,4.50798828125,3.79110546875,-6.63734375,-0.14139453125,4.54607421875,3.76008984375,0.40115625,-2.88154296875,-4.3482734375,2.8985625,-0.29898828125,-3.36701171875,-7.99243359375,-5.08251171875,-2.594234375,-2.6838046875,-4.71883984375,-5.74371875,-3.444578125,-4.5891015625
4.0110859375,-0.60380859375,-2.37864453125,-1.0029921875,0.8439609375,-0.60991796875,4.36419140625,1.58270703125,-1.73941796875,2.94398828125,5.10198828125,4.52610546875,-5.73034375,0.30360546875,4.92507421875,3.48208984375,-0.40884375,-3.13954296875,-5.2652734375,2.2545625,-0.93298828125,-3.57201171875,-9.31043359375,-6.18651171875,-4.171234375,-3.1758046875,-6.66383984375,-6.67771875,-4.498578125,-5.6681015625
5.2920859375,0.34719140625,-0.47064453125,0.4150078125,2.3939609375,0.371082031249999,4.30719140625,0.63870703125,-0.21841796875,3.80698828125,5.28098828125,4.26410546875,-3.88934375,0.93360546875,4.81607421875,2.54008984375,-1.49684375,-3.28854296875,-6.0552734375,1.0285625,-1.79898828125,-3.72201171875,-10.43443359375,-7.30351171875,-5.852234375,-3.5158046875,-8.64583984375,-7.45371875,-5.688578125,-6.6471015625
5.9090859375,1.44619140625,1.99835546875,1.3320078125,3.0099609375,0.628082031249999,3.20919140625,-0.22429296875,0.88658203125,3.98398828125,4.75798828125,2.59510546875,-1.52734375,1.40460546875,3.99207421875,0.825089843750001,-2.98284375,-3.46854296875,-6.8892734375,-0.7944375,-2.94398828125,-4.16001171875,-11.30043359375,-8.46451171875,-7.510234375,-3.7858046875,-10.36483984375,-8.08071875,-6.883578125,-7.3701015625
5.3460859375,2.01619140625,3.68535546875,1.1990078125,2.1869609375,-0.32491796875,0.94719140625,-1.40329296875,1.11158203125,3.05098828125,3.33898828125,-0.419894531250001,0.76165625,1.31360546875,2.27207421875,-1.50991015625,-4.93984375,-3.79954296875,-7.9752734375,-3.0664375,-4.31298828125,-5.00401171875,-11.89743359375,-9.67951171875,-9.004234375,-4.0828046875,-11.59683984375,-8.55971875,-7.954578125,-7.7641015625
3.5010859375,1.57219140625,3.59135546875,-0.1149921875,-0.1030390625,-2.56091796875,-2.18980859375,-3.16929296875,0.26858203125,0.95698828125,1.10498828125,-4.15189453125,2.49065625,0.44360546875,-0.27992578125,-4.04691015625,-7.27084375,-4.24954296875,-9.3152734375,-5.4244375,-5.69798828125,-5.97301171875,-12.19343359375,-10.81451171875,-10.136234375,-4.4448046875,-12.19783984375,-8.81771875,-8.742578125,-7.8101015625
0.8060859375,0.0441914062500004,1.47535546875,-2.2019921875,-3.2960390625,-5.63691796875,-5.54880859375,-5.44229296875,-1.40741796875,-1.86701171875,-1.54101171875,-7.61089453125,3.44565625,-1.04739453125,-3.24192578125,-6.20291015625,-9.64384375,-4.58654296875,-10.5752734375,-7.3184375,-6.75598828125,-6.46001171875,-12.04943359375,-11.51951171875,-10.623234375,-4.8068046875,-12.06583984375,-8.66771875,-9.021578125,-7.5001015625
-1.9569140625,-2.21080859375,-2.15564453125,-4.3169921875,-6.4440390625,-8.75291796875,-8.34180859375,-7.77629296875,-3.31141796875,-4.63201171875,-3.98901171875,-9.84689453125,3.66865625,-2.63339453125,-5.89292578125,-7.40491015625,-11.55084375,-4.44854296875,-11.1532734375,-8.1204375,-7.10198828125,-5.82701171875,-11.20843359375,-11.31351171875,-10.147234375,-4.9928046875,-11.09883984375,-7.83871875,-8.529578125,-6.7931015625
-4.0049140625,-4.59380859375,-6.36364453125,-5.7559921875,-8.6140390625,-11.06391796875,-9.92380859375,-9.52529296875,-4.74041796875,-6.50201171875,-5.63701171875,-10.31289453125,3.30865625,-3.62839453125,-7.45792578125,-7.27391015625,-12.47784375,-3.52954296875,-10.4562734375,-7.3234375,-6.43098828125,-3.77501171875,-9.40343359375,-9.79451171875,-8.472234375,-4.7608046875,-9.22383984375,-6.09971875,-7.074578125,-5.6381015625
-4.8809140625,-6.50780859375,-10.16164453125,-6.1849921875,-9.2900390625,-12.00091796875,-10.01080859375,-10.14829296875,-5.20541796875,-6.93001171875,-6.12001171875,-9.05789453125,2.47265625,-3.50739453125,-7.43692578125,-5.76591015625,-12.15284375,-1.77854296875,-8.2412734375,-4.7794375,-4.67998828125,-0.56601171875,-6.56043359375,-6.89951171875,-5.604234375,-3.9118046875,-6.49883984375,-3.44371875,-4.693578125,-4.0491015625
-4.5869140625,-7.56080859375,-12.77964453125,-5.7549921875,-8.5560390625,-11.48991796875,-8.76980859375,-9.49129296875,-4.64241796875,-5.88601171875,-5.45501171875,-6.67689453125,1.18365625,-2.19139453125,-5.86792578125,-3.22991015625,-10.71584375,0.49545703125,-4.8382734375,-0.8664375,-2.13598828125,3.01998828125,-2.97943359375,-3.05551171875,-1.908234375,-2.4348046875,-3.23483984375,-0.20671875,-1.763578125,-2.2041015625
-3.4959140625,-7.65080859375,-13.76864453125,-4.9529921875,-6.9980390625,-9.95491796875,-6.74680859375,-7.88629296875,-3.40041796875,-3.86601171875,-4.04601171875,-4.08489453125,-0.573343749999999,-0.129394531250001,-3.35792578125,-0.339910156249999,-8.70784375,2.69545703125,-1.0992734375,3.5395625,0.57401171875,5.97298828125,0.65256640625,0.89648828125,1.926765625,-0.5888046875,-0.0128398437500001,2.96428125,1.053421875,-0.4541015625
-2.1079140625,-6.92680859375,-12.99064453125,-4.2989921875,-5.3960390625,-8.08691796875,-4.63980859375,-5.97629296875,-2.03941796875,-1.66801171875,-2.50601171875,-2.17789453125,-2.74334375,1.89260546875,-0.83892578125,2.10408984375,-6.83384375,4.17545703125,1.9237265625,7.3435625,2.68101171875,7.44798828125,3.47856640625,3.99948828125,5.071765625,1.1331953125,2.47916015625,5.33128125,3.040421875,0.7988984375
-0.8209140625,-5.66880859375,-10.58964453125,-4.0669921875,-4.3540390625,-6.50591796875,-3.02380859375,-4.35529296875,-1.04941796875,-0.0470117187500003,-1.38501171875,-1.50089453125,-5.12834375,3.10960546875,0.83707421875,3.46008984375,-5.65384375,4.52645703125,3.4337265625,9.6565625,3.56701171875,7.08898828125,4.82556640625,5.57148828125,6.863765625,2.1821953125,3.72716015625,6.36728125,3.730421875,1.2948984375
0.1540859375,-4.15980859375,-6.98764453125,-4.1779921875,-4.0530390625,-5.52291796875,-2.15580859375,-3.29429296875,-0.64241796875,0.59998828125,-0.940011718750001,-2.04789453125,-7.34434375,3.14060546875,1.26907421875,3.46708984375,-5.35884375,3.77545703125,3.2237265625,10.1425625,3.02201171875,5.14498828125,4.52956640625,5.49648828125,7.064765625,2.1981953125,3.64016015625,5.97028125,3.134421875,1.0738984375
0.7370859375,-2.62780859375,-2.89164453125,-4.3169921875,-4.2560390625,-5.12291796875,-1.95880859375,-2.69329296875,-0.72341796875,0.34298828125,-1.08401171875,-3.31789453125,-8.83734375,2.13460546875,0.63507421875,2.31408984375,-5.74084375,2.37345703125,1.7507265625,9.1035625,1.32301171875,2.35398828125,3.01556640625,4.24548828125,5.950765625,1.2001953125,2.60716015625,4.49428125,1.727421875,0.4828984375
0.9220859375,-1.25280859375,0.79435546875,-4.1529921875,-4.5270390625,-5.10891796875,-2.18080859375,-2.27629296875,-0.99741796875,-0.38901171875,-1.51401171875,-4.59289453125,-9.02334375,0.65660546875,-0.474925781250001,0.50708984375,-6.35784375,0.99445703125,-0.1052734375,7.2715625,-0.90998828125,-0.33401171875,1.09656640625,2.62848828125,4.161765625,-0.3918046875,1.31516015625,2.57328125,0.215421875,-0.00710156249999994
0.7980859375,-0.18980859375,3.21735546875,-3.5199921875,-4.4990390625,-5.24991796875,-2.59680859375,-1.82629296875,-1.15441796875,-1.05201171875,-1.92701171875,-5.31489453125,-7.55534375,-0.61739453125,-1.38292578125,-1.38391015625,-6.77384375,0.23245703125,-1.4542734375,5.4335625,-2.99898828125,-2.09801171875,-0.41143359375,1.41448828125,2.387765625,-1.9538046875,0.40916015625,0.84228125,-0.817578125000001,-0.0651015624999998
0.5860859375,0.43519140625,3.89135546875,-2.4789921875,-4.0460390625,-5.38291796875,-3.10580859375,-1.33829296875,-0.99841796875,-1.23801171875,-2.16901171875,-5.31289453125,-4.59934375,-1.22539453125,-1.63392578125,-2.95491015625,-6.77284375,0.34245703125,-1.7832734375,4.1095625,-4.49798828125,-2.52301171875,-1.06343359375,1.00848828125,1.047765625,-2.9678046875,0.18616015625,-0.332718750000001,-1.188578125,0.2998984375
0.5970859375,0.57619140625,2.89835546875,-1.2689921875,-3.2800390625,-5.42791796875,-3.68280859375,-0.98029296875,-0.52041796875,-0.81601171875,-2.24401171875,-4.77989453125,-0.90234375,-1.09939453125,-1.12992578125,-4.07091015625,-6.43684375,1.14045703125,-1.1582734375,3.4145625,-5.34598828125,-1.74701171875,-0.956433593750001,1.31248828125,0.127765624999999,-3.2848046875,0.45416015625,-1.00171875,-1.180578125,0.7158984375
1.0650859375,0.31019140625,0.83935546875,-0.2049921875,-2.4320390625,-5.35591796875,-4.26080859375,-0.92429296875,0.12958203125,0.0569882812499998,-2.21301171875,-4.06689453125,2.46265625,-0.559394531250001,-0.0999257812500005,-4.82591015625,-6.05784375,2.09145703125,-0.1682734375,3.1185625,-5.82598828125,-0.41501171875,-0.66243359375,1.80148828125,-0.751234375,-3.1858046875,0.62816015625,-1.59971875,-1.398578125,0.6038984375
2.0010859375,-0.16580859375,-1.41864453125,0.4540078125,-1.7190390625,-5.14691796875,-4.67780859375,-1.17629296875,0.72258203125,1.04398828125,-2.09501171875,-3.47589453125,4.55065625,-0.13239453125,1.03007421875,-5.43091015625,-5.94184375,2.52445703125,0.3327265625,2.8025625,-6.37498828125,0.56498828125,-0.95143359375,1.74348828125,-2.106234375,-3.2058046875,-0.01383984375,-2.73871875,-2.466578125,-0.5651015625
3.1590859375,-0.62280859375,-3.08464453125,0.5950078125,-1.2590390625,-4.77491796875,-4.74080859375,-1.54829296875,1.03758203125,1.76098828125,-1.86501171875,-3.16989453125,4.93465625,-0.336394531250001,1.78007421875,-6.10591015625,-6.24384375,1.90745703125,-0.4242734375,2.0235625,-7.35298828125,0.39198828125,-2.46043359375,0.48248828125,-4.332234375,-3.8468046875,-2.01583984375,-4.91271875,-4.732578125,-3.0151015625
4.1520859375,-0.91380859375,-3.70864453125,0.2910078125,-1.0620390625,-4.24991796875,-4.36080859375,-1.80229296875,0.94158203125,1.90698828125,-1.52901171875,-3.17989453125,3.81665625,-1.48339453125,1.74707421875,-7.00591015625,-6.92584375,0.04745703125,-2.8222734375,0.4485625,-8.89698828125,-1.28401171875,-5.40643359375,-2.30351171875,-7.514234375,-5.3168046875,-5.49983984375,-8.21971875,-8.084578125,-6.5311015625
4.6450859375,-1.04180859375,-3.28564453125,-0.2219921875,-1.0640390625,-3.64491796875,-3.63980859375,-1.83329296875,0.42858203125,1.35698828125,-1.19901171875,-3.42889453125,1.83565625,-3.56839453125,0.70707421875,-8.18491015625,-7.82084375,-2.82254296875,-6.6892734375,-2.0374375,-10.86698828125,-4.21101171875,-9.46443359375,-6.44651171875,-11.364234375,-7.4358046875,-10.06583984375,-12.24471875,-11.957578125,-10.4881015625
4.4950859375,-1.15080859375,-2.19364453125,-0.6439921875,-1.1770390625,-3.08591796875,-2.83780859375,-1.73829296875,-0.36741796875,0.20398828125,-1.09201171875,-3.74489453125,-0.28534375,-6.25839453125,-1.31292578125,-9.58291015625,-8.73884375,-6.12254296875,-11.3372734375,-5.2794375,-12.90698828125,-7.64901171875,-13.84843359375,-11.28351171875,-15.302234375,-9.7258046875,-14.89583984375,-16.17271875,-15.522578125,-14.0501015625
3.7740859375,-1.46080859375,-1.02964453125,-0.7629921875,-1.3640390625,-2.73191796875,-2.26380859375,-1.76529296875,-1.25041796875,-1.29701171875,-1.46701171875,-3.95289453125,-2.05934375,-9.01139453125,-4.05492578125,-11.07691015625,-9.53284375,-9.13954296875,-15.8062734375,-8.8794375,-14.58598828125,-10.67901171875,-17.57343359375,-15.85651171875,-18.640234375,-11.6358046875,-18.99583984375,-19.09371875,-17.993578125,-16.4641015625
2.6550859375,-2.18380859375,-0.40664453125,-0.5869921875,-1.6970390625,-2.78591796875,-2.18980859375,-2.22429296875,-2.07941796875,-2.88701171875,-2.55001171875,-4.03989453125,-3.37934375,-11.27939453125,-7.13492578125,-12.55891015625,-10.13184375,-11.28354296875,-19.2102734375,-12.3294375,-15.57598828125,-12.55701171875,-19.79443359375,-19.23051171875,-20.811234375,-12.7708046875,-21.51783984375,-20.34671875,-18.902578125,-17.3061015625
1.3020859375,-3.43880859375,-0.75764453125,-0.3509921875,-2.3380390625,-3.48991796875,-2.80280859375,-3.37629296875,-2.85441796875,-4.42401171875,-4.45901171875,-4.27089453125,-4.42434375,-12.70239453125,-10.15692578125,-13.98991015625,-10.54584375,-12.25454296875,-21.0062734375,-15.1394375,-15.77498828125,-12.92401171875,-20.06443359375,-20.78851171875,-21.530234375,-13.0098046875,-21.99983984375,-19.73271875,-18.222578125,-16.5831015625
-0.1799140625,-5.17280859375,-2.19364453125,-0.3879921875,-3.4340390625,-5.00891796875,-4.18480859375,-5.28029296875,-3.66341796875,-5.88601171875,-7.09901171875,-5.10189453125,-5.41634375,-13.17539453125,-12.76392578125,-15.32891015625,-10.82084375,-12.03854296875,-21.0612734375,-16.9194375,-15.28998828125,-11.82801171875,-18.39843359375,-20.37151171875,-20.809234375,-12.4598046875,-20.43883984375,-17.49271875,-16.284578125,-14.6381015625
-1.6989140625,-7.11680859375,-4.47064453125,-0.9249921875,-4.9600390625,-7.26291796875,-6.24980859375,-7.64229296875,-4.52941796875,-7.24101171875,-10.08801171875,-6.83889453125,-6.38334375,-12.77239453125,-14.62192578125,-16.38691015625,-10.95084375,-10.77954296875,-19.5342734375,-17.3594375,-14.26298828125,-9.58301171875,-15.15743359375,-18.19051171875,-18.834234375,-11.2958046875,-17.19383984375,-14.13871875,-13.554578125,-11.9441015625
-3.1049140625,-8.82480859375,-7.05364453125,-1.9159921875,-6.6210390625,-9.84691796875,-8.68280859375,-9.80829296875,-5.27841796875,-8.32801171875,-12.75801171875,-9.29289453125,-7.05934375,-11.62539453125,-15.40592578125,-16.72391015625,-10.79984375,-8.64754296875,-16.7022734375,-16.2234375,-12.68698828125,-6.59801171875,-10.86043359375,-14.64551171875,-15.796234375,-9.5938046875,-12.80083984375,-10.23271875,-10.411578125,-8.8751015625
-4.1699140625,-9.79880859375,-9.26364453125,-3.0219921875,-7.9010390625,-12.12591796875,-10.94280859375,-10.97829296875,-5.55941796875,-8.87301171875,-14.33401171875,-11.68089453125,-7.02434375,-9.86339453125,-14.88492578125,-15.75291015625,-10.11884375,-5.81654296875,-12.8802734375,-13.3974375,-10.37098828125,-3.25501171875,-6.04543359375,-10.16651171875,-11.810234375,-7.2858046875,-7.80183984375,-6.25171875,-7.057578125,-5.6001015625
-4.6519140625,-9.69280859375,-10.47864453125,-3.7519921875,-8.2900390625,-13.48391796875,-12.40180859375,-10.57329296875,-5.04641796875,-8.63701171875,-14.22901171875,-12.94589453125,-6.01134375,-7.64539453125,-13.06392578125,-13.04091015625,-8.69384375,-2.55454296875,-8.4492734375,-9.0374375,-7.09598828125,0.0969882812499998,-1.22843359375,-5.19351171875,-6.988234375,-4.2818046875,-2.67783984375,-2.54471875,-3.574578125,-2.1431015625
-4.4299140625,-8.49880859375,-10.35964453125,-3.7349921875,-7.5770390625,-13.57591796875,-12.58680859375,-8.53329296875,-3.69141796875,-7.61801171875,-12.31801171875,-12.31789453125,-4.18034375,-5.26239453125,-10.29592578125,-8.65491015625,-6.52884375,0.68145703125,-3.9282734375,-3.6834375,-2.89798828125,3.08698828125,3.08656640625,-0.23351171875,-1.622234375,-0.6648046875,2.12416015625,0.62928125,-0.0815781250000005,1.4328984375
-3.5879140625,-6.58180859375,-8.98164453125,-2.9399921875,-5.9990390625,-12.45191796875,-11.39480859375,-5.38329296875,-1.85841796875,-6.10701171875,-9.03401171875,-9.76489453125,-2.12934375,-3.14639453125,-7.21892578125,-3.29591015625,-3.92484375,3.28445703125,0.0447265625000002,1.7705625,1.75301171875,5.29198828125,6.42756640625,4.11048828125,3.706765625,3.1831953125,6.15816015625,3.07328125,3.151421875,4.8758984375
-2.3659140625,-4.53180859375,-6.77964453125,-1.7039921875,-4.1270390625,-10.49291796875,-9.13280859375,-2.01829296875,-0.19141796875,-4.56801171875,-5.19901171875,-6.05189453125,-0.60034375,-1.74939453125,-4.53392578125,1.88608984375,-1.39584375,4.69045703125,2.8677265625,6.3245625,6.00001171875,6.29798828125,8.43056640625,7.25148828125,8.201765625,6.6341953125,9.00716015625,4.64928125,5.712421875,7.7368984375
-1.0189140625,-2.89380859375,-4.32864453125,-0.5299921875,-2.5540390625,-8.19891796875,-6.37780859375,0.65970703125,0.71258203125,-3.39701171875,-1.69701171875,-2.36989453125,-0.0603437499999999,-1.33239453125,-2.71492578125,5.72008984375,0.53715625,4.63945703125,4.1797265625,9.2155625,8.89001171875,5.85898828125,8.94356640625,8.80448828125,11.098765625,9.0141953125,10.39216015625,5.28928125,7.197421875,9.5298984375
0.2640859375,-1.94080859375,-2.15264453125,0.1640078125,-1.6190390625,-5.98591796875,-3.75380859375,2.08270703125,0.61858203125,-2.73901171875,0.834988281249998,0.204105468749999,-0.45234375,-1.82839453125,-1.84792578125,7.45208984375,1.53815625,3.31445703125,4.0097265625,10.1745625,9.75501171875,4.04298828125,8.06256640625,8.73048828125,11.948765625,9.8391953125,10.26316015625,4.97828125,7.369421875,9.9468984375
1.3230859375,-1.61780859375,-0.63264453125,0.2110078125,-1.3110390625,-4.11191796875,-1.75180859375,2.17270703125,-0.24941796875,-2.48001171875,2.15698828125,1.13510546875,-1.26034375,-2.87239453125,-1.66692578125,6.97008984375,1.54615625,1.26645703125,2.7307265625,9.4675625,8.47301171875,1.25998828125,6.08856640625,7.34048828125,10.783765625,8.9681953125,8.81716015625,3.72828125,6.246421875,8.9828984375
1.9760859375,-1.64480859375,0.0163554687499996,-0.2669921875,-1.3540390625,-2.70691796875,-0.62180859375,1.27670703125,-1.36641796875,-2.36201171875,2.39598828125,0.54410546875,-1.83534375,-3.99239453125,-1.74692578125,4.76508984375,0.76315625,-0.82854296875,0.8737265625,7.7235625,5.49601171875,-1.86501171875,3.41156640625,5.15748828125,8.073765625,6.6281953125,6.40816015625,1.57428125,4.064421875,6.9108984375
2.1100859375,-1.69380859375,-0.20264453125,-0.9049921875,-1.3600390625,-1.80291796875,-0.33780859375,-0.0122929687499997,-2.18241796875,-2.12401171875,1.91198828125,-0.94289453125,-1.76134375,-4.80439453125,-1.72392578125,1.69108984375,-0.463843750000001,-2.43054296875,-1.0852734375,5.6705625,1.64101171875,-4.71901171875,0.39856640625,2.71248828125,4.527765625,3.3161953125,3.43216015625,-1.38571875,1.169421875,4.1318984375
1.8430859375,-1.51480859375,-1.02064453125,-1.1989921875,-0.9550390625,-1.29891796875,-0.60280859375,-1.06229296875,-2.32041796875,-1.56101171875,1.16598828125,-2.49389453125,-1.04234375,-5.10439453125,-1.39992578125,-1.32591015625,-1.77784375,-3.27654296875,-2.8342734375,3.9035625,-2.21598828125,-6.88501171875,-2.65743359375,0.405488281249999,0.849765625,-0.3418046875,0.24316015625,-4.93171875,-2.073578125,1.0238984375
1.5850859375,-0.98880859375,-1.94764453125,-0.6789921875,0.1229609375,-0.941917968749999,-0.949808593749999,-1.39429296875,-1.62141796875,-0.53101171875,0.609988281249999,-3.37289453125,-0.0463437499999997,-4.83739453125,-0.725925781250001,-3.52691015625,-2.90584375,-3.36854296875,-4.2012734375,2.7745625,-5.37198828125,-8.19401171875,-5.49743359375,-1.53351171875,-2.430234375,-3.7368046875,-2.86483984375,-8.69671875,-5.331578125,-2.1171015625
1.8580859375,-0.12180859375,-2.47864453125,0.8670078125,1.9439609375,-0.429917968750001,-0.94080859375,-0.84229296875,-0.10941796875,1.01998828125,0.573988281249998,-3.18289453125,0.72965625,-4.02939453125,0.274074218749999,-4.48591015625,-3.67984375,-2.88154296875,-5.0932734375,2.3815625,-7.42698828125,-8.67701171875,-7.86743359375,-3.01151171875,-5.028234375,-6.3808046875,-5.64683984375,-12.21071875,-8.310578125,-5.0511015625
2.9750859375,0.97019140625,-2.32664453125,3.2410078125,4.3119609375,0.404082031250001,-0.39080859375,0.36670703125,2.01258203125,2.98298828125,1.15598828125,-2.00189453125,0.91865625,-2.79139453125,1.53407421875,-4.20591015625,-4.02484375,-2.08954296875,-5.4862734375,2.5935625,-8.31098828125,-8.49501171875,-9.53843359375,-4.04351171875,-6.898234375,-7.9948046875,-7.92383984375,-15.02671875,-10.775578125,-7.5541015625
4.8430859375,2.07019140625,-1.54264453125,5.8680078125,6.7749609375,1.47508203125,0.53019140625,1.72070703125,4.35058203125,5.02998828125,2.16598828125,-0.331894531250001,0.44765625,-1.36539453125,2.89407421875,-3.12591015625,-3.94484375,-1.31954296875,-5.4632734375,3.0725625,-8.25398828125,-7.90701171875,-10.42043359375,-4.75351171875,-8.193234375,-8.5788046875,-9.62883984375,-16.86071875,-12.597578125,-9.4351015625
6.9930859375,2.91719140625,-0.42564453125,8.0020078125,8.7379609375,2.47808203125,1.40219140625,2.69270703125,6.35358203125,6.66598828125,3.17198828125,1.12710546875,-0.44634375,-0.14139453125,4.04607421875,-1.98391015625,-3.52584375,-0.90754296875,-5.2552734375,3.3345625,-7.70798828125,-7.23801171875,-10.64443359375,-5.37351171875,-9.189234375,-8.4218046875,-10.83483984375,-17.70171875,-13.792578125,-10.6091015625
8.7800859375,3.27719140625,0.67535546875,9.0160078125,9.6819609375,3.04208203125,1.78519140625,3.00370703125,7.44858203125,7.38798828125,3.64398828125,1.77010546875,-1.34234375,0.42360546875,4.55607421875,-1.55491015625,-2.94384375,-1.12454296875,-5.1992734375,2.8655625,-7.21298828125,-6.81401171875,-10.53943359375,-6.19151171875,-10.188234375,-8.0078046875,-11.72783984375,-17.78771875,-14.524578125,-11.1691015625
9.6320859375,3.01019140625,1.48135546875,8.6200078125,9.3609609375,2.86308203125,1.41219140625,2.67470703125,7.24958203125,6.87998828125,3.15098828125,1.30410546875,-1.84134375,-0.0133945312500003,4.00407421875,-2.35791015625,-2.45784375,-2.06354296875,-5.6072734375,1.3115625,-7.22698828125,-6.83301171875,-10.46243359375,-7.41551171875,-11.394234375,-7.8408046875,-12.49283984375,-17.46271875,-15.009578125,-11.3671015625
9.2410859375,2.08819140625,1.78235546875,6.9660078125,7.9059609375,1.80608203125,0.25019140625,1.86770703125,5.76058203125,5.15798828125,1.51798828125,-0.218894531250001,-1.74534375,-1.47339453125,2.19407421875,-4.46091015625,-2.35084375,-3.55254296875,-6.5912734375,-1.3374375,-7.96098828125,-7.22301171875,-10.57243359375,-9.02551171875,-12.801234375,-8.2308046875,-13.17383984375,-16.95771875,-15.368578125,-11.4671015625
7.6860859375,0.60219140625,1.40135546875,4.6060078125,5.7849609375,-0.0279179687499997,-1.57780859375,0.70970703125,3.45458203125,2.59998828125,-1.08101171875,-2.51789453125,-1.09834375,-3.54739453125,-0.68392578125,-7.44991015625,-2.82384375,-5.13554296875,-7.9392734375,-4.6594375,-9.28298828125,-7.61601171875,-10.69043359375,-10.68451171875,-14.144234375,-9.1468046875,-13.57783984375,-16.23371875,-15.503578125,-11.5681015625
5.4120859375,-1.23680859375,0.25035546875,2.3020078125,3.6369609375,-2.31491796875,-3.87480859375,-0.74729296875,1.15558203125,-0.17801171875,-4.16601171875,-5.23389453125,-0.0753437499999996,-5.50139453125,-4.04892578125,-10.57591015625,-3.87384375,-6.20454296875,-9.1412734375,-7.8924375,-10.74898828125,-7.49401171875,-10.36243359375,-11.80451171875,-14.955234375,-10.2028046875,-13.32183984375,-15.01871875,-15.106578125,-11.5051015625
3.0470859375,-3.11380859375,-1.58164453125,0.7150078125,2.0229609375,-4.61791796875,-6.41280859375,-2.45029296875,-0.30441796875,-2.55801171875,-7.10601171875,-8.02089453125,1.12865625,-6.58539453125,-7.10792578125,-13.02491015625,-5.26684375,-6.24854296875,-9.5952734375,-10.1754375,-11.76798828125,-6.46601171875,-9.10243359375,-11.77351171875,-14.748234375,-10.8068046875,-12.01783984375,-13.02371875,-13.837578125,-10.9341015625
1.1190859375,-4.70380859375,-3.83164453125,0.1170078125,1.1989609375,-6.54991796875,-8.92380859375,-4.26829296875,-0.47341796875,-4.15601171875,-9.34201171875,-10.54989453125,2.33765625,-6.39839453125,-9.15092578125,-14.18991015625,-6.61484375,-5.10154296875,-8.8902734375,-10.8534375,-11.83298828125,-4.47601171875,-6.69543359375,-10.23651171875,-13.222234375,-10.4138046875,-9.49883984375,-10.19071875,-11.550578125,-9.5431015625
-0.1589140625,-5.78980859375,-6.17364453125,0.3100078125,1.0269609375,-7.89691796875,-11.09880859375,-6.01629296875,0.49058203125,-4.93301171875,-10.56501171875,-12.49389453125,3.36765625,-5.08839453125,-9.81192578125,-13.86891015625,-7.53884375,-3.03154296875,-7.0212734375,-9.7234375,-10.71798828125,-1.84201171875,-3.37243359375,-7.29651171875,-10.421234375,-8.7958046875,-5.96883984375,-6.80271875,-8.435578125,-7.2811015625
-0.8989140625,-6.34380859375,-8.29764453125,0.7850078125,1.0809609375,-8.65491796875,-12.64080859375,-7.53629296875,1.89258203125,-5.15501171875,-10.79401171875,-13.57189453125,4.00565625,-3.29039453125,-9.19692578125,-12.31691015625,-7.82284375,-0.64254296875,-4.4232734375,-7.1174375,-8.57998828125,0.87798828125,0.22556640625,-3.52551171875,-6.781234375,-6.1918046875,-2.00083984375,-3.39671875,-5.005578125,-4.4511015625
-1.3739140625,-6.48980859375,-9.90564453125,1.0230078125,0.8939609375,-8.98891796875,-13.34980859375,-8.76529296875,2.81958203125,-5.23501171875,-10.32801171875,-13.66289453125,4.07065625,-1.85339453125,-7.81692578125,-10.13991015625,-7.49084375,1.35345703125,-1.8352734375,-3.8144375,-5.93598828125,3.08498828125,3.26656640625,0.19848828125,-3.030234375,-3.2608046875,1.63216015625,-0.55671875,-1.930578125,-1.6431015625
-1.7989140625,-6.39680859375,-10.68464453125,0.7270078125,0.2079609375,-9.11091796875,-13.17380859375,-9.68829296875,2.56658203125,-5.53301171875,-9.57901171875,-12.87989453125,3.50665625,-1.47039453125,-6.35592578125,-8.04291015625,-6.76784375,2.38645703125,-0.0122734375000002,-0.7614375,-3.46998828125,4.29698828125,5.04556640625,3.00648828125,0.0457656249999996,-0.8188046875,4.22216015625,1.28828125,0.211421875,0.5218984375
-2.1919140625,-6.17080859375,-10.38264453125,-0.0849921874999997,-0.9040390625,-9.12591796875,-12.19080859375,-10.22929296875,0.97158203125,-6.17601171875,-8.84601171875,-11.49289453125,2.46765625,-2.36839453125,-5.34592578125,-6.52491015625,-5.93084375,2.21845703125,0.5887265625,1.2975625,-1.74598828125,4.25398828125,5.25556640625,4.36348828125,1.902765625,0.5461953125,5.40816015625,1.99428125,1.159421875,1.6858984375
-2.3939140625,-5.81680859375,-8.96764453125,-1.1609921875,-2.0920390625,-8.96391796875,-10.55580859375,-10.18729296875,-1.50141796875,-7.00301171875,-8.18201171875,-9.77789453125,1.27665625,-4.22539453125,-4.93492578125,-5.67191015625,-5.14084375,0.99745703125,-0.00527343749999964,2.0975625,-0.94098828125,2.98298828125,4.09156640625,4.25548828125,2.450765625,0.7531953125,5.30916015625,1.71128125,1.075421875,1.9258984375
-2.2419140625,-5.30580859375,-6.75964453125,-2.1949921875,-2.9530390625,-8.48991796875,-8.48780859375,-9.34729296875,-4.02041796875,-7.68601171875,-7.44101171875,-7.91289453125,0.26165625,-6.35039453125,-4.89792578125,-5.19591015625,-4.37684375,-0.84954296875,-1.3452734375,1.8955625,-0.80498828125,0.80098828125,2.12156640625,3.13048828125,2.055765625,0.2491953125,4.41816015625,0.77628125,0.420421875,1.6758984375
-1.7809140625,-4.66580859375,-4.40264453125,-3.0149921875,-3.2800390625,-7.71791796875,-6.32280859375,-7.68929296875,-5.83441796875,-7.95901171875,-6.49501171875,-6.01889453125,-0.47534375,-8.06339453125,-4.86192578125,-4.69891015625,-3.49484375,-2.84454296875,-2.8362734375,1.2385625,-0.86398828125,-1.77601171875,-0.00943359375000075,1.61448828125,1.300765625,-0.2778046875,3.30716015625,-0.477718750000001,-0.314578125000001,1.4378984375
-1.3269140625,-4.02780859375,-2.63964453125,-3.6649921875,-3.1910390625,-6.92291796875,-4.50680859375,-5.49429296875,-6.64341796875,-7.80401171875,-5.42701171875,-4.25689453125,-1.17434375,-9.02739453125,-4.59892578125,-3.98391015625,-2.36384375,-4.67554296875,-4.0552734375,0.6395625,-0.72598828125,-4.21801171875,-1.87543359375,0.19648828125,0.664765625,-0.3008046875,2.32416015625,-1.87871875,-0.891578125000001,1.4568984375
-1.2799140625,-3.57680859375,-1.97064453125,-4.3289921875,-3.0320390625,-6.50891796875,-3.48680859375,-3.23629296875,-6.66341796875,-7.44301171875,-4.54901171875,-2.85889453125,-2.30034375,-9.35139453125,-4.16392578125,-3.17091015625,-0.96584375,-6.27454296875,-4.9142734375,0.3575625,-0.28698828125,-6.17901171875,-3.39043359375,-0.94651171875,0.317765625,0.2771953125,1.46916015625,-3.43571875,-1.418578125,1.5858984375
-1.8169140625,-3.41880859375,-2.37864453125,-5.1329921875,-3.1100390625,-6.72691796875,-3.48180859375,-1.33529296875,-6.38241796875,-7.17101171875,-4.20201171875,-2.03789453125,-4.20734375,-9.41839453125,-3.79692578125,-2.58191015625,0.584156249999999,-7.73154296875,-5.5892734375,0.3765625,0.27401171875,-7.58101171875,-4.71743359375,-1.89551171875,0.125765625,1.1281953125,0.51316015625,-5.22171875,-2.218578125,1.3928984375
-2.6859140625,-3.48380859375,-3.29864453125,-5.9999921875,-3.4560390625,-7.46391796875,-4.31480859375,0.0397070312500003,-6.21441796875,-7.15401171875,-4.50001171875,-1.83289453125,-6.78034375,-9.59339453125,-3.69992578125,-2.47691015625,2.09115625,-9.12454296875,-6.3082734375,0.5335625,0.67201171875,-8.54501171875,-6.06843359375,-2.81151171875,-0.183234375000001,1.7401953125,-0.77083984375,-7.22471875,-3.574578125,0.4338984375
-3.2999140625,-3.54780859375,-3.92964453125,-6.6469921875,-3.7870390625,-8.25891796875,-5.42780859375,0.99170703125,-6.27641796875,-7.33301171875,-5.20501171875,-2.03389453125,-9.33334375,-10.00139453125,-3.85992578125,-2.87091015625,3.35715625,-10.40254296875,-7.1642734375,0.6575625,0.70501171875,-9.22601171875,-7.52743359375,-3.78151171875,-0.831234375,1.7111953125,-2.44183984375,-9.27171875,-5.541578125,-1.4871015625
-3.0869140625,-3.37980859375,-3.71664453125,-6.7659921875,-3.7190390625,-8.54891796875,-6.14080859375,1.73370703125,-6.39941796875,-7.49601171875,-5.85301171875,-2.27089453125,-10.87634375,-10.50039453125,-4.05592578125,-3.54791015625,4.22115625,-11.39254296875,-8.0552734375,0.6255625,0.34501171875,-9.68601171875,-8.98243359375,-4.76751171875,-1.892234375,0.9441953125,-4.35383984375,-11.08271875,-7.898578125,-4.1741015625
-1.8739140625,-2.92580859375,-2.70564453125,-6.2499921875,-3.0550390625,-8.02091796875,-6.02380859375,2.35670703125,-6.31641796875,-7.43701171875,-6.05001171875,-2.22789453125,-10.65934375,-10.81839453125,-4.01892578125,-4.22491015625,4.58215625,-11.90354296875,-8.7552734375,0.3475625,-0.30898828125,-9.85801171875,-10.18043359375,-5.65251171875,-3.288234375,-0.3318046875,-6.22883984375,-12.37771875,-10.223578125,-7.0731015625
-0.0389140625000001,-2.36980859375,-1.52064453125,-5.3189921875,-1.9630390625,-6.83591796875,-5.15980859375,2.69270703125,-5.87041796875,-7.10401171875,-5.74001171875,-1.86689453125,-8.63434375,-10.73939453125,-3.63192578125,-4.76791015625,4.40815625,-11.83054296875,-9.0472734375,-0.2584375,-1.14298828125,-9.61601171875,-10.81643359375,-6.30751171875,-4.840234375,-1.6778046875,-7.74483984375,-12.95071875,-12.023578125,-9.4541015625
1.6490859375,-2.05080859375,-0.99264453125,-4.4149921875,-0.9160390625,-5.59791796875,-4.14680859375,2.38970703125,-5.10241796875,-6.63601171875,-5.28801171875,-1.51589453125,-5.51834375,-10.20439453125,-3.03992578125,-5.30791015625,3.74815625,-11.18954296875,-8.8162734375,-1.2774375,-2.11998828125,-8.86601171875,-10.64543359375,-6.64451171875,-6.339234375,-2.6508046875,-8.61583984375,-12.69471875,-12.865578125,-10.6731015625
2.4120859375,-2.28580859375,-1.67664453125,-3.9689921875,-0.4450390625,-5.05791796875,-3.80180859375,1.13470703125,-4.21641796875,-6.27901171875,-5.31501171875,-1.77089453125,-2.42234375,-9.32439453125,-2.59992578125,-6.19991015625,2.70915625,-10.10354296875,-8.0812734375,-2.7684375,-3.29498828125,-7.61901171875,-9.57043359375,-6.64151171875,-7.618234375,-3.0028046875,-8.66583984375,-11.58671875,-12.502578125,-10.4161015625
1.8410859375,-3.20180859375,-3.55164453125,-4.1669921875,-0.8520390625,-5.72991796875,-4.74780859375,-1.12229296875,-3.46241796875,-6.25001171875,-6.38301171875,-3.20089453125,-0.29734375,-8.30839453125,-2.71592578125,-7.84091015625,1.40115625,-8.73754296875,-6.9632734375,-4.7144375,-4.74498828125,-5.98601171875,-7.68143359375,-6.33551171875,-8.574234375,-2.7638046875,-7.85683984375,-9.67771875,-10.941578125,-8.7901015625
0.0750859374999999,-4.67080859375,-6.02664453125,-4.8809921875,-2.0250390625,-7.62591796875,-7.06280859375,-4.09229296875,-3.01541796875,-6.61501171875,-8.68201171875,-6.00989453125,0.46465625,-7.35439453125,-3.60492578125,-10.40591015625,-0.10284375,-7.23254296875,-5.6122734375,-6.9474375,-6.44398828125,-4.09501171875,-5.21743359375,-5.77751171875,-9.142234375,-2.1528046875,-6.28383984375,-7.09171875,-8.436578125,-6.2451015625
-2.2859140625,-6.33480859375,-8.23364453125,-5.7679921875,-3.4610390625,-10.22391796875,-10.20580859375,-7.24029296875,-2.90941796875,-7.23901171875,-11.86701171875,-9.80889453125,0.0866562500000003,-6.56639453125,-5.12292578125,-13.63891015625,-1.73584375,-5.66654296875,-4.1362734375,-9.1034375,-8.15898828125,-2.03001171875,-2.47943359375,-4.96451171875,-9.221234375,-1.3878046875,-4.12283984375,-4.04971875,-5.401578125,-3.3601015625
-4.4629140625,-7.73280859375,-9.43264453125,-6.4639921875,-4.4980390625,-12.67091796875,-13.24280859375,-9.95229296875,-3.03341796875,-7.82401171875,-15.13001171875,-13.68789453125,-0.82134375,-5.92239453125,-6.77392578125,-16.82191015625,-3.35584375,-4.07554296875,-2.5792734375,-10.6464375,-9.43498828125,0.14998828125,0.246566406249999,-3.81951171875,-8.639234375,-0.5358046875,-1.58183984375,-0.881718750000001,-2.291578125,-0.6381015625
-5.8109140625,-8.46480859375,-9.33764453125,-6.7269921875,-4.6230390625,-14.11391796875,-15.23080859375,-11.69529296875,-3.18741796875,-8.03001171875,-17.48101171875,-16.55289453125,-1.58034375,-5.31639453125,-7.88492578125,-18.97291015625,-4.69384375,-2.50854296875,-0.9422734375,-10.9994375,-9.71898828125,2.30198828125,2.73856640625,-2.22951171875,-7.190234375,0.4871953125,1.12216015625,2.00528125,0.495421874999999,1.6158984375
-6.0229140625,-8.34380859375,-8.21364453125,-6.5009921875,-3.6980390625,-14.03891796875,-15.58480859375,-12.16629296875,-3.18841796875,-7.61001171875,-18.13301171875,-17.56889453125,-1.68934375,-4.65139453125,-7.90992578125,-19.21491015625,-5.40584375,-1.07354296875,0.7497265625,-9.7564375,-8.60198828125,4.12298828125,4.81956640625,-0.155511718750001,-4.765234375,1.7711953125,3.75816015625,4.21428125,2.678421875,3.3048984375
-5.1939140625,-7.47680859375,-6.73864453125,-5.8979921875,-2.0190390625,-12.48291796875,-14.25380859375,-11.39829296875,-2.97041796875,-6.52301171875,-16.81101171875,-16.47489453125,-0.95434375,-3.92939453125,-6.68592578125,-17.15691015625,-5.23484375,0.0624570312500001,2.3787265625,-6.8904375,-6.05698828125,5.18898828125,6.33656640625,2.25648828125,-1.495234375,3.2311953125,6.07316015625,5.44028125,4.095421875,4.4538984375
-3.7339140625,-6.20280859375,-5.67064453125,-5.1449921875,-0.1760390625,-9.99591796875,-11.69080859375,-9.77029296875,-2.62541796875,-4.96401171875,-13.85901171875,-13.64189453125,0.45665625,-3.27039453125,-4.51692578125,-13.09191015625,-4.17384375,0.72645703125,3.7377265625,-2.8304375,-2.52998828125,5.13698828125,7.14456640625,4.64048828125,2.189765625,4.5581953125,7.80416015625,5.53728125,4.692421875,5.1188984375
-2.1909140625,-4.94280859375,-5.50464453125,-4.5119921875,1.1949609375,-7.38691796875,-8.63380859375,-7.85829296875,-2.32941796875,-3.27901171875,-10.08901171875,-9.86389453125,2.03465625,-2.85839453125,-2.03092578125,-7.91491015625,-2.49884375,0.82545703125,4.6157265625,1.6355625,1.20201171875,3.88698828125,7.16256640625,6.52048828125,5.656765625,5.3551953125,8.74316015625,4.54828125,4.513421875,5.3338984375
-1.0499140625,-4.00780859375,-6.25164453125,-4.2269921875,1.6879609375,-5.37991796875,-5.82980859375,-6.20929296875,-2.23041796875,-1.83301171875,-6.46501171875,-6.04089453125,3.08165625,-2.82239453125,0.101074218749999,-2.78991015625,-0.63784375,0.42045703125,4.9197265625,5.6235625,4.33201171875,1.75398828125,6.44856640625,7.52548828125,8.290765625,5.3771953125,8.82816015625,2.72128125,3.704421875,5.1238984375
-0.5759140625,-3.48980859375,-7.47264453125,-4.3869921875,1.2959609375,-4.36291796875,-3.79780859375,-5.13529296875,-2.35541796875,-0.85701171875,-3.76301171875,-2.89889453125,3.01765625,-3.15539453125,1.45407421875,1.25808984375,1.03815625,-0.26154296875,4.7467265625,8.4495625,6.32801171875,-0.62801171875,5.24956640625,7.57848828125,9.718765625,4.6901953125,8.20116015625,0.48628125,2.513421875,4.5558984375
-0.7389140625,-3.25680859375,-8.50764453125,-4.9129921875,0.4019609375,-4.28091796875,-2.71980859375,-4.62529296875,-2.57841796875,-0.35701171875,-2.33201171875,-0.853894531250001,1.74565625,-3.68439453125,2.00107421875,3.64708984375,2.36215625,-0.88754296875,4.3587265625,9.8455625,7.07401171875,-2.56901171875,3.95856640625,6.96448828125,9.951765625,3.6521953125,7.19116015625,-1.62071875,1.260421875,3.7698984375
-1.2349140625,-3.03980859375,-8.77564453125,-5.5449921875,-0.4000390625,-4.70991796875,-2.46480859375,-4.39229296875,-2.66741796875,-0.0910117187499999,-2.04701171875,0.0031054687499994,-0.18334375,-4.12339453125,2.08507421875,4.33708984375,3.37215625,-1.12654296875,4.0847265625,10.0055625,6.82601171875,-3.58601171875,3.00456640625,6.22648828125,9.356765625,2.7351953125,6.21316015625,-3.09271875,0.280421875,2.9928984375
-1.6129140625,-2.57480859375,-8.00664453125,-5.9319921875,-0.5640390625,-5.06091796875,-2.71080859375,-4.04529296875,-2.38841796875,0.30898828125,-2.44001171875,-0.164894531250001,-1.77034375,-4.18939453125,2.23907421875,3.71508984375,4.21015625,-0.77054296875,4.1747265625,9.4465625,6.04401171875,-3.54701171875,2.68656640625,5.93048828125,8.489765625,2.3181953125,5.64116015625,-3.61271875,-0.161578125000001,2.4978984375
-1.4819140625,-1.74480859375,-6.33864453125,-5.7749921875,0.1699609375,-4.86591796875,-3.09880859375,-3.32929296875,-1.64541796875,1.12798828125,-2.96201171875,-1.05089453125,-2.10934375,-3.75739453125,2.91507421875,2.36208984375,4.98915625,0.15045703125,4.6717265625,8.7675625,5.18001171875,-2.65701171875,3.04356640625,6.41248828125,7.862765625,2.5431953125,5.67116015625,-3.18071875,0.0354218749999995,2.5078984375
-0.6949140625,-0.67280859375,-4.25664453125,-5.0099921875,1.6589609375,-3.99091796875,-3.37180859375,-2.27429296875,-0.57541796875,2.36898828125,-3.23801171875,-2.32089453125,-0.97734375,-2.97039453125,4.24707421875,0.801089843750001,5.69215625,1.33345703125,5.3617265625,8.3885625,4.52901171875,-1.32901171875,3.81156640625,7.60548828125,7.728765625,3.2891953125,6.23916015625,-2.12971875,0.747421875,3.0778984375
0.5820859375,0.32419140625,-2.37064453125,-3.8639921875,3.4319609375,-2.64591796875,-3.44080859375,-1.15529296875,0.49158203125,3.72198828125,-3.19201171875,-3.67389453125,0.94665625,-2.20639453125,5.96707421875,-0.644910156249999,6.17615625,2.29045703125,5.8377265625,8.4085625,4.16401171875,-0.0140117187500004,4.52756640625,9.04948828125,8.004765625,4.2521953125,7.02916015625,-0.97971875,1.651421875,4.0208984375
1.9820859375,0.90319140625,-1.12064453125,-2.7409921875,4.9479609375,-1.21791796875,-3.34880859375,-0.29329296875,1.21258203125,4.73598828125,-2.97901171875,-4.85989453125,2.45565625,-1.88539453125,7.54807421875,-1.86791015625,6.26515625,2.57145703125,5.6927265625,8.6335625,3.98301171875,0.94298828125,4.75956640625,10.10048828125,8.339765625,5.0971953125,7.61316015625,-0.19671875,2.353421875,4.9598984375
3.1420859375,0.90519140625,-0.59264453125,-1.9909921875,5.8849609375,-0.0509179687499994,-3.16680859375,0.14170703125,1.44058203125,5.08998828125,-2.81001171875,-5.66789453125,2.57365625,-2.21939453125,8.47407421875,-2.89091015625,5.90615625,2.00145703125,4.7317265625,8.7265625,3.79701171875,1.38098828125,4.33956640625,10.23848828125,8.306765625,5.5841953125,7.65616015625,0.00828124999999957,2.559421875,5.4838984375
3.8390859375,0.43419140625,-0.56464453125,-1.7299921875,6.2699609375,0.68008203125,-2.91980859375,0.16170703125,1.30658203125,4.75498828125,-2.80901171875,-5.94489453125,1.15765625,-3.08039453125,8.49107421875,-3.77491015625,5.23415625,0.78845703125,3.0857265625,8.3995625,3.42901171875,1.31998828125,3.45656640625,9.31848828125,7.610765625,5.6191953125,7.07116015625,-0.26171875,2.209421875,5.3388984375
4.0150859375,-0.21880859375,-0.73864453125,-1.8279921875,6.3649609375,0.97208203125,-2.58680859375,-0.11929296875,1.12558203125,3.97598828125,-2.98201171875,-5.62389453125,-1.06734375,-4.07139453125,7.69907421875,-4.54391015625,4.52515625,-0.55554296875,1.1527265625,7.5335625,2.78701171875,0.90998828125,2.56956640625,7.62948828125,6.225765625,5.2241953125,6.05316015625,-0.708718750000001,1.472421875,4.5418984375
3.7450859375,-0.74680859375,-0.94164453125,-2.0299921875,6.4579609375,0.93108203125,-2.13880859375,-0.56529296875,1.19758203125,3.10198828125,-3.25901171875,-4.73089453125,-2.97834375,-4.73739453125,6.44907421875,-5.14991015625,4.04515625,-1.45054296875,-0.5732734375,6.2225625,1.91701171875,0.36798828125,2.18256640625,5.75248828125,4.413765625,4.4881953125,4.97716015625,-1.01871875,0.654421875,3.3748984375
3.2010859375,-0.96280859375,-1.13764453125,-2.0899921875,6.6939609375,0.692082031249999,-1.55980859375,-1.03829296875,1.66258203125,2.40498828125,-3.56501171875,-3.35889453125,-3.64934375,-4.76939453125,5.15307421875,-5.48891015625,3.93315625,-1.48054296875,-1.6922734375,4.7195625,1.00101171875,-0.0600117187500002,2.63456640625,4.30548828125,2.627765625,3.5511953125,4.23516015625,-0.994718750000001,0.0584218749999996,2.2508984375
2.6320859375,-0.83280859375,-1.31664453125,-1.8479921875,7.0639609375,0.36308203125,-0.85180859375,-1.39529296875,2.47058203125,1.97698828125,-3.85501171875,-1.69089453125,-2.71334375,-4.11139453125,4.10707421875,-5.48991015625,4.15715625,-0.53554296875,-2.0142734375,3.3335625,0.27001171875,-0.15801171875,3.97056640625,3.69548828125,1.325765625,2.5891953125,4.08216015625,-0.611718750000001,-0.135578125,1.5378984375
2.3070859375,-0.44280859375,-1.38764453125,-1.2429921875,7.4739609375,-0.00291796874999939,-0.0698085937499995,-1.51129296875,3.46258203125,1.76398828125,-4.13001171875,-0.053894531250001,-0.42234375,-2.91939453125,3.39207421875,-5.22091015625,4.53815625,1.18145703125,-1.5902734375,2.3005625,-0.12998828125,0.17498828125,5.94856640625,3.98848828125,0.773765625,1.7561953125,4.54816015625,0.00828124999999957,0.0704218749999996,1.3948984375
2.4260859375,0.07219140625,-1.20264453125,-0.3129921875,7.8409609375,-0.36791796875,0.64819140625,-1.32729296875,4.49258203125,1.67998828125,-4.39301171875,1.10210546875,2.53065625,-1.44539453125,2.92007421875,-4.91491015625,4.82915625,3.26145703125,-0.6322734375,1.7245625,-0.22398828125,0.87998828125,8.16956640625,4.93948828125,0.952765625,1.1081953125,5.45516015625,0.647281249999999,0.508421875,1.7218984375
3.0360859375,0.61119140625,-0.65764453125,0.8150078125,8.1559609375,-0.66291796875,1.11619140625,-0.88629296875,5.49558203125,1.73598828125,-4.59101171875,1.36210546875,5.29165625,0.0976054687499994,2.59007421875,-4.82291015625,4.81815625,5.28045703125,0.6127265625,1.6115625,-0.16498828125,1.76698828125,10.25956640625,6.18248828125,1.625765625,0.5891953125,6.52916015625,1.09428125,0.931421874999999,2.2378984375
4.0170859375,1.15519140625,0.22935546875,1.9550078125,8.5039609375,-0.766917968750001,1.22319140625,-0.30529296875,6.47858203125,2.09198828125,-4.55601171875,0.59210546875,7.17365625,1.62060546875,2.44107421875,-4.98191015625,4.44515625,6.96045703125,2.0007265625,1.9855625,-0.0659882812500001,2.63198828125,12.02356640625,7.44348828125,2.534765625,0.1291953125,7.55116015625,1.25128125,1.136421875,2.6498984375
5.1740859375,1.75819140625,1.31735546875,2.9480078125,9.0279609375,-0.50191796875,1.08119140625,0.30970703125,7.46358203125,2.97498828125,-4.02701171875,-0.920894531250001,7.91265625,3.14260546875,2.67607421875,-5.09191015625,3.85215625,8.25445703125,3.5207265625,2.9495625,0.13301171875,3.34998828125,13.46956640625,8.66648828125,3.569765625,-0.2468046875,8.44216015625,1.18028125,1.062421875,2.8038984375
6.3650859375,2.48719140625,2.41635546875,3.7310078125,9.8499609375,0.311082031250001,1.04519140625,0.93170703125,8.43558203125,4.50398828125,-2.76401171875,-2.55589453125,7.74465625,4.69360546875,3.53507421875,-4.63591015625,3.32715625,9.28345703125,5.2287265625,4.6215625,0.65001171875,3.89898828125,14.71156640625,9.95948828125,4.790765625,-0.3918046875,9.24816015625,1.06228125,0.815421875,2.7358984375
7.5460859375,3.35119140625,3.36535546875,4.3580078125,10.9869609375,1.74608203125,1.55019140625,1.59570703125,9.32958203125,6.53198828125,-0.720011718750001,-3.63989453125,7.25665625,6.21160546875,5.10207421875,-3.19991015625,3.15015625,10.18945703125,7.1117265625,6.9845625,1.69901171875,4.29398828125,15.81556640625,11.43448828125,6.318765625,-0.1228046875,10.04216015625,1.08328125,0.594421875,2.6208984375
8.6900859375,4.28519140625,4.09935546875,4.9250078125,12.2999609375,3.64708203125,2.82819140625,2.28770703125,10.02858203125,8.58998828125,1.83598828125,-3.72889453125,7.09065625,7.48460546875,7.17707421875,-0.76091015625,3.44915625,10.99145703125,8.9827265625,9.7825625,3.30601171875,4.54498828125,16.71256640625,13.05548828125,8.177765625,0.6511953125,10.82716015625,1.31128125,0.573421875,2.6558984375
9.6890859375,5.18819140625,4.66535546875,5.4810078125,13.5029609375,5.60008203125,4.71319140625,2.89070703125,10.37858203125,10.03798828125,4.35198828125,-2.76489453125,7.64965625,8.19560546875,9.31407421875,2.23408984375,4.15215625,11.54645703125,10.4757265625,12.5375625,5.24301171875,4.63898828125,17.20156640625,14.58048828125,10.208765625,1.8461953125,11.49416015625,1.64528125,0.797421875,2.9528984375
10.3520859375,5.98019140625,5.20135546875,5.9860078125,14.2659609375,7.08508203125,6.67619140625,3.24870703125,10.23458203125,10.34298828125,6.19498828125,-1.02989453125,8.96165625,8.04460546875,10.98007421875,5.06008984375,5.05715625,11.62045703125,11.1557265625,14.7035625,7.10901171875,4.56798828125,17.03456640625,15.63748828125,12.093765625,3.2241953125,11.85216015625,1.84728125,1.144421875,3.4728984375
10.5350859375,6.63019140625,5.86635546875,6.3540078125,14.3629609375,7.74208203125,8.10819140625,3.30170703125,9.56058203125,9.35998828125,6.93998828125,1.01510546875,10.73265625,6.91560546875,11.77307421875,7.04108984375,5.96615625,11.03645703125,10.7087265625,15.8645625,8.51301171875,4.32698828125,16.04056640625,15.87648828125,13.462765625,4.4901953125,11.70316015625,1.65928125,1.387421875,4.0338984375
10.3000859375,7.12919140625,6.73635546875,6.5330078125,13.8179609375,7.56808203125,8.67119140625,3.17370703125,8.52858203125,7.44398828125,6.58098828125,2.89510546875,12.49065625,4.98660546875,11.59207421875,7.83708984375,6.79215625,9.79845703125,9.1057265625,15.8795625,9.21801171875,3.88998828125,14.21556640625,15.12248828125,14.021765625,5.3991953125,10.92016015625,0.93428125,1.303421875,4.3838984375
9.9900859375,7.44219140625,7.72835546875,6.5600078125,12.9439609375,6.93408203125,8.48819140625,3.13670703125,7.53858203125,5.33298828125,5.54298828125,4.25410546875,13.71565625,2.70660546875,10.67907421875,7.54008984375,7.58015625,8.11445703125,6.6507265625,14.9225625,9.19601171875,3.16098828125,11.73256640625,13.45348828125,13.643765625,5.8331953125,9.49016015625,-0.30771875,0.769421874999999,4.2988984375
10.1240859375,7.48819140625,8.60635546875,6.5520078125,12.2159609375,6.41708203125,8.04319140625,3.49470703125,7.08958203125,3.85298828125,4.48098828125,4.91010546875,13.93765625,0.637605468749999,9.49907421875,6.57208984375,8.43015625,6.30145703125,3.8707265625,13.3855625,8.58101171875,1.99098828125,8.87756640625,11.15048828125,12.378765625,5.8181953125,7.49816015625,-1.90671875,-0.207578125,3.6488984375
11.1530859375,7.18319140625,9.10835546875,6.6430078125,12.0449609375,6.52508203125,7.88119140625,4.45170703125,7.56258203125,3.57998828125,3.96698828125,4.87310546875,12.88065625,-0.783394531250001,8.51307421875,5.43208984375,9.42515625,4.63845703125,1.2727265625,11.7015625,7.57801171875,0.25798828125,5.93156640625,8.56248828125,10.408765625,5.4721953125,5.08816015625,-3.66571875,-1.523578125,2.4308984375
13.1910859375,6.52519140625,9.11935546875,6.9010078125,12.5609609375,7.44408203125,8.28519140625,6.00970703125,9.00458203125,4.58798828125,4.21698828125,4.31710546875,10.61965625,-1.44239453125,7.95407421875,4.45808984375,10.57915625,3.24745703125,-0.8832734375,10.1495625,6.37801171875,-2.01801171875,3.06556640625,5.94948828125,7.973765625,4.9451953125,2.41416015625,-5.43971875,-3.042578125,0.7608984375
15.8970859375,5.63819140625,8.77635546875,7.2880078125,13.5419609375,8.93308203125,9.14319140625,7.94770703125,11.06158203125,6.41198828125,5.00698828125,3.51710546875,7.63865625,-1.59939453125,7.73307421875,3.70208984375,11.84915625,2.05845703125,-2.6932734375,8.7615625,5.11901171875,-4.63201171875,0.29256640625,3.39548828125,5.321765625,4.3581953125,-0.38083984375,-7.17671875,-4.640578125,-1.1521015625
15.8970859375,5.63819140625,8.77635546875,7.2880078125,13.5419609375,8.93308203125,9.14319140625,7.94770703125,11.06158203125,6.41198828125,5.00698828125,3.51710546875,7.63865625,-1.59939453125,7.73307421875,3.70208984375,11.84915625,2.05845703125,-2.6932734375,8.7615625,5.11901171875,-4.63201171875,0.29256640625,3.39548828125,5.321765625,4.3581953125,-0.38083984375,-7.17671875,-4.640578125,-1.1521015625
