"Fp1","Fpz","Fp2","F7","F3","Fz","F4","F8","FC5","FC1","FC2","FC6","T7","C3","Cz","C4","T8","CP5","CP1","CP2","CP6","P7","P3","Pz","P4","P8","POz","O1","Oz","O2"
-47.16954296875,-63.03215234375,-41.81706640625,-28.99296484375,-58.513640625,-75.77553515625,-48.5883125,20.77545703125,-71.70294921875,-102.2284453125,-40.3362109375,-29.310640625,-53.0535546875,-96.7461796875,-58.94636328125,-67.94794921875,76.2498359375,-54.41452734375,-25.45824609375,-41.6937421875,-43.12964453125,-109.14933203125,-53.210671875,-59.74504296875,-69.40287890625,-109.81411328125,-76.88176171875,-114.78495703125,-127.68591796875,-91.02298046875
-42.77954296875,-63.07915234375,-40.32206640625,-25.83796484375,-55.314640625,-73.45353515625,-46.8683125,22.25645703125,-68.65494921875,-99.8794453125,-38.8232109375,-28.054640625,-51.9625546875,-93.5541796875,-57.04936328125,-66.18994921875,74.6408359375,-52.96752734375,-22.90124609375,-40.0247421875,-42.37264453125,-107.28433203125,-51.015671875,-58.03504296875,-66.79387890625,-109.59411328125,-73.82376171875,-111.57795703125,-123.94391796875,-86.15098046875
-40.08254296875,-62.29815234375,-38.54106640625,-23.39096484375,-53.233640625,-71.65853515625,-45.9033125,23.06045703125,-66.46494921875,-98.0594453125,-38.0262109375,-27.438640625,-51.4415546875,-91.0851796875,-55.97736328125,-65.24194921875,73.3878359375,-51.76152734375,-20.87924609375,-38.9617421875,-41.69664453125,-105.60333203125,-48.778671875,-56.12104296875,-64.55287890625,-108.55311328125,-70.45676171875,-107.31995703125,-119.30791796875,-81.22698046875
-39.32354296875,-60.96515234375,-36.83006640625,-21.97196484375,-52.398640625,-70.62553515625,-45.9613125,23.01745703125,-65.27894921875,-97.0204453125,-38.2632109375,-27.699640625,-51.6185546875,-89.5721796875,-56.03536328125,-65.33094921875,72.3478359375,-50.99852734375,-19.65124609375,-38.7467421875,-41.25164453125,-104.25833203125,-46.794671875,-54.32304296875,-62.93987890625,-106.84511328125,-67.09376171875,-102.32495703125,-114.03791796875,-76.60198046875
-40.18754296875,-59.66815234375,-35.76406640625,-21.74696484375,-52.598640625,-70.45353515625,-47.0753125,22.09245703125,-65.03394921875,-96.8574453125,-39.6212109375,-28.871640625,-52.4835546875,-89.0891796875,-57.27236328125,-66.43394921875,71.2558359375,-50.84652734375,-19.38524609375,-39.4677421875,-41.18864453125,-103.38533203125,-45.460671875,-53.09504296875,-62.14287890625,-104.92011328125,-64.23676171875,-97.36695703125,-108.78091796875,-72.79698046875
-41.89054296875,-58.97515234375,-35.86206640625,-22.60396484375,-53.408640625,-71.02953515625,-48.9793125,20.37245703125,-65.50594921875,-97.4314453125,-41.8372109375,-30.729640625,-53.8945546875,-89.5361796875,-59.40836328125,-68.26094921875,69.8838359375,-51.34852734375,-20.09324609375,-41.0027421875,-41.57564453125,-103.03733203125,-45.075671875,-52.78604296875,-62.17887890625,-103.28711328125,-62.34076171875,-93.30695703125,-104.27791796875,-70.29298046875
-43.47254296875,-59.18315234375,-37.34306640625,-24.13196484375,-54.374640625,-72.03353515625,-51.1813125,18.06345703125,-66.37794921875,-98.4074453125,-44.3742109375,-32.855640625,-55.5755546875,-90.6491796875,-61.92236328125,-70.34694921875,68.1568359375,-52.37152734375,-21.62724609375,-43.0427421875,-42.36264453125,-103.12733203125,-45.697671875,-53.47804296875,-62.88787890625,-102.29111328125,-61.60676171875,-90.70795703125,-101.07191796875,-69.33198046875
-44.19754296875,-60.19615234375,-39.97606640625,-25.75996484375,-55.170640625,-73.05053515625,-53.1453125,15.48545703125,-67.31794921875,-99.4024453125,-46.6232109375,-34.793640625,-57.1085546875,-92.0511796875,-64.24536328125,-72.22194921875,66.1768359375,-53.63252734375,-23.73024609375,-45.1937421875,-43.39364453125,-103.41533203125,-47.108671875,-54.97304296875,-63.99787890625,-101.98411328125,-61.91876171875,-89.61295703125,-99.31891796875,-69.79898046875
-43.85054296875,-61.56615234375,-43.08806640625,-26.98996484375,-55.673640625,-73.72153515625,-54.4863125,13.01345703125,-68.05594921875,-100.1254453125,-48.1282109375,-36.212640625,-57.9775546875,-93.3451796875,-65.96036328125,-73.57094921875,64.1558359375,-54.78652734375,-26.09924609375,-47.1037421875,-44.44164453125,-103.54233203125,-48.891671875,-56.88604296875,-65.21087890625,-102.11511328125,-62.90676171875,-89.54395703125,-98.74691796875,-71.22998046875
-42.75054296875,-62.68415234375,-45.77106640625,-27.56596484375,-55.904640625,-73.86253515625,-55.0573125,11.01445703125,-68.42394921875,-100.4454453125,-48.7192109375,-36.993640625,-57.7135546875,-94.1831796875,-66.88936328125,-74.28994921875,62.3208359375,-55.51952734375,-28.42524609375,-48.5567421875,-45.27364453125,-103.12433203125,-50.555671875,-58.78404296875,-66.26687890625,-102.23511328125,-64.07976171875,-89.72195703125,-98.77691796875,-72.93998046875
-41.48654296875,-63.05115234375,-47.20206640625,-27.50296484375,-55.931640625,-73.49153515625,-54.9303125,9.76345703125,-68.35094921875,-100.3854453125,-48.5362109375,-37.226640625,-56.1045546875,-94.3311796875,-67.08636328125,-74.45594921875,60.8188359375,-55.63752734375,-30.42024609375,-49.5057421875,-45.73264453125,-101.89033203125,-51.679671875,-60.31504296875,-66.98887890625,-101.89211328125,-64.98776171875,-89.39395703125,-98.76891796875,-74.26598046875
-40.59854296875,-62.48115234375,-46.93206640625,-26.98196484375,-55.803640625,-72.78853515625,-54.3253125,9.34845703125,-67.84494921875,-100.0504453125,-47.9302109375,-37.142640625,-53.3445546875,-93.7211796875,-66.75936328125,-74.24694921875,59.6638359375,-55.10552734375,-31.85424609375,-50.0577421875,-45.79564453125,-99.79233203125,-52.027671875,-61.29404296875,-67.32687890625,-100.84111328125,-65.36076171875,-88.14295703125,-98.29591796875,-74.82698046875
-40.36354296875,-61.14715234375,-45.03106640625,-26.22596484375,-55.557640625,-72.00653515625,-53.5143125,9.60845703125,-66.98894921875,-99.5374453125,-47.3002109375,-37.006640625,-50.0225546875,-92.4721796875,-66.16736328125,-73.85894921875,58.7568359375,-54.04452734375,-32.61524609375,-50.4087421875,-45.57764453125,-97.05133203125,-51.600671875,-61.72204296875,-67.36687890625,-99.15611328125,-65.17876171875,-86.04795703125,-97.32391796875,-74.68698046875
-40.74154296875,-59.47815234375,-42.06606640625,-25.40796484375,-55.224640625,-71.35953515625,-52.7373125,10.18345703125,-65.90794921875,-98.8774453125,-46.9212109375,-37.017640625,-46.9155546875,-90.8451796875,-65.53636328125,-73.43394921875,57.9728359375,-52.68252734375,-32.73524609375,-50.7477421875,-45.24564453125,-94.09933203125,-50.620671875,-61.73804296875,-67.27687890625,-97.18411328125,-64.65276171875,-83.64095703125,-96.19391796875,-74.32098046875
-41.42754296875,-57.99215234375,-38.94506640625,-24.62296484375,-54.814640625,-70.92553515625,-52.1563125,10.66745703125,-64.72694921875,-98.0404453125,-46.8672109375,-37.243640625,-44.7015546875,-89.1291796875,-64.98636328125,-73.01294921875,57.2488359375,-51.28552734375,-32.37524609375,-51.1387421875,-44.91364453125,-91.46533203125,-49.448671875,-61.52704296875,-67.20587890625,-95.35711328125,-64.12676171875,-81.69395703125,-95.45691796875,-74.37098046875
-42.02654296875,-57.12015234375,-36.62706640625,-23.91296484375,-54.308640625,-70.62053515625,-51.8313125,10.77845703125,-63.54194921875,-96.9964453125,-47.0072109375,-37.618640625,-43.7305546875,-87.5351796875,-64.50436328125,-72.52394921875,56.6098359375,-50.09952734375,-31.75324609375,-51.4657421875,-44.56564453125,-89.61233203125,-48.467671875,-61.24304296875,-67.18787890625,-93.98111328125,-63.92476171875,-80.92195703125,-95.61691796875,-75.32698046875
-42.24154296875,-57.04115234375,-35.77406640625,-23.29696484375,-53.690640625,-70.25853515625,-51.7223125,10.45545703125,-62.43394921875,-95.7574453125,-47.0772109375,-37.967640625,-43.9345546875,-86.1781796875,-63.95336328125,-71.82394921875,56.1308359375,-49.29252734375,-31.06624609375,-51.4687421875,-44.05464453125,-88.79833203125,-47.956671875,-60.95404296875,-67.10087890625,-93.09311328125,-64.21276171875,-81.69695703125,-96.90691796875,-77.26398046875
-41.98354296875,-57.60415234375,-36.48306640625,-22.77696484375,-52.959640625,-69.63553515625,-51.6913125,9.84445703125,-61.47394921875,-94.3804453125,-46.7672109375,-38.060640625,-44.8715546875,-85.0931796875,-63.11936328125,-70.75394921875,55.8728359375,-48.91252734375,-30.41224609375,-50.8577421875,-43.18064453125,-88.98133203125,-47.994671875,-60.63204296875,-66.71487890625,-92.44611328125,-64.92576171875,-83.89895703125,-99.15891796875,-79.76598046875
-41.32654296875,-58.41615234375,-38.24406640625,-22.31296484375,-52.119640625,-68.58353515625,-51.5303125,9.23345703125,-60.68694921875,-92.9274453125,-45.8452109375,-37.694640625,-45.8925546875,-84.2681796875,-61.81836328125,-69.20694921875,55.8268359375,-48.87052734375,-29.75924609375,-49.4577421875,-41.80664453125,-89.84333203125,-48.425671875,-60.17004296875,-65.80487890625,-91.61411328125,-65.80776171875,-86.95995703125,-101.83991796875,-82.05898046875
-40.40954296875,-59.03715234375,-40.15806640625,-21.81596484375,-51.171640625,-67.02553515625,-51.0363125,8.94245703125,-60.01594921875,-91.4344453125,-44.2722109375,-36.768640625,-46.3695546875,-83.6481796875,-59.99336328125,-67.18994921875,55.8988359375,-48.96652734375,-28.98524609375,-47.3137421875,-39.96464453125,-90.92633203125,-48.935671875,-59.44304296875,-64.27887890625,-90.19711328125,-66.54676171875,-90.12195703125,-104.25191796875,-83.32398046875
-39.39254296875,-59.15515234375,-41.30506640625,-21.22096484375,-50.128640625,-65.00753515625,-50.1173125,9.20245703125,-59.35094921875,-89.8924453125,-42.2412109375,-35.334640625,-45.9145546875,-83.1371796875,-57.77736328125,-64.84594921875,55.9188359375,-48.96652734375,-27.97224609375,-44.7077421875,-37.89464453125,-91.80733203125,-49.193671875,-58.37004296875,-62.23087890625,-88.01411328125,-66.92176171875,-92.73095703125,-105.80391796875,-83.03498046875
-38.46154296875,-58.64015234375,-41.10506640625,-20.54196484375,-49.031640625,-62.72653515625,-48.8603125,10.07445703125,-58.59294921875,-88.2454453125,-40.0972109375,-33.583640625,-44.4945546875,-82.5831796875,-55.44436328125,-62.41894921875,55.7028359375,-48.67052734375,-26.69824609375,-42.0557421875,-35.95764453125,-92.20533203125,-48.977671875,-56.94104296875,-59.90687890625,-85.19511328125,-66.86576171875,-94.41895703125,-106.20091796875,-81.15098046875
-37.80354296875,-57.52415234375,-39.53406640625,-19.88496484375,-47.939640625,-60.49153515625,-47.5053125,11.43445703125,-57.70894921875,-86.4344453125,-38.1912109375,-31.790640625,-42.3875546875,-81.7791796875,-53.29436328125,-60.16694921875,55.1118359375,-47.97152734375,-25.25124609375,-39.7327421875,-34.48664453125,-91.96433203125,-48.222671875,-55.19304296875,-57.58087890625,-82.14111328125,-66.41376171875,-95.07495703125,-105.44791796875,-78.06698046875
-37.51854296875,-55.94615234375,-37.09406640625,-19.38596484375,-46.912640625,-58.64853515625,-46.3453125,13.02045703125,-56.74794921875,-84.4744453125,-36.7652109375,-30.252640625,-40.0345546875,-80.5261796875,-51.53836328125,-58.27394921875,54.0948359375,-46.87752734375,-23.78824609375,-37.9367421875,-33.64764453125,-90.99333203125,-46.987671875,-53.18504296875,-55.44787890625,-79.35911328125,-65.59176171875,-94.68895703125,-103.72391796875,-74.38498046875
-37.55354296875,-54.09815234375,-34.57606640625,-19.14596484375,-46.010640625,-57.47853515625,-45.6063125,14.46945703125,-55.84494921875,-82.5164453125,-35.8972109375,-29.210640625,-37.8705546875,-78.7541796875,-50.25236328125,-56.81394921875,52.6878359375,-45.51352734375,-22.47024609375,-36.6517421875,-33.40664453125,-89.24633203125,-45.386671875,-50.97904296875,-53.58487890625,-77.27411328125,-64.35576171875,-93.21695703125,-101.22591796875,-70.65198046875
-37.71554296875,-52.17315234375,-32.71206640625,-19.18596484375,-45.320640625,-57.11153515625,-45.3693125,15.38345703125,-55.17694921875,-80.8274453125,-35.5312109375,-28.775640625,-36.2295546875,-76.6201796875,-49.40336328125,-55.78494921875,51.0018359375,-44.08352734375,-21.42124609375,-35.7457421875,-33.58364453125,-86.77333203125,-43.542671875,-48.65904296875,-51.97787890625,-76.09111328125,-62.60176171875,-90.56795703125,-98.08491796875,-67.21298046875
-37.73354296875,-50.32915234375,-31.89606640625,-19.42796484375,-44.923640625,-57.46353515625,-45.5393125,15.44545703125,-54.88694921875,-79.6744453125,-35.5292109375,-28.893640625,-35.3335546875,-74.4801796875,-48.91136328125,-55.15194921875,49.2008359375,-42.80952734375,-20.70824609375,-35.0857421875,-33.96164453125,-83.78033203125,-41.578671875,-46.34604296875,-50.58487890625,-75.75211328125,-60.24776171875,-86.71295703125,-94.38391796875,-64.18098046875
-37.33454296875,-48.68015234375,-32.07506640625,-19.69896484375,-44.831640625,-58.24853515625,-45.8843125,14.56845703125,-54.97594921875,-79.1814453125,-35.7492109375,-29.399640625,-35.3135546875,-72.7191796875,-48.69236328125,-54.87794921875,47.4668359375,-41.85452734375,-20.33024609375,-34.6197421875,-34.37764453125,-80.60133203125,-39.613671875,-44.19704296875,-49.37787890625,-75.99911328125,-57.30876171875,-81.79095703125,-90.19591796875,-61.50498046875
-36.33854296875,-47.28415234375,-32.80906640625,-19.78096484375,-44.949640625,-59.06253515625,-46.1223125,12.96945703125,-55.27194921875,-79.2524453125,-36.0762109375,-30.102640625,-36.1975546875,-71.5731796875,-48.68736328125,-54.91894921875,45.9488359375,-41.26152734375,-20.23124609375,-34.3857421875,-34.75464453125,-77.59833203125,-37.762671875,-42.37104296875,-48.36987890625,-76.48111328125,-53.92676171875,-76.13695703125,-85.62891796875,-59.05598046875
-34.73554296875,-46.11815234375,-33.44506640625,-19.50696484375,-45.108640625,-59.54753515625,-46.0283125,11.08745703125,-55.51094921875,-79.5954453125,-36.4242109375,-30.857640625,-37.8215546875,-71.0521796875,-48.86336328125,-55.21794921875,44.6918359375,-40.95852734375,-20.32524609375,-34.4707421875,-35.10464453125,-75.02933203125,-36.130671875,-40.99204296875,-47.60487890625,-76.88411328125,-50.34876171875,-70.22695703125,-80.83591796875,-56.72398046875
-32.70354296875,-45.07815234375,-33.35806640625,-18.84096484375,-45.135640625,-59.51353515625,-45.5003125,9.40945703125,-55.47494921875,-79.8514453125,-36.7172109375,-31.568640625,-39.7555546875,-70.9851796875,-49.20036328125,-55.68894921875,43.6158359375,-40.80852734375,-20.53424609375,-34.9357421875,-35.47764453125,-72.99733203125,-34.815671875,-40.11304296875,-47.13587890625,-77.00711328125,-46.85876171875,-64.57895703125,-76.01591796875,-54.47398046875
-30.53854296875,-44.05215234375,-32.19106640625,-17.88096484375,-44.918640625,-58.97353515625,-44.5763125,8.30445703125,-55.08194921875,-79.7564453125,-36.8912109375,-32.157640625,-41.3485546875,-71.1321796875,-49.66436328125,-56.21794921875,42.5748359375,-40.69752734375,-20.80324609375,-35.7387421875,-35.91864453125,-71.49333203125,-33.905671875,-39.69004296875,-46.97887890625,-76.78011328125,-43.72276171875,-59.66995703125,-71.39991796875,-52.34898046875
-28.53754296875,-42.98615234375,-30.01206640625,-16.81096484375,-44.433640625,-58.09153515625,-43.4123125,7.91545703125,-54.38894921875,-79.2384453125,-36.9142109375,-32.556640625,-41.9275546875,-71.2851796875,-50.18236328125,-56.67994921875,41.4548359375,-40.60152734375,-21.09024609375,-36.7027421875,-36.43964453125,-70.46833203125,-33.467671875,-39.59004296875,-47.08787890625,-76.23811328125,-41.13476171875,-55.85295703125,-67.22991796875,-50.44198046875
-26.94854296875,-41.92515234375,-27.30406640625,-15.84096484375,-43.752640625,-57.09153515625,-42.2483125,8.10445703125,-53.55294921875,-78.4214453125,-36.7972109375,-32.738640625,-41.0995546875,-71.3301796875,-50.64036328125,-56.99294921875,40.2348359375,-40.58152734375,-21.37124609375,-37.5797421875,-37.01664453125,-69.88433203125,-33.506671875,-39.62304296875,-47.36387890625,-75.47811328125,-39.20376171875,-53.29295703125,-63.73191796875,-48.85598046875
-25.94654296875,-40.99315234375,-24.81606640625,-15.15096484375,-43.004640625,-56.16553515625,-41.3483125,8.49245703125,-52.77394921875,-77.5224453125,-36.5922109375,-32.757640625,-38.9895546875,-71.2411796875,-50.92936328125,-57.15294921875,38.9768359375,-40.71952734375,-21.64524609375,-38.1677421875,-37.61964453125,-69.71133203125,-33.959671875,-39.62704296875,-47.70387890625,-74.63711328125,-37.97276171875,-51.97395703125,-61.09591796875,-47.69298046875
-25.62454296875,-40.38315234375,-23.33306640625,-14.83596484375,-42.295640625,-55.39953515625,-40.9063125,8.59845703125,-52.21094921875,-76.7374453125,-36.3762109375,-32.743640625,-36.2655546875,-71.0311796875,-50.99736328125,-57.22594921875,37.7488359375,-41.05252734375,-21.95824609375,-38.4077421875,-38.22664453125,-69.90033203125,-34.730671875,-39.54804296875,-48.05387890625,-73.86411328125,-37.47276171875,-51.77895703125,-59.47291796875,-47.07398046875
-25.96954296875,-40.29815234375,-23.41106640625,-14.86496484375,-41.633640625,-54.74453515625,-40.9543125,8.07245703125,-51.90594921875,-76.1604453125,-36.2162109375,-32.829640625,-33.8845546875,-70.6921796875,-50.88136328125,-57.27494921875,36.5888359375,-41.52752734375,-22.38124609375,-38.3957421875,-38.81864453125,-70.36733203125,-35.737671875,-39.48204296875,-48.41887890625,-73.27711328125,-37.75476171875,-52.59295703125,-58.98191796875,-47.13698046875
-26.86354296875,-40.81815234375,-25.11406640625,-15.07596484375,-40.944640625,-54.05753515625,-41.3173125,6.86745703125,-51.73794921875,-75.7424453125,-36.1052109375,-33.029640625,-32.6535546875,-70.1791796875,-50.66536328125,-57.28694921875,35.5048359375,-41.99952734375,-22.97424609375,-38.2997421875,-39.33264453125,-70.97133203125,-36.921671875,-39.61804296875,-48.81487890625,-72.90811328125,-38.86776171875,-54.32295703125,-59.67291796875,-47.98398046875
-28.08954296875,-41.77815234375,-27.90706640625,-15.22696484375,-40.124640625,-53.18753515625,-41.6483125,5.29045703125,-51.44594921875,-75.3084453125,-35.9302109375,-33.170640625,-32.8305546875,-69.4201796875,-50.40136328125,-57.14494921875,34.5288359375,-42.25952734375,-23.72424609375,-38.2377421875,-39.62264453125,-71.49533203125,-38.199671875,-40.10104296875,-49.19387890625,-72.66311328125,-40.75976171875,-56.81495703125,-61.44991796875,-49.58698046875
-29.31354296875,-42.79315234375,-30.83206640625,-15.07596484375,-39.106640625,-52.05553515625,-41.5733125,3.88045703125,-50.71994921875,-74.6384453125,-35.5192109375,-32.951640625,-33.9915546875,-68.3511796875,-50.06036328125,-56.67594921875,33.7398359375,-42.09252734375,-24.51524609375,-38.2027421875,-39.49364453125,-71.66533203125,-39.407671875,-40.89904296875,-49.43187890625,-72.36211328125,-43.19376171875,-59.75395703125,-64.02691796875,-51.72998046875
-30.13354296875,-43.46815234375,-32.94906640625,-14.47896484375,-37.886640625,-50.69553515625,-40.8823125,3.16445703125,-49.34294921875,-73.5914453125,-34.7772109375,-32.130640625,-35.2565546875,-66.9711796875,-49.57036328125,-55.76594921875,33.2328359375,-41.38852734375,-25.18124609375,-38.0867421875,-38.80864453125,-71.24233203125,-40.330671875,-41.79904296875,-49.39287890625,-71.83511328125,-45.77476171875,-62.68795703125,-66.96791796875,-54.07198046875
-30.25754296875,-43.61315234375,-33.77706640625,-13.49596484375,-36.558640625,-49.26553515625,-39.6583125,3.38945703125,-47.34394921875,-72.2184453125,-33.7982109375,-30.693640625,-35.7425546875,-65.4051796875,-48.90636328125,-54.46794921875,33.0678359375,-40.22852734375,-25.59624609375,-37.7877421875,-37.59564453125,-70.15333203125,-40.795671875,-42.51004296875,-49.02687890625,-71.03511328125,-48.07976171875,-65.15395703125,-69.80791796875,-56.27198046875
-29.72554296875,-43.30115234375,-33.47606640625,-12.43796484375,-35.336640625,-48.02853515625,-38.2543125,4.37645703125,-45.07994921875,-70.7754453125,-32.8552109375,-28.893640625,-35.0015546875,-63.9201796875,-48.15636328125,-53.01694921875,33.2248359375,-38.89452734375,-25.75524609375,-37.3037421875,-36.05264453125,-68.56833203125,-40.768671875,-42.81204296875,-48.40587890625,-70.04811328125,-49.80576171875,-66.82395703125,-72.16191796875,-58.08298046875
-28.93554296875,-42.77415234375,-32.67806640625,-11.78096484375,-34.507640625,-47.26253515625,-37.1113125,5.60245703125,-43.14994921875,-69.6214453125,-32.2722109375,-27.144640625,-33.2085546875,-62.8451796875,-47.50036328125,-51.73394921875,33.6038359375,-37.75152734375,-25.76424609375,-36.7477421875,-34.45464453125,-66.82733203125,-40.367671875,-42.65004296875,-47.66387890625,-69.00811328125,-50.83676171875,-67.54395703125,-73.75791796875,-59.33098046875
-28.40654296875,-42.30015234375,-32.11806640625,-11.93296484375,-34.303640625,-47.14553515625,-36.5533125,6.47945703125,-42.13194921875,-69.0494453125,-32.2712109375,-25.854640625,-31.0405546875,-62.3841796875,-47.11036328125,-50.88194921875,34.0328359375,-37.07052734375,-25.76324609375,-36.2797421875,-33.04364453125,-65.25233203125,-39.785671875,-42.13404296875,-46.91087890625,-67.99111328125,-51.20976171875,-67.29095703125,-74.41191796875,-59.85398046875
-28.47954296875,-42.07215234375,-32.26306640625,-12.99096484375,-34.780640625,-47.67153515625,-36.6643125,6.61145703125,-42.30294921875,-69.1324453125,-32.8892109375,-25.289640625,-29.3215546875,-62.4851796875,-47.08136328125,-50.58194921875,34.2758359375,-36.89052734375,-25.84424609375,-36.0397421875,-31.97564453125,-63.99533203125,-39.184671875,-41.48404296875,-46.20087890625,-66.99511328125,-51.04676171875,-66.11895703125,-74.02591796875,-59.49498046875
-29.19354296875,-42.13915234375,-33.12006640625,-14.63896484375,-35.755640625,-48.64053515625,-37.3213125,5.91345703125,-43.48194921875,-69.6604453125,-33.9912109375,-25.519640625,-28.5985546875,-62.8251796875,-47.40136328125,-50.81494921875,34.0678359375,-36.99452734375,-26.02324609375,-36.1097421875,-31.34964453125,-62.98933203125,-38.623671875,-40.93704296875,-45.55987890625,-66.00711328125,-50.48776171875,-64.14195703125,-72.62791796875,-58.17298046875
-30.35354296875,-42.39115234375,-34.28606640625,-16.25796484375,-36.822640625,-49.72453515625,-38.2863125,4.58245703125,-45.05994921875,-70.2084453125,-35.3542109375,-26.423640625,-28.8535546875,-62.9281796875,-47.98536328125,-51.46694921875,33.1818359375,-36.99752734375,-26.23724609375,-36.5057421875,-31.22064453125,-62.01533203125,-38.026671875,-40.63504296875,-45.01387890625,-65.05611328125,-49.64276171875,-61.52595703125,-70.37491796875,-55.95998046875
-31.63154296875,-42.58615234375,-35.20806640625,-17.17896484375,-37.432640625,-50.55653515625,-39.2893125,2.99445703125,-46.20594921875,-70.2874453125,-36.7322109375,-27.733640625,-29.5005546875,-62.3371796875,-48.68836328125,-52.35394921875,31.5458359375,-36.49752734375,-26.34424609375,-37.1487421875,-31.56864453125,-60.80433203125,-37.198671875,-40.54304296875,-44.57487890625,-64.18811328125,-48.53976171875,-58.44895703125,-67.48291796875,-53.05798046875
-32.63854296875,-42.42315234375,-35.43106640625,-16.95596484375,-37.056640625,-50.82053515625,-40.0783125,1.59745703125,-46.17594921875,-69.5244453125,-37.8832109375,-29.095640625,-29.6795546875,-60.7751796875,-49.30136328125,-53.22594921875,29.3288359375,-35.23752734375,-26.14024609375,-37.8377421875,-32.23364453125,-59.12633203125,-35.886671875,-40.42604296875,-44.16987890625,-63.37011328125,-47.09676171875,-55.04095703125,-64.11791796875,-49.70298046875
-32.98054296875,-41.61715234375,-34.72006640625,-15.53596484375,-35.405640625,-50.32353515625,-40.4373125,0.79745703125,-44.62494921875,-67.7734453125,-38.5522109375,-30.133640625,-28.7185546875,-58.2531796875,-49.53436328125,-53.76094921875,26.9498359375,-33.20552734375,-25.41124609375,-38.2567421875,-32.88464453125,-56.84933203125,-33.886671875,-39.92104296875,-43.61387890625,-62.44411328125,-45.14976171875,-51.34995703125,-60.33891796875,-46.07898046875
-32.35654296875,-39.97915234375,-33.05606640625,-13.27396484375,-32.598640625,-49.04253515625,-40.1993125,0.85745703125,-41.76094921875,-65.1274453125,-38.4682109375,-30.511640625,-26.5065546875,-55.0761796875,-49.04636328125,-53.60994921875,24.9708359375,-30.65052734375,-24.02524609375,-38.0567421875,-33.09964453125,-53.99433203125,-31.145671875,-38.69104296875,-42.64687890625,-61.17611328125,-42.55576171875,-47.38895703125,-56.15191796875,-42.30298046875
-30.67254296875,-37.49715234375,-30.59806640625,-10.78596484375,-29.139640625,-47.13053515625,-39.2673125,1.84945703125,-38.24294921875,-61.8724453125,-37.4152109375,-30.009640625,-23.5835546875,-51.7251796875,-47.55136328125,-52.48694921875,23.9108359375,-27.99052734375,-22.00324609375,-36.9777421875,-32.52264453125,-50.76533203125,-27.827671875,-36.56704296875,-41.06887890625,-59.40011328125,-39.30976171875,-43.21195703125,-51.62691796875,-38.46198046875
-28.11854296875,-34.38615234375,-27.65206640625,-8.72196484375,-25.718640625,-44.87353515625,-37.6473125,3.65445703125,-34.89094921875,-58.4054453125,-35.3472109375,-28.592640625,-20.8715546875,-48.6761796875,-44.96536328125,-50.30194921875,24.0348359375,-25.66752734375,-19.51724609375,-34.9647421875,-31.03964453125,-47.53833203125,-24.293671875,-33.63204296875,-38.86287890625,-57.14111328125,-35.59176171875,-38.97495703125,-46.98091796875,-34.65198046875
-25.15554296875,-31.04115234375,-24.59806640625,-7.54196484375,-22.953640625,-42.61353515625,-35.4783125,5.96645703125,-32.36194921875,-55.1414453125,-32.4742109375,-26.444640625,-19.1985546875,-46.2541796875,-41.51436328125,-47.24994921875,25.2328359375,-24.00252734375,-16.82924609375,-32.2287421875,-28.84764453125,-44.76633203125,-20.999671875,-30.19104296875,-36.25287890625,-54.63411328125,-31.72776171875,-34.91495703125,-42.53891796875,-30.98598046875
-22.35554296875,-27.91315234375,-21.79306640625,-7.37896484375,-21.197640625,-40.66853515625,-33.0553125,8.32745703125,-30.96794921875,-52.4244453125,-29.2502109375,-23.933640625,-18.8965546875,-44.5861796875,-37.72636328125,-43.81694921875,27.0428359375,-23.11252734375,-14.21224609375,-29.2137421875,-26.40064453125,-42.82633203125,-18.357671875,-26.66404296875,-33.63487890625,-52.22711328125,-28.08176171875,-31.28795703125,-38.60991796875,-27.60098046875
-20.14254296875,-25.40815234375,-19.52606640625,-8.03596484375,-20.476640625,-39.24253515625,-30.7773125,10.23545703125,-30.65194921875,-50.4654453125,-26.2512109375,-21.541640625,-19.7295546875,-43.6301796875,-34.28636328125,-40.64094921875,28.8228359375,-22.91852734375,-11.90524609375,-26.4597421875,-24.24064453125,-41.89033203125,-16.624671875,-23.46404296875,-31.42787890625,-50.25211328125,-24.95776171875,-28.31495703125,-35.39391796875,-24.67198046875
-18.59854296875,-23.81515234375,-18.01606640625,-9.09096484375,-20.532640625,-38.37453515625,-29.0303125,11.30045703125,-31.08594921875,-49.3224453125,-23.9802109375,-19.734640625,-21.1395546875,-43.2481796875,-31.78836328125,-38.27594921875,29.9818359375,-23.23452734375,-10.09024609375,-24.4217421875,-22.79764453125,-41.88033203125,-15.870671875,-20.90604296875,-29.92087890625,-48.92111328125,-22.55476171875,-26.16795703125,-32.95891796875,-22.43398046875
-17.50554296875,-23.22615234375,-17.37106640625,-10.08196484375,-20.955640625,-37.92353515625,-28.0223125,11.40045703125,-31.84394921875,-48.8934453125,-22.6702109375,-18.782640625,-22.6295546875,-43.2671796875,-30.50036328125,-36.95494921875,30.1878359375,-23.87052734375,-8.89224609375,-23.2887421875,-22.23264453125,-42.52933203125,-15.987671875,-19.15104296875,-29.17987890625,-48.28611328125,-20.95776171875,-24.95895703125,-31.29591796875,-21.14198046875
-16.59754296875,-23.46515234375,-17.48506640625,-10.68396484375,-21.330640625,-37.63153515625,-27.6483125,10.73845703125,-32.55394921875,-48.9314453125,-22.1692109375,-18.618640625,-23.9885546875,-43.5341796875,-30.25436328125,-36.48894921875,29.4738359375,-24.68252734375,-8.35524609375,-22.9157421875,-22.37664453125,-43.48733203125,-16.747671875,-18.18404296875,-29.04787890625,-48.23611328125,-20.13776171875,-24.72195703125,-30.37391796875,-20.98198046875
-15.79654296875,-24.09215234375,-17.97606640625,-10.80596484375,-21.363640625,-37.20453515625,-27.5023125,9.77545703125,-32.99794921875,-49.0934453125,-22.0192109375,-18.828640625,-25.2635546875,-43.9451796875,-30.53536328125,-36.36394921875,28.2058359375,-25.58952734375,-8.43624609375,-22.8877421875,-22.81864453125,-44.45033203125,-17.870671875,-17.84204296875,-29.21687890625,-48.52711328125,-19.97976171875,-25.40095703125,-30.16591796875,-21.95798046875
-15.23554296875,-24.58015234375,-18.28406640625,-10.57696484375,-20.927640625,-36.42053515625,-27.0463125,9.07845703125,-33.13694921875,-49.0474453125,-21.6842109375,-18.841640625,-26.5775546875,-44.4551796875,-30.72136328125,-35.99794921875,26.9288359375,-26.55352734375,-9.00924609375,-22.7097421875,-23.08564453125,-45.24633203125,-19.098671875,-17.88704296875,-29.34987890625,-48.85711328125,-20.32776171875,-26.86195703125,-30.64891796875,-23.84698046875
-15.11254296875,-24.55315234375,-17.91106640625,-10.23796484375,-20.087640625,-35.20153515625,-25.8813125,9.10145703125,-33.07694921875,-48.5854453125,-20.8202109375,-18.221640625,-27.9445546875,-45.0631796875,-30.36636328125,-35.03294921875,26.1268359375,-27.55252734375,-9.89724609375,-22.0317421875,-22.85564453125,-45.86133203125,-20.252671875,-18.09504296875,-29.18687890625,-48.95511328125,-21.03276171875,-28.93995703125,-31.77991796875,-26.25098046875
-15.51154296875,-23.95915234375,-16.69206640625,-10.00996484375,-19.075640625,-33.65253515625,-23.9693125,9.96945703125,-33.00294921875,-47.6954453125,-19.4262109375,-16.890640625,-29.2255546875,-45.7911796875,-29.38236328125,-33.48894921875,26.0178359375,-28.56352734375,-10.92024609375,-20.7937421875,-22.07664453125,-46.38733203125,-21.252671875,-18.33904296875,-28.62487890625,-48.68311328125,-21.99976171875,-31.45995703125,-33.46991796875,-28.73898046875
-16.33154296875,-23.09015234375,-14.95106640625,-9.99896484375,-18.220640625,-32.04153515625,-21.6873125,11.39545703125,-33.09494921875,-46.5524453125,-17.8252109375,-15.157640625,-30.1895546875,-46.6431796875,-28.04636328125,-31.72994921875,26.4498359375,-29.54952734375,-11.94424609375,-19.2457421875,-20.95564453125,-46.94333203125,-22.122671875,-18.61604296875,-27.73787890625,-48.06411328125,-23.19876171875,-34.25295703125,-35.57091796875,-30.99298046875
-17.31154296875,-22.45215234375,-13.41306640625,-10.16696484375,-17.796640625,-30.68753515625,-19.6523125,12.80545703125,-33.40794921875,-45.4444453125,-16.5012109375,-13.559640625,-30.6185546875,-47.5451796875,-26.83836328125,-30.25794921875,26.9948359375,-30.46152734375,-12.90124609375,-17.8177421875,-19.82464453125,-47.61733203125,-22.962671875,-19.02204296875,-26.73387890625,-47.25111328125,-24.65976171875,-37.16495703125,-37.89591796875,-32.89898046875
-18.15054296875,-22.52515234375,-12.85106640625,-10.38996484375,-17.879640625,-29.80753515625,-18.4243125,13.64745703125,-33.81994921875,-44.6354453125,-15.8542109375,-12.582640625,-30.3825546875,-48.3241796875,-26.17836328125,-29.44394921875,27.1838359375,-31.24452734375,-13.78124609375,-16.9147421875,-18.95264453125,-48.42833203125,-23.894671875,-19.68004296875,-25.85887890625,-46.41711328125,-26.42576171875,-40.05695703125,-40.23991796875,-34.50998046875
-18.67354296875,-23.48915234375,-13.61506640625,-10.55796484375,-18.305640625,-29.40353515625,-18.2243125,13.67245703125,-34.07994921875,-44.2234453125,-15.9762109375,-12.415640625,-29.4725546875,-48.7531796875,-26.20336328125,-29.35494921875,26.7648359375,-31.84452734375,-14.59924609375,-16.7317421875,-18.41264453125,-49.31833203125,-25.009671875,-20.66304296875,-25.29587890625,-45.65111328125,-28.48976171875,-42.77795703125,-42.38491796875,-35.91898046875
-18.91054296875,-25.09215234375,-15.37506640625,-10.65596484375,-18.751640625,-29.25153515625,-18.8303125,13.04845703125,-33.93994921875,-44.0784453125,-16.5862109375,-12.858640625,-28.0065546875,-48.6661796875,-26.70336328125,-29.74494921875,25.8328359375,-32.23052734375,-15.37024609375,-17.1927421875,-18.06864453125,-50.15833203125,-26.329671875,-21.93904296875,-25.11287890625,-44.91411328125,-30.72976171875,-45.12795703125,-44.09391796875,-37.13398046875
-19.02254296875,-26.76515234375,-17.28806640625,-10.75596484375,-18.883640625,-29.01653515625,-19.6903125,12.24345703125,-33.28094921875,-43.9104453125,-17.1682109375,-13.447640625,-26.2185546875,-48.0371796875,-27.25636328125,-30.19394921875,24.7658359375,-32.41352734375,-16.11824609375,-18.0287421875,-17.68264453125,-50.78733203125,-27.803671875,-23.39804296875,-25.27987890625,-44.07811328125,-32.91276171875,-46.86095703125,-45.13591796875,-38.02498046875
-19.14354296875,-27.94315234375,-18.50106640625,-10.92696484375,-18.506640625,-28.42153515625,-20.1923125,11.76845703125,-32.15894921875,-43.4484453125,-17.2582109375,-13.696640625,-24.4165546875,-47.0181796875,-27.47936328125,-30.31194921875,24.0028359375,-32.47052734375,-16.88524609375,-18.9487421875,-17.08664453125,-51.07633203125,-29.341671875,-24.91004296875,-25.72987890625,-43.01411328125,-34.76276171875,-47.75595703125,-45.36791796875,-38.40198046875
-19.31054296875,-28.34015234375,-18.61506640625,-11.15296484375,-17.672640625,-27.39853515625,-19.9433125,11.90845703125,-30.79194921875,-42.6154453125,-16.6982109375,-13.322640625,-22.9175546875,-45.8911796875,-27.23836328125,-29.91494921875,23.8038359375,-32.51852734375,-17.74224609375,-19.7937421875,-16.28164453125,-50.97533203125,-30.846671875,-26.38904296875,-26.41487890625,-41.68511328125,-36.07976171875,-47.73395703125,-44.82391796875,-38.17298046875
-19.52354296875,-28.03315234375,-17.81506640625,-11.32396484375,-16.683640625,-26.14053515625,-18.9243125,12.59445703125,-29.48794921875,-41.5754453125,-15.7002109375,-12.344640625,-21.9705546875,-44.9721796875,-26.69636328125,-29.08594921875,24.1248359375,-32.66452734375,-18.75424609375,-20.5837421875,-15.43464453125,-50.53933203125,-32.225671875,-27.79904296875,-27.31487890625,-40.17911328125,-36.81476171875,-46.92495703125,-43.75191796875,-37.45898046875
-19.82554296875,-27.34415234375,-16.65106640625,-11.29596484375,-15.961640625,-24.98553515625,-17.4513125,13.48845703125,-28.53194921875,-40.6304453125,-14.7102109375,-11.019640625,-21.7115546875,-44.4731796875,-26.17336328125,-28.08794921875,24.6738359375,-32.91852734375,-19.92024609375,-21.4247421875,-14.76264453125,-49.87733203125,-33.369671875,-29.10804296875,-28.39087890625,-38.68011328125,-37.05376171875,-45.62195703125,-42.53191796875,-36.56398046875
-20.28054296875,-26.61615234375,-15.66006640625,-10.96696484375,-15.812640625,-24.21353515625,-15.9743125,14.21545703125,-28.05094921875,-40.0224453125,-14.1512109375,-9.694640625,-22.1415546875,-44.3681796875,-25.92136328125,-27.19194921875,25.0928359375,-33.14952734375,-21.09624609375,-22.3387421875,-14.40364453125,-49.07433203125,-34.096671875,-30.20004296875,-29.50587890625,-37.37311328125,-36.89776171875,-44.10995703125,-41.47591796875,-35.79398046875
-20.89154296875,-26.00615234375,-15.06506640625,-10.33896484375,-16.247640625,-23.85853515625,-14.8403125,14.58245703125,-27.92894921875,-39.7654453125,-14.1852109375,-8.635640625,-23.1115546875,-44.3611796875,-25.93436328125,-26.50094921875,25.1418359375,-33.09952734375,-21.96724609375,-23.1437421875,-14.31664453125,-48.10633203125,-34.142671875,-30.81604296875,-30.37087890625,-36.33511328125,-36.33476171875,-42.47595703125,-40.61891796875,-35.21098046875
-21.51654296875,-25.37315234375,-14.65906640625,-9.52496484375,-16.964640625,-23.67153515625,-14.1223125,14.65645703125,-27.83694921875,-39.5944453125,-14.6082109375,-7.911640625,-24.3055546875,-43.9951796875,-25.92236328125,-25.88094921875,24.7988359375,-32.46252734375,-22.12224609375,-23.4647421875,-14.28464453125,-46.82733203125,-33.212671875,-30.59604296875,-30.56887890625,-35.46211328125,-35.18976171875,-40.52795703125,-39.63691796875,-34.52298046875
-21.85154296875,-24.36015234375,-13.94306640625,-8.70696484375,-17.492640625,-23.23953515625,-13.5993125,14.70045703125,-27.36694921875,-39.0794453125,-14.9292109375,-7.386640625,-25.2565546875,-42.8351796875,-25.42736328125,-25.03194921875,24.2488359375,-31.02352734375,-21.20124609375,-22.8887421875,-13.99864453125,-45.04033203125,-31.110671875,-29.20504296875,-29.70087890625,-34.50011328125,-33.21976171875,-37.91195703125,-37.98391796875,-33.20798046875
-21.49454296875,-22.64015234375,-12.42106640625,-8.05096484375,-17.396640625,-22.18753515625,-12.8963125,15.03145703125,-26.20594921875,-37.8334453125,-14.6192109375,-6.810640625,-25.4395546875,-40.6591796875,-24.04136328125,-23.64094921875,23.7628359375,-28.75552734375,-19.05224609375,-21.1667421875,-13.19764453125,-42.61933203125,-27.863671875,-26.50804296875,-27.57487890625,-33.16611328125,-30.27676171875,-34.34495703125,-35.17591796875,-30.79698046875
-20.11354296875,-20.12715234375,-9.88406640625,-7.62496484375,-16.444640625,-20.36253515625,-11.7043125,15.83845703125,-24.27794921875,-35.6974453125,-13.3622109375,-5.960640625,-24.4745546875,-37.5491796875,-21.58736328125,-21.56394921875,23.5628359375,-25.85452734375,-15.80624609375,-18.3547421875,-11.78364453125,-39.59033203125,-23.756671875,-22.66204296875,-24.33687890625,-31.28711328125,-26.43976171875,-29.82895703125,-31.07391796875,-27.15798046875
-17.67454296875,-17.01315234375,-6.50606640625,-7.38096484375,-14.681640625,-17.91053515625,-9.9613125,17.05145703125,-21.80194921875,-32.7984453125,-11.1742109375,-4.743640625,-22.3195546875,-33.8781796875,-18.19636328125,-18.90594921875,23.7038359375,-22.66252734375,-11.84024609375,-14.8057421875,-9.85864453125,-36.14033203125,-19.258671875,-18.08504296875,-20.43987890625,-28.89211328125,-22.02376171875,-24.69595703125,-25.96891796875,-22.58898046875
-14.54454296875,-13.63815234375,-2.76506640625,-7.17196484375,-12.384640625,-15.23253515625,-7.8913125,18.32945703125,-19.20494921875,-29.4664453125,-8.3562109375,-3.222640625,-19.3525546875,-30.1691796875,-14.23536328125,-15.98994921875,24.0568359375,-19.55452734375,-7.64924609375,-11.0337421875,-7.67064453125,-32.55733203125,-14.863671875,-13.32004296875,-16.47287890625,-26.20211328125,-17.47176171875,-19.49295703125,-20.46191796875,-17.70998046875
-11.33854296875,-10.36015234375,0.697933593749994,-6.79896484375,-9.945640625,-12.82153515625,-5.89631249999999,19.21145703125,-16.92494921875,-26.1064453125,-5.3452109375,-1.593640625,-16.2425546875,-26.8981796875,-10.17236328125,-13.22294921875,24.3648359375,-16.84052734375,-3.70124609375,-7.5197421875,-5.50764453125,-29.16833203125,-10.962671875,-8.88704296874999,-12.94187890625,-23.54411328125,-13.22176171875,-14.81995703125,-15.24591796875,-13.21398046875
-8.62554296875,-7.53115234374999,3.18793359375,-6.09696484375,-7.752640625,-11.09553515625,-4.4103125,19.32845703125,-15.22894921875,-23.0864453125,-2.5962109375,-0.146640624999996,-13.6765546875,-24.3371796875,-6.44436328125001,-10.94994921875,24.3468359375,-14.72252734375,-0.335246093750001,-4.5707421875,-3.62364453125,-26.29933203125,-7.806671875,-5.17504296875,-10.13487890625,-21.25011328125,-9.62476171874999,-11.20695703125,-10.91891796875,-9.65898046875
-6.70954296875001,-5.49615234375,4.12093359375,-5.02896484375,-6.13264062499999,-10.28353515625,-3.75931249999999,18.54345703125,-14.15694921875,-20.6764453125,-0.4882109375,0.816359375000005,-12.0985546875,-22.5001796875,-3.37936328125,-9.35994921875,23.7938359375,-13.29752734375,2.26075390625,-2.3027421875,-2.19164453125,-24.23333203125,-5.535671875,-2.40904296874999,-8.12187890625,-19.58511328125,-6.93976171875,-9.03495703124999,-7.90391796875001,-7.36998046875
-5.61154296875,-4.54515234375,3.25393359375,-3.73996484375,-5.304640625,-10.38153515625,-4.0593125,16.98445703125,-13.59394921875,-19.0064453125,0.7467890625,1.098359375,-11.5695546875,-21.2041796875,-1.17036328125,-8.46194921875,22.6358359375,-12.55552734375,4.02375390625,-0.709742187500005,-1.30864453125,-23.14233203125,-4.207671875,-0.653042968749993,-6.84887890625,-18.70511328125,-5.35076171875,-8.47895703124999,-6.43491796875,-6.45698046875
-5.19254296875,-4.80515234375,0.886933593749994,-2.51796484375,-5.311640625,-11.15153515625,-5.1623125,15.00945703125,-13.36794921875,-18.0574453125,1.0697890625,0.712359374999998,-11.8095546875,-20.1751796875,0.14463671875,-8.11394921875,20.9748359375,-12.36952734375,4.99075390625,0.261257812499998,-0.985644531250003,-22.99233203125,-3.798671875,0.174957031250003,-6.22287890625,-18.62511328125,-4.95376171874999,-9.45295703124999,-6.55691796875,-6.84798046875001
-5.28854296875001,-6.13515234374999,-2.14606640625,-1.65596484375,-5.93764062499999,-12.16653515625,-6.6593125,13.11745703125,-13.30994921875,-17.6664453125,0.655789062499998,-0.0966406249999991,-12.3535546875,-19.1411796875,0.667636718749996,-8.07594921875,19.0698359375,-12.50952734375,5.28975390625,0.695257812499996,-1.13064453125,-23.49633203125,-4.168671875,0.271957031250004,-6.13987890625,-19.20611328125,-5.68876171874999,-11.58995703125,-8.09491796875001,-8.30998046875
-5.78954296875001,-8.08915234374999,-4.75906640625,-1.30896484375,-6.728640625,-12.91553515625,-7.9793125,11.80345703125,-13.25094921875,-17.5644453125,-0.132210937500005,-0.921640624999995,-12.7355546875,-17.9041796875,0.624636718749997,-8.09194921875,17.2708359375,-12.67752734375,5.13875390625,0.7302578125,-1.54864453125,-24.16533203125,-5.049671875,-0.0910429687499956,-6.44587890624999,-20.15311328125,-7.29076171875,-14.28695703125,-10.63191796875,-10.44798046875
-6.61854296875001,-10.00315234375,-6.05006640625,-1.41096484375,-7.130640625,-12.95553515625,-8.5663125,11.37545703125,-13.02594921875,-17.4294453125,-0.822210937500003,-1.351640625,-12.6245546875,-16.3941796875,0.319636718749997,-7.95494921875,15.8908359375,-12.58952734375,4.79575390625,0.564257812499996,-1.98364453125,-24.47033203125,-6.078671875,-0.629042968749999,-6.91787890625,-21.09411328125,-9.30876171875,-16.84495703125,-13.54691796875,-12.75898046875
-7.64954296875,-11.23215234375,-5.69106640625,-1.68896484375,-6.72364062499999,-12.06853515625,-8.08831249999999,11.82145703125,-12.48094921875,-16.9804453125,-0.973210937499999,-1.138640625,-11.9075546875,-14.6721796875,0.0426367187499963,-7.55294921875,15.0878359375,-12.06952734375,4.48175390625,0.410257812499999,-2.20564453125,-24.05233203125,-6.900671875,-1.12004296875,-7.30487890625,-21.70111328125,-11.22376171875,-18.67195703125,-16.16991796875,-14.74298046875
-8.63254296875,-11.42515234375,-4.06006640625,-1.76796484375,-5.417640625,-10.35553515625,-6.5753125,12.80845703125,-11.54194921875,-16.0864453125,-0.3632109375,-0.324640625000001,-10.6975546875,-12.9221796875,-0.017363281250006,-6.88394921875,14.8058359375,-11.12352734375,4.28875390625,0.414257812499997,-2.09964453125,-22.86433203125,-7.290671875,-1.46904296875,-7.41887890624999,-21.80011328125,-12.62676171875,-19.46595703125,-17.98091796875,-16.03998046875
-9.24954296875001,-10.66015234375,-2.02506640625001,-1.34596484375,-3.524640625,-8.22453515624999,-4.4403125,13.82045703125,-10.28394921875,-14.8264453125,0.905789062499998,0.767359375000005,-9.2845546875,-11.3921796875,0.163636718749999,-6.03494921875,14.8108359375,-9.92952734375,4.15275390625,0.6022578125,-1.70264453125,-21.15533203125,-7.223671875,-1.70404296875,-7.19287890624999,-21.39611328125,-13.32076171875,-19.26095703125,-18.73391796875,-16.50198046875
-9.27554296875,-9.32515234375,-0.479066406250006,-0.366964843750001,-1.652640625,-6.24753515625,-2.32031249999999,14.36145703125,-8.97394921875,-13.4514453125,2.4507890625,1.687359375,-8.03655468749999,-10.3101796875,0.45863671875,-5.14094921874999,14.8098359375,-8.74052734375,3.90875390625,0.890257812499996,-1.14964453125,-19.30933203125,-6.841671875,-1.90504296875,-6.67987890625,-20.60211328125,-13.33476171875,-18.31395703125,-18.44091796875,-16.17698046875
-8.71454296875,-7.89615234375,0.0909335937499947,0.921035156249999,-0.442640624999996,-4.94553515624999,-0.834312499999996,14.14845703125,-7.98494921875,-12.2714453125,3.7717890625,2.057359375,-7.2785546875,-9.7721796875,0.671636718749994,-4.35394921875,14.5678359375,-7.74852734375001,3.41275390625,1.1442578125,-0.594644531249997,-17.63933203125,-6.344671875,-2.12104296875,-6.01187890625,-19.54611328125,-12.83876171875,-16.91995703125,-17.26191796875,-15.22598046875
-7.77054296875001,-6.75115234374999,-0.253066406249999,2.07303515625,-0.289640624999997,-4.59453515624999,-0.364312499999997,13.21145703125,-7.63094921875,-11.5424453125,4.4397890625,1.716359375,-7.21655468749999,-9.67817968750001,0.621636718749997,-3.81594921874999,13.9898359375,-7.01752734375,2.63075390625,1.2432578125,-0.162644531250002,-16.26533203125,-5.893671875,-2.33804296875,-5.35587890625,-18.32411328125,-12.04876171875,-15.27195703125,-15.39591796875,-13.84498046875
-6.72154296875001,-6.09015234375,-1.03406640625001,2.66203515625,-1.194640625,-5.14753515625,-0.948312499999993,11.84945703125,-8.01394921875,-11.3994453125,4.23378906249999,0.739359374999999,-7.9135546875,-9.7731796875,0.209636718749998,-3.62994921875,13.1268359375,-6.50052734375001,1.65375390625,1.1222578125,0.0673554687500015,-15.11633203125,-5.567671875,-2.51904296874999,-4.88487890624999,-17.00311328125,-11.15376171875,-13.43195703125,-13.01891796875,-12.20698046875
-5.80054296875,-5.90015234374999,-1.64706640625,2.48703515625,-2.83364062499999,-6.30453515625,-2.31731249999999,10.46745703125,-8.99094921875,-11.8354453125,3.2017890625,-0.604640625000002,-9.2935546875,-9.81217968750001,-0.554363281250005,-3.82594921875,12.1378359375,-6.14552734375,0.605753906249998,0.763257812500001,0.0613554687500013,-14.04833203125,-5.401671875,-2.66504296874999,-4.72687890624999,-15.64011328125,-10.26976171875,-11.38595703125,-10.28091796875,-10.44798046875
-5.15354296875,-5.96115234374999,-1.61506640625,1.63703515625,-4.75764062499999,-7.65853515625,-4.00931249999999,9.38945703125,-10.26994921875,-12.7214453125,1.6487890625,-1.951640625,-11.1565546875,-9.7281796875,-1.56836328125,-4.32194921875,11.2138359375,-5.98452734375,-0.451246093750001,0.183257812499996,-0.15764453125,-12.97133203125,-5.422671875,-2.83904296874999,-4.92087890625,-14.29011328125,-9.43876171874999,-9.15095703124999,-7.33691796875,-8.66598046875001
-4.85954296875001,-5.93515234375,-0.747066406249999,0.411035156250001,-6.585640625,-8.84853515624999,-5.5173125,8.77045703125,-11.54094921875,-13.8444453125,0.0227890624999958,-2.958640625,-13.1845546875,-9.6821796875,-2.67636328125,-4.92094921875,10.5148359375,-6.16552734375001,-1.55624609375,-0.566742187500004,-0.495644531250001,-11.92333203125,-5.668671875,-3.10904296875,-5.37787890625,-12.98511328125,-8.65476171875,-6.84595703124999,-4.37091796875001,-6.94498046875
-4.95054296875001,-5.49915234375,0.84493359375,-0.838964843749999,-8.09664062499999,-9.63053515624999,-6.4183125,8.60445703125,-12.58494921875,-14.9694453125,-1.2442109375,-3.403640625,-14.9635546875,-9.9511796875,-3.71636328125,-5.36194921875,10.1398359375,-6.88452734375001,-2.79324609375,-1.3677421875,-0.79164453125,-11.06433203125,-6.156671875,-3.47104296875,-5.88087890625,-11.72711328125,-7.88476171875,-4.70595703124999,-1.59991796875001,-5.35998046875001
-5.45354296875001,-4.47515234375,2.83593359375,-1.88196484375,-9.256640625,-9.91553515624999,-6.4743125,8.77745703125,-13.33594921875,-15.8824453125,-1.8752109375,-3.244640625,-16.0625546875,-10.7571796875,-4.56036328125001,-5.40794921875,10.0988359375,-8.26852734375,-4.19424609375,-2.02674218750001,-0.85564453125,-10.60233203125,-6.846671875,-3.80204296874999,-6.14587890625,-10.47911328125,-7.09976171875,-3.01395703125,0.757082031249993,-3.98098046875
-6.37254296875,-2.90815234375,4.82293359374999,-2.69996484375,-10.163640625,-9.75953515625,-5.7003125,9.10645703125,-13.89394921875,-16.4384453125,-1.8342109375,-2.604640625,-16.1645546875,-12.1321796875,-5.13236328125,-4.96194921875,10.3158359375,-10.25352734375,-5.66324609375,-2.3277421875,-0.534644531250002,-10.69333203125,-7.622671875,-3.89104296874999,-5.93387890624999,-9.19111328125001,-6.27876171875,-2.01795703124999,2.51808203124999,-2.87298046875
-7.59854296875,-1.08315234374999,6.41193359375,-3.45896484375,-10.958640625,-9.33653515624999,-4.3523125,9.38745703125,-14.44294921875,-16.5924453125,-1.3292109375,-1.703640625,-15.2185546875,-13.8621796875,-5.41736328125,-4.11694921875,10.6288359375,-12.54252734375,-6.96024609375,-2.1217421875,0.206355468749997,-11.34233203125,-8.311671875,-3.54004296874999,-5.15887890625,-7.82711328125001,-5.41776171875,-1.82895703125,3.58308203125,-2.06398046875
-8.79854296875001,0.533847656250003,7.28193359375,-4.36896484375,-11.715640625,-8.87053515624999,-2.83231249999999,9.45945703125,-15.11894921875,-16.4044453125,-0.743210937500002,-0.768640624999996,-13.4935546875,-15.5241796875,-5.45036328125001,-3.12494921875,10.8428359375,-14.65652734375,-7.75224609375,-1.39574218750001,1.26235546875,-12.33533203125,-8.698671875,-2.65804296875,-3.91787890625,-6.36911328125001,-4.52476171875,-2.35995703124999,3.97608203124999,-1.51598046875
-9.48554296875,1.49384765625,7.26593359375,-5.51696484375,-12.415640625,-8.56953515624999,-1.5443125,9.25145703125,-15.90894921875,-16.0044453125,-0.472210937500002,0.0333593750000034,-11.4835546875,-16.6181796875,-5.28936328125,-2.28894921875001,10.7938359375,-16.08752734375,-7.72924609375,-0.290742187500001,2.41735546875,-13.26733203125,-8.571671875,-1.30504296874999,-2.43987890624999,-4.81811328125001,-3.60276171875,-3.31595703124999,3.84608203124999,-1.11298046875001
-9.28454296875,1.60884765625001,6.46193359375,-6.79496484375,-12.998640625,-8.57853515624999,-0.775312499999998,8.78545703125,-16.65394921875,-15.5354453125,-0.759210937500001,0.622359375000002,-9.6965546875,-16.7771796875,-4.99336328125001,-1.83394921874999,10.4168359375,-16.48552734375,-6.75024609375,0.948257812499996,3.43435546875,-13.69733203125,-7.774671875,0.339957031250002,-0.981878906249996,-3.19611328125001,-2.66276171875,-4.30095703124999,3.41008203125,-0.72398046875
-8.21554296875001,1.04484765625001,5.22193359374999,-7.95696484375,-13.444640625,-8.95253515624999,-0.642312499999996,8.13445703125,-17.14994921875,-15.1224453125,-1.5982109375,0.969359375000003,-8.4775546875,-15.9431796875,-4.61436328125,-1.82094921875,9.7658359375,-15.80752734375,-4.94624609375,2.0382578125,4.11835546875,-13.36233203125,-6.306671875,2.02795703125,0.248121093750001,-1.58911328125001,-1.76076171875,-4.99995703124999,2.83008203125,-0.301980468750003
-6.73254296875,0.188847656250005,3.97093359375,-8.76096484375,-13.786640625,-9.64553515624999,-1.12431249999999,7.39745703125,-17.25794921875,-14.8574453125,-2.7842109375,1.048359375,-7.94455468749999,-14.4081796875,-4.21436328125,-2.13594921875,8.9688359375,-14.34652734375,-2.72724609375,2.7392578125,4.36035546875,-12.32633203125,-4.390671875,3.50095703125,1.11812109375001,-0.182113281250011,-1.02576171874999,-5.35195703125,2.12408203125,0.0300195312499909
-5.48954296875,-0.614152343749993,2.95693359374999,-9.08496484375,-14.064640625,-10.51353515625,-2.1053125,6.64945703125,-16.97294921875,-14.7794453125,-4.0252109375,0.827359375,-8.0225546875,-12.6861796875,-3.86636328125,-2.55394921874999,8.1358359375,-12.61352734375,-0.653246093750003,2.9222578125,4.13235546875,-10.97133203125,-2.455671875,4.54395703125,1.56512109375001,0.752886718749991,-0.657761718749995,-5.57995703124999,1.17108203124999,0.00101953124999454
-5.01554296875,-1.22315234374999,2.13093359375,-8.94996484375,-14.257640625,-11.32953515625,-3.38131249999999,5.90645703125,-16.39194921875,-14.8274453125,-5.0402109375,0.306359375,-8.50655468749999,-11.2781796875,-3.63336328125001,-2.84994921875,7.2748359375,-11.11752734375,0.766753906249999,2.59525781249999,3.47035546875,-9.79433203125001,-1.005671875,5.00495703125,1.58212109375,0.968886718749985,-0.873761718750004,-6.04995703124999,-0.19391796875,-0.684980468749998
-5.47654296875,-1.70115234375,1.24093359375,-8.43796484375,-14.244640625,-11.81253515625,-4.65531249999999,5.13345703125,-15.60694921875,-14.8074453125,-5.6152109375,-0.432640624999998,-9.09755468749999,-10.4471796875,-3.52736328125,-2.89094921874999,6.2838359375,-10.15452734375,1.24975390625,1.8782578125,2.45035546875,-9.14033203125,-0.426671875000004,4.81895703125,1.20412109375,0.385886718749987,-1.82076171874999,-7.02395703124999,-2.03991796875,-2.17498046875001
-6.61854296875001,-2.19515234375,0.0619335937499983,-7.59496484375,-13.804640625,-11.66753515625,-5.55731249999999,4.31145703125,-14.59494921875,-14.4224453125,-5.6332109375,-1.216640625,-9.44255468749999,-10.0981796875,-3.49736328125,-2.67994921875,5.04583593749999,-9.70052734375,0.819753906249996,0.943257812500001,1.17135546875,-9.00533203125001,-0.813671875000004,3.99095703125001,0.492121093750001,-0.813113281250011,-3.48476171874999,-8.45995703125,-4.24491796875,-4.34498046875001
-7.90054296875,-2.80215234375,-1.38506640625,-6.39696484375,-12.678640625,-10.67253515625,-5.74331249999999,3.51845703125,-13.19794921875,-13.3894453125,-5.1152109375,-1.840640625,-9.21055468749999,-9.8431796875,-3.46536328125,-2.34294921874999,3.55783593749999,-9.46952734375,-0.247246093750004,-0.0747421875000001,-0.252644531249999,-9.04033203125,-1.925671875,2.59695703125001,-0.481878906249996,-2.23411328125,-5.65276171875,-9.98695703125,-6.49591796875001,-6.80198046875
-8.76954296875,-3.49215234374999,-2.76406640625,-4.82896484375,-10.719640625,-8.78553515624999,-5.05731249999999,2.91545703125,-11.25094921875,-11.5824453125,-4.2272109375,-2.145640625,-8.2055546875,-9.24417968749999,-3.38836328125,-2.08694921874999,1.9978359375,-9.08552734375,-1.59924609375,-1.15774218750001,-1.70464453125,-8.75933203125,-3.315671875,0.753957031250003,-1.65987890625,-3.43411328125001,-7.97176171875,-11.07495703125,-8.37291796875,-9.02098046875001
-8.94154296875001,-4.12715234375,-3.57606640625,-2.97996484375,-8.02264062499999,-6.23353515624999,-3.6353125,2.65045703125,-8.75494921875,-9.15044531250001,-3.2592109375,-2.098640625,-6.4675546875,-8.0881796875,-3.32636328125,-2.14994921875,0.648835937499996,-8.30852734375001,-3.00624609375,-2.4307421875,-3.08664453125,-7.83133203125,-4.575671875,-1.42204296875,-3.01887890624999,-4.12511328125001,-10.08876171875,-11.32295703125,-9.50991796875,-10.56098046875
-8.49654296875001,-4.58315234374999,-3.46006640625,-1.07096484375,-4.963640625,-3.48253515624999,-1.89331249999999,2.74445703125,-5.95894921875,-6.5144453125,-2.5692109375,-1.824640625,-4.3005546875,-6.5341796875,-3.43836328125001,-2.72294921875,-0.273164062500001,-7.17452734375001,-4.47724609375,-4.0897421875,-4.34864453125,-6.28033203125,-5.545671875,-3.84404296875,-4.56787890624999,-4.29111328125001,-11.77876171875,-10.66995703125,-9.73391796875001,-11.24798046875
-7.75354296875,-4.84815234374999,-2.44706640625,0.610035156249999,-2.07164062499999,-1.09753515624999,-0.362312499999994,3.06145703125,-3.28294921875001,-4.2294453125,-2.4792109375,-1.576640625,-2.17055468749999,-5.0261796875,-3.89536328125001,-3.85294921875,-0.763164062500003,-5.97452734375,-6.17024609375,-6.2377421875,-5.48764453125,-4.46233203125,-6.347671875,-6.42104296874999,-6.28487890625,-4.14911328125001,-12.97776171875,-9.39395703125,-9.09191796875001,-11.19398046875
-7.06154296875,-4.99315234375,-0.965066406250003,1.81803515625,0.162359375000008,0.490464843750004,0.539687500000007,3.35645703125,-1.14794921875,-2.7374453125,-3.1212109375,-1.596640625,-0.533554687499993,-4.0341796875,-4.74336328125001,-5.35694921875,-1.0361640625,-5.07352734375001,-8.18324609375,-8.71574218750001,-6.51064453125,-2.82433203124999,-7.210671875,-8.96504296875,-8.02787890625,-3.98311328125001,-13.66976171875,-7.88295703125,-7.76791796875001,-10.67798046875
-6.64254296875001,-5.03515234375,0.405933593749999,2.44903515625,1.46435937500001,1.16646484375001,0.700687500000008,3.39145703125,0.194050781249999,-2.13744531250001,-4.31821093750001,-1.964640625,0.346445312500002,-3.79717968750001,-5.79036328125,-6.82094921875,-1.38416406250001,-4.68952734375001,-10.35124609375,-11.0577421875,-7.36864453125,-1.62533203125,-8.230671875,-11.13704296875,-9.48587890624999,-3.94411328125001,-13.77076171875,-6.36495703125,-5.95691796875001,-9.94398046875
-6.52254296875,-4.86615234375,1.21693359375,2.58403515625,1.881359375,1.19746484375001,0.366687500000005,3.05245703125,0.73605078125,-2.1424453125,-5.5872109375,-2.522640625,0.479445312500005,-4.19617968750001,-6.64236328125001,-7.71594921875,-1.9841640625,-4.77752734375,-12.24024609375,-12.6437421875,-7.93364453125,-0.808332031250004,-9.256671875,-12.50504296875,-10.25987890625,-3.96411328125001,-13.11076171875,-4.80395703124999,-3.79591796875,-9.08498046875
-6.54254296875001,-4.33515234375,1.30293359375,2.46703515625,1.76335937500001,1.09846484375001,0.0216875000000059,2.40445703125,0.685050781249998,-2.24844531250001,-6.3422109375,-2.956640625,0.100445312500007,-4.8311796875,-6.89536328125001,-7.61894921875,-2.7931640625,-5.08052734375001,-13.33624609375,-12.9787421875,-8.04464453125,-0.116332031249996,-9.970671875,-12.72304296875,-10.04487890625,-3.82611328125,-11.55976171875,-3.03695703125,-1.39691796875,-8.05198046875
-6.46954296875001,-3.39915234375,0.79593359375,2.38203515625,1.601359375,1.36446484375,0.123687500000003,1.63745703125,0.335050781250004,-2.0264453125,-6.1782109375,-2.989640625,-0.460554687499993,-5.25017968749999,-6.37436328125001,-6.42494921875,-3.60516406250001,-5.31652734375,-13.33124609375,-11.9647421875,-7.60864453125,0.666667968750005,-10.100671875,-11.73404296875,-8.82087890624999,-3.33011328125001,-9.19876171875,-1.02195703125,1.07308203125,-6.78798046875001
-6.15354296875,-2.20615234375,0.0319335937499972,2.49903515625,1.79435937500001,2.21446484375001,0.871687500000007,0.94145703125,-0.0809492187500069,-1.32044531250001,-5.08621093750001,-2.552640625,-0.926554687499994,-5.1981796875,-5.27236328125,-4.43594921875,-4.2011640625,-5.32952734375,-12.31224609375,-9.9887421875,-6.67064453125,1.54366796875,-9.597671875,-9.84904296875,-6.90387890625,-2.43911328125,-6.39876171874999,1.02604296875001,3.37308203124999,-5.34598046875
-5.59354296875001,-1.05415234375,-0.58206640625,2.78503515625,2.48635937500001,3.52046484375001,2.11268750000001,0.42545703125,-0.447949218750004,-0.261445312500001,-3.45821093750001,-1.822640625,-1.14355468749999,-4.7071796875,-4.05736328125001,-2.24094921875,-4.4951640625,-5.13252734375001,-10.72024609375,-7.7637421875,-5.41564453125,2.31566796874999,-8.650671875,-7.64604296875,-4.83087890625,-1.30011328125001,-3.71576171875,2.70604296875001,5.24908203125,-3.91098046875001
-4.86354296875,-0.262152343749996,-0.728066406250001,3.05403515625,3.57535937500001,4.96246484375001,3.4736875,0.12945703125,-0.710949218750002,0.8905546875,-1.8772109375,-1.123640625,-1.0535546875,-3.9871796875,-3.20636328125001,-0.441949218749997,-4.5611640625,-4.81752734375001,-9.09824609375,-5.9897421875,-4.08064453125,2.76366796875,-7.548671875,-5.70104296875,-3.10187890624999,-0.142113281250005,-1.65376171874999,3.65604296875,6.54908203124999,-2.69998046875
-3.97954296875,-0.00915234374999585,-0.295066406250001,3.12603515625,4.857359375,6.29546484375001,4.6016875,0.0764570312499995,-0.774949218750002,1.9525546875,-0.800210937500005,-0.721640624999999,-0.629554687499997,-3.2131796875,-2.88636328125001,0.645050781250006,-4.5521640625,-4.41552734375001,-7.77124609375,-5.0097421875,-2.84164453125,2.84966796875,-6.488671875,-4.29704296875,-1.94587890624999,0.870886718749986,-0.410761718749995,3.78204296875001,7.32408203125,-1.82598046875
-2.88154296875,-0.197152343749998,0.584933593749994,2.97003515625,6.168359375,7.50146484375,5.38068750000001,0.279457031249999,-0.468949218750005,2.9495546875,-0.295210937500002,-0.646640624999996,0.173445312500007,-2.36917968749999,-2.81036328125001,1.11605078125,-4.58716406250001,-3.81452734375001,-6.68724609375,-4.6557421875,-1.71964453125,2.79466796875001,-5.455671875,-3.29204296875,-1.22487890625,1.72988671875,0.206238281250009,3.33504296875,7.82208203124999,-1.21698046875001
-1.53054296875001,-0.461152343749994,1.60093359375,2.74703515625,7.44035937500001,8.75546484375,5.9626875,0.70445703125,0.370050781250001,4.08855468749999,-0.028210937499999,-0.659640625000002,1.39644531250001,-1.2761796875,-2.38536328125,1.38205078125,-4.6951640625,-2.81252734375001,-5.50824609375,-4.3857421875,-0.607644531250003,2.99666796875,-4.266671875,-2.23104296875,-0.548878906249996,2.56188671874999,0.646238281250007,2.77904296875001,8.36008203124999,-0.676980468750003
-0.0275429687500051,-0.364152343749993,2.37593359375,2.71403515625,8.646359375,10.21346484375,6.6016875,1.22545703125,1.78405078125,5.58455468749999,0.484789062499999,-0.411640624999997,2.9864453125,0.257820312500002,-1.07836328125001,1.89005078125,-4.8531640625,-1.27352734375,-3.88024609375,-3.6267421875,0.613355468750001,3.81166796875,-2.752671875,-0.662042968749994,0.437121093750008,3.50388671875,1.32123828125,2.52504296875,9.12508203124999,-0.0369804687500022
1.35545703125,0.316847656250005,2.61593359375,3.07503515625,9.71435937500001,11.82046484375,7.4136875,1.62445703125,3.61505078124999,7.46555468749999,1.5247890625,0.295359375000004,4.71044531250001,2.2628203125,1.20663671875,2.83305078125001,-5.0851640625,0.718472656249993,-1.69924609375,-2.1397421875,1.91235546875,5.34066796875,-0.924671875000001,1.54895703125,1.80612109375001,4.56788671874999,2.33323828125,2.68704296875001,10.03108203125,0.698019531249997
2.23245703124999,1.45784765625,2.24993359375,3.83903515625,10.472359375,13.26246484375,8.2336875,1.62445703125,5.53205078124999,9.5155546875,2.9647890625,1.32835937500001,6.18044531250001,4.5648203125,4.02763671875,4.02905078125001,-5.5081640625,2.85547265624999,0.796753906249997,-0.175742187499999,3.03435546875,7.34966796875,0.973328125000002,4.09095703125001,3.26812109375,5.57288671875,3.42023828125001,3.04304296875,10.74008203125,1.30501953125
2.27545703124999,2.66184765625,1.46493359375,4.78103515625,10.713359375,14.12446484375,8.6816875,0.97045703125,7.17205078124999,11.3795546875,4.3467890625,2.261359375,7.0254453125,6.8798203125,6.61763671874999,5.03205078125001,-6.2971640625,4.76347265624999,3.15575390625,1.6392578125,3.58835546875,9.37966796875,2.601328125,6.35095703125,4.33312109375001,6.20188671874999,4.12923828125,3.19504296875,10.83608203125,1.45101953125
1.41445703125,3.46984765625,0.578933593749994,5.54103515625,10.331359375,14.14446484375,8.4126875,-0.444542968750001,8.31305078125,12.7575546875,5.1537890625,2.616359375,7.1104453125,8.9888203125,8.28863671875,5.40305078125,-7.54516406250001,6.22547265625,4.94775390625,2.6522578125,3.24135546875,10.98666796875,3.736328125,7.73395703125001,4.58812109375,6.14988671875,4.10723828125001,2.83604296875001,10.08008203125,0.89201953125
-0.0395429687500055,3.57984765625,-0.148066406250003,5.81803515625,9.448359375,13.39246484375,7.35968750000001,-2.47954296875,8.99205078125,13.5615546875,5.0947890625,2.14235937500001,6.66744531250001,10.8638203125,8.77663671875,4.98205078125,-9.16116406250001,7.30047265624999,5.98975390625,2.5352578125,1.92635546875,11.98666796875,4.416328125,7.97095703125,3.91912109375001,5.28388671875,3.32623828125,1.97204296875,8.58208203125,-0.353980468750009
-1.52054296875001,2.99184765625,-0.610066406250006,5.54303515625,8.399359375,12.26046484375,5.81068750000001,-4.76454296875,9.46405078124999,13.9575546875,4.2567890625,0.972359375000003,6.2204453125,12.6348203125,8.34163671875,3.98305078125,-10.8691640625,8.27247265625,6.40975390625,1.4592578125,-0.0826445312500041,12.55366796875,4.927328125,7.24795703125,2.56712109375,3.73988671874999,2.11823828125,0.963042968750003,6.81608203124999,-1.97498046875
-2.48554296875,2.00884765625,-0.814066406249999,4.89903515625,7.57835937500001,11.26546484375,4.27468750000001,-6.85154296875,10.01705078125,14.2635546875,3.0577890625,-0.442640624999996,6.3064453125,14.4328203125,7.59963671874999,2.87905078125,-12.3411640625,9.44147265624999,6.53975390625,-0.00574218750000455,-2.26264453125,13.10866796875,5.612328125,6.09295703125,0.996121093750006,1.90688671874999,1.00423828125,0.364042968749999,5.43108203125,-3.48998046875001
-2.66954296875001,1.07184765625001,-0.821066406250004,4.19703515625,7.241359375,10.77546484375,3.2216875,-8.42054296875,10.77205078125,14.7475546875,2.0277890625,-1.598640625,7.1684453125,16.2208203125,7.17063671875,2.14705078125,-13.3831640625,10.88147265625,6.68075390625,-1.2047421875,-4.06564453125,14.05166796875,6.620328125,5.08195703125001,-0.334878906249997,0.281886718749988,0.400238281249997,0.620042968749999,4.94608203125,-4.47398046875
-2.14654296875,0.502847656250005,-0.735066406250006,3.69403515625,7.38935937500001,10.82446484375,2.83268750000001,-9.39954296875,11.60105078125,15.4425546875,1.5267890625,-2.224640625,8.5954453125,17.7188203125,7.33563671875,2.03405078125,-14.0501640625,12.32247265625,6.87775390625,-1.7327421875,-5.15364453125,15.50066796875,7.740328125,4.53895703125001,-1.18087890624999,-0.733113281250013,0.401238281250002,1.80204296875,5.48508203124999,-4.74798046875
-1.25054296875,0.349847656250006,-0.706066406250002,3.46303515625,7.76935937500001,11.11146484375,2.92968750000001,-9.94954296875,12.19105078125,16.0955546875,1.5657890625,-2.405640625,10.0464453125,18.4868203125,7.90363671874999,2.47005078124999,-14.6131640625,13.24447265625,6.85475390625,-1.6247421875,-5.50164453125,17.20366796875,8.461328125,4.38895703125,-1.57087890624999,-0.987113281250004,0.749238281250001,3.55504296875,6.74108203124999,-4.40598046875
-0.437542968750002,0.454847656250003,-0.864066406250004,3.36903515625,7.988359375,11.17546484375,3.1016875,-10.34254296875,12.21505078125,16.3085546875,1.8467890625,-2.456640625,10.9634453125,18.1168203125,8.33963671875,3.15505078125,-15.3851640625,13.12347265625,6.14675390624999,-1.2837421875,-5.35064453125,18.67666796875,8.222328125,4.24895703125,-1.71487890625,-0.586113281250007,1.02323828125,5.30404296875001,8.17308203124999,-3.69298046875001
-0.112542968750006,0.634847656250003,-1.24606640625,3.16003515625,7.68435937500001,10.65246484375,2.9586875,-10.78454296875,11.50305078125,15.7635546875,1.9517890625,-2.662640625,11.0464453125,16.4318203125,8.06963671874999,3.74105078125,-16.5191640625,11.71047265625,4.36375390625,-1.2347421875,-5.03364453125,19.47366796875,6.722328125,3.66795703125,-1.83687890625,0.226886718749995,0.898238281250002,6.57904296875,9.33408203124999,-2.82098046875001
-0.441542968750007,0.809847656250007,-1.77606640625,2.62303515625,6.69335937500001,9.46946484375,2.3526875,-11.28954296875,10.13005078125,14.3935546875,1.5717890625,-3.083640625,10.3464453125,13.6058203125,6.77063671875,4.00705078125,-17.8961640625,9.16147265625,1.42375390625,-1.84074218750001,-4.79264453125,19.41666796875,4.091328125,2.39495703125,-2.04287890625,1.24188671875,0.331238281250009,7.25104296875,10.11208203125,-1.83498046875
-1.24354296875001,1.02184765625,-2.30906640625,1.71203515625,5.128359375,7.88346484375001,1.4336875,-11.67354296875,8.39205078124999,12.4245546875,0.635789062499995,-3.545640625,9.15244531250001,10.1298203125,4.50963671875,3.94105078125,-19.1791640625,5.97947265625,-2.36224609375,-3.1277421875,-4.68864453125,18.66966796875,0.849328125,0.514957031250006,-2.27587890625,2.38288671874999,-0.429761718750001,7.57804296875001,10.77708203125,-0.61298046875001
-2.06354296875001,1.38184765625,-2.68106640625,0.571035156250002,3.32435937500001,6.34046484375001,0.543687500000004,-11.71554296875,6.67305078125,10.2765546875,-0.6772109375,-3.792640625,7.8314453125,6.62782031250001,1.69863671875,3.69005078125001,-20.0141640625,2.81447265625,-6.40324609375,-4.7947421875,-4.61664453125,17.64666796875,-2.309671875,-1.58504296875,-2.36887890625,3.70188671874999,-0.977761718750003,8.03104296875,11.79708203125,1.02001953125
-2.41554296875,1.98384765625001,-2.77406640625,-0.552964843750001,1.70635937500001,5.25446484375,0.00368750000000517,-11.36454296875,5.29605078125,8.4015546875,-2.0462109375,-3.702640625,6.7064453125,3.64582031249999,-1.08636328125,3.43805078125,-20.2651640625,0.236472656249994,-10.04324609375,-6.3867421875,-4.44064453125,16.81466796875,-4.792671875,-3.40004296874999,-2.16187890625,5.25588671874999,-0.952761718749997,9.00704296875,13.53708203125,3.11501953125
-2.03354296875001,2.79884765625,-2.60806640625,-1.44096484375,0.620359375000007,4.80446484375001,-0.0843124999999958,-10.87554296875,4.43305078125,7.11455468749999,-3.1922109375,-3.432640625,5.9744453125,1.50882031250001,-3.32336328125,3.28205078125001,-20.1651640625,-1.42252734375001,-12.77224609375,-7.5147421875,-4.14064453125,16.50666796875,-6.315671875,-4.52304296875,-1.60687890625,6.96988671874999,-0.213761718749993,10.58404296875,15.99908203125,5.49001953125
-0.999542968750006,3.63284765625001,-2.38706640625,-2.01796484375,0.215359375000006,4.88146484375001,0.102687500000002,-10.75354296875,4.08905078124999,6.4945546875,-4.0122109375,-3.380640625,5.6904453125,0.324820312499995,-4.69336328125,3.19005078125001,-20.2641640625,-2.09952734375,-14.32124609375,-7.9957421875,-3.86764453125,16.82766796875,-6.918671875,-4.78704296874999,-0.795878906249996,8.59388671874999,1.10723828125001,12.48104296875,18.78708203125,7.77101953124999
0.299457031249993,4.22484765625001,-2.40906640625001,-2.38396484375,0.398359375000005,5.18246484375001,0.223687500000004,-11.54654296875,4.15005078125,6.43055468749999,-4.5692109375,-3.972640625,5.78644531250001,0.063820312499999,-5.11036328125,3.04905078125,-21.1941640625,-1.90652734375001,-14.63324609375,-7.8707421875,-3.85864453125,17.70866796875,-6.822671875,-4.25504296875,0.117121093750001,9.82388671874999,2.70823828125,14.26704296875,21.33808203125,9.59701953125
1.33545703124999,4.43384765625,-2.87306640625,-2.76996484375,0.912359375000008,5.41646484375001,-0.0153124999999932,-13.58154296875,4.45205078124999,6.76155468749999,-4.9662109375,-5.387640625,6.1204453125,0.666820312499993,-4.65136328125,2.77605078125001,-23.3561640625,-1.00652734375001,-13.77924609375,-7.2977421875,-4.24364453125,19.04666796875,-6.201671875,-3.10204296875,1.03212109375001,10.51388671875,4.30423828125001,15.68904296875,23.27008203125,10.85501953125
1.70545703124999,4.36084765625,-3.71306640625,-3.42096484375,1.49835937500001,5.49546484375,-0.662312499999999,-16.77354296875,4.87605078125,7.41555468749999,-5.2192109375,-7.407640625,6.5384453125,2.10382031250001,-3.46436328125,2.41005078125001,-26.6881640625,0.480472656249994,-11.89624609375,-6.4377421875,-4.91664453125,20.81666796875,-5.046671875,-1.49104296874999,1.97712109375,10.82788671875,5.77023828125,16.86104296875,24.60108203125,11.78601953125
1.35345703125,4.30684765625001,-4.57906640625,-4.46096484375,2.06235937500001,5.60646484375,-1.4623125,-20.57354296875,5.41505078125,8.45455468749999,-5.2222109375,-9.473640625,6.9064453125,4.3608203125,-1.70236328125,2.13305078125001,-30.6241640625,2.46447265625,-9.17424609375,-5.3757421875,-5.53664453125,23.04866796875,-3.192671875,0.492957031250008,3.08212109375,11.21588671875,7.17623828125001,18.18204296875,25.69208203125,12.86401953125
0.628457031249994,4.63784765625,-4.95906640625,-5.76996484375,2.74235937500001,6.13646484375001,-1.95131249999999,-24.11554296875,6.17605078125,10.0315546875,-4.7802109375,-10.900640625,7.14644531250001,7.37482031250001,0.512636718749995,2.22705078125,-34.2471640625,4.85047265625,-5.85524609375,-4.0987421875,-5.65564453125,25.72166796875,-0.471671874999998,2.81595703125,4.51212109375,12.21088671875,8.71123828125,20.03504296875,26.99108203125,14.53201953125
0.142457031249997,5.64884765625,-4.38206640625,-6.93496484375,3.835359375,7.50546484375,-1.6173125,-26.47754296875,7.32505078125,12.3295546875,-3.6602109375,-11.111640625,7.2734453125,10.9868203125,3.12163671875,2.99305078125001,-36.5831640625,7.52447265625,-2.22324609375,-2.51774218750001,-4.89564453125,28.65066796875,3.124328125,5.45995703125001,6.39812109375001,14.18488671875,10.56423828125,22.50904296875,28.74808203125,16.95001953125
0.516457031249992,7.45884765625,-2.62606640625,-7.34196484375,5.679359375,10.02546484375,-0.0603124999999949,-26.96254296875,9.03105078125,15.4965546875,-1.6432109375,-9.800640625,7.4254453125,14.9798203125,6.14563671875,4.66505078125,-36.9241640625,10.38047265625,1.46675390625,-0.492742187499999,-3.07064453125,31.48966796875,7.380328125,8.39295703125,8.79812109375,17.17188671875,12.82823828125,25.31904296875,30.89508203125,19.89901953125
2.16345703125,9.95384765625001,0.146933593749999,-6.39796484375,8.527359375,13.80146484375,2.89968750000001,-25.28054296875,11.43505078125,19.5875546875,1.3887890625,-6.992640625,7.8364453125,19.1678203125,9.65663671874999,7.34805078125,-35.0511640625,13.37147265625,5.06675390625,2.1322578125,-0.22164453125,33.84766796875,11.917328125,11.58295703125,11.68412109375,20.85688671875,15.46423828125,27.96404296875,33.10308203125,22.87601953125
5.16845703124999,12.81684765625,3.42193359375,-3.81296484375,12.461359375,18.69046484375,7.1656875,-21.62854296875,14.62105078125,24.5135546875,5.3747890625,-2.987640625,8.73844531250001,23.4598203125,13.70863671875,10.98005078125,-31.3031640625,16.49347265625,8.56575390625,5.4582578125,3.40935546875,35.45366796875,16.337328125,14.99895703125,14.94512109375,24.70388671875,18.32423828125,30.00504296875,34.97908203125,25.30101953125
9.24845703125,15.65384765625,6.54593359375,0.225035156250001,17.317359375,24.30346484375,12.3726875,-16.63554296875,18.56505078125,30.0245546875,10.0497890625,1.752359375,10.2664453125,27.8238203125,18.22963671875,15.31405078125,-26.4581640625,19.72047265625,12.03475390625,9.4382578125,7.45035546875,36.26666796875,20.336328125,18.58395703125,18.38612109375,28.15888671875,21.19923828125,31.27804296875,36.24808203125,26.74701953125
13.80645703125,18.12684765625,8.99393359375,5.08603515625,22.683359375,30.07046484375,17.9506875,-11.18554296875,23.06905078125,35.7235546875,14.9717890625,6.722359375,12.4094453125,32.1768203125,22.94263671875,19.93405078125,-21.4941640625,22.91647265625,15.47775390625,13.7872578125,11.46135546875,36.48666796875,23.718328125,22.16795703125,21.72412109375,30.80488671875,23.84423828125,31.90504296875,36.83008203125,27.06801953125
18.08445703125,20.01984765625,10.55293359375,9.93303515625,27.957359375,35.35646484375,23.2376875,-6.16554296875,27.73605078125,41.1015546875,19.5907890625,11.439359375,15.0474453125,36.2808203125,27.35663671875,24.30105078125,-17.3131640625,25.81447265625,18.70775390625,17.9802578125,14.98735546875,36.44666796875,26.334328125,25.41295703125,24.59412109375,32.42988671875,25.99223828125,32.14204296875,36.79708203125,26.38301953125
21.36345703125,21.22084765625,11.33493359375,14.00103515625,32.472359375,39.61146484375,27.6126875,-2.24654296875,32.01505078125,45.5965546875,23.3577890625,15.470359375,17.9834453125,39.7358203125,30.87363671875,27.86905078125,-14.5411640625,28.08147265625,21.34175390625,21.3692578125,17.61435546875,36.45166796875,28.039328125,27.85295703125,26.60912109375,33.01088671875,27.38023828125,32.18104296875,36.27208203125,24.97501953125
23.16345703125,21.71384765625,11.66393359375,16.79703515625,35.640359375,42.47746484375,30.6156875,0.20645703125,35.31905078125,48.7135546875,25.8627890625,18.459359375,20.9494453125,42.0848203125,32.98663671875,30.22505078125,-13.4231640625,29.44947265625,22.92375390625,23.4062578125,19.05835546875,36.65966796875,28.724328125,29.05395703125,27.48312109375,32.68088671875,27.80323828125,32.05504296875,35.36708203125,23.17301953125
23.37745703125,21.58584765625,11.92493359375,18.18303515625,37.098359375,43.86646484375,32.0416875,1.12945703125,37.19605078125,50.1785546875,26.9617890625,20.176359375,23.6014453125,43.0038203125,33.48463671875,31.22005078125,-13.8231640625,29.83747265625,23.14675390625,23.8552578125,19.25435546875,37.05366796875,28.405328125,28.82495703125,27.16012109375,31.70388671875,27.20923828125,31.68304296875,34.18708203125,21.28501953125
22.32945703125,21.00084765625,12.39393359375,18.35903515625,36.834359375,43.96046484375,31.9846875,0.71945703125,37.51405078125,50.0525546875,26.8137890625,20.581359375,25.6054453125,42.4938203125,32.56463671875,31.03105078125,-15.3051640625,29.40747265625,22.03775390625,22.9092578125,18.40535546875,37.51166796875,27.294328125,27.35395703125,25.88512109375,30.44588671875,25.75723828125,30.99704296875,32.86708203125,19.59201953125
20.70145703125,20.15684765625,13.13093359375,17.75803515625,35.213359375,43.15846484375,30.8156875,-0.602542968750001,36.54005078125,48.7445546875,25.8187890625,19.866359375,26.7664453125,40.9448203125,30.78763671875,30.11205078125,-17.2431640625,28.52547265625,20.01775390625,21.1462578125,16.96535546875,37.92966796875,25.784328125,25.18795703125,24.14812109375,29.32688671875,23.81823828125,30.05504296875,31.61108203125,18.35201953125
19.28445703125,19.26684765625,13.97693359375,16.87503515625,32.849359375,41.93746484375,29.0686875,-2.28654296875,34.85705078125,46.8865546875,24.4717890625,18.454359375,27.1424453125,39.0298203125,28.88163671875,29.04005078125,-18.9811640625,27.64047265625,17.76375390625,19.3302578125,15.53035546875,38.30366796875,24.352328125,23.04695703125,22.53912109375,28.74988671875,21.89723828125,29.09004296875,30.69408203125,17.80001953125
18.66245703125,18.56784765625,14.65793359375,16.08203515625,30.377359375,40.68946484375,27.2656875,-3.79954296875,33.13605078125,45.1205546875,23.2047890625,16.896359375,27.0104453125,37.4298203125,27.46963671875,28.31205078125,-19.9951640625,27.11347265625,15.94875390625,18.1312578125,14.65335546875,38.74166796875,23.392328125,21.56595703125,21.55212109375,29.00488671875,20.49323828125,28.46404296875,30.41508203125,18.10101953125
18.98945703125,18.27984765625,14.94393359375,15.52603515625,28.234359375,39.59446484375,25.7436875,-4.76954296875,31.88505078125,43.8525546875,22.2447890625,15.687359375,26.7094453125,36.5528203125,26.83363671875,28.15705078125,-20.0581640625,27.06747265625,14.96075390625,17.8842578125,14.63235546875,39.37166796875,23.064328125,21.05495703125,21.41912109375,30.16288671875,19.94223828125,28.51804296875,30.99608203125,19.29101953125
19.96745703125,18.50084765625,14.75293359375,15.15003515625,26.547359375,38.59446484375,24.5526875,-5.10254296875,31.29605078125,43.1235546875,21.5377890625,15.068359375,26.4554453125,36.3898203125,26.82563671875,28.44705078125,-19.3341640625,27.33447265625,14.75375390625,18.4672578125,15.37435546875,40.22566796875,23.219328125,21.38995703125,22.02912109375,32.00088671875,20.29923828125,29.41204296875,32.46408203125,21.21001953125
21.02445703125,19.13684765625,14.18893359375,14.81003515625,25.178359375,37.48146484375,23.4986875,-5.00054296875,31.23705078125,42.6545546875,20.8127890625,14.935359375,26.2524453125,36.5748203125,26.97663671875,28.75405078125,-18.3281640625,27.54247265625,14.91675390625,19.3802578125,16.41935546875,41.17366796875,23.461328125,22.09195703125,22.98512109375,34.03488671875,21.30523828125,31.02004296875,34.58908203125,23.50401953125
21.59045703125,19.92784765625,13.49393359375,14.40803515625,23.879359375,36.05746484375,22.3186875,-4.86754296875,31.36705078125,42.0675546875,19.7737890625,14.938359375,25.9504453125,36.6158203125,26.76363671875,28.56305078125,-17.6751640625,27.32047265625,14.90275390625,19.9792578125,17.16535546875,41.97066796875,23.347328125,22.57195703125,23.78612109375,35.69788671875,22.49223828125,32.96704296875,36.93108203125,25.70601953125
21.36745703125,20.57884765625,12.95493359375,13.95703515625,22.495359375,34.30246484375,20.9056875,-5.08654296875,31.33505078125,41.1435546875,18.3227890625,14.729359375,25.3964453125,36.1758203125,25.89263671875,27.56405078125,-17.8351640625,26.49847265625,14.31975390625,19.7902578125,17.18335546875,42.38066796875,22.605328125,22.40595703125,24.07112109375,36.59488671875,23.38523828125,34.78504296875,38.98908203125,27.39801953125
20.46945703125,20.89184765625,12.78693359375,13.55103515625,21.091359375,32.44046484375,19.4316875,-5.76754296875,30.94905078125,39.9535546875,16.6507890625,14.179359375,24.5554453125,35.2678203125,24.44663671875,25.86605078125,-18.8511640625,25.17847265625,13.10475390625,18.7472578125,16.45835546875,42.29066796875,21.270328125,21.51895703125,23.78312109375,36.70588671875,23.71123828125,36.09704296875,40.39908203125,28.38201953125
19.31845703125,20.84384765625,13.04493359375,13.25403515625,19.897359375,30.84746484375,18.2716875,-6.66454296875,30.21705078125,38.7885546875,15.1507890625,13.456359375,23.5414453125,34.2078203125,22.80663671875,23.98405078125,-20.3321640625,23.64747265625,11.50275390625,17.2042578125,15.39535546875,41.74566796875,19.633328125,20.14895703125,23.16612109375,36.40888671875,23.49423828125,36.73504296875,41.05908203125,28.73301953125
18.34445703125,20.55884765625,13.60593359375,13.01203515625,19.095359375,29.83146484375,17.7456875,-7.34654296875,29.25105078125,37.9415546875,14.1787890625,12.889359375,22.5414453125,33.3748203125,21.37763671875,22.56905078125,-21.6761640625,22.18147265625,9.84975390625,15.7052578125,14.57035546875,40.87966796875,18.046328125,18.65495703125,22.57012109375,36.26888671875,22.97323828125,36.73204296875,41.09908203125,28.70601953125
17.71845703125,20.19884765625,14.19293359375,12.64703515625,18.636359375,29.42746484375,17.8726875,-7.51154296875,28.13605078125,37.4945546875,13.8277890625,12.742359375,21.7174453125,32.9358203125,20.32163671875,22.03905078125,-22.4201640625,20.88647265625,8.32575390625,14.6582578125,14.39335546875,39.82566796875,16.708328125,17.27895703125,22.20812109375,36.72388671875,22.39923828125,36.22804296875,40.74208203125,28.55001953125
17.31345703125,19.83184765625,14.43093359375,11.98103515625,18.249359375,29.35846484375,18.3006875,-7.19454296875,26.91405078125,37.2665546875,13.8227890625,13.030359375,21.1514453125,32.7568203125,19.46863671875,22.34605078125,-22.4851640625,19.70547265625,6.86675390625,14.1282578125,14.87735546875,38.68466796875,15.584328125,16.03895703125,22.03012109375,37.83988671875,21.86723828125,35.36804296875,40.16408203125,28.37901953125
16.88545703125,19.39584765625,13.99193359375,10.97403515625,17.625359375,29.17946484375,18.4916875,-6.74454296875,25.64905078125,36.9385546875,13.6567890625,13.500359375,20.8684453125,32.5458203125,18.47263671875,23.01605078125,-22.1731640625,18.54947265625,5.28475390625,13.8612578125,15.67135546875,37.56766796875,14.510328125,14.80995703125,21.79812109375,39.31488671875,21.32223828125,34.30304296875,39.47108203125,28.18501953125
16.28545703125,18.83284765625,12.79593359375,9.77503515625,16.626359375,28.52646484375,18.0366875,-6.61354296875,24.49405078125,36.3005546875,12.8827890625,13.789359375,20.8884453125,32.0928203125,17.09463671875,23.44205078125,-21.9481640625,17.46247265625,3.49575390625,13.4992578125,16.30035546875,36.66666796875,13.398328125,13.51995703125,21.30712109375,40.69288671875,20.69723828125,33.25104296875,38.77608203125,27.96601953125
15.56345703125,18.24084765625,11.15493359375,8.67003515625,15.394359375,27.33446484375,16.9296875,-7.08554296875,23.68405078125,35.4275546875,11.4177890625,13.637359375,21.2554453125,31.4518203125,15.43563671875,23.24705078125,-22.1471640625,16.66847265625,1.68375390625,12.8472578125,16.46135546875,36.24866796875,12.378328125,12.31495703125,20.57012109375,41.64588671875,20.07623828125,32.53804296875,38.27408203125,27.82701953125
14.95845703125,17.89884765625,9.70293359375,7.97703515625,14.317359375,25.89846484375,15.6216875,-8.09754296875,23.48105078125,34.6865546875,9.6517890625,13.042359375,22.0064453125,30.9698203125,13.96863671875,22.52705078125,-22.7981640625,16.48847265625,0.300753906249998,12.0242578125,16.18635546875,36.56666796875,11.790328125,11.57095703125,19.86812109375,42.14388671875,19.73223828125,32.53204296875,38.21708203125,27.98401953125
14.81245703125,18.12084765625,9.12493359375,7.95203515625,13.895359375,24.76146484375,14.8036875,-9.26054296875,24.08005078125,34.5635546875,8.2787890625,12.247359375,23.1194453125,31.1498203125,13.34863671875,21.80405078125,-23.6561640625,17.18347265625,-0.102246093750001,11.4282578125,15.79435546875,37.74066796875,12.037328125,11.72895703125,19.61712109375,42.40788671875,20.02123828125,33.48504296875,38.80408203125,28.65501953125
15.41445703125,19.06984765625,9.83893359375,8.72903515625,14.523359375,24.45746484375,15.0446875,-10.05954296875,25.53405078125,35.4225546875,7.9707890625,11.610359375,24.4764453125,32.4018203125,14.08963671875,21.73805078125,-24.3791640625,18.83047265625,0.873753906249998,11.5422578125,15.68935546875,39.68466796875,13.391328125,13.06895703125,20.15412109375,42.73388671875,21.18023828125,35.38604296875,40.05908203125,29.90801953125
16.85045703125,20.67284765625,11.79993359375,10.27803515625,16.308359375,25.25946484375,16.4876875,-10.12854296875,27.70705078125,37.3385546875,9.0737890625,11.441359375,25.8914453125,34.8228203125,16.30163671875,22.74705078125,-24.7421640625,21.29247265625,3.28475390625,12.6812578125,16.12435546875,42.11766796875,15.847328125,15.53395703125,21.55412109375,43.28988671875,23.18023828125,37.91604296875,41.77008203125,31.58001953125
18.97445703125,22.65384765625,14.51693359375,12.40603515625,19.023359375,27.08946484375,18.7926875,-9.41454296875,30.31605078125,40.0865546875,11.4717890625,11.877359375,27.1754453125,38.1248203125,19.62063671875,24.78905078125,-24.7401640625,24.27947265625,6.79275390625,14.8422578125,17.08035546875,44.66966796875,19.094328125,18.72995703125,23.59812109375,44.03988671875,25.70123828125,40.53004296875,43.54708203125,33.31401953125
21.49945703125,24.64284765625,17.24293359375,14.79003515625,22.209359375,29.59346484375,21.3226875,-8.16354296875,33.04105078125,43.2495546875,14.6497890625,12.846359375,28.2194453125,41.7498203125,23.35363671875,27.39605078125,-24.5571640625,27.45147265625,10.78775390625,17.6942578125,18.29235546875,47.00366796875,22.602328125,22.07895703125,25.87812109375,44.80288671875,28.25623828125,42.66204296875,44.97108203125,34.71201953125
24.09145703125,26.30984765625,19.29093359375,17.03303515625,25.345359375,32.30246484375,23.4456875,-6.79654296875,35.61305078125,46.3695546875,17.9137890625,14.113359375,29.0404453125,45.0768203125,26.75063671875,29.90705078125,-24.4511640625,30.47547265625,14.58375390625,20.6982578125,19.40135546875,48.91366796875,25.784328125,25.02795703125,27.97812109375,45.38588671875,30.36923828125,43.94504296875,45.76108203125,35.50701953125
26.38645703125,27.48984765625,20.31593359375,18.75203515625,27.990359375,34.79146484375,24.7966875,-5.74554296875,37.83205078125,49.0865546875,20.6497890625,15.404359375,29.7694453125,47.6188203125,29.27563671875,31.77205078125,-24.6231640625,33.03647265625,17.60575390625,23.2802578125,20.14235546875,50.34066796875,28.158328125,27.21395703125,29.61612109375,45.70788671875,31.73423828125,44.34004296875,45.88408203125,35.66201953125
28.02145703125,28.21384765625,20.43993359375,19.68603515625,29.883359375,36.79346484375,25.3846875,-5.29254296875,39.54605078125,51.2205546875,22.5447890625,16.529359375,30.5824453125,49.1478203125,30.77963671875,32.76905078125,-25.1391640625,34.86347265625,19.51675390625,25.0282578125,20.46535546875,51.33666796875,29.471328125,28.53495703125,30.70512109375,45.84088671875,32.28423828125,44.10704296875,45.54608203125,35.37001953125
28.72545703125,28.64584765625,20.13393359375,19.80403515625,30.987359375,38.24846484375,25.5336875,-5.46554296875,40.65105078125,52.7805546875,23.6597890625,17.454359375,31.5784453125,49.7368203125,31.51263671875,33.08505078125,-25.9331640625,35.78347265625,20.27075390625,25.8282578125,20.54535546875,52.01266796875,29.744328125,29.10495703125,31.32612109375,45.95788671875,32.18023828125,43.66004296875,45.09008203125,34.94701953125
28.44245703125,28.97884765625,19.93893359375,19.31203515625,31.444359375,39.27146484375,25.6866875,-6.05954296875,41.11305078125,53.9125546875,24.3417890625,18.268359375,32.6814453125,49.6938203125,31.96863671875,33.20605078125,-26.8631640625,35.80547265625,20.08675390625,25.8942578125,20.65935546875,52.51666796875,29.249328125,29.16795703125,31.64812109375,46.23188671875,31.72323828125,43.38604296875,44.85508203125,34.68501953125
27.36245703125,29.37084765625,20.17293359375,18.54103515625,31.471359375,40.04746484375,26.1956875,-6.78454296875,40.98805078125,54.8025546875,25.0307890625,19.086359375,33.6424453125,49.4258203125,32.64163671875,33.67205078125,-27.8101640625,35.16147265625,19.35575390625,25.6482578125,21.01935546875,53.00366796875,28.400328125,28.99095703125,31.83412109375,46.74788671875,31.24323828125,43.51504296875,45.05808203125,34.72201953125
25.88645703125,29.89684765625,20.77593359375,17.78903515625,31.263359375,40.73346484375,27.1846875,-7.43754296875,40.44505078125,55.6005546875,26.0527890625,19.946359375,34.1594453125,49.2958203125,33.81163671875,34.82205078125,-28.7291640625,34.24447265625,18.51975390625,25.5332578125,21.64535546875,53.58466796875,27.610328125,28.79295703125,31.98212109375,47.45888671875,30.98923828125,44.06904296875,45.73908203125,34.99701953125
24.53045703125,30.51184765625,21.34993359375,17.21903515625,30.966359375,41.41046484375,28.5526875,-7.96154296875,39.76005078125,56.3905546875,27.4867890625,20.770359375,34.0554453125,49.5488203125,35.46763671875,36.65405078125,-29.6391640625,33.46447265625,17.95175390625,25.8442578125,22.36635546875,54.26666796875,27.160328125,28.71595703125,32.12112109375,48.22888671875,31.07223828125,44.89504296875,46.78608203125,35.33001953125
23.79145703125,31.04884765625,21.37793359375,16.86603515625,30.694359375,42.09946484375,30.0646875,-8.38854296875,39.24105078125,57.1985546875,29.1507890625,21.411359375,33.3774453125,50.2858203125,37.36863671875,38.86305078125,-30.5601640625,33.08947265625,17.87275390625,26.6602578125,22.94335546875,54.93666796875,27.127328125,28.83595703125,32.27212109375,48.92088671875,31.46923828125,45.76704296875,48.00808203125,35.58401953125
23.94145703125,31.33284765625,20.55193359375,16.68903515625,30.536359375,42.78346484375,31.4776875,-8.74954296875,39.10505078125,58.0265546875,30.7157890625,21.769359375,32.3834453125,51.4628203125,39.18663671875,41.00905078125,-31.4331640625,33.16047265625,18.31375390625,27.8752578125,23.24535546875,55.41666796875,27.395328125,29.19395703125,32.50812109375,49.50688671875,32.08423828125,46.52104296875,49.25208203125,35.80301953125
24.89245703125,31.33984765625,18.99793359375,16.60303515625,30.548359375,43.42646484375,32.6326875,-9.01954296875,39.36305078125,58.8795546875,31.8907890625,21.883359375,31.4154453125,52.8918203125,40.66863671875,42.72705078125,-32.1141640625,33.53147265625,19.13775390625,29.2932578125,23.36135546875,55.59366796875,27.766328125,29.82595703125,32.98312109375,50.13188671875,32.84723828125,47.15404296875,50.48808203125,36.25501953125
26.25345703125,31.26484765625,17.29293359375,16.51203515625,30.751359375,44.00046484375,33.4886875,-9.11154296875,39.84305078125,59.7755546875,32.5617890625,21.932359375,30.7624453125,54.3208203125,41.74663671875,43.89305078125,-32.4471640625,34.00347265625,20.13875390625,30.7372578125,23.58035546875,55.52466796875,28.096328125,30.77495703125,33.89212109375,51.06888671875,33.77423828125,47.82904296875,51.83008203125,37.32201953125
27.56945703125,31.44584765625,16.23893359375,16.33103515625,31.166359375,44.50646484375,34.1096875,-8.91954296875,40.31905078125,60.7365546875,32.8307890625,22.152359375,30.5644453125,55.5488203125,42.55863671875,44.65205078125,-32.3711640625,34.46547265625,21.15375390625,32.1282578125,24.23535546875,55.44766796875,28.398328125,32.07395703125,35.38712109375,52.58588671875,34.95123828125,48.77304296875,53.45408203125,39.30501953125
28.53745703125,32.20084765625,16.52293359375,16.00703515625,31.807359375,44.97046484375,34.6066875,-8.41054296875,40.65005078125,61.7985546875,32.9577890625,22.704359375,30.7954453125,56.5208203125,43.37363671875,45.31505078125,-31.9901640625,34.94947265625,22.12975390625,33.4722578125,25.51935546875,55.67766796875,28.834328125,33.71595703125,37.48312109375,54.79188671875,36.45423828125,50.12704296875,55.46108203125,42.24501953125
29.06945703125,33.67184765625,18.38993359375,15.51803515625,32.657359375,45.42346484375,35.0666875,-7.71654296875,40.83505078125,63.0025546875,33.2427890625,23.587359375,31.3124453125,57.3238203125,44.44563671875,46.17305078125,-31.5541640625,35.58347265625,23.09775390625,34.8052578125,27.36635546875,56.43166796875,29.601328125,35.61295703125,40.02012109375,57.54788671875,38.25823828125,51.84904296875,57.75508203125,45.83601953125
29.25645703125,35.73684765625,21.45893359375,14.89003515625,33.641359375,45.87846484375,35.4966875,-7.14654296875,40.98905078125,64.3685546875,33.8697890625,24.615359375,31.9454453125,58.1068203125,45.87063671875,47.32705078125,-31.3701640625,36.47647265625,24.10275390625,36.1142578125,29.46035546875,57.70266796875,30.790328125,37.60095703125,42.68012109375,60.47688671875,40.20823828125,53.71604296875,60.04008203125,49.48901953125
29.31245703125,38.01684765625,24.82293359375,14.23103515625,34.643359375,46.33146484375,35.8116875,-7.05254296875,41.27505078125,65.8475546875,34.8047890625,25.487359375,32.5754453125,58.9808203125,47.52363671875,48.65105078125,-31.6641640625,37.63647265625,25.15075390625,37.3322578125,31.37335546875,59.26066796875,32.330328125,39.49895703125,45.09412109375,63.10488671875,42.09523828125,55.43904296875,61.94908203125,52.52701953125
29.50045703125,40.03384765625,27.45693359375,13.74803515625,35.539359375,46.76946484375,35.8816875,-7.62454296875,41.82705078125,67.2975546875,35.8067890625,25.934359375,33.1864453125,59.9518203125,49.12463671875,49.89005078125,-32.4711640625,38.97047265625,26.23375390625,38.3862578125,32.77035546875,60.79466796875,34.045328125,41.19695703125,46.99012109375,65.05188671875,43.78023828125,56.83204296875,63.25008203125,54.45701953125
30.02345703125,41.45684765625,28.74093359375,13.68803515625,36.221359375,47.18146484375,35.6236875,-8.73954296875,42.67105078125,68.5255546875,36.5797890625,25.904359375,33.8344453125,60.9318203125,50.39663671875,50.84205078125,-33.5881640625,40.34647265625,27.36875390625,39.2602578125,33.56935546875,62.09466796875,35.786328125,42.72095703125,48.30512109375,66.19188671875,45.29123828125,57.93904296875,64.00708203125,55.17301953125
30.94045703125,42.25584765625,28.73893359375,14.21203515625,36.618359375,47.56146484375,35.1006875,-9.95854296875,43.69505078125,69.3615546875,36.9507890625,25.646359375,34.5794453125,61.7988203125,51.19263671875,51.48505078125,-34.6421640625,41.65247265625,28.59875390625,39.9972578125,33.96635546875,63.13766796875,37.497328125,44.18995703125,49.18312109375,66.67288671875,46.79723828125,59.00804296875,64.56108203125,54.99101953125
32.15545703125,42.65284765625,28.06493359375,15.27603515625,36.712359375,47.89846484375,34.5276875,-10.69354296875,44.70805078125,69.7255546875,36.9437890625,25.597359375,35.4104453125,62.4858203125,51.51563671875,51.97805078125,-35.2591640625,42.80947265625,29.93075390625,40.6382578125,34.29435546875,64.04366796875,39.181328125,45.68095703125,49.83712109375,66.79688671875,48.47523828125,60.31804296875,65.32408203125,54.46401953125
33.47345703125,42.92884765625,27.43293359375,16.60803515625,36.548359375,48.16046484375,34.1846875,-10.50054296875,45.54205078125,69.6435546875,36.7077890625,26.127359375,36.2244453125,63.0098203125,51.44663671875,52.52305078125,-35.2461640625,43.75547265625,31.25775390625,41.1462578125,34.81135546875,64.94266796875,40.797328125,47.11195703125,50.38312109375,66.83888671875,50.34423828125,61.96904296875,66.51408203125,54.10101953125
34.65345703125,43.25984765625,27.24293359375,17.81003515625,36.222359375,48.26346484375,34.2576875,-9.36454296875,46.14105078125,69.2365546875,36.4007890625,27.283359375,36.8884453125,63.4398203125,51.04663671875,53.20205078125,-34.6941640625,44.43247265625,32.34075390625,41.3862578125,35.55035546875,65.85866796875,42.188328125,48.22695703125,50.76212109375,66.93488671875,52.19423828125,63.78004296875,68.01008203125,54.13601953125
35.45645703125,43.65484765625,27.41493359375,18.53803515625,35.867359375,48.10646484375,34.7266875,-7.75754296875,46.57505078125,68.6775546875,36.0947890625,28.736359375,37.3134453125,63.8298203125,50.33663671875,53.91305078125,-33.9171640625,44.78547265625,32.86975390625,41.2042578125,36.33435546875,66.67566796875,43.105328125,48.69795703125,50.80712109375,67.08188671875,53.64323828125,65.35304296875,69.39108203125,54.48001953125
35.73845703125,43.98584765625,27.54493359375,18.67303515625,35.632359375,47.63946484375,35.3816875,-6.38854296875,46.99305078125,68.1305546875,35.7757890625,29.948359375,37.5094453125,64.1768203125,49.33063671875,54.44805078125,-33.2781640625,44.77047265625,32.57575390625,40.5312578125,36.91235546875,67.19466796875,43.293328125,48.28095703125,50.39212109375,67.22788671875,54.29123828125,66.24404296875,70.14908203125,54.85101953125
35.52645703125,44.07384765625,27.24293359375,18.37603515625,35.650359375,46.94646484375,35.9386875,-5.79154296875,47.54305078125,67.6905546875,35.3837890625,30.473359375,37.5714453125,64.4238203125,48.09263671875,54.63805078125,-33.0031640625,44.36547265625,31.33775390625,39.4512578125,37.12235546875,67.24766796875,42.614328125,46.93195703125,49.54312109375,67.35488671875,53.88923828125,66.14904296875,69.93608203125,54.97201953125
35.01545703125,43.79384765625,26.45693359375,18.00203515625,35.969359375,46.23646484375,36.1876875,-6.04554296875,48.28505078125,67.3705546875,34.8817890625,30.190359375,37.6384453125,64.4808203125,46.75863671875,54.45705078125,-33.0961640625,43.59847265625,29.25075390625,38.1722578125,36.95335546875,66.80666796875,41.121328125,44.83695703125,48.44812109375,67.50688671875,52.43523828125,65.03204296875,68.71208203125,54.70901953125
34.46745703125,43.13884765625,25.53493359375,17.92203515625,36.507359375,45.76146484375,36.0806875,-6.78754296875,49.14405078125,67.1275546875,34.2837890625,29.350359375,37.8064453125,64.2678203125,45.51763671875,54.02005078125,-33.3961640625,42.57847265625,26.61375390625,36.9162578125,36.50335546875,66.01666796875,39.075328125,42.34695703125,47.35112109375,67.73888671875,50.16623828125,63.11004296875,66.71208203125,54.07901953125
34.09745703125,42.18584765625,24.99393359375,18.36003515625,37.080359375,45.68846484375,35.7156875,-7.47754296875,49.94405078125,66.9055546875,33.6297890625,28.399359375,38.0464453125,63.7708203125,44.53663671875,53.48805078125,-33.7181640625,41.48647265625,23.84975390625,35.8072578125,35.87535546875,65.11566796875,36.853328125,39.83895703125,46.42012109375,68.05188671875,47.43723828125,60.70904296875,64.26908203125,53.15401953125
33.98045703125,41.00684765625,25.16293359375,19.27803515625,37.473359375,46.00446484375,35.2576875,-7.69554296875,50.47805078125,66.6555546875,32.9387890625,27.731359375,38.1894453125,63.0788203125,43.87863671875,52.97805078125,-33.9691640625,40.51247265625,21.36775390625,34.8332578125,35.10935546875,64.29966796875,34.817328125,37.57995703125,45.67312109375,68.34888671875,44.59223828125,58.09404296875,61.62608203125,51.96801953125
34.00645703125,39.66784765625,25.97893359375,20.38003515625,37.514359375,46.50946484375,34.8476875,-7.33454296875,50.58205078125,66.3415546875,32.2057890625,27.517359375,38.0214453125,62.3688203125,43.48163671875,52.53105078125,-34.1721640625,39.79047265625,19.44175390625,33.9002578125,34.20535546875,63.64266796875,33.202328125,35.66695703125,45.02212109375,68.48788671875,41.89123828125,55.41304296875,58.88608203125,50.51401953125
33.90845703125,38.32284765625,27.04993359375,21.21503515625,37.123359375,46.89846484375,34.5796875,-6.59654296875,50.18105078125,65.9715546875,31.4637890625,27.707359375,37.4654453125,61.8258203125,43.20863671875,52.16305078125,-34.3891640625,39.35447265625,18.15075390625,32.9642578125,33.21435546875,63.11966796875,32.080328125,34.08595703125,44.38612109375,68.39288671875,39.54323828125,52.77704296875,56.12708203125,48.83401953125
33.41545703125,37.27284765625,27.88993359375,21.38403515625,36.334359375,46.89746484375,34.5166875,-5.83154296875,49.32805078125,65.6035546875,30.8357890625,28.135359375,36.6974453125,61.5758203125,42.93963671875,51.93405078125,-34.6391640625,39.15047265625,17.42675390625,32.1242578125,32.29535546875,62.70966796875,31.415328125,32.83495703125,43.79112109375,68.13288671875,37.76823828125,50.40604296875,53.55408203125,47.11501953125
32.44845703125,36.86884765625,28.13093359375,20.74903515625,35.301359375,46.37646484375,34.6986875,-5.33654296875,48.22405078125,65.3345546875,30.4957890625,28.625359375,36.0804453125,61.6568203125,42.62463671875,51.94505078125,-34.8701640625,39.06847265625,17.12975390625,31.5962578125,31.65635546875,62.47366796875,31.131328125,31.98095703125,43.34412109375,67.88588671875,36.79723828125,48.67404296875,51.55108203125,45.69101953125
31.19745703125,37.32384765625,27.67993359375,19.50603515625,34.249359375,45.37746484375,35.1076875,-5.23154296875,47.15805078125,65.2465546875,30.5527890625,29.027359375,35.9304453125,62.0208203125,42.25163671875,52.25205078125,-35.0151640625,38.98347265625,17.12375390625,31.5582578125,31.41335546875,62.54166796875,31.154328125,31.61395703125,43.11712109375,67.82188671875,36.78923828125,47.99704296875,50.55108203125,44.91301953125
29.99645703125,38.57484765625,26.77293359375,18.06603515625,33.375359375,44.05446484375,35.6306875,-5.48354296875,46.38005078125,65.3555546875,30.9467890625,29.223359375,36.2884453125,62.5588203125,41.79763671875,52.77005078125,-35.0721640625,38.79447265625,17.29075390625,31.9832578125,31.49135546875,63.01566796875,31.427328125,31.74795703125,43.04212109375,67.98688671875,37.71523828125,48.63804296875,50.82508203125,44.98601953125
29.10745703125,40.26984765625,25.89393359375,16.83403515625,32.752359375,42.58546484375,36.0516875,-6.00654296875,45.97605078125,65.5745546875,31.4147890625,29.117359375,36.8654453125,63.1378203125,41.19363671875,53.25805078125,-35.1301640625,38.43747265625,17.50475390625,32.5862578125,31.65135546875,63.86566796875,31.895328125,32.24695703125,42.92512109375,68.29588671875,39.32323828125,50.55004296875,52.30908203125,45.85701953125
28.60845703125,41.85684765625,25.51093359375,16.01103515625,32.301359375,41.11246484375,36.1056875,-6.75454296875,45.83005078125,65.7225546875,31.5577890625,28.629359375,37.1884453125,63.6448203125,40.35163671875,53.39705078125,-35.3301640625,37.89247265625,17.63575390625,32.9412578125,31.63035546875,64.87266796875,32.508328125,32.86195703125,42.56512109375,68.60788671875,41.20223828125,53.35204296875,54.58408203125,47.23801953125
28.42245703125,42.76284765625,25.77493359375,15.52403515625,31.830359375,39.72046484375,35.5706875,-7.75054296875,45.68805078125,65.5765546875,30.9967890625,27.697359375,36.8424453125,64.0028203125,39.21963671875,52.92605078125,-35.8061640625,37.16547265625,17.57175390625,32.6952578125,31.30035546875,65.68266796875,33.212328125,33.33895703125,41.89612109375,68.83988671875,42.93523828125,56.46304296875,57.02708203125,48.74201953125
28.40645703125,42.62384765625,26.40693359375,15.08003515625,31.116359375,38.44446484375,34.3666875,-9.08754296875,45.27505078125,64.9785546875,29.5617890625,26.315359375,35.6504453125,64.1598203125,37.83763671875,51.76405078125,-36.6291640625,36.28947265625,17.27775390625,31.7602578125,30.74235546875,65.94966796875,33.943328125,33.55095703125,41.07212109375,69.03588671875,44.24623828125,59.30704296875,59.06808203125,50.06601953125
28.44545703125,41.49284765625,26.89093359375,14.33703515625,30.029359375,37.30346484375,32.6196875,-10.84054296875,44.41105078125,63.9535546875,27.4147890625,24.596359375,33.7404453125,64.0818203125,36.36463671875,50.07305078125,-37.7821640625,35.34247265625,16.82775390625,30.3902578125,30.21635546875,65.52266796875,34.647328125,33.57595703125,40.44112109375,69.37288671875,45.11523828125,61.53304296875,60.43708203125,51.13301953125
28.54745703125,39.86184765625,26.84593359375,13.11103515625,28.648359375,36.36246484375,30.6786875,-12.94854296875,43.11605078125,62.7435546875,25.0417890625,22.804359375,31.4874453125,63.7868203125,35.06263671875,48.25105078125,-39.1521640625,34.46647265625,16.42475390625,29.1122578125,30.04735546875,64.58366796875,35.320328125,33.69195703125,40.44712109375,70.09188671875,45.79323828125,63.12804296875,61.28008203125,52.15301953125
28.86145703125,38.48984765625,26.31393359375,11.50503515625,27.288359375,35.76946484375,29.0346875,-15.12054296875,41.63305078125,61.7505546875,23.0907890625,21.318359375,29.3854453125,63.3948203125,34.24163671875,46.84605078125,-40.5301640625,33.85047265625,16.35875390625,28.5412578125,30.49035546875,63.61366796875,36.041328125,34.27795703125,41.47012109375,71.39988671875,46.72423828125,64.38504296875,62.07308203125,53.54101953125
29.57345703125,38.11184765625,25.75693359375,9.87303515625,26.394359375,35.74546484375,28.1836875,-16.89554296875,40.34005078125,61.3995546875,22.1507890625,20.536359375,27.8654453125,63.1218203125,34.17563671875,46.38005078125,-41.6501640625,33.67647265625,16.90475390625,29.1542578125,31.62235546875,63.19566796875,36.952328125,35.64695703125,43.67712109375,73.36788671875,48.36323828125,65.73404296875,63.38608203125,55.72001953125
30.73845703125,39.17784765625,25.79293359375,8.63303515625,26.345359375,36.49746484375,28.4676875,-17.81754296875,39.58705078125,61.9965546875,22.5607890625,20.744359375,27.1574453125,63.2198203125,35.02363671875,47.16305078125,-42.2491640625,34.05447265625,18.19475390625,31.0962578125,33.33135546875,63.73466796875,38.183328125,37.89295703125,46.93412109375,75.90288671875,50.97823828125,67.52904296875,65.59608203125,58.89501953125
32.22845703125,41.70384765625,26.84393359375,8.07803515625,27.310359375,38.14546484375,29.9836875,-17.63154296875,39.57605078125,63.6445546875,24.3307890625,22.029359375,27.2624453125,63.9068203125,36.79163671875,49.19605078125,-42.1561640625,34.98947265625,20.14875390625,34.1462578125,35.38435546875,65.29566796875,39.792328125,40.84295703125,50.84512109375,78.78288671875,54.52123828125,69.88904296875,68.73508203125,62.92801953125
33.83445703125,45.28484765625,28.95093359375,8.28403515625,29.228359375,40.66946484375,32.5756875,-16.37254296875,40.35205078125,66.2485546875,27.1727890625,24.245359375,28.0314453125,65.3318203125,39.34663671875,52.19505078125,-41.3671640625,36.41247265625,22.52075390625,37.8312578125,37.55235546875,67.63766796875,41.747328125,44.14295703125,54.90212109375,81.74888671875,58.64723828125,72.68904296875,72.51408203125,67.38601953125
35.40545703125,49.28984765625,31.84093359375,9.14003515625,31.871359375,43.90046484375,35.8856875,-14.34554296875,41.84605078125,69.5735546875,30.6297890625,27.058359375,29.2994453125,67.5448203125,42.46563671875,55.72205078125,-40.0641640625,38.22847265625,25.00675390625,41.6062578125,39.69535546875,70.36366796875,43.951328125,47.40495703125,58.65912109375,84.59288671875,62.84723828125,75.64004296875,76.48408203125,71.70301953125
36.88945703125,53.10784765625,35.11893359375,10.43603515625,34.903359375,47.52446484375,39.4326875,-12.02754296875,43.91805078125,73.3105546875,34.2257890625,30.036359375,30.9434453125,70.4508203125,45.87363671875,59.30705078125,-38.5601640625,40.34047265625,27.32575390625,45.0062578125,41.76835546875,73.07866796875,46.255328125,50.32195703125,61.83512109375,87.18088671875,66.61023828125,78.39604296875,80.19108203125,75.36001953125
38.28445703125,56.30484765625,38.40893359375,11.93903515625,37.940359375,51.12846484375,42.7186875,-9.91454296875,46.37105078125,77.1085546875,37.5487890625,32.748359375,32.8444453125,73.7748203125,49.24363671875,62.53205078125,-37.2011640625,42.61247265625,29.23875390625,47.7122578125,43.73535546875,75.43666796875,48.440328125,52.67895703125,64.30412109375,89.41188671875,69.52223828125,80.60004296875,83.23008203125,77.97301953125
39.59345703125,58.61784765625,41.33793359375,13.43903515625,40.619359375,54.28046484375,45.3306875,-8.37954296875,48.97905078125,80.5845546875,40.2757890625,34.838359375,34.7994453125,77.0928203125,52.20763671875,65.06105078125,-36.2831640625,44.82347265625,30.54275390625,49.5412578125,45.47035546875,77.14866796875,50.219328125,54.30195703125,66.00812109375,91.15088671875,71.29623828125,81.88404296875,85.23608203125,79.30901953125
40.79845703125,59.86684765625,43.46993359375,14.74603515625,42.649359375,56.62246484375,47.0076875,-7.61654296875,51.51205078125,83.3665546875,42.1477890625,36.064359375,36.4884453125,79.9288203125,54.39663671875,66.65205078125,-36.0111640625,46.66347265625,31.07275390625,50.4042578125,46.71735546875,77.99266796875,51.287328125,55.02795703125,66.87312109375,92.18588671875,71.75723828125,81.90304296875,85.86008203125,79.24801953125
41.81945703125,59.91984765625,44.32693359375,15.66603515625,43.848359375,57.92246484375,47.6526875,-7.69654296875,53.74005078125,85.1625546875,42.9787890625,36.325359375,37.5264453125,81.8758203125,55.51263671875,67.16105078125,-36.4871640625,47.80947265625,30.74975390625,50.2772578125,47.15535546875,77.88266796875,51.426328125,54.72495703125,66.78512109375,92.27488671875,70.85423828125,80.43104296875,84.84608203125,77.77101953125
42.47545703125,58.75184765625,43.57693359375,16.00303515625,44.148359375,58.09946484375,47.2996875,-8.63654296875,55.45005078125,85.8455546875,42.6797890625,35.664359375,37.6144453125,82.7198203125,55.42663671875,66.56105078125,-37.6921640625,48.04647265625,29.61875390625,49.1902578125,46.53835546875,76.94866796875,50.591328125,53.37095703125,65.65012109375,91.25788671875,68.69823828125,77.50304296875,82.17108203125,75.00801953125
42.51345703125,56.52584765625,41.24193359375,15.62503515625,43.607359375,57.21446484375,46.0696875,-10.40054296875,56.47705078125,85.4715546875,41.2857890625,34.237359375,36.6744453125,82.5098203125,54.23363671875,64.95805078125,-39.4901640625,47.37247265625,27.86675390625,47.2552578125,44.82535546875,75.54466796875,48.942328125,51.10695703125,63.49112109375,89.18788671875,65.57823828125,73.49104296875,78.14708203125,71.28801953125
41.70745703125,53.61484765625,37.79893359375,14.55603515625,42.388359375,55.45246484375,44.1396875,-12.84454296875,56.76605078125,84.2585546875,38.9757890625,32.266359375,34.9434453125,81.5458203125,52.24463671875,62.57805078125,-41.6551640625,46.00447265625,25.79175390625,44.6782578125,42.21135546875,74.15066796875,46.787328125,48.23695703125,60.52712109375,86.38688671875,61.93223828125,69.03504296875,73.38308203125,67.12101953125
39.96145703125,50.55484765625,34.07493359375,13.01503515625,40.712359375,53.09246484375,41.7376875,-15.68254296875,56.40305078125,82.5295546875,36.0717890625,30.014359375,32.9644453125,80.2628203125,49.92263671875,59.73605078125,-43.9201640625,44.30847265625,23.71375390625,41.7452578125,39.07435546875,73.19866796875,44.490328125,45.15395703125,57.15812109375,83.37688671875,58.24723828125,64.85604296875,68.61508203125,63.09601953125
37.39045703125,47.92084765625,30.97893359375,11.36503515625,38.806359375,50.47946484375,39.1496875,-18.51354296875,55.59105078125,80.6535546875,33.0127890625,27.775359375,31.4614453125,79.0728203125,47.76163671875,56.78005078125,-46.0281640625,42.68447265625,21.89175390625,38.7912578125,35.87035546875,72.91966796875,42.375328125,42.24695703125,53.86712109375,80.71188671875,54.94923828125,61.54404296875,64.49308203125,59.72301953125
34.36445703125,46.13184765625,29.16393359375,10.01203515625,36.889359375,47.98746484375,36.7156875,-20.87954296875,54.59405078125,78.9535546875,30.2737890625,25.849359375,31.0904453125,78.2508203125,46.16663671875,54.05505078125,-47.7741640625,41.44647265625,20.47575390625,36.1562578125,33.02835546875,73.29266796875,40.663328125,39.83195703125,51.08712109375,78.79288671875,52.33823828125,59.41304296875,61.43808203125,57.31901953125
31.48545703125,45.30084765625,28.79893359375,9.25903515625,35.179359375,45.96146484375,34.7816875,-22.36554296875,53.67505078125,77.6275546875,28.2397890625,24.484359375,32.1434453125,77.9158203125,45.36863671875,51.86905078125,-49.0341640625,40.75647265625,19.52375390625,34.1542578125,30.88235546875,74.07966796875,39.457328125,38.13195703125,49.09312109375,77.75388671875,50.57923828125,58.47804296875,59.60508203125,55.97201953125
29.42645703125,45.23684765625,29.58193359375,9.20403515625,33.870359375,44.63346484375,33.6126875,-22.72254296875,53.02905078125,76.7235546875,27.1117890625,23.819359375,34.3784453125,78.0738203125,45.39063671875,50.45105078125,-49.7731640625,40.61647265625,19.04575390625,33.0242578125,29.61035546875,74.94166796875,38.761328125,37.27695703125,47.97312109375,77.47288671875,49.73723828125,58.53204296875,58.94908203125,55.58501953125
28.67245703125,45.62584765625,30.95393359375,9.69803515625,33.095359375,44.06646484375,33.3136875,-21.98354296875,52.74405078125,76.1915546875,26.8847890625,23.865359375,37.1154453125,78.6588203125,46.08263671875,49.90505078125,-50.0381640625,40.92047265625,19.02875390625,32.8772578125,29.22135546875,75.58166796875,38.526328125,37.30195703125,47.66512109375,77.69388671875,49.80323828125,59.29504296875,59.31508203125,55.95701953125
29.30345703125,46.21884765625,32.39293359375,10.42003515625,32.882359375,44.16246484375,33.8146875,-20.48954296875,52.80205078125,75.9675546875,27.3847890625,24.513359375,39.5344453125,79.5518203125,47.19463671875,50.17405078125,-49.9381640625,41.52947265625,19.42575390625,33.6312578125,29.56435546875,75.85966796875,38.689328125,38.11395703125,48.01712109375,78.17188671875,50.69523828125,60.53204296875,60.50108203125,56.85801953125
30.92945703125,46.93684765625,33.62093359375,10.99703515625,33.121359375,44.73146484375,34.9026875,-18.79854296875,53.08205078125,76.0205546875,28.3497890625,25.578359375,40.9964453125,80.5588203125,48.44963671875,51.03905078125,-49.6171640625,42.31447265625,20.10775390625,34.9852578125,30.38235546875,75.83566796875,39.164328125,39.46795703125,48.82512109375,78.76488671875,52.23223828125,62.10104296875,62.27508203125,58.06901953125
32.78345703125,47.86084765625,34.68593359375,11.10303515625,33.556359375,45.56846484375,36.2966875,-17.54954296875,53.36405078125,76.3575546875,29.5207890625,26.860359375,41.1934453125,81.3918203125,49.61163671875,52.17805078125,-49.2321640625,43.16947265625,20.85275390625,36.4652578125,31.38935546875,75.70566796875,39.821328125,40.99595703125,49.85912109375,79.44588671875,54.12923828125,63.93904296875,64.36508203125,59.38701953125
33.95445703125,49.18684765625,35.88893359375,10.52003515625,33.826359375,46.49646484375,37.7196875,-17.31054296875,53.35605078125,77.0135546875,30.7397890625,28.211359375,40.1374453125,81.7078203125,50.53363671875,53.26005078125,-48.9201640625,44.00447265625,21.38275390625,37.5602578125,32.34635546875,75.68166796875,40.491328125,42.30695703125,50.89512109375,80.26388671875,56.05023828125,66.01904296875,66.49308203125,60.63101953125
33.72145703125,51.11884765625,37.58793359375,9.17603515625,33.598359375,47.40546484375,38.9776875,-18.41454296875,52.79905078125,78.0215546875,31.9797890625,29.576359375,38.0504453125,81.2338203125,51.18563671875,54.05605078125,-48.7641640625,44.76047265625,21.47675390625,37.9022578125,33.11735546875,75.89266796875,41.026328125,43.13695703125,51.77412109375,81.27088671875,57.73223828125,68.31404296875,68.44908203125,61.67101953125
31.91845703125,53.71784765625,39.94993359375,7.17703515625,32.756359375,48.25446484375,40.0126875,-20.79654296875,51.62205078125,79.3675546875,33.2877890625,30.963359375,35.2724453125,79.9428203125,51.63563671875,54.51905078125,-48.7711640625,45.42947265625,21.09275390625,37.4412578125,33.69735546875,76.34666796875,41.370328125,43.45195703125,52.45212109375,82.47888671875,59.08623828125,70.79004296875,70.16808203125,62.48001953125
29.08845703125,56.78984765625,42.81593359375,4.81303515625,31.501359375,49.07446484375,40.9126875,-23.94254296875,50.03905078125,80.9415546875,34.6857890625,32.393359375,32.1874453125,78.1378203125,52.00363671875,54.77905078125,-48.8681640625,46.05747265625,20.40475390625,36.4812578125,34.17835546875,76.95266796875,41.592328125,43.45995703125,53.01612109375,83.83888671875,60.23423828125,73.39504296875,71.75008203125,63.15501953125
29.08845703125,56.78984765625,42.81593359375,4.81303515625,31.501359375,49.07446484375,40.9126875,-23.94254296875,50.03905078125,80.9415546875,34.6857890625,32.393359375,32.1874453125,78.1378203125,52.00363671875,54.77905078125,-48.8681640625,46.05747265625,20.40475390625,36.4812578125,34.17835546875,76.95266796875,41.592328125,43.45995703125,53.01612109375,83.83888671875,60.23423828125,73.39504296875,71.75008203125,63.15501953125
