"Fp1","Fpz","Fp2","F7","F3","Fz","F4","F8","FC5","FC1","FC2","FC6","T7","C3","Cz","C4","T8","CP5","CP1","CP2","CP6","P7","P3","Pz","P4","P8","POz","O1","Oz","O2"
-9.1356953125,-1.2271015625,-8.66382421875,-2.4475390625,15.8160234375,19.8469296875,3.11943359375,6.31848828125,0.0774257812500005,21.12198046875,-5.291671875,12.70393359375,-2.12936328125,-9.008328125,3.15394140625,4.155421875,4.1733125,-5.68739453125,-9.32048046875,5.09886328125,7.25612890625,0.66230078125,-7.3384921875,-9.147765625,5.226953125,3.17635546875,0.0512148437499995,-2.51798828125,5.32996484375,1.8498515625
-8.8536953125,0.8558984375,-10.55682421875,-5.2155390625,13.5260234375,11.2109296875,4.00143359375,6.04248828125,2.00242578125,11.96098046875,-2.233671875,15.02893359375,3.39663671875,-5.714328125,3.15594140625,5.791421875,-4.6486875,-2.78839453125,-10.74948046875,4.95686328125,8.28612890625,2.32430078125,-5.6814921875,-8.866765625,6.491953125,3.83535546875,-0.825785156249999,-2.95998828125,3.43496484375,0.6628515625
-9.1386953125,1.2158984375,-12.03382421875,-7.3235390625,10.8520234375,5.4219296875,3.73443359375,4.42048828125,2.14342578125,5.37998046875,-1.272671875,15.25493359375,5.76063671875,-4.325328125,2.19494140625,5.794421875,-8.4036875,-1.76739453125,-12.23048046875,3.46986328125,8.51112890625,2.73130078125,-5.6684921875,-9.683765625,6.095953125,4.07135546875,-2.87078515625,-4.60498828125,0.83796484375,-1.2531484375
-10.4756953125,-0.1711015625,-12.91082421875,-8.8395390625,7.8110234375,2.1689296875,2.15043359375,1.34948828125,0.54242578125,1.19798046875,-2.508671875,13.20793359375,4.92663671875,-4.795328125,0.203941406250001,4.008421875,-6.6476875,-2.57439453125,-13.74248046875,0.65286328125,7.78012890625,1.85230078125,-7.2394921875,-11.659765625,3.934953125,3.82435546875,-6.07778515625,-7.53198828125,-2.46403515625,-3.9031484375
-12.9736953125,-2.6481015625,-13.10582421875,-9.9035390625,4.7630234375,0.5549296875,-0.361566406250001,-2.59851171875,-2.05857421875,-1.24601953125,-5.258671875,9.54893359375,1.96363671875,-6.380328125,-2.45105859375,0.863421875,-0.749687500000001,-4.45639453125,-15.09148046875,-2.92613671875,6.17312890625,0.14130078125,-9.6774921875,-14.426765625,0.450953125,3.13835546875,-9.94778515625,-11.25798828125,-6.11103515625,-6.9771484375
-16.0206953125,-5.1061015625,-12.71882421875,-10.5345390625,2.3610234375,-0.0900703125000002,-2.86656640625,-6.25151171875,-4.55257421875,-2.40601953125,-8.306671875,5.62093359375,-1.44536328125,-7.982328125,-5.03505859375,-2.739578125,6.5723125,-6.27739453125,-15.86848046875,-6.34513671875,3.99712890625,-1.63569921875,-11.8864921875,-17.268765625,-3.528046875,2.12035546875,-13.63178515625,-14.81398828125,-9.43703515625,-9.9511484375
-18.4456953125,-6.4481015625,-11.97682421875,-10.6315390625,1.2280234375,0.0769296874999998,-4.29356640625,-8.31151171875,-5.95957421875,-2.35801953125,-10.394671875,2.94393359375,-3.71336328125,-8.612328125,-6.72505859375,-5.747578125,12.2513125,-6.99039453125,-15.60048046875,-8.69513671875,1.70712890625,-2.72369921875,-12.8394921875,-19.342765625,-7.060046875,0.89035546875,-16.22678515625,-17.06498828125,-11.70503515625,-12.2641484375
-19.1216953125,-6.0731015625,-11.06382421875,-10.1285390625,1.5120234375,1.0449296875,-4.04556640625,-8.01151171875,-5.82157421875,-1.18001953125,-10.771671875,2.55393359375,-3.97336328125,-7.763328125,-7.02205859375,-7.362578125,14.0013125,-6.04439453125,-14.04648046875,-9.45513671875,-0.23687109375,-2.71869921875,-11.9964921875,-19.966765625,-9.381046875,-0.45264453125,-17.10778515625,-17.17998828125,-12.41203515625,-13.4811484375
-17.5956953125,-4.1601015625,-10.02082421875,-9.1165390625,2.7140234375,2.5299296875,-2.36856640625,-5.55551171875,-4.33257421875,0.67598046875,-9.509671875,4.51993359375,-2.34936328125,-5.597328125,-6.05405859375,-7.380578125,11.1133125,-3.59439453125,-11.43148046875,-8.71513671875,-1.54087109375,-1.74569921875,-9.5444921875,-18.908765625,-10.144046875,-1.82964453125,-16.18578515625,-15.01598828125,-11.51203515625,-13.3801484375
-14.3536953125,-1.5871015625,-8.82782421875,-7.8065390625,3.9150234375,3.9769296875,-0.22956640625,-2.04551171875,-2.17757421875,2.42098046875,-7.442671875,7.91093359375,0.21463671875,-2.854328125,-4.55105859375,-6.267578125,4.6193125,-0.43039453125,-8.42348046875,-7.11413671875,-2.19087109375,-0.38669921875,-6.3284921875,-16.502765625,-9.513046875,-3.12864453125,-13.96178515625,-11.19898828125,-9.42403515625,-11.9531484375
-10.6266953125,0.4668984375,-7.58682421875,-6.4425390625,4.2260234375,4.7959296875,1.17543359375,1.01148828125,-0.21057421875,3.21498046875,-5.763671875,11.22693359375,2.45763671875,-0.545328125000002,-3.53305859375,-4.935578125,-3.1976875,2.35160546875,-5.89448046875,-5.53413671875,-2.41087109375,0.60430078125,-3.5104921875,-13.540765625,-8.050046875,-4.14864453125,-11.33178515625,-6.87598828125,-6.82903515625,-9.3671484375
-7.8696953125,1.0308984375,-6.65882421875,-5.2685390625,3.1390234375,4.5109296875,0.952433593749999,2.34248828125,0.859425781250001,2.41898046875,-5.491671875,13.06693359375,3.38663671875,0.457671874999997,-3.87005859375,-4.306578125,-9.7116875,3.79160546875,-4.59748046875,-4.71813671875,-2.50387109375,0.64930078125,-2.0884921875,-10.974765625,-6.440046875,-4.61364453125,-9.22778515625,-3.28498828125,-4.41803515625,-5.9501484375
-7.1536953125,-0.2701015625,-6.60982421875,-4.5405390625,0.6740234375,2.8529296875,-1.14356640625,1.42048828125,0.65042578125,-0.18901953125,-7.046671875,12.71393359375,2.67363671875,-0.258328125000002,-5.90905859375,-4.894578125,-12.9256875,3.42660546875,-4.91448046875,-4.98713671875,-2.66087109375,-0.42869921875,-2.5274921875,-9.558765625,-5.210046875,-4.29564453125,-8.26578515625,-1.36398828125,-2.70303515625,-2.2131484375
-8.7276953125,-3.1191015625,-7.96482421875,-4.4965390625,-2.6639765625,-0.0480703125000002,-4.60656640625,-1.33551171875,-0.87557421875,-4.20101953125,-10.097671875,10.38693359375,0.70763671875,-2.555328125,-9.31005859375,-6.611578125,-12.1386875,1.39660546875,-6.72148046875,-6.17313671875,-2.89287109375,-2.41569921875,-4.6584921875,-9.617765625,-4.595046875,-3.18964453125,-8.57978515625,-1.53998828125,-1.95303515625,1.1668515625
-11.9936953125,-6.7161015625,-10.90482421875,-5.3045390625,-6.1049765625,-3.5620703125,-8.39056640625,-4.78351171875,-3.48057421875,-8.63401953125,-13.739671875,7.03893359375,-1.67636328125,-5.886328125,-13.19005859375,-8.876578125,-8.0686875,-1.70839453125,-9.47048046875,-7.78113671875,-3.09187109375,-4.87269921875,-7.8694921875,-11.020765625,-4.587046875,-1.61064453125,-9.88478515625,-3.69998828125,-2.19603515625,3.4688515625
-15.9056953125,-10.1931015625,-15.11082421875,-7.0295390625,-8.9599765625,-6.8110703125,-11.37756640625,-7.65351171875,-6.73757421875,-12.37901953125,-16.902671875,3.82293359375,-3.62236328125,-9.554328125,-16.53905859375,-10.932578125,-2.4336875,-5.15439453125,-12.44948046875,-9.27613671875,-3.16587109375,-7.35169921875,-11.4204921875,-13.329765625,-5.066046875,-0.11764453125,-11.69178515625,-7.29398828125,-3.26803515625,4.1498515625
-19.5026953125,-12.9841015625,-19.83682421875,-9.6135390625,-10.9129765625,-9.1040703125,-12.87856640625,-9.19051171875,-10.11357421875,-14.75801953125,-18.796671875,1.51893359375,-4.61536328125,-12.968328125,-18.68705859375,-12.206578125,2.7823125,-8.35339453125,-15.08948046875,-10.33913671875,-3.14987109375,-9.54569921875,-14.7244921875,-16.002765625,-5.910046875,0.71535546875,-13.53478515625,-11.51398828125,-4.86903515625,3.0488515625
-22.2426953125,-14.9541015625,-24.10482421875,-12.7715390625,-12.0349765625,-10.1450703125,-12.85756640625,-9.44351171875,-13.06657421875,-15.69301953125,-19.181671875,0.26993359375,-4.60436328125,-15.762328125,-19.52705859375,-12.534578125,6.0743125,-10.99539453125,-17.08648046875,-10.94313671875,-3.19287109375,-11.32169921875,-17.4554921875,-18.536765625,-7.005046875,0.57435546875,-15.07878515625,-15.48098828125,-6.62203515625,0.5028515625
-23.9866953125,-16.2321015625,-26.91482421875,-15.8895390625,-12.5529765625,-9.9460703125,-11.82956640625,-9.03251171875,-15.10557421875,-15.46901953125,-18.335671875,-0.24906640625,-3.86636328125,-17.750328125,-19.37605859375,-12.123578125,6.8623125,-12.96939453125,-18.30948046875,-11.21613671875,-3.42187109375,-12.65169921875,-19.4614921875,-20.484765625,-8.182046875,-0.43264453125,-16.09178515625,-18.40198828125,-8.11403515625,-2.7121484375
-24.7606953125,-16.9101015625,-27.46182421875,-18.0555390625,-12.5999765625,-8.7340703125,-10.55756640625,-8.59451171875,-15.83057421875,-14.44801953125,-16.799671875,-0.420066406249999,-2.73636328125,-18.767328125,-18.65905859375,-11.315578125,5.5113125,-14.16939453125,-18.65148046875,-11.23313671875,-3.78187109375,-13.48269921875,-20.5764921875,-21.442765625,-9.144046875,-1.80164453125,-16.35878515625,-19.68098828125,-8.94603515625,-5.5831484375
-24.5376953125,-16.8541015625,-25.39482421875,-18.3555390625,-12.1249765625,-6.9330703125,-9.72356640625,-8.32951171875,-14.96857421875,-12.93801953125,-15.085671875,-0.36006640625,-1.43036328125,-18.573328125,-17.64905859375,-10.334578125,3.0403125,-14.36439453125,-17.98348046875,-10.88413671875,-4.00387109375,-13.66269921875,-20.5384921875,-21.093765625,-9.514046875,-2.86664453125,-15.67478515625,-19.02198828125,-8.81203515625,-7.1941484375
-23.1946953125,-15.7671015625,-21.03882421875,-16.2965390625,-10.9439765625,-5.0110703125,-9.61256640625,-7.90351171875,-12.48157421875,-11.10201953125,-13.490671875,0.0959335937500008,-0.0543632812500001,-16.926328125,-16.37805859375,-9.192578125,0.728312499999999,-13.28139453125,-16.23448046875,-9.93413671875,-3.74487109375,-13.00069921875,-19.0924921875,-19.319765625,-8.993046875,-3.13664453125,-13.92778515625,-16.53098828125,-7.60503515625,-7.0601484375
-20.6446953125,-13.4161015625,-15.35882421875,-12.1265390625,-8.8699765625,-3.1910703125,-9.93956640625,-6.73451171875,-8.68057421875,-8.89101953125,-12.039671875,1.19093359375,1.28463671875,-13.775328125,-14.69405859375,-7.775578125,-0.311687500000001,-10.81739453125,-13.47848046875,-8.17813671875,-2.81187109375,-11.40869921875,-16.1944921875,-16.281765625,-7.541046875,-2.52464453125,-11.19978515625,-12.72198828125,-5.46303515625,-5.2991484375
-17.0156953125,-9.8381015625,-9.62582421875,-6.8505390625,-5.8689765625,-1.3290703125,-9.93456640625,-4.44151171875,-4.23357421875,-6.15301953125,-10.517671875,3.00793359375,2.43863671875,-9.390328125,-12.38905859375,-5.976578125,0.438312499999999,-7.19539453125,-9.96748046875,-5.58413671875,-1.29887109375,-9.00069921875,-12.1284921875,-12.384765625,-5.407046875,-1.35564453125,-7.77378515625,-8.36898828125,-2.73403515625,-2.5481484375
-12.7346953125,-5.3911015625,-4.90182421875,-1.9225390625,-2.1699765625,0.8709296875,-8.71556640625,-1.13851171875,0.00242578125000037,-2.91001953125,-8.584671875,5.36093359375,3.32863671875,-4.320328125,-9.35305859375,-3.786578125,2.5953125,-2.91839453125,-6.10348046875,-2.33813671875,0.46012890625,-6.06569921875,-7.4204921875,-8.126765625,-3.013046875,-0.19064453125,-4.04378515625,-4.25298828125,0.130964843749999,0.3308515625
-8.4436953125,-0.6701015625,-1.62382421875,1.3064609375,1.7400234375,3.5659296875,-5.78956640625,2.58348828125,3.25242578125,0.51798046875,-5.996671875,7.79593359375,4.02863671875,0.753671874999998,-5.68805859375,-1.336578125,4.9893125,1.38660546875,-2.34248046875,1.19686328125,2.03212890625,-2.97269921875,-2.6694921875,-3.959765625,-0.788046875,0.40535546875,-0.42678515625,-0.94698828125,2.68096484375,2.5568515625
-4.7916953125,3.6418984375,0.492175781249998,2.1314609375,5.2810234375,6.6819296875,-1.39956640625,5.94148828125,5.07042578125,3.67098046875,-2.822671875,9.70393359375,4.69163671875,5.177671875,-1.73605859375,1.099421875,6.2813125,5.14260546875,0.933519531249999,4.56386328125,3.05312890625,-0.10269921875,1.5985078125,-0.213765625000001,0.943953125,0.0423554687500001,2.70221484375,1.27901171875,4.53596484375,3.6298515625
-2.2076953125,6.9448984375,2.18517578125,0.7724609375,7.9760234375,9.9379296875,3.46643359375,8.27848828125,5.47542578125,6.17898046875,0.467328125,10.51993359375,5.33963671875,8.472671875,2.01294140625,3.165421875,5.7913125,7.94260546875,3.50751953125,7.34186328125,3.36612890625,2.20930078125,5.0275078125,2.915234375,2.034953125,-1.36464453125,5.06121484375,2.44301171875,5.44396484375,3.4018515625
-0.724695312500002,8.9088984375,4.17417578125,-1.7585390625,9.5870234375,12.8749296875,7.44143359375,9.25748828125,4.92342578125,7.84598046875,3.190328125,9.98993359375,5.75263671875,10.465671875,5.07194140625,4.582421875,3.9963125,9.65760546875,5.35151953125,9.28186328125,3.10512890625,3.76730078125,7.5075078125,5.350234375,2.574953125,-3.50364453125,6.54821484375,2.82601171875,5.35796484375,2.1018515625
0.0153046874999987,9.6018984375,6.74717578125,-4.1115390625,10.1810234375,14.9759296875,9.40843359375,8.91748828125,4.10042578125,8.65998046875,4.792328125,8.37793359375,5.61663671875,11.333671875,7.11994140625,5.305421875,2.2963125,10.46760546875,6.56951953125,10.40286328125,2.66312890625,4.60930078125,9.1975078125,7.108234375,2.887953125,-5.70964453125,7.28121484375,2.90501171875,4.48596484375,0.2968515625
0.565304687499999,9.4758984375,9.61217578125,-5.1475390625,10.1240234375,15.9549296875,9.06343359375,7.63248828125,3.60942578125,8.84298046875,5.144328125,6.43693359375,4.81563671875,11.495671875,8.10294140625,5.532421875,2.1273125,10.76960546875,7.32851953125,10.96186328125,2.51512890625,5.00230078125,10.4285078125,8.255234375,3.382953125,-7.18464453125,7.54221484375,3.20701171875,3.27996484375,-1.2341484375
1.3283046875,9.1548984375,12.04917578125,-4.3875390625,9.9350234375,15.9459296875,7.05443359375,5.96948828125,3.70642578125,8.80698046875,4.587328125,5.09093359375,3.59663671875,11.392671875,8.20994140625,5.582421875,4.0023125,10.97660546875,7.76851953125,11.30186328125,2.98012890625,5.29530078125,11.5055078125,8.852234375,4.341953125,-7.31064453125,7.63621484375,4.08901171875,2.30196484375,-1.7431484375
2.3023046875,9.1448984375,13.27517578125,-2.1705390625,10.0190234375,15.3409296875,4.58343359375,4.44748828125,4.24842578125,8.89298046875,3.736328125,4.99193359375,2.43763671875,11.296671875,7.76294140625,5.730421875,7.1753125,11.31560546875,7.94351953125,11.68086328125,4.09112890625,5.73430078125,12.5525078125,8.933234375,5.787953125,-5.87864453125,7.76521484375,5.59001171875,2.03796484375,-0.7821484375
3.1223046875,9.6158984375,12.84717578125,0.5284609375,10.4510234375,14.4659296875,2.77743359375,3.34248828125,4.88342578125,9.14898046875,3.193328125,6.20693359375,1.73763671875,11.255671875,7.07794140625,6.130421875,10.1693125,11.75460546875,7.82451953125,12.19186328125,5.62412890625,6.36030078125,13.4735078125,8.528234375,7.509953125,-3.13464453125,8.00121484375,7.45601171875,2.74096484375,1.6288515625
3.3903046875,10.3768984375,10.96517578125,2.5834609375,10.9980234375,13.5239296875,2.24543359375,2.67548828125,5.31742578125,9.40798046875,3.318328125,8.21693359375,1.59763671875,11.163671875,6.41294140625,6.813421875,11.7263125,12.06360546875,7.38651953125,12.77986328125,7.24712890625,7.03530078125,14.0425078125,7.700234375,9.198953125,0.33535546875,8.34821484375,9.31901171875,4.37096484375,4.9928515625
3.0153046875,11.0158984375,8.51017578125,3.2394609375,11.3350234375,12.7409296875,2.98543359375,2.35148828125,5.48342578125,9.55898046875,4.123328125,10.18093359375,1.86363671875,10.857671875,5.94694140625,7.707421875,11.4653125,11.95960546875,6.69451953125,13.32286328125,8.66012890625,7.54730078125,14.0425078125,6.544234375,10.582953125,3.81835546875,8.79121484375,10.91101171875,6.64896484375,8.5238515625
2.2703046875,11.1028984375,6.69117578125,2.3904609375,11.2190234375,12.3599296875,4.51343359375,2.25248828125,5.49242578125,9.60798046875,5.305328125,11.28393359375,2.32363671875,10.192671875,5.74494140625,8.642421875,9.8943125,11.22160546875,5.87351953125,13.69086328125,9.68912890625,7.71530078125,13.3615078125,5.141234375,11.502953125,6.70135546875,9.29321484375,12.15301171875,9.16396484375,11.4368515625
1.5193046875,10.3548984375,6.41317578125,0.504460937499999,10.5320234375,12.4139296875,6.07843359375,2.21948828125,5.46042578125,9.51398046875,6.374328125,11.01193359375,2.82063671875,9.064671875,5.69994140625,9.390421875,7.9863125,9.75760546875,4.99051953125,13.77386328125,10.30712890625,7.44030078125,12.0145078125,3.518234375,11.939953125,8.65835546875,9.75021484375,13.06601171875,11.47096484375,13.2308515625
0.876304687499999,8.7188984375,7.70717578125,-1.6775390625,9.2820234375,12.6459296875,6.94843359375,2.03648828125,5.35842578125,9.13398046875,6.846328125,9.30793359375,3.23663671875,7.425671875,5.58094140625,9.731421875,6.6653125,7.61760546875,4.00951953125,13.50086328125,10.59712890625,6.71430078125,10.1065078125,1.683234375,11.995953125,9.71235546875,9.96921484375,13.62301171875,13.16896484375,13.8118515625
0.117304687499999,6.4148984375,9.61417578125,-3.4735390625,7.6370234375,12.7489296875,6.72243359375,1.51748828125,5.03142578125,8.41098046875,6.468328125,6.61993359375,3.46163671875,5.332671875,5.18994140625,9.555421875,6.4123125,5.01160546875,2.88051953125,12.88886328125,10.68612890625,5.63030078125,7.8125078125,-0.275765625,11.860953125,10.16035546875,9.75121484375,13.67401171875,13.98196484375,13.4488515625
-1.0986953125,3.9198984375,10.70517578125,-4.4765390625,5.9270234375,12.6319296875,5.50743359375,0.65048828125,4.37342578125,7.52598046875,5.379328125,3.79293359375,3.45263671875,3.038671875,4.54394140625,8.949421875,7.0333125,2.35060546875,1.69851953125,12.07486328125,10.70212890625,4.40730078125,5.4265078125,-2.089765625,11.780953125,10.39035546875,9.04021484375,13.07701171875,13.84696484375,12.6258515625
-2.8456953125,1.8758984375,9.95017578125,-4.6055390625,4.5440234375,12.4189296875,3.85243359375,-0.30251171875,3.49942578125,6.80498046875,4.110328125,1.79993359375,3.33063671875,1.036671875,3.90694140625,8.195421875,7.7263125,0.254605468749999,0.75551953125,11.31186328125,10.75512890625,3.41030078125,3.4245078125,-3.313765625,12.024953125,10.69235546875,8.03821484375,11.91301171875,12.99396484375,11.8778515625
-4.6606953125,0.9018984375,7.41117578125,-3.9945390625,3.8060234375,12.3139296875,2.48543359375,-0.87651171875,2.78942578125,6.53198046875,3.377328125,1.33993359375,3.36763671875,-0.0383281250000032,3.66694140625,7.637421875,7.4923125,-0.57939453125,0.478519531249999,10.89086328125,10.92112890625,3.08330078125,2.4075078125,-3.470765625,12.786953125,11.12835546875,7.17021484375,10.60301171875,11.91096484375,11.6438515625
-5.6356953125,1.3498984375,4.28917578125,-2.8275390625,3.8670234375,12.5409296875,2.00843359375,-0.62351171875,2.70942578125,6.88398046875,3.733328125,2.51293359375,3.82263671875,0.339671874999997,4.14394140625,7.486421875,5.7163125,0.35160546875,1.26151953125,11.02486328125,11.20112890625,3.77030078125,2.8835078125,-2.293765625,14.055953125,11.50535546875,6.87121484375,9.77601171875,11.15496484375,12.1258515625
-4.8776953125,3.1258984375,2.28917578125,-1.2995390625,4.6530234375,13.2679296875,2.66443359375,0.58948828125,3.52742578125,7.88198046875,5.282328125,4.74893359375,4.74663671875,2.302671875,5.41094140625,7.702421875,2.5383125,3.08760546875,3.27651953125,11.74886328125,11.50212890625,5.53130078125,4.9895078125,0.107234374999999,15.549953125,11.48135546875,7.34521484375,9.95801171875,11.07596484375,13.2098515625
-2.1216953125,5.6908984375,2.67617578125,0.318460937499999,5.8170234375,14.4149296875,4.25943359375,2.43048828125,5.11642578125,9.28398046875,7.629328125,7.07193359375,5.88963671875,5.477671875,7.21994140625,8.051421875,-1.2596875,7.11060546875,6.32351953125,12.89586328125,11.70512890625,8.06230078125,8.3715078125,3.256234375,16.823953125,10.78735546875,8.45421484375,11.27701171875,11.63396484375,14.5028515625
1.9413046875,8.2648984375,5.58017578125,1.6384609375,6.8070234375,15.5679296875,6.28843359375,4.26248828125,6.95942578125,10.58598046875,10.085328125,8.57193359375,6.79863671875,9.089671875,9.06394140625,8.297421875,-4.6706875,11.50060546875,9.82751953125,14.16386328125,11.76712890625,10.79830078125,12.2775078125,6.500234375,17.495953125,9.43435546875,9.79821484375,13.39101171875,12.43596484375,15.4988515625
5.8773046875,10.1348984375,9.94117578125,2.2804609375,7.1100234375,16.2309296875,8.21743359375,5.54448828125,8.38342578125,11.29998046875,11.988328125,8.80693359375,7.04663671875,12.239671875,10.40194140625,8.350421875,-6.8366875,15.26460546875,13.04651953125,15.25686328125,11.79812890625,13.13330078125,15.8425078125,9.269234375,17.444953125,7.79235546875,10.91721484375,15.66301171875,12.96296484375,15.7858515625
8.1673046875,10.8998984375,14.06517578125,2.0484609375,6.5300234375,16.1789296875,9.70243359375,6.11448828125,8.86442578125,11.26398046875,12.967328125,7.91993359375,6.47763671875,14.216671875,10.89094140625,8.304421875,-7.1696875,17.70460546875,15.36851953125,16.01286328125,12.01412890625,14.67830078125,18.3865078125,11.246234375,16.879953125,6.48035546875,11.50521484375,17.45401171875,12.83796484375,15.1938515625
7.9273046875,10.5518984375,16.46417578125,1.0104609375,5.2610234375,15.5089296875,10.57343359375,6.13148828125,8.27342578125,10.64398046875,13.016328125,6.42093359375,5.35163671875,14.731671875,10.51194140625,8.333421875,-5.4066875,18.66360546875,16.52951953125,16.43986328125,12.61112890625,15.43130078125,19.6425078125,12.395234375,16.225953125,6.11335546875,11.52621484375,18.38701171875,11.98096484375,13.8528515625
5.3113046875,9.3898984375,16.52317578125,-0.5415390625,3.7250234375,14.4059296875,10.69543359375,5.76248828125,6.92242578125,9.68898046875,12.377328125,4.82893359375,4.30363671875,13.980671875,9.51794140625,8.550421875,-1.7586875,18.54160546875,16.64351953125,16.65586328125,13.63012890625,15.77830078125,19.7805078125,12.847234375,15.924953125,7.04235546875,11.21121484375,18.45901171875,10.58396484375,12.1278515625
1.4293046875,7.8458984375,14.64317578125,-2.1735390625,2.3330234375,12.9809296875,9.90843359375,4.97248828125,5.40042578125,8.57798046875,11.348328125,3.44993359375,4.09463671875,12.501671875,8.29894140625,8.918421875,2.9263125,18.06060546875,16.09251953125,16.77086328125,14.88512890625,16.29330078125,19.2605078125,12.757234375,16.214953125,9.18835546875,10.91921484375,17.98401171875,8.97696484375,10.4708515625
-2.1666953125,6.3238984375,11.83417578125,-3.3795390625,1.3250234375,11.3339296875,8.16543359375,3.57848828125,4.27842578125,7.43298046875,10.117328125,2.37993359375,5.24363671875,10.917671875,7.23294140625,9.266421875,7.2933125,17.89860546875,15.35751953125,16.80586328125,16.02512890625,17.43830078125,18.5845078125,12.216234375,17.041953125,12.05435546875,10.95621484375,17.42001171875,7.47396484375,9.2238515625
-4.2186953125,5.0788984375,9.03817578125,-3.7375390625,0.6820234375,9.5699296875,5.66343359375,1.44348828125,3.84142578125,6.28998046875,8.709328125,1.61393359375,7.71463671875,9.700671875,6.53794140625,9.385421875,9.9983125,18.38660546875,14.80151953125,16.69086328125,16.69212890625,19.30330078125,18.0955078125,11.261234375,18.114953125,14.90735546875,11.43421484375,17.15001171875,6.28996484375,8.4898515625
-4.3516953125,4.1698984375,6.66517578125,-3.1095390625,0.1370234375,7.7049296875,2.83043359375,-1.36051171875,3.99242578125,5.01198046875,7.033328125,1.08793359375,10.84163671875,9.035671875,6.16894140625,9.136421875,10.3793125,19.40660546875,14.51451953125,16.31186328125,16.69712890625,21.54830078125,17.8995078125,9.950234375,19.069953125,17.05835546875,12.25321484375,17.34501171875,5.54196484375,8.1378515625
-3.1756953125,3.4948984375,4.64317578125,-1.7535390625,-0.6539765625,5.6939296875,0.18743359375,-4.47151171875,4.34742578125,3.36698046875,4.989328125,0.637933593750001,13.55963671875,8.818671875,5.86894140625,8.505421875,8.8793125,20.49760546875,14.31951953125,15.59786328125,16.10912890625,23.53930078125,17.9035078125,8.439234375,19.636953125,18.10735546875,13.20121484375,17.94601171875,5.30096484375,7.9388515625
-1.8396953125,2.8768984375,2.87217578125,-0.2435390625,-1.8649765625,3.6159296875,-1.82456640625,-7.26851171875,4.47142578125,1.31698046875,2.597328125,0.0249335937500001,14.83863671875,8.752671875,5.35694140625,7.601421875,6.8603125,21.07260546875,13.94751953125,14.58686328125,15.21812890625,24.63830078125,17.9195078125,6.975234375,19.721953125,18.03535546875,14.09921484375,18.77901171875,5.63196484375,7.7098515625
-1.3566953125,2.1668984375,1.59017578125,0.751460937499999,-3.3559765625,1.7539296875,-2.97356640625,-9.06651171875,4.09042578125,-0.82601953125,0.0753281250000004,-0.934066406249999,14.10863671875,8.485671875,4.52494140625,6.623421875,5.8093125,20.67660546875,13.22551953125,13.43486328125,14.37812890625,24.48530078125,17.7665078125,5.818234375,19.408953125,17.10835546875,14.87121484375,19.69101171875,6.55796484375,7.3948515625
-2.1106953125,1.3038984375,1.29617578125,0.7214609375,-4.7639765625,0.3989296875,-3.31056640625,-9.43451171875,3.20842578125,-2.55701953125,-2.165671875,-2.18606640625,11.46563671875,7.756671875,3.50294140625,5.816421875,6.3823125,19.15360546875,12.13451953125,12.37386328125,13.85412890625,23.15730078125,17.3345078125,5.116234375,18.896953125,15.67935546875,15.51021484375,20.59401171875,7.95296484375,7.0138515625
-3.7846953125,0.3278984375,2.32217578125,-0.5145390625,-5.6909765625,-0.3280703125,-3.10256640625,-8.39851171875,2.04842578125,-3.43001953125,-3.638671875,-3.37106640625,7.59663671875,6.482671875,2.57194140625,5.403421875,7.8773125,16.67760546875,10.75851953125,11.63986328125,13.71512890625,21.08730078125,16.5855078125,4.836234375,18.414953125,14.01835546875,15.98321484375,21.38901171875,9.46496484375,6.5618515625
-5.6356953125,-0.6321015625,4.42417578125,-2.7515390625,-5.8579765625,-0.3870703125,-2.64256640625,-6.39351171875,0.87342578125,-3.15701953125,-3.952671875,-3.93306640625,3.47663671875,4.759671875,2.04494140625,5.509421875,8.5353125,13.63260546875,9.23051953125,11.41986328125,13.83012890625,18.81530078125,15.5125078125,4.805234375,18.124953125,12.23835546875,16.15721484375,21.86701171875,10.57096484375,5.9548515625
-6.9016953125,-1.3901015625,6.74317578125,-5.5025390625,-5.1799765625,0.3379296875,-2.05756640625,-4.04451171875,-0.17457421875,-1.64901953125,-2.972671875,-3.36706640625,0.02563671875,2.823671875,2.14594140625,6.122421875,6.5323125,10.46060546875,7.73451953125,11.81486328125,13.96412890625,16.74530078125,14.1395078125,4.845234375,18.063953125,10.33635546875,15.87021484375,21.73301171875,10.81396484375,5.0898515625
-7.1296953125,-1.7451015625,8.16717578125,-8.1635390625,-3.8039765625,1.9699296875,-1.25556640625,-1.98451171875,-1.08957421875,0.87898046875,-0.863671875,-1.45706640625,-2.12836328125,1.017671875,2.93494140625,7.110421875,1.1523125,7.57460546875,6.51651953125,12.80186328125,13.90612890625,15.04730078125,12.6005078125,4.926234375,18.169953125,8.30535546875,15.09121484375,20.78701171875,10.06696484375,3.9968515625
-6.2816953125,-1.5171015625,7.91717578125,-10.1415390625,-2.0419765625,4.4589296875,-0.00856640624999994,-0.71751171875,-1.86757421875,3.89198046875,1.997328125,1.60693359375,-2.74736328125,-0.243328125000002,4.29594140625,8.278421875,-6.4786875,5.34060546875,5.87251953125,14.22386328125,13.56912890625,13.71930078125,11.2105078125,5.214234375,18.340953125,6.23235546875,14.05121484375,19.11201171875,8.65696484375,2.9488515625
-4.6396953125,-0.5941015625,6.02217578125,-10.9395390625,-0.1869765625,7.5689296875,1.89843359375,-0.49151171875,-2.37357421875,6.81398046875,5.171328125,5.28193359375,-2.00336328125,-0.569328125000002,6.02294140625,9.391421875,-13.5776875,4.05660546875,6.09551953125,15.80686328125,12.98212890625,12.68530078125,10.4205078125,5.969234375,18.484953125,4.29935546875,13.19921484375,17.09601171875,7.19896484375,2.3768515625
-2.6226953125,1.0238984375,3.40017578125,-10.2635390625,1.6660234375,10.9999296875,4.50943359375,-1.20251171875,-2.33357421875,9.37598046875,8.285328125,8.83093359375,-0.42236328125,0.284671874999997,7.92194140625,10.188421875,-16.8836875,3.90060546875,7.38351953125,17.22986328125,12.20712890625,11.87230078125,10.6335078125,7.352234375,18.524953125,2.70535546875,12.99221484375,15.24901171875,6.25896484375,2.6318515625
-0.610695312500001,3.2118984375,1.49717578125,-8.1815390625,3.6130234375,14.3909296875,7.56743359375,-2.42951171875,-1.44257421875,11.68398046875,11.080328125,11.54793359375,1.32063671875,2.338671875,9.85694140625,10.428421875,-14.3266875,4.87860546875,9.71251953125,18.21886328125,11.27612890625,11.25230078125,12.0115078125,9.280234375,18.408953125,1.55035546875,13.64821484375,13.98301171875,6.06396484375,3.7488515625
1.1863046875,5.7618984375,1.63317578125,-5.1885390625,5.7840234375,17.2349296875,10.53843359375,-3.56651171875,0.48842578125,13.97298046875,13.402328125,13.00893359375,2.68763671875,5.386671875,11.73594140625,10.012421875,-6.2196875,6.82060546875,12.78051953125,18.63886328125,10.21212890625,10.85130078125,14.3835078125,11.422234375,18.130953125,0.78035546875,15.02921484375,13.49001171875,6.46896484375,5.4168515625
2.7893046875,8.4428984375,4.37917578125,-2.0505390625,8.1750234375,18.9899296875,12.83543359375,-3.98151171875,3.38142578125,16.37898046875,15.178328125,13.24193359375,3.49463671875,9.036671875,13.47894140625,9.086421875,4.8123125,9.38660546875,16.07651953125,18.54286328125,9.10012890625,10.71030078125,17.2915078125,13.329234375,17.744953125,0.24535546875,16.70221484375,13.75201171875,7.15496484375,7.1698515625
4.3773046875,11.0218984375,9.21717578125,0.4834609375,10.5660234375,19.3629296875,14.13243359375,-3.16551171875,6.79442578125,18.83598046875,16.386328125,12.70993359375,3.88563671875,12.735671875,14.99694140625,8.026421875,15.1533125,12.09560546875,19.04051953125,18.15286328125,8.14312890625,10.80930078125,20.1135078125,14.601234375,17.354953125,-0.16264453125,18.13321484375,14.60301171875,7.86596484375,8.6498515625
6.0733046875,13.2418984375,14.66317578125,1.9114609375,12.5180234375,18.4209296875,14.48343359375,-0.94651171875,9.94542578125,20.99698046875,17.027328125,12.07693359375,4.12163671875,15.835671875,16.14194140625,7.293421875,21.9283125,14.40860546875,21.18251953125,17.75386328125,7.64412890625,11.03430078125,22.2585078125,15.024234375,17.083953125,-0.39064453125,18.91721484375,15.80001171875,8.53496484375,9.7778515625
7.7363046875,14.8168984375,18.83317578125,2.0614609375,13.4530234375,16.4339296875,14.19543359375,2.35048828125,11.92042578125,22.21798046875,17.104328125,11.86793359375,4.37063671875,17.730671875,16.68394140625,7.231421875,24.0993125,15.88360546875,22.13151953125,17.56786328125,7.89312890625,11.22430078125,23.3465078125,14.609234375,17.037953125,-0.22664453125,18.90921484375,17.09701171875,9.25096484375,10.7368515625
8.9533046875,15.4918984375,20.22317578125,1.1054609375,12.8890234375,13.7209296875,13.60543359375,5.95948828125,12.05042578125,21.81698046875,16.621328125,12.21893359375,4.63763671875,18.054671875,16.37794140625,7.908421875,22.4463125,16.33060546875,21.69351953125,17.64786328125,9.00212890625,11.25330078125,23.2985078125,13.556234375,17.259953125,0.55235546875,18.23121484375,18.29801171875,10.11796484375,11.7848515625
9.2773046875,15.1638984375,18.35017578125,-0.460539062500001,10.7590234375,10.7169296875,12.91343359375,8.97448828125,10.26242578125,19.54798046875,15.595328125,12.83093359375,4.82363671875,16.841671875,15.12294140625,9.062421875,18.6983125,15.85160546875,19.93051953125,17.84486328125,10.75912890625,11.06630078125,22.3035078125,12.156234375,17.671953125,1.99435546875,17.14021484375,19.27301171875,11.13396484375,13.0348515625
8.5293046875,13.9548984375,13.94817578125,-1.9375390625,7.5520234375,7.9659296875,12.10643359375,10.70248828125,7.21442578125,15.84498046875,14.074328125,13.16293359375,4.80563671875,14.545671875,13.07194140625,10.190421875,14.4683125,14.76060546875,17.19251953125,17.85786328125,12.63112890625,10.66030078125,20.6845078125,10.656234375,18.066953125,3.86635546875,15.87621484375,19.90901171875,12.12596484375,14.3388515625
6.9373046875,12.1878984375,8.64517578125,-2.6955390625,4.1310234375,5.8889296875,10.95343359375,10.86348828125,4.05842578125,11.58198046875,12.147328125,12.73193359375,4.48063671875,11.886671875,10.58994140625,10.748421875,10.6153125,13.43660546875,14.00851953125,17.34586328125,13.94712890625,10.04730078125,18.7815078125,9.178234375,18.167953125,5.72135546875,14.56621484375,20.07901171875,12.81196484375,15.3648515625
5.0143046875,10.2688984375,4.27917578125,-2.4495390625,1.3290234375,4.5359296875,9.15543359375,9.57848828125,1.90842578125,7.62898046875,9.936328125,11.39193359375,3.79363671875,9.574671875,8.09294140625,10.372421875,7.2583125,12.18360546875,10.90151953125,16.07586328125,14.18512890625,9.25530078125,16.8675078125,7.707234375,17.741953125,7.07135546875,13.21421484375,19.65001171875,12.92096484375,15.7978515625
3.2953046875,8.5388984375,2.16617578125,-1.3665390625,-0.3819765625,3.6559296875,6.60343359375,7.26248828125,1.29142578125,4.57598046875,7.590328125,9.43493359375,2.80463671875,8.017671875,5.89594140625,9.019421875,4.2033125,11.15060546875,8.25151953125,14.05486328125,13.19612890625,8.34430078125,15.1265078125,6.188234375,16.715953125,7.56835546875,11.78121484375,18.55301171875,12.34596484375,15.5228515625
2.0793046875,7.1728984375,2.62217578125,0.0364609374999993,-1.0079765625,2.9459296875,3.55443359375,4.49148828125,1.93842578125,2.66198046875,5.264328125,7.46593359375,1.78763671875,7.196671875,4.14894140625,6.993421875,1.3573125,10.33260546875,6.25651953125,11.56086328125,11.26812890625,7.43030078125,13.6605078125,4.662234375,15.220953125,7.11135546875,10.29321484375,16.87901171875,11.20796484375,14.6828515625
1.3333046875,6.1798984375,4.91217578125,1.1464609375,-0.9199765625,2.1979296875,0.550433593749999,1.86848828125,3.01642578125,1.75498046875,3.134328125,6.13093359375,1.23363671875,6.761671875,2.84394140625,4.847421875,-1.1746875,9.62760546875,4.91751953125,9.07986328125,8.99612890625,6.66530078125,12.5155078125,3.347234375,13.582953125,5.85735546875,8.92421484375,14.92901171875,9.82496484375,13.6058515625
0.8273046875,5.4808984375,7.63417578125,1.5504609375,-0.5949765625,1.3329296875,-1.81356640625,-0.0875117187500001,3.66642578125,1.44898046875,1.416328125,5.85193359375,1.66463671875,6.267671875,1.88594140625,3.210421875,-3.2476875,8.90060546875,4.04351953125,7.12786328125,7.05112890625,6.16130078125,11.6725078125,2.579234375,12.213953125,4.17435546875,7.93821484375,13.13301171875,8.57396484375,12.6748515625
0.3503046875,4.9658984375,9.36917578125,1.2464609375,-0.3369765625,0.4939296875,-3.08756640625,-1.02151171875,3.46142578125,1.35398046875,0.380328125,6.67993359375,3.28263671875,5.368671875,1.19794140625,2.572421875,-4.8096875,7.96560546875,3.31051953125,6.07186328125,5.92512890625,5.86230078125,10.9765078125,2.627234375,11.447953125,2.55435546875,7.52321484375,11.84701171875,7.72896484375,12.1898515625
-0.163695312500002,4.4968984375,9.29717578125,0.5864609375,-0.1739765625,0.0939296874999999,-3.06656640625,-0.80751171875,2.49742578125,1.35598046875,0.273328125000001,8.29893359375,5.68863671875,3.872671875,0.77594140625,3.087421875,-5.8726875,6.55760546875,2.35851953125,5.97986328125,5.77912890625,5.46830078125,10.0785078125,3.481234375,11.366953125,1.47735546875,7.58821484375,11.14701171875,7.35196484375,12.2758515625
-0.721695312500001,3.8748984375,7.45617578125,-0.0445390625000002,-0.0139765625,0.5439296875,-1.86956640625,0.41348828125,1.14042578125,1.53098046875,1.162328125,10.10693359375,7.92163671875,1.704671875,0.644941406250002,4.491421875,-6.3696875,4.36360546875,0.89751953125,6.59386328125,6.43512890625,4.52530078125,8.5235078125,4.771234375,11.761953125,1.25535546875,7.73721484375,10.78301171875,7.28296484375,12.8438515625
-1.4156953125,2.8808984375,4.53817578125,-0.5685390625,0.1130234375,1.8599296875,0.0314335937499992,2.26348828125,-0.321574218749999,1.85098046875,2.795328125,11.37193359375,8.85063671875,-1.107328125,0.767941406250001,6.196421875,-6.0946875,1.19260546875,-1.20048046875,7.45286328125,7.51912890625,2.66930078125,5.9875078125,5.913234375,12.237953125,1.93035546875,7.47121484375,10.34601171875,7.23696484375,13.6338515625
-2.4466953125,1.4058984375,1.43117578125,-1.2335390625,0.0270234375,3.5769296875,1.96243359375,4.24348828125,-1.81857421875,2.11098046875,4.616328125,11.44093359375,7.75063671875,-4.368328125,1.03994140625,7.520421875,-4.8236875,-2.79239453125,-3.78048046875,8.12086328125,8.63112890625,-0.07669921875,2.5685078125,6.430234375,12.429953125,3.27035546875,6.50621484375,9.55701171875,6.97096484375,14.3128515625
-3.9676953125,-0.4041015625,-1.16582421875,-2.3165390625,-0.4029765625,5.0889296875,3.34643359375,5.82648828125,-3.36957421875,2.14598046875,5.960328125,9.94393359375,4.72263671875,-7.630328125,1.37594140625,7.948421875,-2.5186875,-6.94939453125,-6.33648046875,8.39886328125,9.46012890625,-3.18769921875,-1.0924921875,6.254234375,12.187953125,4.88235546875,4.99921484375,8.49901171875,6.43896484375,14.6268515625
-5.8846953125,-2.1311015625,-2.83582421875,-3.8155390625,-1.0789765625,5.9839296875,3.91743359375,6.46748828125,-4.85757421875,1.98098046875,6.310328125,6.93093359375,0.69463671875,-10.210328125,1.75994140625,7.291421875,0.568312499999999,-10.26339453125,-8.12248046875,8.36786328125,9.81012890625,-5.77669921875,-3.9734921875,5.786234375,11.617953125,6.36835546875,3.50821484375,7.60501171875,5.81396484375,14.5018515625
-7.7646953125,-3.2601015625,-3.34182421875,-5.4075390625,-1.7259765625,6.0809296875,3.69343359375,5.65648828125,-5.95057421875,1.70898046875,5.488328125,2.88493359375,-3.00236328125,-11.384328125,2.19694140625,5.695421875,4.0213125,-11.69639453125,-8.47948046875,8.25786328125,9.58612890625,-6.96069921875,-5.0714921875,5.660234375,10.990953125,7.46235546875,2.72921484375,7.42701171875,5.37296484375,14.0748515625
-8.9386953125,-3.4091015625,-2.52182421875,-6.6415390625,-2.0789765625,5.3759296875,2.85543359375,3.19448828125,-6.23657421875,1.35998046875,3.718328125,-1.33406640625,-5.24136328125,-10.697328125,2.64794140625,3.553421875,7.4663125,-10.64339453125,-7.14548046875,8.26886328125,8.79812890625,-6.24269921875,-3.8364921875,6.363234375,10.581953125,8.07435546875,3.16421484375,8.33401171875,5.34196484375,13.6128515625
-8.7286953125,-2.4781015625,-0.361824218750002,-7.1485390625,-2.0039765625,4.1249296875,1.71943359375,-0.40451171875,-5.47557421875,0.97798046875,1.575328125,-4.64706640625,-5.51936328125,-8.194328125,3.05994140625,1.390421875,10.6703125,-7.22039453125,-4.33148046875,8.48786328125,7.59512890625,-3.72569921875,-0.420492187499999,7.971234375,10.551953125,8.27235546875,4.89721484375,10.31301171875,5.77496484375,13.3528515625
-6.7456953125,-0.6311015625,2.84317578125,-6.7835390625,-1.5169765625,2.8829296875,0.75843359375,-3.84751171875,-3.77657421875,0.72498046875,-0.153671874999999,-6.04006640625,-4.02136328125,-4.421328125,3.46494140625,-0.231578125,13.4583125,-2.24739453125,-0.56548046875,8.92986328125,6.29912890625,-0.0616992187500003,4.3935078125,10.140234375,10.920953125,8.22235546875,7.55621484375,12.95601171875,6.53296484375,13.3458515625
-3.1136953125,1.7948984375,6.41417578125,-5.6675390625,-0.7659765625,2.2569296875,0.50443359375,-5.60351171875,-1.58057421875,0.78998046875,-0.725671875,-4.97706640625,-1.38336328125,-0.195328125000003,3.99994140625,-0.837578125,15.5653125,3.08060546875,3.51751953125,9.59886328125,5.34412890625,3.80930078125,9.5115078125,12.303234375,11.600953125,8.13435546875,10.45221484375,15.59601171875,7.30896484375,13.4078515625
1.4843046875,4.3958984375,9.47517578125,-4.1105390625,0.0200234375,2.5429296875,1.29743359375,-4.76451171875,0.52242578125,1.22298046875,0.258328125,-1.75306640625,1.61663671875,3.704671875,4.81894140625,-0.197578125,16.5873125,7.63460546875,7.33851953125,10.47686328125,5.11712890625,6.97930078125,13.8885078125,13.913234375,12.443953125,8.18735546875,12.80421484375,17.52301171875,7.70996484375,13.1988515625
5.9903046875,6.7658984375,11.34417578125,-2.4525390625,0.6280234375,3.6009296875,3.02643359375,-1.60851171875,2.02542578125,1.93298046875,2.624328125,2.49193359375,4.29763671875,6.736671875,5.96994140625,1.526421875,16.0713125,10.69560546875,10.45751953125,11.47986328125,5.74712890625,8.83730078125,16.8005078125,14.622234375,13.247953125,8.46335546875,13.99121484375,18.20501171875,7.39296484375,12.4118515625
9.3213046875,8.5538984375,11.88117578125,-0.9255390625,0.9440234375,4.9819296875,5.06543359375,2.52348828125,2.68342578125,2.77098046875,5.640328125,6.20593359375,6.20463671875,8.663671875,7.34994140625,3.800421875,13.7013125,12.08860546875,12.61051953125,12.44086328125,7.02412890625,9.21330078125,17.9665078125,14.351234375,13.808953125,8.92435546875,13.78321484375,17.47901171875,6.23996484375,10.9728515625
10.7513046875,9.5408984375,11.53217578125,0.3614609375,0.9440234375,6.0869296875,6.49243359375,5.89848828125,2.58042578125,3.53598046875,8.300328125,8.12493359375,7.16063671875,9.528671875,8.72094140625,5.935421875,9.5433125,12.12760546875,13.70451953125,13.16486328125,8.51312890625,8.38730078125,17.5695078125,13.285234375,14.010953125,9.46435546875,12.44821484375,15.64001171875,4.49396484375,9.1588515625
10.1683046875,9.6958984375,11.04317578125,1.3584609375,0.6390234375,6.3439296875,6.54543359375,7.18648828125,2.08142578125,3.94998046875,9.734328125,7.83293359375,7.24963671875,9.577671875,9.77994140625,7.387421875,4.2603125,11.41660546875,13.77451953125,13.51986328125,9.79312890625,6.95830078125,16.1495078125,11.775234375,13.902953125,9.99735546875,10.66521484375,13.35501171875,2.72696484375,7.5438515625
8.1333046875,9.1778984375,11.01517578125,2.0414609375,0.0790234375,5.4899296875,5.06243359375,6.01848828125,1.65642578125,3.81398046875,9.530328125,5.84693359375,6.74163671875,9.155671875,10.27794140625,7.950421875,-0.8536875,10.56960546875,12.97351953125,13.48386328125,10.63812890625,5.58030078125,14.3845078125,10.174234375,13.662953125,10.49535546875,9.21121484375,11.40201171875,1.60296484375,6.7468515625
5.6493046875,8.2588984375,11.55317578125,2.4134609375,-0.6089765625,3.7869296875,2.60843359375,3.04148828125,1.66942578125,3.19498046875,7.841328125,3.21193359375,5.96063671875,8.569671875,10.11794140625,7.722421875,-4.1986875,9.97360546875,11.55951953125,13.11386328125,11.01312890625,4.70330078125,12.8095078125,8.681234375,13.465953125,10.94135546875,8.59021484375,10.35001171875,1.55796484375,7.1158515625
3.7033046875,7.1878984375,12.21017578125,2.5034609375,-1.2449765625,1.8569296875,0.12943359375,-0.52951171875,2.21842578125,2.37498046875,5.244328125,0.885933593750001,5.15563671875,7.983671875,9.37794140625,6.921421875,-4.5026875,9.66760546875,9.82851953125,12.47186328125,10.96612890625,4.42730078125,11.6265078125,7.271234375,13.358953125,11.27635546875,8.79621484375,10.34601171875,2.56096484375,8.5248515625
2.7993046875,6.0998984375,12.23017578125,2.3254609375,-1.7129765625,0.2229296875,-1.63256640625,-3.57851171875,3.10442578125,1.58198046875,2.448328125,-0.692066406249999,4.43663671875,7.388671875,8.23494140625,5.712421875,-1.4856875,9.39960546875,8.00451953125,11.56286328125,10.50912890625,4.53330078125,10.7005078125,5.760234375,13.225953125,11.36635546875,9.36121484375,11.11401171875,4.11096484375,10.4028515625
2.7673046875,4.9958984375,10.99317578125,1.8754609375,-2.0419765625,-0.9830703125,-2.53756640625,-5.55451171875,3.90742578125,0.83898046875,0.0113281250000004,-1.62406640625,3.78663671875,6.626671875,6.88394140625,4.161421875,3.8473125,8.80160546875,6.16751953125,10.34186328125,9.59212890625,4.67030078125,9.7055078125,3.960234375,12.844953125,11.03835546875,9.61921484375,12.12001171875,5.45696484375,11.9678515625
2.9503046875,3.8018984375,8.41017578125,1.1554609375,-2.3719765625,-1.9300703125,-3.01356640625,-6.49351171875,4.11642578125,0.0749804687500002,-1.827671875,-2.26906640625,3.12663671875,5.468671875,5.49694140625,2.301421875,9.5063125,7.56460546875,4.29651953125,8.77886328125,8.15512890625,4.55130078125,8.3285078125,1.814234375,11.995953125,10.13735546875,9.05321484375,12.80901171875,5.92896484375,12.5468515625
2.6173046875,2.4498984375,5.00617578125,0.1834609375,-2.8669765625,-2.8800703125,-3.72056640625,-6.75251171875,3.33542578125,-0.74701953125,-3.142671875,-2.91906640625,2.38963671875,3.733671875,4.21794140625,0.233421875,13.3743125,5.56760546875,2.35951953125,6.94086328125,6.22612890625,4.07830078125,6.4315078125,-0.523765625000001,10.587953125,8.62035546875,7.53621484375,12.79801171875,5.20396484375,11.8558515625
1.3553046875,0.9358984375,1.63717578125,-0.9935390625,-3.6449765625,-4.1140703125,-5.14356640625,-6.69651171875,1.48942578125,-1.65001953125,-4.168671875,-3.64406640625,1.55763671875,1.391671875,3.14894140625,-1.811578125,14.1863125,2.91160546875,0.376519531249999,5.02986328125,4.00112890625,3.32830078125,4.1075078125,-2.711765625,8.756953125,6.63935546875,5.37421484375,11.97501171875,3.38496484375,10.1098515625
-0.743695312500002,-0.6751015625,-1.01882421875,-2.2775390625,-4.7099765625,-5.8430703125,-7.30456640625,-6.51251171875,-1.05857421875,-2.62901953125,-5.113671875,-4.35106640625,0.63063671875,-1.387328125,2.35694140625,-3.521578125,12.0723125,-0.14139453125,-1.55348046875,3.35186328125,1.83312890625,2.42330078125,1.6215078125,-4.310765625,6.852953125,4.54435546875,3.14421484375,10.47601171875,0.89596484375,7.8948515625
-3.1536953125,-2.2861015625,-2.83682421875,-3.4925390625,-5.8929765625,-8.0090703125,-9.68756640625,-6.21151171875,-3.62957421875,-3.55701953125,-6.034671875,-4.93506640625,-0.43736328125,-4.305328125,1.89694140625,-4.636578125,8.3113125,-3.29939453125,-3.26148046875,2.19386328125,0.11412890625,1.38530078125,-0.743492187499999,-4.947765625,5.303953125,2.76535546875,1.43021484375,8.56301171875,-1.71803515625,5.8558515625
-5.2146953125,-3.8031015625,-4.23482421875,-4.4385390625,-6.8809765625,-10.1860703125,-11.45256640625,-5.78351171875,-5.55057421875,-4.16501953125,-6.825671875,-5.36206640625,-1.78036328125,-7.041328125,1.79994140625,-5.088578125,4.4593125,-6.34439453125,-4.56848046875,1.67986328125,-0.88987109375,0.09330078125,-2.8104921875,-4.488765625,4.416953125,1.61135546875,0.580214843749999,6.49801171875,-3.97503515625,4.4038515625
-6.4736953125,-5.1291015625,-5.77482421875,-4.9855390625,-7.3549765625,-11.7960703125,-11.86656640625,-5.36351171875,-6.45557421875,-4.22501953125,-7.305671875,-5.61406640625,-3.51736328125,-9.317328125,2.01394140625,-5.042578125,1.4403125,-9.13639453125,-5.38448046875,1.66986328125,-1.14787109375,-1.60569921875,-4.5254921875,-3.152765625,4.230953125,1.11635546875,0.60221484375,4.46801171875,-5.57403515625,3.5788515625
-6.8396953125,-6.1011015625,-7.61482421875,-5.1065390625,-7.0919765625,-12.4240703125,-10.70356640625,-5.21351171875,-6.37957421875,-3.68801953125,-7.305671875,-5.56606640625,-5.58036328125,-10.883328125,2.39794140625,-4.817578125,-0.8056875,-11.51839453125,-5.75048046875,1.80386328125,-0.87487109375,-3.69869921875,-5.8734921875,-1.453765625,4.490953125,1.00535546875,1.21121484375,2.60601171875,-6.41603515625,3.1148515625
-6.4716953125,-6.4531015625,-9.21582421875,-4.7915390625,-5.9459765625,-11.8840703125,-8.34056640625,-5.45751171875,-5.59757421875,-2.55901953125,-6.713671875,-4.96506640625,-7.59236328125,-11.486328125,2.81194140625,-4.709578125,-2.9256875,-13.24239453125,-5.76348046875,1.68886328125,-0.43687109375,-5.88569921875,-6.7874921875,0.0212343749999988,4.742953125,0.82235546875,1.96821484375,1.05401171875,-6.56403515625,2.6098515625
-5.5506953125,-5.8671015625,-9.54782421875,-3.9875390625,-3.8249765625,-10.1370703125,-5.54256640625,-5.82251171875,-4.38057421875,-0.73401953125,-5.483671875,-3.56306640625,-8.96536328125,-10.903328125,3.24494140625,-4.827578125,-5.3796875,-13.99539453125,-5.44448046875,1.14386328125,-0.19787109375,-7.64469921875,-7.1354921875,0.875234375,4.539953125,0.15235546875,2.44421484375,-0.0169882812500006,-6.17803515625,1.7048515625
-4.1606953125,-4.1471015625,-7.73382421875,-2.6745390625,-0.7839765625,-7.3570703125,-3.10656640625,-5.71251171875,-2.86157421875,1.87198046875,-3.659671875,-1.33706640625,-9.17736328125,-9.038328125,3.82594140625,-5.004578125,-7.8626875,-13.53339453125,-4.71348046875,0.33186328125,-0.34887109375,-8.46369921875,-6.7754921875,1.064234375,3.661953125,-1.13864453125,2.36021484375,-0.486988281250001,-5.45903515625,0.2228515625
-2.3256953125,-1.4101015625,-3.72082421875,-1.0025390625,2.8040234375,-4.0940703125,-1.53356640625,-4.61651171875,-1.09557421875,5.02998046875,-1.425671875,1.37393359375,-8.07336328125,-6.053328125,4.69994140625,-4.881578125,-9.2996875,-11.83239453125,-3.49248046875,-0.29613671875,-0.80487109375,-8.09869921875,-5.6554921875,0.875234375,2.263953125,-2.79164453125,1.66421484375,-0.39298828125,-4.63303515625,-1.7581484375
-0.0866953125000016,1.8538984375,1.49017578125,0.6864609375,6.2480234375,-1.1630703125,-0.83456640625,-2.50951171875,0.77642578125,8.12898046875,0.879328125000001,3.91793359375,-5.98136328125,-2.428328125,5.88394140625,-4.121578125,-8.4246875,-9.15239453125,-1.81348046875,-0.22813671875,-1.24287109375,-6.67169921875,-3.8724921875,0.755234374999999,0.826953125,-4.22164453125,0.53421484375,0.0680117187499985,-3.89103515625,-3.9091484375
2.4543046875,4.9318984375,6.29617578125,2.0064609375,8.7560234375,0.7379296875,-0.56456640625,0.0614882812499999,2.43342578125,10.44798046875,2.828328125,5.56593359375,-3.53336328125,1.147671875,7.21994140625,-2.642578125,-4.6436875,-5.93539453125,0.167519531249999,0.83386328125,-1.28187109375,-4.56669921875,-1.6424921875,1.108234375,-0.0630468750000004,-4.76564453125,-0.681785156250001,0.660011718749999,-3.30903515625,-5.7501484375
5.1033046875,7.1878984375,9.35217578125,2.7334609375,9.7530234375,1.3179296875,-0.114566406250001,2.25448828125,3.48042578125,11.46298046875,4.064328125,5.85593359375,-1.29336328125,4.039671875,8.41794140625,-0.697578125,1.3583125,-2.59239453125,2.23951953125,2.80786328125,-0.67387109375,-2.18369921875,0.812507812500002,2.154234375,0.0369531250000001,-3.98164453125,-1.58078515625,1.27601171875,-2.79803515625,-6.7941484375
7.5563046875,8.3468984375,10.34517578125,2.9224609375,9.1030234375,0.7109296875,0.909433593749999,3.38048828125,3.69742578125,11.01398046875,4.472328125,4.89693359375,0.55563671875,5.963671875,9.16694140625,1.282421875,7.7303125,0.68760546875,4.20751953125,5.26486328125,0.59612890625,0.25630078125,3.3855078125,3.880234375,1.272953125,-1.84864453125,-1.84478515625,2.00201171875,-2.14603515625,-6.7171484375
9.4513046875,8.5998984375,10.13417578125,2.9054609375,7.1990234375,-0.6130703125,2.51743359375,3.29148828125,3.24042578125,9.38498046875,4.280328125,3.44193359375,2.24663671875,7.098671875,9.27094140625,2.961421875,12.3433125,3.96360546875,5.96251953125,7.64786328125,2.34812890625,2.72430078125,6.0885078125,6.088234375,3.482953125,1.19835546875,-1.35278515625,3.03901171875,-1.15403515625,-5.4821484375
10.5143046875,8.4668984375,10.18517578125,3.1564609375,4.8560234375,-1.9090703125,4.43543359375,2.49748828125,2.61242578125,7.29998046875,4.002328125,2.62793359375,4.16663671875,7.941671875,8.77494140625,4.292421875,13.9543125,7.36960546875,7.50651953125,9.54386328125,4.32912890625,5.23330078125,8.9365078125,8.475234375,6.283953125,4.43835546875,-0.22778515625,4.53101171875,0.223964843749999,-3.3721484375
10.6933046875,8.5198984375,11.65817578125,4.0484609375,3.0170234375,-2.3670703125,6.32743359375,1.91448828125,2.39642578125,5.64498046875,4.244328125,3.41493359375,6.51763671875,8.997671875,7.96794140625,5.514421875,12.8553125,10.88060546875,8.90551953125,10.84986328125,6.32412890625,7.65930078125,11.8065078125,10.711234375,9.217953125,7.15835546875,1.22021484375,6.42801171875,1.81296484375,-0.8771484375
10.2163046875,9.1098984375,14.72217578125,5.6134609375,2.3440234375,-1.5280703125,7.95743359375,2.34348828125,2.94942578125,4.98398046875,5.433328125,6.05593359375,9.13863671875,10.512671875,7.26294140625,6.961421875,10.5793125,14.19460546875,10.19151953125,11.74486328125,8.21612890625,9.68330078125,14.3875078125,12.500234375,11.878953125,8.92535546875,2.62821484375,8.45001171875,3.27796484375,1.4968515625
9.5013046875,10.2338984375,18.47817578125,7.5054609375,2.9720234375,0.4759296875,9.23943359375,4.01748828125,4.23042578125,5.29198046875,7.605328125,9.90193359375,11.57263671875,12.369671875,6.98794140625,8.818421875,8.9063125,16.79660546875,11.29651953125,12.49286328125,9.94612890625,10.89030078125,16.2745078125,13.619234375,13.976953125,9.68735546875,3.70121484375,10.18701171875,4.25896484375,3.4078515625
8.9793046875,11.5648984375,21.44317578125,9.1844609375,4.5540234375,3.0899296875,10.23943359375,6.47848828125,5.86742578125,6.12098046875,10.343328125,13.68593359375,13.26863671875,14.157671875,7.23694140625,10.928421875,8.8503125,18.17460546875,12.08251953125,13.21486328125,11.39412890625,10.96830078125,17.1205078125,13.921234375,15.307953125,9.64835546875,4.27821484375,11.24301171875,4.51796484375,4.6988515625
8.8593046875,12.5888984375,22.30117578125,10.2154609375,6.5020234375,5.6819296875,11.09143359375,8.79948828125,7.38342578125,6.96198046875,12.928328125,16.10293359375,13.77863671875,15.368671875,7.81094140625,12.796421875,10.2283125,18.05360546875,12.41351953125,13.75086328125,12.29712890625,9.88230078125,16.7705078125,13.329234375,15.693953125,9.03835546875,4.31421484375,11.34901171875,4.00096484375,5.2998515625
8.9713046875,12.7998984375,20.53917578125,10.4854609375,8.2390234375,7.7209296875,11.87043359375,10.03448828125,8.43542578125,7.43598046875,14.644328125,16.39593359375,12.88463671875,15.608671875,8.27594140625,13.794421875,11.8843125,16.53260546875,12.16651953125,13.71286328125,12.28712890625,7.94630078125,15.3225078125,11.837234375,14.987953125,7.95735546875,3.84121484375,10.42301171875,2.81796484375,5.1458515625
8.8383046875,11.9008984375,16.68317578125,10.2234609375,9.3720234375,8.8379296875,12.54543359375,9.68648828125,8.92442578125,7.36998046875,15.130328125,14.70193359375,10.65263671875,14.745671875,8.16494140625,13.507421875,12.3473125,14.04760546875,11.22851953125,12.71786328125,11.07112890625,5.73030078125,13.0625078125,9.539234375,13.160953125,6.40035546875,2.94021484375,8.56301171875,1.17096484375,4.1798515625
7.9753046875,9.9398984375,12.01217578125,9.8354609375,9.8220234375,8.9919296875,13.07543359375,7.99348828125,8.94242578125,6.90398046875,14.595328125,12.00393359375,7.44363671875,12.921671875,7.25194140625,12.001421875,10.6083125,11.17560546875,9.56351953125,10.67686328125,8.63212890625,3.82330078125,10.3545078125,6.664234375,10.402953125,4.36935546875,1.74121484375,6.01701171875,-0.72203515625,2.4318515625
6.2233046875,7.3208984375,7.85617578125,9.6314609375,9.8220234375,8.6349296875,13.54943359375,5.83748828125,8.62542578125,6.53898046875,13.764328125,9.68093359375,3.86963671875,10.463671875,5.74394140625,9.844421875,6.7233125,8.40860546875,7.32651953125,7.94086328125,5.33812890625,2.58730078125,7.5235078125,3.589234375,7.150953125,2.00735546875,0.440214843750001,3.12701171875,-2.65503515625,0.0948515625000002
3.8833046875,4.6458984375,4.92117578125,9.5864609375,9.7420234375,8.5099296875,14.16443359375,4.26748828125,8.05442578125,6.85498046875,13.538328125,8.82893359375,0.65063671875,7.755671875,4.21594140625,7.835421875,1.9093125,5.99860546875,4.86551953125,5.19486328125,1.87312890625,2.03130078125,4.8195078125,0.780234374999999,4.016953125,-0.38064453125,-0.710785156250001,0.29001171875,-4.42603515625,-2.4631484375
1.5553046875,2.4438984375,3.03617578125,9.3414609375,9.8020234375,9.1649296875,15.03543359375,3.91548828125,7.24142578125,8.06598046875,14.512328125,9.70593359375,-1.61936328125,5.101671875,3.27494140625,6.574421875,-2.0456875,3.91460546875,2.56851953125,3.11386328125,-1.01087109375,1.85130078125,2.3965078125,-1.357765625,1.602953125,-2.41264453125,-1.47378515625,-2.12098828125,-5.83903515625,-4.7771484375
-0.209695312500001,0.9218984375,1.46917578125,8.4464609375,9.9080234375,10.5979296875,16.00543359375,4.69648828125,6.15342578125,9.83098046875,16.584328125,11.62993359375,-2.72136328125,2.609671875,3.19594140625,6.095421875,-3.7866875,1.87960546875,0.63351953125,1.98386328125,-2.83587109375,1.58330078125,0.264507812500002,-2.680765625,0.233953125,-3.82464453125,-1.77778515625,-3.87198828125,-6.76703515625,-6.4621484375
-1.2366953125,-0.1291015625,-0.482824218750002,6.7094609375,9.7030234375,12.2929296875,16.63043359375,5.93748828125,4.70642578125,11.45298046875,18.918328125,13.35993359375,-2.93636328125,0.158671874999998,3.73994140625,5.806421875,-3.1596875,-0.495394531250001,-1.04548046875,1.50886328125,-3.63187109375,0.81630078125,-1.7464921875,-3.425765625,-0.218046875,-4.64264453125,-1.81578515625,-4.95398828125,-7.22503515625,-7.3981484375
-1.8386953125,-1.1851015625,-3.04782421875,4.3624609375,8.7800234375,13.4669296875,16.35543359375,6.75848828125,2.79942578125,12.21898046875,20.315328125,13.74193359375,-2.90136328125,-2.483328125,4.27394140625,4.807421875,-1.1396875,-3.48039453125,-2.79548046875,0.97386328125,-3.88787109375,-0.61469921875,-3.8824921875,-4.103765625,-0.279046875,-5.18964453125,-1.96578515625,-5.54198828125,-7.35803515625,-7.7781484375
-2.6216953125,-2.6771015625,-5.89182421875,1.9814609375,6.9010234375,13.3499296875,14.81543359375,6.46948828125,0.41942578125,11.63698046875,19.810328125,12.23893359375,-3.26336328125,-5.411328125,4.08194140625,2.433421875,0.977312499999999,-6.97639453125,-4.91948046875,-0.32713671875,-4.23087109375,-2.51869921875,-6.2324921875,-5.207765625,-0.562046875,-5.87864453125,-2.54178515625,-5.84198828125,-7.35203515625,-7.9641484375
-4.0776953125,-4.7111015625,-8.38982421875,0.2124609375,4.1680234375,11.5299296875,12.10543359375,4.84048828125,-2.21257421875,9.64198046875,17.163328125,9.11593359375,-4.34636328125,-8.381328125,2.73094140625,-1.307578125,2.4553125,-10.42439453125,-7.39948046875,-2.66413671875,-5.03387109375,-4.40369921875,-8.5364921875,-6.903765625,-1.402046875,-6.92664453125,-3.57078515625,-5.94098828125,-7.31403515625,-8.2451484375
-6.2156953125,-6.9761015625,-10.02982421875,-0.5185390625,1.0410234375,8.2499296875,8.83843359375,2.18548828125,-4.59957421875,6.69398046875,12.950328125,5.24893359375,-6.05636328125,-10.826328125,0.282941406250002,-5.662578125,3.3433125,-12.97139453125,-9.76748046875,-5.68113671875,-6.22087109375,-5.69069921875,-10.2064921875,-8.917765625,-2.689046875,-8.19764453125,-4.75678515625,-5.81298828125,-7.25503515625,-8.6841484375
-8.5326953125,-8.9161015625,-10.71882421875,-0.2045390625,-1.8409765625,4.3259296875,5.84543359375,-0.79751171875,-6.13657421875,3.59398046875,8.226328125,1.69693359375,-8.01436328125,-12.101328125,-2.75405859375,-9.470578125,3.9703125,-13.83739453125,-11.27348046875,-8.58913671875,-7.37487109375,-5.96969921875,-10.6064921875,-10.699765625,-3.969046875,-9.29364453125,-5.66578515625,-5.43598828125,-7.15003515625,-9.1371484375
-10.2986953125,-10.0311015625,-10.78082421875,0.710460937500001,-4.0039765625,0.6079296875,3.67843359375,-3.36551171875,-6.41757421875,0.99798046875,3.982328125,-0.75706640625,-9.78236328125,-11.810328125,-5.71805859375,-11.679578125,4.3533125,-12.66939453125,-11.29648046875,-10.57413671875,-8.01187109375,-5.15569921875,-9.3954921875,-11.735765625,-4.713046875,-9.80264453125,-5.95978515625,-4.89698828125,-7.01903515625,-9.3731484375
-10.9486953125,-10.1311015625,-10.65082421875,1.5144609375,-5.3569765625,-2.5070703125,2.29443359375,-5.00551171875,-5.49557421875,-0.92301953125,0.739328125,-1.87406640625,-11.00336328125,-10.030328125,-8.07905859375,-11.778578125,4.1873125,-9.70639453125,-9.70448046875,-11.16513671875,-7.82987109375,-3.48769921875,-6.7404921875,-11.801765625,-4.570046875,-9.52364453125,-5.52178515625,-4.37698828125,-6.92303515625,-9.2051484375
-10.3226953125,-9.3951015625,-10.48282421875,1.5974609375,-6.1379765625,-5.0710703125,1.17043359375,-5.51851171875,-3.90857421875,-2.38501953125,-1.518671875,-1.95306640625,-11.44636328125,-7.307328125,-9.56905859375,-9.956578125,3.3943125,-5.69939453125,-6.90048046875,-10.38313671875,-6.78587109375,-1.42269921875,-3.2984921875,-11.014765625,-3.484046875,-8.53164453125,-4.42778515625,-4.04698828125,-6.88203515625,-8.5441484375
-8.6826953125,-8.2411015625,-9.98782421875,0.783460937499999,-6.6689765625,-7.2340703125,-0.247566406250001,-4.96151171875,-2.42957421875,-3.65001953125,-3.110671875,-1.56306640625,-11.03236328125,-4.424328125,-10.12505859375,-6.936578125,2.5293125,-1.62839453125,-3.58148046875,-8.61913671875,-5.01487109375,0.52930078125,0.0455078125000004,-9.680765625,-1.657046875,-7.07264453125,-2.82778515625,-3.98698828125,-6.80903515625,-7.3851484375
-6.5656953125,-7.0981015625,-8.65282421875,-0.572539062500001,-7.1409765625,-9.0200703125,-2.12956640625,-3.56651171875,-1.66157421875,-4.83101953125,-4.316671875,-1.17406640625,-9.87236328125,-2.045328125,-9.81005859375,-3.597578125,2.5393125,1.66860546875,-0.40448046875,-6.37613671875,-2.68987109375,1.95230078125,2.5365078125,-8.066765625,0.613953125,-5.39564453125,-0.85978515625,-4.17698828125,-6.51803515625,-5.7851484375
-4.5616953125,-6.2141015625,-6.17882421875,-1.7795390625,-7.5579765625,-10.3490703125,-4.10056640625,-1.65751171875,-1.71857421875,-5.88001953125,-5.163671875,-0.89006640625,-8.23936328125,-0.437328125000002,-8.76805859375,-0.580578125,4.0513125,3.78360546875,2.24151953125,-4.02813671875,0.0611289062500001,2.63330078125,3.8385078125,-6.259765625,3.073953125,-3.66364453125,1.34121484375,-4.52798828125,-5.83703515625,-3.8581484375
-3.0796953125,-5.5851015625,-2.82482421875,-2.1705390625,-7.7689765625,-11.0780703125,-5.38156640625,0.44148828125,-2.20557421875,-6.58301953125,-5.438671875,-0.433066406249999,-6.46736328125,0.562671874999998,-7.20505859375,1.891421875,6.8403125,4.79360546875,4.29251953125,-1.72113671875,3.10412890625,2.59330078125,4.0935078125,-4.207765625,5.558953125,-1.97064453125,3.56821484375,-4.93198828125,-4.73203515625,-1.8171484375
-2.2016953125,-5.0311015625,0.607175781249998,-1.4625390625,-7.5919765625,-11.0420703125,-5.18256640625,2.48648828125,-2.49757421875,-6.60201953125,-4.902671875,0.62393359375,-4.81836328125,1.340671875,-5.36405859375,3.932421875,9.9263125,5.08760546875,5.89851953125,0.55686328125,6.20312890625,2.03130078125,3.7545078125,-1.867765625,7.929953125,-0.42664453125,5.49521484375,-5.28898828125,-3.36703515625,-0.00914843749999994
-1.7026953125,-4.3471015625,3.14617578125,0.0544609375,-6.9859765625,-10.2140703125,-3.17756640625,4.30748828125,-2.14757421875,-5.70701953125,-3.528671875,2.51993359375,-3.41736328125,2.234671875,-3.50105859375,5.752421875,12.1683125,5.10160546875,7.24251953125,2.83986328125,9.00012890625,1.24230078125,3.3385078125,0.664234374999999,10.029953125,0.81535546875,6.76221484375,-5.52998828125,-2.05603515625,1.1408515625
-1.2036953125,-3.4251015625,4.16317578125,1.6264609375,-6.1449765625,-8.8710703125,0.218433593749999,5.75948828125,-1.11857421875,-4.04701953125,-1.597671875,5.06793359375,-2.28736328125,3.372671875,-1.83105859375,7.457421875,12.9093125,5.12060546875,8.39851953125,5.07986328125,11.09312890625,0.52430078125,3.2295078125,3.160234375,11.700953125,1.61635546875,7.14921484375,-5.61598828125,-1.13503515625,1.3038515625
-0.3836953125,-2.2871015625,3.73317578125,2.4464609375,-5.3819765625,-7.4700703125,4.01543359375,6.72748828125,0.24642578125,-2.11301953125,0.396328125,7.68893359375,-1.42036328125,4.665671875,-0.468058593749999,8.969421875,12.2303125,5.20360546875,9.34251953125,7.13586328125,12.17912890625,0.0913007812500002,3.5775078125,5.376234375,12.830953125,1.94635546875,6.71721484375,-5.53498828125,-0.81503515625,0.4328515625
0.8593046875,-1.0581015625,2.62917578125,2.1454609375,-4.8919765625,-6.2860703125,7.15343359375,7.19748828125,1.46742578125,-0.40801953125,1.975328125,9.68093359375,-0.82336328125,5.883671875,0.628941406250002,10.078421875,10.7023125,5.21460546875,10.04751953125,8.79086328125,12.14412890625,0.00930078125000033,4.2605078125,7.154234375,13.341953125,1.92635546875,5.77721484375,-5.31098828125,-1.09303515625,-1.1511484375
2.3083046875,0.0528984374999997,1.91417578125,1.0144609375,-4.6279765625,-5.2590703125,8.98543359375,7.28248828125,2.20142578125,0.78598046875,2.854328125,10.57393359375,-0.51036328125,6.722671875,1.56594140625,10.524421875,8.8403125,4.90060546875,10.49551953125,9.76186328125,11.06512890625,0.17030078125,4.9145078125,8.421234375,13.122953125,1.76235546875,4.71021484375,-5.02698828125,-1.75903515625,-2.8751484375
3.4603046875,0.7638984375,2.31117578125,-0.178539062500001,-4.4379765625,-4.2470703125,9.45543359375,7.16548828125,2.35042578125,1.35598046875,2.985328125,10.34493359375,-0.50836328125,6.838671875,2.34694140625,10.091421875,6.6453125,3.98060546875,10.55351953125,9.69486328125,9.13812890625,0.31830078125,5.0085078125,9.081234375,11.972953125,1.61835546875,3.72721484375,-4.84498828125,-2.50503515625,-4.1821484375
3.7033046875,0.7288984375,3.68117578125,-0.6525390625,-4.2639765625,-3.3190703125,8.95243359375,7.00148828125,1.97542578125,1.23798046875,2.476328125,9.36893359375,-0.86936328125,5.856671875,2.74394140625,8.638421875,3.6213125,2.18260546875,9.86651953125,8.22786328125,6.57012890625,0.11030078125,3.9685078125,8.938234375,9.628953125,1.48135546875,2.71921484375,-5.01198828125,-3.10903515625,-4.8521484375
2.5713046875,-0.3791015625,4.94017578125,-0.0725390625000006,-4.2329765625,-2.7280703125,8.03543359375,6.86348828125,1.09442578125,0.43498046875,1.478328125,8.14093359375,-1.67736328125,3.425671875,2.38394140625,6.128421875,-0.661687500000001,-0.71139453125,7.94851953125,5.14186328125,3.50812890625,-0.79769921875,1.3485078125,7.727234375,5.901953125,1.13435546875,1.31621484375,-5.80298828125,-3.57603515625,-5.1521484375
-0.0536953125000004,-2.7271015625,4.55317578125,1.2374609375,-4.5709765625,-2.6850703125,7.16243359375,6.70348828125,-0.39957421875,-0.93401953125,0.129328125000001,6.98593359375,-3.00636328125,-0.626328125000002,0.98394140625,2.657421875,-5.8266875,-4.78139453125,4.46751953125,0.56586328125,0.0641289062500001,-2.60969921875,-2.9634921875,5.296234375,0.892953125,0.29235546875,-0.871785156250001,-7.37898828125,-4.14003515625,-5.6911484375
-3.8806953125,-6.1571015625,1.40017578125,2.4554609375,-5.4379765625,-3.2110703125,6.51643359375,6.37748828125,-2.60757421875,-2.67501953125,-1.408671875,5.93793359375,-4.85036328125,-6.072328125,-1.39505859375,-1.474578125,-10.3986875,-9.83539453125,-0.45848046875,-4.90113671875,-3.55787109375,-5.26069921875,-8.5524921875,1.825234375,-4.842046875,-1.15864453125,-3.93178515625,-9.65398828125,-5.09703515625,-7.0141484375
-8.2196953125,-10.0931015625,-4.42082421875,2.7284609375,-6.7719765625,-4.0930703125,6.00943359375,5.78648828125,-5.40657421875,-4.53501953125,-2.881671875,4.86393359375,-7.06936328125,-12.158328125,-4.24105859375,-5.756578125,-12.3366875,-15.30939453125,-6.11948046875,-10.25013671875,-6.95787109375,-8.36769921875,-14.4594921875,-2.069765625,-10.311046875,-2.97564453125,-7.46978515625,-12.23698828125,-6.54303515625,-9.1881484375
-12.0706953125,-13.6011015625,-11.32282421875,1.6884609375,-8.2009765625,-4.8360703125,5.46043359375,5.10848828125,-8.34857421875,-6.07701953125,-3.919671875,3.69193359375,-9.39236328125,-17.714328125,-6.68805859375,-9.542578125,-10.1586875,-20.32639453125,-11.32348046875,-14.32213671875,-9.57187109375,-11.31769921875,-19.4054921875,-5.455765625,-14.361046875,-4.58864453125,-10.67878515625,-14.52398828125,-8.18803515625,-11.6661484375
-14.3606953125,-15.6481015625,-16.76082421875,-0.3235390625,-9.1219765625,-4.7420703125,4.81443359375,4.85148828125,-10.78257421875,-6.65101953125,-4.100671875,2.56193359375,-11.42736328125,-21.477328125,-7.81105859375,-12.203578125,-3.9126875,-23.90739453125,-14.74848046875,-16.17513671875,-10.84687109375,-13.46069921875,-22.1914921875,-7.375765625,-16.081046875,-5.34264453125,-12.63278515625,-15.86598828125,-9.37403515625,-13.5031484375
-14.3566953125,-15.4771015625,-18.37082421875,-2.4805390625,-8.9749765625,-3.2690703125,4.23143359375,5.55848828125,-12.09457421875,-5.69701953125,-3.086671875,1.80493359375,-12.69836328125,-22.506328125,-7.03605859375,-13.272578125,4.6633125,-25.25239453125,-15.44148046875,-15.40113671875,-10.45787109375,-14.29769921875,-22.0964921875,-7.205765625,-15.128046875,-4.81664453125,-12.63778515625,-15.74898828125,-9.33603515625,-13.8081484375
-12.0516953125,-12.9461015625,-15.15982421875,-3.9265390625,-7.5399765625,-0.4270703125,4.00543359375,7.36848828125,-11.91857421875,-3.15701953125,-0.784671874999999,1.73093359375,-12.77136328125,-20.498328125,-4.46705859375,-12.567578125,12.9453125,-23.99839453125,-13.23948046875,-12.29413671875,-8.47287109375,-13.61869921875,-19.1414921875,-4.912765625,-11.857046875,-3.04164453125,-10.52478515625,-13.96798828125,-7.59803515625,-12.1961484375
-8.2386953125,-8.6601015625,-8.08582421875,-4.1545390625,-5.0339765625,3.2049296875,4.42843359375,9.79548828125,-10.23957421875,0.42198046875,2.552328125,2.37793359375,-11.43636328125,-15.928328125,-0.924058593749999,-10.276578125,18.6233125,-20.37039453125,-8.86148046875,-7.77013671875,-5.38887109375,-11.56669921875,-14.1124921875,-1.105765625,-7.221046875,-0.50364453125,-6.76378515625,-10.76198828125,-4.28703515625,-8.9921484375
-4.1486953125,-3.7771015625,0.341175781249998,-3.1115390625,-1.9769765625,6.8499296875,5.67643359375,11.92548828125,-7.37957421875,4.16598046875,6.360328125,3.40793359375,-8.84136328125,-9.892328125,2.38094140625,-6.948578125,20.5843125,-15.14939453125,-3.60948046875,-3.05313671875,-2.01687109375,-8.60269921875,-8.3264921875,3.184234375,-2.469046875,2.06835546875,-2.34478515625,-6.83398828125,-0.161035156250001,-5.0991484375
-0.830695312500001,0.4638984375,7.26417578125,-1.1045390625,1.0290234375,9.8749296875,7.71443359375,12.87748828125,-3.86657421875,7.23998046875,9.965328125,4.27693359375,-5.45036328125,-3.707328125,4.37294140625,-3.320578125,19.0503125,-9.38539453125,1.15251953125,0.77486328125,0.78312890625,-5.34369921875,-3.1504921875,6.910234375,1.272953125,4.02435546875,1.56321484375,-3.16698828125,3.68896484375,-1.5991484375
1.3673046875,3.2808984375,10.87717578125,1.3794609375,3.4970234375,11.9049296875,10.23543359375,12.25848828125,-0.23757421875,9.12798046875,12.863328125,4.60093359375,-1.84836328125,1.590671875,4.61194140625,-0.0235781250000002,15.1463125,-3.98739453125,4.51851953125,3.18386328125,2.42012890625,-2.31469921875,0.5425078125,9.442234375,3.395953125,5.05635546875,4.06521484375,-0.66498828125,6.31296484375,0.7188515625
2.9433046875,4.6728984375,11.26017578125,3.9034609375,5.2110234375,12.8889296875,12.71543359375,10.37248828125,3.12742578125,9.84798046875,14.925328125,4.42893359375,1.47363671875,5.606671875,3.51794140625,2.659421875,10.2933125,0.62360546875,6.36451953125,4.36586328125,2.77512890625,0.25330078125,2.7095078125,10.816234375,3.977953125,5.26735546875,4.89021484375,0.228011718749999,7.27296484375,1.6408515625
4.8953046875,5.3378984375,10.19317578125,6.2534609375,6.3090234375,13.1669296875,14.58743359375,8.08848828125,6.08842578125,10.00998046875,16.389328125,4.20093359375,4.23563671875,8.597671875,2.19994140625,4.808421875,5.6713125,4.57760546875,7.32851953125,5.07286328125,2.20112890625,2.44930078125,4.0665078125,11.669234375,3.661953125,5.02335546875,4.44521484375,-0.319988281250001,6.74696484375,1.4888515625
8.0763046875,6.2178984375,10.00717578125,8.4614609375,7.1750234375,13.3139296875,15.43743359375,6.36648828125,8.70542578125,10.49298046875,17.644328125,4.39493359375,6.37963671875,11.170671875,1.90994140625,6.671421875,1.8253125,8.30860546875,8.40151953125,6.17586328125,1.29712890625,4.51730078125,5.6315078125,12.862234375,3.304953125,4.69535546875,3.53621484375,-1.69098828125,5.32296484375,0.8378515625
12.6233046875,7.9348984375,12.16917578125,10.6354609375,8.1730234375,13.7389296875,15.13543359375,5.71148828125,11.11642578125,11.84998046875,18.934328125,5.13193359375,8.00163671875,13.855671875,3.37094140625,8.411421875,-1.5216875,12.16060546875,10.32651953125,8.17986328125,0.62012890625,6.61130078125,8.1305078125,14.980234375,3.587953125,4.47335546875,2.93121484375,-3.20198828125,3.64796484375,0.1838515625
17.8033046875,10.4498984375,16.43517578125,12.7614609375,9.4190234375,14.4209296875,13.90743359375,5.93048828125,13.38842578125,13.93398046875,20.193328125,6.05593359375,9.26163671875,16.762671875,6.36194140625,9.975421875,-5.2096875,16.07860546875,13.14351953125,10.95086328125,0.44712890625,8.62730078125,11.5765078125,17.987234375,4.750953125,4.33835546875,2.99921484375,-4.45998828125,2.14496484375,-0.2511484375
22.3563046875,13.1008984375,21.07317578125,14.6284609375,10.7560234375,15.0529296875,12.30843359375,6.36948828125,15.40042578125,16.06298046875,21.102328125,6.54393359375,10.27263671875,19.518671875,9.82794140625,11.135421875,-9.8826875,19.54460546875,16.19451953125,13.80886328125,0.72612890625,10.23230078125,15.2605078125,21.216234375,6.563953125,4.17435546875,3.64521484375,-5.44998828125,0.944964843749999,-0.5011484375
25.0903046875,14.9788984375,23.95017578125,15.8964609375,11.8790234375,15.3659296875,11.04143359375,6.40648828125,16.84442578125,17.45598046875,21.309328125,6.05693359375,10.98863671875,21.490671875,12.41494140625,11.657421875,-15.1316875,21.81960546875,18.52051953125,15.90486328125,1.20612890625,11.05930078125,18.1335078125,23.716234375,8.515953125,3.91535546875,4.52221484375,-6.32998828125,0.0209648437499999,-0.6791484375
25.3883046875,15.4138984375,23.76817578125,16.2204609375,12.4640234375,15.2459296875,10.64143359375,5.84248828125,17.34042578125,17.57498046875,20.671328125,4.42393359375,11.17063671875,22.169671875,13.12394140625,11.475421875,-19.2736875,22.32960546875,19.37851953125,16.66386328125,1.66212890625,10.94530078125,19.3605078125,24.742234375,10.113953125,3.63235546875,5.34521484375,-7.10798828125,-0.604035156250001,-0.7711484375
23.4293046875,14.3038984375,20.73517578125,15.3614609375,12.2700234375,14.6979296875,11.22343359375,4.97848828125,16.60642578125,16.29298046875,19.361328125,1.94993359375,10.47263671875,21.453671875,11.75294140625,10.781421875,-20.1646875,20.96160546875,18.57751953125,16.06486328125,2.06212890625,10.03330078125,18.7065078125,24.124234375,11.116953125,3.49935546875,6.07121484375,-7.47798828125,-0.75603515625,-0.5691484375
20.0553046875,12.1228984375,16.35317578125,13.3064609375,11.2340234375,13.8529296875,12.45043359375,4.39948828125,14.57142578125,13.98698046875,17.793328125,-0.66106640625,8.64563671875,19.636671875,8.97694140625,9.957421875,-16.6056875,18.07460546875,16.51251953125,14.61886328125,2.55812890625,8.65730078125,16.5395078125,22.298234375,11.567953125,3.66735546875,6.82721484375,-6.96098828125,-0.19703515625,0.1858515625
16.3863046875,9.6188984375,12.51517578125,10.3594609375,9.5010234375,12.9729296875,13.67943359375,4.58548828125,11.42242578125,11.42998046875,16.389328125,-2.57406640625,5.75063671875,17.142671875,5.99694140625,9.378421875,-9.3096875,14.24860546875,13.90151953125,13.06586328125,3.32312890625,7.12330078125,13.5185078125,20.036234375,11.653953125,4.12535546875,7.69121484375,-5.25298828125,1.16996484375,1.5568515625
13.3773046875,7.3898984375,10.43217578125,7.1474609375,7.3690234375,12.2609296875,14.16843359375,5.49348828125,7.59042578125,9.38798046875,15.337328125,-3.21106640625,2.26663671875,14.243671875,3.95994140625,9.188421875,-0.645687500000001,9.99260546875,11.37351953125,11.96986328125,4.37212890625,5.55930078125,10.2115078125,18.023234375,11.507953125,4.66935546875,8.53521484375,-2.51498828125,3.16496484375,3.2788515625
11.5183046875,5.6128984375,9.98017578125,4.4894609375,5.1710234375,11.6469296875,13.29243359375,6.42448828125,3.69442578125,8.20798046875,14.466328125,-2.59506640625,-1.00536328125,10.940671875,3.42094140625,9.159421875,6.6623125,5.58460546875,9.16351953125,11.40986328125,5.45512890625,3.93930078125,6.8885078125,16.541234375,11.087953125,4.96835546875,9.04521484375,0.611011718749999,5.37196484375,4.8458515625
10.7993046875,4.0758984375,9.87517578125,3.1334609375,3.2500234375,10.8939296875,10.81343359375,6.35148828125,0.40042578125,7.78298046875,13.380328125,-1.40206640625,-3.24536328125,7.104671875,4.18594140625,8.725421875,10.9123125,1.10260546875,7.11051953125,10.97386328125,6.08712890625,2.20330078125,3.5585078125,15.413234375,10.174953125,4.68535546875,8.92121484375,3.26101171875,7.33396484375,5.7548515625
10.8833046875,2.4898984375,8.58317578125,3.4784609375,2.0200234375,9.9879296875,7.14643359375,4.59148828125,-1.75057421875,7.91698046875,11.790328125,-0.582066406249999,-3.97836328125,2.762671875,5.60794140625,7.253421875,11.9463125,-3.40439453125,4.97351953125,10.05386328125,5.72112890625,0.37830078125,0.194507812500001,14.244234375,8.510953125,3.59635546875,8.11421484375,4.74101171875,8.75696484375,5.7418515625
11.3633046875,0.8678984375,5.41817578125,5.3854609375,1.9740234375,9.3639296875,3.40143359375,1.34448828125,-2.46157421875,8.62198046875,9.876328125,-0.73506640625,-3.30336328125,-1.620328125,7.06994140625,4.435421875,10.6603125,-7.70139453125,2.78251953125,8.27586328125,4.01912890625,-1.37669921875,-3.0134921875,12.787234375,6.009953125,1.68535546875,6.94421484375,4.81601171875,9.60996484375,4.8878515625
11.9683046875,-0.3341015625,1.07417578125,8.2114609375,3.5260234375,9.6689296875,1.05143359375,-2.30151171875,-1.67957421875,10.08398046875,8.373328125,-1.67606640625,-1.83236328125,-5.109328125,8.32294140625,0.581421875,8.0813125,-11.27039453125,0.94451953125,5.77786328125,1.07712890625,-2.82569921875,-5.5794921875,11.178234375,2.892953125,-0.82064453125,5.98621484375,3.73201171875,10.03896484375,3.5428515625
12.6423046875,-0.4461015625,-2.70082421875,11.0524609375,6.7590234375,11.3349296875,1.30143359375,-4.92251171875,0.41042578125,12.42498046875,8.238328125,-2.54906640625,-0.41036328125,-6.646328125,9.47794140625,-3.429578125,4.7533125,-13.45239453125,0.0375195312500001,3.15086328125,-2.55987109375,-3.80869921875,-6.9214921875,9.844234375,-0.376046875,-3.50564453125,5.74221484375,1.96701171875,10.16796484375,2.1138515625
13.4813046875,0.9738984375,-4.05182421875,13.0704609375,11.2380234375,14.2949296875,4.46943359375,-5.48251171875,3.37542578125,15.50298046875,10.067328125,-2.41706640625,0.22563671875,-5.601328125,10.76994140625,-6.522578125,0.7843125,-13.75139453125,0.471519531249999,1.12686328125,-6.07487109375,-4.37069921875,-6.7104921875,9.194234375,-3.294046875,-5.87464453125,6.30921484375,-0.101988281250001,9.94196484375,0.8698515625
14.5833046875,3.7928984375,-1.98282421875,13.7124609375,15.9940234375,17.9109296875,9.70043359375,-3.84451171875,6.54642578125,18.78498046875,13.652328125,-0.90306640625,-0.33036328125,-2.162328125,12.29394140625,-7.880578125,-3.6856875,-12.10239453125,2.24051953125,0.22586328125,-8.66087109375,-4.74669921875,-5.0894921875,9.320234375,-5.491046875,-7.43564453125,7.27921484375,-2.33298828125,9.15796484375,-0.1091484375
15.9143046875,7.2828984375,3.13617578125,12.7864609375,19.7260234375,21.0649296875,15.22543359375,-0.80251171875,9.13242578125,21.33898046875,17.959328125,1.52493359375,-2.06536328125,2.676671875,13.87594140625,-7.244578125,-8.1066875,-8.91239453125,4.88251953125,0.55086328125,-9.73187109375,-5.18769921875,-2.6194921875,9.917234375,-6.763046875,-7.76364453125,7.96621484375,-4.69598828125,7.66596484375,-0.8281484375
17.2763046875,10.4108984375,9.72317578125,10.4554609375,21.1980234375,22.5149296875,19.11143359375,2.35048828125,10.43642578125,22.09698046875,21.528328125,3.79793359375,-4.58636328125,7.510671875,15.11794140625,-4.964578125,-11.6066875,-4.90339453125,7.65151953125,1.76886328125,-9.07987109375,-5.76369921875,-0.0134921874999989,10.457234375,-7.046046875,-6.58664453125,7.79421484375,-7.01398828125,5.58396484375,-1.2531484375
18.3813046875,12.2638984375,15.68317578125,7.2124609375,19.6850234375,21.4429296875,20.12743359375,4.45248828125,10.05042578125,20.36198046875,23.049328125,4.82493359375,-7.21436328125,11.039671875,15.56894140625,-1.851578125,-13.4336875,-0.85139453125,9.83351953125,3.24686328125,-6.94687109375,-6.27369921875,2.1695078125,10.490234375,-6.387046875,-3.91864453125,6.64021484375,-8.83198828125,3.37496484375,-1.2721484375
18.9133046875,12.3718984375,19.27917578125,3.7794609375,15.2450234375,17.8259296875,18.21143359375,4.94248828125,7.97942578125,16.16398046875,21.819328125,4.04993359375,-9.15936328125,12.504671875,14.89594140625,1.106421875,-13.3886875,2.64060546875,11.02051953125,4.29286328125,-3.97887109375,-6.32469921875,3.7265078125,9.896234375,-4.941046875,-0.16364453125,4.92321484375,-9.52598828125,1.70596484375,-0.7441484375
18.5863046875,10.8188984375,19.77017578125,0.8934609375,8.6550234375,12.3129296875,14.26743359375,3.93848828125,4.64942578125,10.17498046875,17.912328125,1.69393359375,-9.75336328125,11.875671875,12.96494140625,3.069421875,-11.8716875,5.29060546875,11.21251953125,4.39786328125,-1.02787109375,-5.50069921875,4.8375078125,8.937234375,-2.948046875,3.92135546875,3.39121484375,-8.60098828125,1.16796484375,0.4008515625
17.2333046875,8.1388984375,17.50717578125,-0.9375390625,1.1290234375,5.8539296875,9.53543359375,2.01048828125,0.81642578125,3.37498046875,12.051328125,-1.41406640625,-8.69836328125,9.775671875,9.87694140625,3.604421875,-9.5746875,7.13660546875,10.72351953125,3.42486328125,1.13112890625,-3.56969921875,5.8955078125,8.078234375,-0.716046875,7.42135546875,2.71921484375,-6.03198828125,1.96196484375,2.0638515625
14.9573046875,5.0858984375,13.55217578125,-1.5445390625,-5.9739765625,-0.5210703125,5.02543359375,-0.12951171875,-2.65157421875,-3.15701953125,5.322328125,-4.26706640625,-6.19536328125,7.166671875,5.97894140625,2.781421875,-7.1606875,8.39060546875,9.99651953125,1.65186328125,2.03612890625,-0.65669921875,7.2085078125,7.693234375,1.397953125,9.55035546875,3.10021484375,-2.44898828125,3.71096484375,3.9008515625
12.2083046875,2.3798984375,9.08717578125,-1.0675390625,-11.3979765625,-5.7650703125,1.30343359375,-1.88151171875,-5.03857421875,-8.34601953125,-1.103671875,-6.11906640625,-2.88536328125,4.954671875,1.88094140625,1.095421875,-5.1536875,9.23360546875,9.40051953125,-0.33113671875,1.63212890625,2.70130078125,8.7155078125,7.817234375,3.006953125,9.89635546875,4.08021484375,0.952011718749999,5.48896484375,5.3318515625
9.6553046875,0.4948984375,4.98817578125,0.1564609375,-14.2409765625,-9.0010703125,-1.41956640625,-2.96051171875,-5.98757421875,-11.33401953125,-6.168671875,-6.73906640625,0.37463671875,3.693671875,-1.64805859375,-0.708578125,-3.9486875,9.67860546875,9.07651953125,-1.83613671875,0.22412890625,5.69030078125,9.9285078125,8.094234375,3.773953125,8.52435546875,4.73021484375,2.78401171875,6.11396484375,5.6638515625
7.9093046875,-0.4341015625,1.73217578125,1.7494609375,-14.1659765625,-9.8050703125,-3.08156640625,-3.44451171875,-5.53757421875,-11.75701953125,-9.029671875,-6.37806640625,2.79863671875,3.495671875,-3.85505859375,-1.840578125,-3.7126875,9.57960546875,8.88551953125,-2.29713671875,-1.65487109375,7.50330078125,10.1255078125,7.952234375,3.525953125,5.89435546875,4.06921484375,1.99101171875,4.57696484375,4.3238515625
7.2923046875,-0.5781015625,-0.467824218750001,3.4764609375,-11.4559765625,-8.2910703125,-3.61956640625,-3.61551171875,-4.02457421875,-9.81001953125,-9.158671875,-5.50606640625,3.91863671875,4.106671875,-4.21505859375,-1.680578125,-4.1826875,8.76660546875,8.52751953125,-1.43513671875,-3.41487109375,7.65430078125,8.7085078125,6.890234375,2.325953125,2.65535546875,1.51421484375,-1.70398828125,0.46796484375,1.1088515625
7.7443046875,-0.2941015625,-1.54882421875,5.3254609375,-6.9019765625,-4.9500703125,-2.97256640625,-3.70651171875,-1.92457421875,-6.10401953125,-6.465671875,-4.53106640625,3.72263671875,5.055671875,-2.60605859375,0.0204218750000003,-4.6606875,7.18360546875,7.72951953125,0.66186328125,-4.58387109375,6.15430078125,5.5175078125,4.707234375,0.450953125,-0.58764453125,-2.88378515625,-7.65498828125,-5.81403515625,-3.6921484375
8.8163046875,-0.0131015625000002,-1.64782421875,7.3484609375,-1.6549765625,-0.5700703125,-1.26956640625,-3.81851171875,0.25342578125,-1.59401953125,-1.452671875,-3.66806640625,2.60363671875,5.786671875,0.54494140625,2.991421875,-4.4016875,4.97160546875,6.34951953125,3.53686328125,-4.94787109375,3.48330078125,0.956507812500002,1.551234375,-1.732046875,-3.43364453125,-8.48078515625,-14.49698828125,-13.14203515625,-9.3411484375
9.7093046875,-0.1811015625,-1.26182421875,9.3404609375,2.9150234375,3.6939296875,0.96443359375,-4.03251171875,1.99442578125,2.40298046875,4.726328125,-2.99906640625,1.15263671875,5.755671875,4.21094140625,6.438421875,-3.1576875,2.42060546875,4.29851953125,6.40786328125,-4.61687109375,0.38830078125,-4.1584921875,-2.215765625,-3.905046875,-5.71764453125,-14.32278515625,-20.60098828125,-20.00503515625,-14.8491484375
9.4043046875,-1.2441015625,-1.29782421875,10.6254609375,5.4090234375,6.3949296875,2.82843359375,-4.54151171875,2.73842578125,4.35598046875,10.388328125,-2.63606640625,-0.16036328125,4.450671875,6.92594140625,9.197421875,-1.4646875,-0.19839453125,1.41251953125,8.27186328125,-3.98787109375,-2.40369921875,-8.9594921875,-6.241765625,-5.939046875,-7.46364453125,-19.48978515625,-24.60098828125,-24.97003515625,-19.2421484375
6.9163046875,-3.6161015625,-2.90082421875,10.1744609375,4.7090234375,6.2159296875,3.30843359375,-5.62751171875,1.85842578125,2.98398046875,13.691328125,-2.82006640625,-1.25836328125,1.395671875,7.16794140625,10.018421875,-0.413687500000001,-2.85439453125,-2.58148046875,8.07486328125,-3.63887109375,-4.49469921875,-12.9334921875,-10.356765625,-7.951046875,-8.78364453125,-23.37478515625,-25.77598828125,-27.09503515625,-21.8231484375
1.6403046875,-7.5931015625,-7.06282421875,7.0124609375,0.2950234375,2.4519296875,1.63543359375,-7.52451171875,-1.22757421875,-2.28601953125,13.147328125,-3.91406640625,-2.55436328125,-3.773328125,3.87494140625,7.915421875,-1.0636875,-5.84939453125,-7.95448046875,4.98286328125,-4.15487109375,-5.98369921875,-16.1324921875,-14.589765625,-10.246046875,-9.77364453125,-25.77978515625,-24.19998828125,-26.15203515625,-22.3101484375
-6.3236953125,-13.1761015625,-14.10082421875,0.7444609375,-7.5469765625,-4.7640703125,-2.43556640625,-10.26651171875,-6.76057421875,-11.11101953125,8.154328125,-6.23306640625,-4.78136328125,-11.119328125,-3.11605859375,2.537421875,-3.8566875,-9.70439453125,-14.77148046875,-1.30913671875,-5.89687109375,-7.40369921875,-19.0594921875,-19.025765625,-13.130046875,-10.40164453125,-26.82278515625,-20.59598828125,-22.60603515625,-20.8261484375
-15.9836953125,-19.9071015625,-23.24782421875,-8.0385390625,-17.6549765625,-14.4280703125,-8.50256640625,-13.58051171875,-14.32757421875,-22.21601953125,-0.698671874999999,-9.79606640625,-8.61436328125,-20.173328125,-12.86505859375,-5.610578125,-8.3426875,-14.85239453125,-22.67248046875,-10.30213671875,-8.82487109375,-9.43169921875,-22.3034921875,-23.584765625,-16.669046875,-10.46664453125,-26.73878515625,-16.02298828125,-17.36703515625,-17.7601484375
-25.5916953125,-26.8301015625,-32.64482421875,-17.7105390625,-28.1299765625,-24.7620703125,-15.57556640625,-16.85151171875,-22.78157421875,-33.54301953125,-11.738671875,-14.17606640625,-14.23036328125,-29.867328125,-23.47605859375,-15.231578125,-13.3276875,-21.33739453125,-30.78248046875,-20.67013671875,-12.47587109375,-12.50569921875,-26.1724921875,-27.891765625,-20.575046875,-9.67864453125,-25.70678515625,-11.50898828125,-11.46603515625,-13.6091484375
-33.1676953125,-32.7071015625,-39.90982421875,-26.0905390625,-36.7789765625,-33.6150703125,-22.38956640625,-19.28051171875,-30.55657421875,-42.71401953125,-22.763671875,-18.59206640625,-21.05436328125,-38.743328125,-32.66305859375,-24.640578125,-17.3886875,-28.68739453125,-37.87148046875,-30.59413671875,-16.13287109375,-16.58269921875,-30.5344921875,-31.347765625,-24.282046875,-7.83964453125,-23.81578515625,-7.80498828125,-5.78503515625,-8.8951484375
-37.2296953125,-36.4261015625,-43.10782421875,-31.2965390625,-41.8329765625,-39.2470703125,-27.88956640625,-20.21551171875,-36.24257421875,-47.87301953125,-31.807671875,-22.22206640625,-27.83336328125,-45.388328125,-38.56005859375,-32.314578125,-19.5536875,-36.02139453125,-42.78548046875,-38.36813671875,-19.10787109375,-21.13669921875,-34.9144921875,-33.370765625,-27.180046875,-5.03064453125,-21.16478515625,-5.29598828125,-0.947035156250001,-4.1761484375
-37.3736953125,-37.4171015625,-41.62782421875,-32.5115390625,-42.5899765625,-41.0660703125,-31.61556640625,-19.46651171875,-39.09257421875,-48.42601953125,-37.773671875,-24.52806640625,-33.05936328125,-48.881328125,-40.40505859375,-37.343578125,-19.7856875,-42.32039453125,-44.92148046875,-43.00913671875,-21.00987109375,-25.40369921875,-38.7674921875,-33.692765625,-28.912046875,-1.69364453125,-18.03778515625,-4.07898828125,2.64296484375,-0.0791484374999998
-34.3616953125,-35.8511015625,-36.51182421875,-30.1825390625,-39.5969765625,-39.7110703125,-33.74956640625,-17.39551171875,-39.19757421875,-45.14401953125,-40.633671875,-25.40906640625,-35.56236328125,-49.064328125,-38.72705859375,-39.586578125,-18.9636875,-46.73539453125,-44.43648046875,-44.57213671875,-21.89287109375,-28.72969921875,-41.7384921875,-32.551765625,-29.588046875,1.41735546875,-15.01078515625,-4.12598828125,4.69996484375,2.6898515625
-29.7276953125,-32.5411015625,-30.02882421875,-25.6245390625,-34.2999765625,-36.5250703125,-34.85256640625,-14.75051171875,-37.26057421875,-39.65101953125,-41.196671875,-25.13006640625,-35.00836328125,-46.510328125,-34.99305859375,-39.552578125,-18.3576875,-48.79339453125,-42.10948046875,-44.05113671875,-22.24087109375,-30.81169921875,-43.7834921875,-30.690765625,-29.855046875,3.40435546875,-12.92078515625,-5.42198828125,4.98396484375,3.4318515625
-25.1066953125,-28.6011015625,-24.72482421875,-20.3825390625,-28.4039765625,-32.9150703125,-35.52056640625,-12.38751171875,-34.13657421875,-33.77101953125,-40.601671875,-24.16406640625,-32.03436328125,-42.223328125,-30.95705859375,-38.112578125,-18.8726875,-48.41439453125,-38.96948046875,-42.93213671875,-22.77887109375,-31.69169921875,-45.0494921875,-29.117765625,-30.733046875,3.47435546875,-12.61978515625,-7.94798828125,3.34596484375,1.6408515625
-21.5776953125,-25.0021015625,-22.35382421875,-15.6705390625,-23.2779765625,-29.9280703125,-36.08356640625,-10.94251171875,-30.40657421875,-28.99801953125,-39.775671875,-23.03506640625,-27.91736328125,-37.201328125,-28.00805859375,-36.159578125,-20.4636875,-45.78939453125,-35.90148046875,-42.58213671875,-24.17087109375,-31.54169921875,-45.6304921875,-28.722765625,-33.247046875,1.22035546875,-14.60278515625,-11.51298828125,-0.12803515625,-2.7241484375
-19.2656953125,-22.2171015625,-23.16582421875,-12.0495390625,-19.5399765625,-27.9640703125,-36.38056640625,-10.55351171875,-26.21157421875,-26.07801953125,-39.059671875,-22.16906640625,-23.93436328125,-32.102328125,-26.71905859375,-34.324578125,-22.0886875,-41.23739453125,-33.33948046875,-43.71713671875,-26.69687109375,-30.42169921875,-45.3664921875,-29.898765625,-37.984046875,-3.18064453125,-18.67978515625,-15.59398828125,-4.95803515625,-9.0491484375
-17.3856953125,-20.0961015625,-25.85482421875,-9.3475390625,-16.9749765625,-26.6370703125,-35.73356640625,-10.74951171875,-21.41157421875,-24.78901953125,-38.140671875,-21.75106640625,-20.74636328125,-27.152328125,-26.73605859375,-32.807578125,-22.3036875,-35.14039453125,-31.17048046875,-46.14213671875,-30.09387109375,-28.21169921875,-43.8474921875,-32.357765625,-44.760046875,-8.94264453125,-23.90178515625,-19.34998828125,-10.24903515625,-16.0881484375
-14.7386953125,-18.0321015625,-28.17782421875,-6.8855390625,-14.8069765625,-25.0250703125,-33.24456640625,-10.69451171875,-15.90057421875,-24.17601953125,-36.298671875,-21.65506640625,-18.15836328125,-22.262328125,-27.03005859375,-31.376578125,-20.1946875,-27.93739453125,-28.88448046875,-48.87413671875,-33.60287109375,-24.73869921875,-40.6074921875,-35.209765625,-52.541046875,-14.85564453125,-28.80178515625,-21.85798828125,-14.87003515625,-22.2691484375
-10.3946953125,-15.3191015625,-27.95182421875,-3.8855390625,-12.2039765625,-22.2830703125,-28.36256640625,-9.66351171875,-9.84357421875,-23.15601953125,-32.863671875,-21.49106640625,-15.35536328125,-17.243328125,-26.42905859375,-29.526578125,-16.0686875,-20.13139453125,-25.90648046875,-50.56513671875,-36.22487109375,-19.98369921875,-35.3804921875,-37.262765625,-59.668046875,-19.62864453125,-31.89178515625,-22.46598828125,-17.80403515625,-26.1681484375
-4.1726953125,-11.5011015625,-23.96482421875,0.120460937499999,-8.6859765625,-18.1690703125,-21.34856640625,-7.44451171875,-3.69857421875,-21.01901953125,-27.664671875,-20.78806640625,-11.48336328125,-11.990328125,-24.14705859375,-26.747578125,-11.4266875,-12.25139453125,-21.91448046875,-50.04113671875,-37.07887109375,-14.23769921875,-28.3084921875,-37.446765625,-64.330046875,-22.27064453125,-32.21078515625,-21.06398828125,-18.52603515625,-26.9721484375
3.3233046875,-6.5761015625,-16.47382421875,5.1004609375,-4.2289765625,-13.0700703125,-13.30956640625,-4.40951171875,1.96542578125,-17.53501953125,-21.218671875,-19.21006640625,-6.22936328125,-6.563328125,-20.06005859375,-22.789578125,-8.2766875,-4.80239453125,-16.97248046875,-46.72313671875,-35.73087109375,-8.09869921875,-19.9984921875,-35.171765625,-65.123046875,-22.38064453125,-29.68178515625,-18.17198828125,-17.21303515625,-24.7381484375
11.0473046875,-0.9711015625,-7.09582421875,10.5654609375,0.8830234375,-7.7240703125,-5.79156640625,-1.29751171875,6.73342578125,-12.82801953125,-14.549671875,-16.71606640625,-0.03336328125,-1.160328125,-14.66905859375,-17.767578125,-8.1756875,1.79660546875,-11.47348046875,-40.79013671875,-32.32087109375,-2.32369921875,-11.4064921875,-30.499765625,-61.479046875,-20.20264453125,-25.10178515625,-14.77098828125,-14.67203515625,-20.3161484375
17.9683046875,4.6528984375,1.89517578125,15.7534609375,6.2470234375,-2.9250703125,-0.14756640625,1.13448828125,10.53542578125,-7.32201953125,-8.717671875,-13.57806640625,6.17363671875,3.985671875,-8.82905859375,-12.089578125,-11.4436875,7.27360546875,-5.98348046875,-33.03413671875,-27.43387109375,2.42830078125,-3.5614921875,-24.074765625,-53.783046875,-16.44964453125,-19.77578515625,-11.93398828125,-11.97203515625,-14.9611484375
23.3983046875,9.6468984375,8.54817578125,19.8704609375,11.4900234375,0.7309296875,3.00443359375,2.41648828125,13.62442578125,-1.66401953125,-4.333671875,-10.27406640625,11.49163671875,8.672671875,-3.39005859375,-6.269578125,-16.8916875,11.50960546875,-1.06348046875,-24.54713671875,-21.81587109375,5.79830078125,2.7315078125,-16.872765625,-43.206046875,-11.98364453125,-14.97378515625,-10.40098828125,-9.96403515625,-9.8471484375
27.1023046875,13.5418984375,11.99317578125,22.3474609375,16.3510234375,3.1069296875,3.99143359375,2.51448828125,16.35142578125,3.47898046875,-1.337671875,-7.31806640625,15.45763671875,12.696671875,1.08294140625,-0.782578125,-22.1816875,14.46860546875,2.86151953125,-16.40413671875,-16.11987109375,7.79630078125,7.0605078125,-9.910765625,-31.364046875,-7.55764453125,-11.51278515625,-10.28198828125,-8.93603515625,-5.7031484375
29.1823046875,16.0808984375,12.55417578125,23.0324609375,20.6410234375,4.5949296875,3.83243359375,1.75548828125,18.86042578125,7.60698046875,0.867328125,-5.10106640625,18.09463671875,15.760671875,4.38994140625,3.974421875,-24.7626875,16.09660546875,5.55551953125,-9.47913671875,-10.83187109375,8.69530078125,9.3955078125,-4.042765625,-19.964046875,-3.73464453125,-9.61078515625,-11.03998828125,-8.58603515625,-2.7451484375
29.8463046875,17.1468984375,11.23017578125,22.2084609375,24.1020234375,5.7669296875,3.63243359375,0.57848828125,20.92742578125,10.35298046875,3.009328125,-3.80606640625,19.67463671875,17.452671875,6.56594140625,7.658421875,-23.0266875,16.27260546875,6.89651953125,-4.40713671875,-6.33687109375,8.83130078125,9.9605078125,0.147234375,-10.474046875,-0.93164453125,-8.99678515625,-11.76498828125,-8.30303515625,-0.8501484375
29.2283046875,16.6748984375,8.96217578125,20.4444609375,26.2950234375,6.8859296875,4.01443359375,-0.67351171875,22.03542578125,11.35198046875,5.527328125,-3.40706640625,20.38863671875,17.333671875,7.65194140625,9.968421875,-17.1376875,14.85760546875,6.78851953125,-1.58913671875,-3.02387109375,8.41830078125,9.0625078125,2.380234375,-3.890046875,0.49735546875,-9.13778515625,-11.63798828125,-7.57103515625,0.1758515625
27.3193046875,14.6188984375,6.12917578125,18.3134609375,26.6740234375,7.7519296875,4.93243359375,-1.81851171875,21.60542578125,10.31198046875,8.335328125,-3.73006640625,20.17363671875,15.101671875,7.57494140625,10.670421875,-9.1266875,11.80560546875,5.16951953125,-1.17613671875,-1.30187109375,7.43530078125,6.9855078125,2.676234375,-0.618046875,0.26235546875,-9.46178515625,-10.35298828125,-6.26803515625,0.3938515625
24.0143046875,11.0128984375,2.54217578125,16.0984609375,24.8090234375,7.9249296875,5.91043359375,-2.77051171875,19.23342578125,7.21198046875,10.868328125,-4.55206640625,18.76363671875,10.752671875,6.19794140625,9.671421875,-2.1556875,7.26660546875,2.13551953125,-2.99713671875,-1.48987109375,5.67130078125,3.9785078125,1.349234375,-0.468046875,-1.76564453125,-9.48978515625,-8.25798828125,-4.67703515625,-0.2661484375
19.2153046875,6.0768984375,-2.10482421875,13.6414609375,20.5770234375,7.0049296875,6.41843359375,-3.47551171875,14.85742578125,2.34998046875,12.373328125,-5.65406640625,15.92363671875,4.690671875,3.50394140625,7.119421875,0.797312499999999,1.67660546875,-1.93648046875,-6.50613671875,-3.58187109375,2.92530078125,0.358507812500001,-1.011765625,-2.706046875,-5.39064453125,-8.85878515625,-6.08498828125,-3.20103515625,-1.8121484375
13.0193046875,0.3288984375,-7.64682421875,10.4724609375,14.2420234375,4.7359296875,6.14143359375,-3.86351171875,8.84042578125,-3.77901953125,12.294328125,-6.80506640625,11.71663671875,-2.237328125,-0.245058593749999,3.496421875,-1.6526875,-4.21839453125,-6.35448046875,-10.79113671875,-7.04587109375,-0.74369921875,-3.3564921875,-3.571765625,-6.152046875,-9.96964453125,-7.27678515625,-4.45298828125,-1.98003515625,-3.9331484375
5.9273046875,-5.4111015625,-13.14882421875,6.2164609375,6.4590234375,1.1349296875,5.05343359375,-3.80651171875,1.96042578125,-10.51001953125,10.542328125,-7.73506640625,6.62263671875,-8.875328125,-4.44605859375,-0.394578125,-8.4256875,-9.46239453125,-10.21248046875,-14.71913671875,-10.82587109375,-4.90569921875,-6.4504921875,-5.369765625,-9.411046875,-14.47464453125,-4.50878515625,-3.47098828125,-0.69903515625,-5.9161484375
-1.0786953125,-10.1931015625,-17.17982421875,0.985460937499999,-1.7999765625,-3.3810703125,3.33343359375,-3.13051171875,-4.75057421875,-16.93601953125,7.505328125,-8.17406640625,1.46663671875,-14.049328125,-8.26005859375,-3.610578125,-16.1716875,-13.13739453125,-12.60648046875,-17.22813671875,-13.65487109375,-8.87169921875,-8.2094921875,-5.531765625,-11.229046875,-17.77564453125,-0.45278515625,-2.72698828125,1.24796484375,-6.8741484375
-6.7806953125,-13.2361015625,-18.56782421875,-4.5185390625,-9.4479765625,-8.1010703125,1.19443359375,-1.77251171875,-10.29157421875,-22.05701953125,3.805328125,-8.01406640625,-2.82236328125,-16.926328125,-10.90005859375,-5.382578125,-20.6706875,-14.67439453125,-12.94648046875,-17.68413671875,-14.55187109375,-11.97869921875,-8.2374921875,-3.574765625,-10.896046875,-19.05564453125,4.72921484375,-1.63398828125,4.31596484375,-6.1801484375
-10.2186953125,-14.2371015625,-17.13182421875,-9.2875390625,-15.6089765625,-12.4180703125,-1.29056640625,0.0234882812500001,-13.98857421875,-25.20601953125,-0.0526718749999997,-7.45806640625,-5.55236328125,-17.289328125,-11.96105859375,-5.418578125,-18.9226875,-14.10039453125,-11.25548046875,-16.12413671875,-13.26287109375,-13.87969921875,-6.7124921875,0.360234374999999,-8.503046875,-18.16164453125,10.49821484375,0.12301171875,8.39796484375,-3.8691484375
-11.1746953125,-13.5241015625,-13.92282421875,-12.4295390625,-19.8469765625,-16.1450703125,-4.22556640625,1.69648828125,-15.67057421875,-26.38401953125,-3.928671875,-7.00806640625,-6.58436328125,-15.613328125,-11.60805859375,-4.050578125,-10.7656875,-12.08739453125,-8.25248046875,-13.25113671875,-10.38487109375,-14.69169921875,-4.4244921875,5.457234375,-4.921046875,-15.70964453125,15.97321484375,2.33301171875,12.69796484375,-0.7351484375
-10.3306953125,-11.9411015625,-10.74482421875,-13.5115390625,-22.1759765625,-19.4220703125,-7.75156640625,2.65548828125,-15.64757421875,-26.16701953125,-8.043671875,-7.25406640625,-6.45236328125,-12.900328125,-10.48805859375,-2.129578125,1.0163125,-9.77439453125,-5.10748046875,-10.15513671875,-7.11687109375,-14.94269921875,-2.5614921875,10.455234375,-1.485046875,-12.84964453125,20.12321484375,4.33101171875,16.00496484375,1.9748515625
-8.9996953125,-10.5041015625,-9.24382421875,-12.7085390625,-22.8979765625,-22.4190703125,-11.86256640625,2.62948828125,-14.53657421875,-25.33301953125,-12.727671875,-8.59006640625,-6.12436328125,-10.311328125,-9.40805859375,-0.682578125,12.2113125,-8.37639453125,-2.97148046875,-7.86713671875,-4.72187109375,-15.31469921875,-2.2764921875,14.071234375,0.526953125,-10.75364453125,22.09421484375,5.35501171875,17.23496484375,3.1368515625
-8.5266953125,-9.9731015625,-10.05782421875,-10.7335390625,-22.4579765625,-25.1990703125,-16.30756640625,1.77848828125,-12.99757421875,-24.56501953125,-18.071671875,-11.03806640625,-6.47936328125,-8.731328125,-8.99305859375,-0.471578125,19.3083125,-8.73839453125,-2.53948046875,-7.00413671875,-3.99187109375,-16.30369921875,-4.2094921875,15.447234375,0.398953125,-10.08064453125,21.51621484375,4.96901171875,15.93296484375,2.3068515625
-9.6316953125,-10.5721015625,-12.53182421875,-8.5635390625,-21.3719765625,-27.7310703125,-20.62756640625,0.49948828125,-11.55257421875,-24.28401953125,-23.709671875,-14.23706640625,-7.82336328125,-8.490328125,-9.47205859375,-1.691578125,20.9043125,-11.03739453125,-3.84048046875,-7.63813671875,-4.98187109375,-17.99569921875,-8.2224921875,14.394234375,-1.805046875,-10.71764453125,18.59121484375,3.27901171875,12.45396484375,-0.0901484374999999
-12.0346953125,-11.9711015625,-15.15182421875,-7.0265390625,-20.1459765625,-29.8720703125,-24.26256640625,-0.82951171875,-10.52557421875,-24.51801953125,-28.853671875,-17.57906640625,-9.77936328125,-9.368328125,-10.63305859375,-3.924578125,17.7773125,-14.78439453125,-6.29848046875,-9.41513671875,-7.13187109375,-20.06769921875,-13.4834921875,11.344234375,-5.390046875,-11.94564453125,13.92821484375,0.797011718749999,7.72396484375,-3.0461484375
-14.5986953125,-13.5091015625,-16.42482421875,-6.4825390625,-19.1899765625,-31.3530703125,-26.69156640625,-2.01451171875,-10.07557421875,-24.89801953125,-32.562671875,-20.41006640625,-11.59736328125,-10.812328125,-11.95405859375,-6.359578125,11.9633125,-19.06439453125,-9.02248046875,-11.79313671875,-9.62487109375,-21.98769921875,-18.8324921875,7.073234375,-9.426046875,-12.86364453125,8.21321484375,-1.91598828125,2.75496484375,-5.5371484375
-15.9176953125,-14.5061015625,-15.68982421875,-6.7405390625,-18.7359765625,-31.9470703125,-27.61356640625,-3.08351171875,-10.20057421875,-24.91301953125,-34.087671875,-22.27406640625,-12.60236328125,-12.190328125,-12.84105859375,-8.140578125,5.6093125,-22.83239453125,-11.17748046875,-14.24613671875,-11.74187109375,-23.24769921875,-23.1984921875,2.382234375,-13.141046875,-12.82964453125,1.94321484375,-4.59498828125,-1.79103515625,-7.0151484375
-15.0026953125,-14.4921015625,-13.37182421875,-7.2345390625,-18.7589765625,-31.6890703125,-27.04356640625,-4.19951171875,-10.70357421875,-24.22301953125,-33.139671875,-23.07706640625,-12.45836328125,-12.939328125,-12.87405859375,-8.685578125,0.1773125,-25.14839453125,-12.25348046875,-16.36613671875,-13.06187109375,-23.48369921875,-25.8624921875,-2.112765625,-16.133046875,-11.71264453125,-4.62678515625,-7.35898828125,-5.74403515625,-7.5771484375
-11.6786953125,-13.2751015625,-10.56882421875,-7.2645390625,-18.8829765625,-30.8040703125,-25.27156640625,-5.44851171875,-11.14457421875,-22.68901953125,-29.967671875,-23.08206640625,-11.11136328125,-12.627328125,-11.91605859375,-7.866578125,-3.7876875,-25.32139453125,-12.09548046875,-17.87613671875,-13.49587109375,-22.49769921875,-26.5104921875,-6.008765625,-18.376046875,-9.89964453125,-11.31478515625,-10.50398828125,-9.27603515625,-7.7881484375
-6.5696953125,-10.9061015625,-8.26182421875,-6.2075390625,-18.3749765625,-29.4090703125,-22.72056640625,-6.60651171875,-10.89657421875,-20.18301953125,-25.290671875,-22.71606640625,-8.61136328125,-10.990328125,-10.07605859375,-6.004578125,-6.4876875,-23.01039453125,-10.73948046875,-18.59913671875,-13.21087109375,-20.22669921875,-25.1614921875,-9.016765625,-20.066046875,-8.08464453125,-17.77178515625,-14.14498828125,-12.57703515625,-8.3021484375
-0.770695312500001,-7.6041015625,-6.67482421875,-3.6855390625,-16.3839765625,-27.3920703125,-19.86256640625,-7.10551171875,-9.31557421875,-16.53901953125,-20.114671875,-22.31606640625,-5.05936328125,-7.977328125,-7.60905859375,-3.689578125,-8.5566875,-18.30039453125,-8.26748046875,-18.45813671875,-12.50787109375,-16.73769921875,-22.0524921875,-10.875765625,-21.428046875,-6.94764453125,-23.35478515625,-17.94798828125,-15.59803515625,-9.4951484375
4.6073046875,-3.7241015625,-5.21382421875,0.2814609375,-12.3649765625,-24.6120703125,-17.19356640625,-6.31751171875,-5.99857421875,-11.75901953125,-15.521671875,-21.98106640625,-0.76636328125,-3.815328125,-4.86505859375,-1.555578125,-10.7946875,-11.74139453125,-4.83948046875,-17.53213671875,-11.71287109375,-12.27169921875,-17.5964921875,-11.377765625,-22.584046875,-6.87764453125,-27.25578515625,-21.15198828125,-18.00303515625,-11.2991484375
8.8323046875,0.2778984375,-3.00882421875,5.2434609375,-6.4119765625,-21.1340703125,-15.15956640625,-3.97751171875,-1.03157421875,-6.17401953125,-12.424671875,-21.60206640625,3.62063671875,0.972671874999998,-2.23005859375,-0.103578125,-13.9016875,-4.30339453125,-0.80548046875,-16.11413671875,-11.12587109375,-7.28269921875,-12.3894921875,-10.512765625,-23.569046875,-7.86764453125,-28.86078515625,-22.89798828125,-19.36503515625,-13.3011484375
11.7313046875,3.9078984375,0.328175781249998,10.4264609375,0.7210234375,-17.2620703125,-13.99256640625,-0.45151171875,4.93642578125,-0.38601953125,-11.308671875,-21.03106640625,7.25763671875,5.638671875,-0.0620585937499989,0.362421875,-18.1016875,2.79060546875,3.23851953125,-14.67213671875,-10.99287109375,-2.39869921875,-7.2024921875,-8.609765625,-24.425046875,-9.58964453125,-28.07878515625,-22.67098828125,-19.44003515625,-14.9961484375
13.5753046875,6.7338984375,4.27817578125,14.9534609375,7.8480234375,-13.5610703125,-13.61756640625,3.30248828125,10.84942578125,4.80298046875,-12.055671875,-20.28306640625,9.52263671875,9.390671875,1.35994140625,-0.276578125,-22.7076875,8.35760546875,6.49251953125,-13.73113671875,-11.45787109375,1.73630078125,-2.8644921875,-6.332765625,-25.239046875,-11.54864453125,-25.44678515625,-20.58998828125,-18.34903515625,-16.0251484375
14.7793046875,8.4618984375,7.58917578125,18.0314609375,13.6420234375,-10.9840703125,-13.74756640625,6.03248828125,15.59642578125,8.33598046875,-13.974671875,-19.65506640625,10.42163671875,11.637671875,1.82194140625,-1.996578125,-25.9416875,11.56460546875,8.07151953125,-13.72113671875,-12.50487109375,4.65530078125,-0.0534921874999998,-4.511765625,-26.099046875,-13.22264453125,-21.91378515625,-17.39398828125,-16.57403515625,-16.2661484375
15.6613046875,8.9788984375,8.91317578125,19.1174609375,16.9680234375,-10.8100703125,-14.08256640625,6.63548828125,18.37642578125,8.99698046875,-16.109671875,-19.69406640625,10.62163671875,12.143671875,1.14194140625,-4.694578125,-25.4086875,12.11960546875,7.19851953125,-14.87613671875,-13.94587109375,6.18230078125,0.8915078125,-3.879765625,-27.028046875,-14.19264453125,-18.46778515625,-14.12198828125,-14.76803515625,-15.8081484375
16.3633046875,8.3518984375,7.48117578125,18.0664609375,17.2510234375,-14.0770703125,-14.44456640625,4.57248828125,18.93242578125,5.91898046875,-17.672671875,-20.93406640625,11.03963671875,11.044671875,-0.777058593749999,-8.225578125,-19.2236875,10.26560546875,3.48351953125,-17.20313671875,-15.52687109375,6.43030078125,0.0295078125000003,-4.822765625,-27.986046875,-14.24764453125,-15.77678515625,-11.65698828125,-13.48803515625,-14.8651484375
16.9303046875,6.8258984375,3.43717578125,15.2244609375,14.7640234375,-20.8330703125,-14.77956640625,0.10448828125,17.60642578125,-0.76101953125,-18.376671875,-23.53706640625,12.24563671875,8.754671875,-3.81105859375,-12.399578125,-7.2416875,6.63960546875,-2.78948046875,-20.47713671875,-17.06187109375,5.72330078125,-2.2314921875,-7.226765625,-28.926046875,-13.47264453125,-13.99778515625,-10.33098828125,-12.94403515625,-13.6731484375
17.4023046875,4.8088984375,-2.21582421875,11.3864609375,10.6570234375,-29.7940703125,-15.09856640625,-5.77151171875,15.23742578125,-9.65501953125,-18.492671875,-27.06606640625,14.12463671875,5.854671875,-7.51705859375,-16.940578125,8.4303125,2.11860546875,-10.58448046875,-24.26813671875,-18.51387109375,4.52030078125,-5.2334921875,-10.486765625,-29.837046875,-12.22964453125,-12.79578515625,-9.80998828125,-12.91503515625,-12.4161484375
17.4023046875,4.8088984375,-2.21582421875,11.3864609375,10.6570234375,-29.7940703125,-15.09856640625,-5.77151171875,15.23742578125,-9.65501953125,-18.492671875,-27.06606640625,14.12463671875,5.854671875,-7.51705859375,-16.940578125,8.4303125,2.11860546875,-10.58448046875,-24.26813671875,-18.51387109375,4.52030078125,-5.2334921875,-10.486765625,-29.837046875,-12.22964453125,-12.79578515625,-9.80998828125,-12.91503515625,-12.4161484375
