"Fp1","Fpz","Fp2","F7","F3","Fz","F4","F8","FC5","FC1","FC2","FC6","T7","C3","Cz","C4","T8","CP5","CP1","CP2","CP6","P7","P3","Pz","P4","P8","POz","O1","Oz","O2"
-1.72916015625,-9.70469921875,-13.99587890625,-0.165203125,-6.62334375,-11.59269921875,-11.273484375,-11.21912109375,-12.55104296875,-10.608515625,-11.87722265625,-10.48780078125,0.389703125,-8.60740625,-12.0076875,-7.07453125,-7.076265625,-3.10940234375,-10.2099375,-10.67830859375,-6.74190625,-21.72081640625,-11.83563671875,-9.70346875,-6.53549609375,-8.51941015625,-12.38984765625,-11.8253828125,-12.00921484375,-7.718359375
2.06683984375,-6.24569921875,-10.70887890625,2.626796875,-2.10634375,-9.29669921875,-8.001484375,-9.30512109375,-9.16304296875,-8.814515625,-9.23822265625,-8.12980078125,0.992703125,-6.41740625,-9.9396875,-5.09553125,-5.505265625,-1.13540234375,-6.9059375,-7.88330859375,-4.69890625,-20.97081640625,-9.26963671875,-6.67546875,-4.73649609375,-7.16741015625,-10.14884765625,-9.5183828125,-9.47021484375,-5.094359375
5.69083984375,-2.64669921875,-7.11187890625,6.085796875,2.23165625,-6.22569921875,-4.787484375,-7.38912109375,-4.88104296875,-5.800515625,-6.08722265625,-6.03480078125,3.035703125,-3.07140625,-6.8036875,-2.70653125,-4.360265625,2.10459765625,-3.0679375,-4.70530859375,-2.92690625,-18.79281640625,-5.71763671875,-3.09146875,-2.58749609375,-6.14841015625,-7.22684765625,-6.4063828125,-6.27021484375,-2.067359375
8.61183984375,0.595300781250001,-3.66787890625,9.643796875,5.96165625,-2.79869921875,-1.906484375,-5.80712109375,-0.24204296875,-2.053515625,-2.80222265625,-4.49180078125,6.213703125,0.83959375,-3.1056875,-0.288531250000001,-3.767265625,6.00359765625,0.7520625,-1.56730859375,-1.70590625,-15.73081640625,-1.81063671875,0.53653125,-0.514496093749999,-5.75041015625,-4.15484765625,-3.1793828125,-3.11621484375,0.708640625000001
10.15983984375,2.72630078125,-1.17087890625,12.278796875,8.45665625,0.11030078125,0.192515625,-5.09512109375,3.67995703125,1.344484375,-0.13022265625,-3.84280078125,9.583703125,4.14459375,0.0923124999999998,1.48046875,-3.791265625,9.30659765625,3.5910625,0.79469140625,-1.36790625,-12.98881640625,1.28436328125,3.30553125,0.79550390625,-6.24841015625,-1.86584765625,-1.0343828125,-1.19821484375,2.209640625
9.90783984375,3.11330078125,-0.363878906249997,13.065796875,9.17465625,1.60730078125,1.056515625,-5.74212109375,5.82995703125,3.275484375,1.15777734375,-4.32780078125,12.005703125,5.72159375,1.7203125,1.97646875,-4.420265625,10.76659765625,4.5610625,1.70369140625,-2.13690625,-11.79181640625,2.48236328125,4.39053125,0.77650390625,-7.73241015625,-1.18484765625,-1.0213828125,-1.54621484375,1.597640625
8.01483984375,1.65830078125,-1.49587890625,11.784796875,8.09265625,1.30530078125,0.552515625000001,-7.84112109375,5.82695703125,3.210484375,0.72977734375,-5.85480078125,12.730703125,5.17359375,1.3143125,1.02246875,-5.485265625,9.87159765625,3.4010625,0.96069140625,-3.91890625,-12.70781640625,1.42736328125,3.56553125,-0.62349609375,-9.90241015625,-2.30184765625,-3.3453828125,-4.32721484375,-1.164359375
5.26783984375,-1.04069921875,-4.11387890625,9.189796875,5.90665625,-0.39169921875,-0.935484375,-10.87212109375,4.26195703125,1.546484375,-1.04322265625,-7.89580078125,11.786703125,3.11659375,-0.6826875,-0.917531250000001,-6.633265625,7.19059765625,0.7540625,-0.94930859375,-6.19490625,-15.28281640625,-1.23463671875,1.43853125,-2.81249609375,-12.04341015625,-4.56584765625,-7.0653828125,-8.54321484375,-5.092359375
2.73183984375,-3.92369921875,-7.25887890625,6.683796875,3.77865625,-2.44769921875,-2.626484375,-13.85412109375,2.41795703125,-0.578515625,-3.23022265625,-9.64180078125,9.950703125,0.87759375,-3.1236875,-2.93853125,-7.399265625,4.10359765625,-2.0709375,-3.05330859375,-8.18290625,-18.21281640625,-4.13263671875,-0.81046875,-4.81349609375,-13.28641015625,-6.75184765625,-10.4653828125,-12.41821484375,-8.545359375
1.21983984375,-5.96569921875,-9.90887890625,5.586796875,2.77865625,-3.72569921875,-3.700484375,-15.78212109375,1.58595703125,-1.881515625,-4.79722265625,-10.36380078125,8.320703125,-0.20740625,-4.7456875,-4.14753125,-7.408265625,2.07759765625,-3.7259375,-4.37330859375,-9.18190625,-19.98881640625,-5.85963671875,-2.03146875,-5.76549609375,-13.03041015625,-7.69184765625,-11.9233828125,-14.25321484375,-10.005359375
0.94883984375,-6.63069921875,-11.39287890625,6.424796875,3.37465625,-3.55969921875,-3.670484375,-16.08812109375,2.39795703125,-1.603515625,-5.08922265625,-9.74580078125,7.738703125,0.51859375,-4.7786875,-4.09553125,-6.553265625,1.89059765625,-3.4779375,-4.39930859375,-8.90790625,-19.66781640625,-5.67863671875,-1.67646875,-5.34249609375,-11.23341015625,-6.87784765625,-10.7523828125,-13.26521484375,-8.787359375
1.54183984375,-6.02769921875,-11.55787890625,8.667796875,5.22665625,-2.04669921875,-2.563484375,-14.88612109375,4.54895703125,0.143484375,-4.08022265625,-8.01180078125,8.375703125,2.72059375,-3.2636875,-2.96153125,-5.075265625,3.24659765625,-1.5419375,-3.28830859375,-7.62090625,-17.36781640625,-3.86163671875,-0.0404687500000001,-3.88349609375,-8.45041015625,-4.72184765625,-7.5723828125,-9.97221484375,-5.370359375
2.30683984375,-4.75869921875,-10.73387890625,11.025796875,7.34865625,0.0483007812499996,-0.895484375,-12.90012109375,6.98495703125,2.480484375,-2.31422265625,-5.80780078125,9.703703125,5.28059375,-0.9656875,-1.42753125,-3.493265625,4.95159765625,1.0520625,-1.73630859375,-6.02390625,-14.20381640625,-1.50463671875,1.91853125,-2.22149609375,-5.62241015625,-2.36984765625,-4.0133828125,-5.96921484375,-1.222359375
2.59483984375,-3.59969921875,-9.53887890625,12.142796875,8.56365625,1.69030078125,0.578515625000001,-11.11312109375,8.45295703125,4.228484375,-0.60922265625,-3.93380078125,10.824703125,6.87259375,1.0273125,-0.35153125,-2.413265625,5.57659765625,2.9700625,-0.61530859375,-4.95190625,-11.68681640625,0.0453632812500002,3.06353125,-1.30049609375,-3.72841015625,-1.15184765625,-1.9163828125,-3.19221484375,1.806640625
2.06683984375,-3.15269921875,-8.62487890625,11.274796875,8.05565625,2.07230078125,1.210515625,-10.33112109375,8.10895703125,4.481484375,0.32077734375,-3.04580078125,10.969703125,6.61459375,1.8123125,-0.37453125,-2.264265625,4.23859765625,3.2220625,-0.55330859375,-4.98890625,-10.94181640625,-0.12763671875,2.63553125,-1.73649609375,-3.38241015625,-1.93584765625,-2.4103828125,-2.99021484375,2.326640625
0.78283984375,-3.63869921875,-8.43887890625,8.569796875,5.71565625,0.94630078125,0.711515625000001,-10.89812109375,5.89695703125,2.990484375,0.12677734375,-3.44380078125,9.872703125,4.45059375,1.0353125,-1.66553125,-3.081265625,1.03759765625,1.6040625,-1.66130859375,-6.19390625,-12.21081640625,-2.09163671875,0.59853125,-3.52449609375,-4.55641015625,-4.69284765625,-5.3643828125,-5.47521484375,0.0746406250000007
-0.91216015625,-4.88769921875,-9.09387890625,4.864796875,2.10165625,-1.34569921875,-0.815484375,-12.69912109375,2.51895703125,0.210484375,-1.11822265625,-5.02580078125,7.859703125,1.09759375,-1.0476875,-3.90153125,-4.498265625,-3.07940234375,-1.2789375,-3.54130859375,-8.11490625,-14.86581640625,-5.10963671875,-2.39146875,-6.05949609375,-6.60741015625,-8.51284765625,-9.5093828125,-9.52321484375,-3.990359375
-2.58316015625,-6.48469921875,-10.37187890625,1.242796875,-1.87334375,-4.08769921875,-3.006484375,-15.32512109375,-0.90804296875,-2.965515625,-3.04022265625,-7.37480078125,5.657703125,-2.34340625,-3.7606875,-6.45253125,-5.954265625,-6.83640234375,-4.3689375,-5.52130859375,-10.05690625,-17.83481640625,-8.05363671875,-5.33446875,-8.44549609375,-8.62541015625,-12.05284765625,-13.1333828125,-13.40121484375,-8.220359375
-3.82316015625,-7.93369921875,-11.78687890625,-1.349203125,-5.26334375,-6.48669921875,-5.366484375,-18.21112109375,-3.27104296875,-5.579515625,-5.12322265625,-9.90780078125,4.081703125,-4.83840625,-6.2786875,-8.64153125,-6.981265625,-9.16140234375,-6.6189375,-6.95230859375,-11.41490625,-20.07581640625,-9.91563671875,-7.31346875,-9.90749609375,-9.86841015625,-14.12984765625,-14.8923828125,-15.60521484375,-11.075359375
-4.27116015625,-8.77069921875,-12.70087890625,-2.294203125,-7.31734375,-7.89969921875,-7.345484375,-20.70712109375,-3.78604296875,-6.912515625,-6.82222265625,-12.03080078125,3.764703125,-5.71640625,-7.8546875,-9.92853125,-7.377265625,-9.45240234375,-7.3499375,-7.41530859375,-11.87890625,-20.87181640625,-10.13363671875,-7.78146875,-10.06549609375,-10.03841015625,-14.15484765625,-14.3093828125,-15.46021484375,-11.742359375
-3.63416015625,-8.65469921875,-12.54187890625,-1.392203125,-7.63734375,-7.96669921875,-8.441484375,-22.20012109375,-2.20304296875,-6.633515625,-7.67322265625,-13.28680078125,4.979703125,-4.78140625,-7.9926875,-10.02053125,-7.205265625,-7.64140234375,-6.3919375,-6.78930859375,-11.46990625,-19.94981640625,-8.68563671875,-6.66246875,-8.99449609375,-9.31141015625,-12.24484765625,-11.8183828125,-13.25421484375,-10.336359375
-1.79716015625,-7.49269921875,-11.07587890625,1.105796875,-6.30134375,-6.67069921875,-8.355484375,-22.32612109375,1.13295703125,-4.829515625,-7.40122265625,-13.46980078125,7.568703125,-2.28940625,-6.5626875,-8.90553125,-6.678265625,-4.15040234375,-4.0619375,-5.23330859375,-10.45590625,-17.50181640625,-6.00463671875,-4.31746875,-7.10849609375,-8.17241015625,-9.08684765625,-8.4603828125,-9.99921484375,-7.716359375
1.03583984375,-5.52469921875,-8.59487890625,4.542796875,-3.85234375,-4.33869921875,-7.105484375,-21.15712109375,5.37395703125,-1.959515625,-6.03422265625,-12.64780078125,10.957703125,1.13159375,-3.8636875,-6.85153125,-6.032265625,0.19059765625,-1.0229375,-3.11730859375,-9.20590625,-14.16381640625,-2.83063671875,-1.41746875,-4.98049609375,-7.17441015625,-5.65884765625,-5.4533828125,-6.96321484375,-5.071359375
4.27783984375,-3.29669921875,-5.84987890625,8.021796875,-1.12634375,-1.56669921875,-5.033484375,-19.18612109375,9.41395703125,1.249484375,-3.92522265625,-11.10080078125,14.277703125,4.61859375,-0.5666875,-4.33153125,-5.440265625,4.29159765625,1.9090625,-0.92730859375,-8.04990625,-10.91581640625,-0.0326367187500001,1.24353125,-3.14949609375,-6.71541015625,-2.92384765625,-3.7823828125,-5.19021484375,-3.425359375
7.07083984375,-1.47769921875,-3.76587890625,10.649796875,1.00365625,0.92330078125,-2.697484375,-17.12712109375,12.20795703125,3.981484375,-1.67122265625,-9.18780078125,16.564703125,7.26059375,2.4493125,-1.90853125,-4.978265625,7.03159765625,3.9810625,0.850691406249999,-7.18390625,-8.87881640625,1.60836328125,2.99253125,-1.98249609375,-6.88441015625,-1.54884765625,-3.9373828125,-5.15421484375,-3.249359375
8.56683984375,-0.60869921875,-3.05187890625,11.797796875,1.88365625,2.49230078125,-0.710484375,-15.63412109375,13.06895703125,5.562484375,0.0677773437500004,-7.24780078125,17.047703125,8.33759375,4.3733125,-0.0845312500000004,-4.631265625,7.56259765625,4.6980625,1.86669140625,-6.64590625,-8.95681640625,1.63836328125,3.48453125,-1.59649609375,-7.45841015625,-1.71584765625,-5.7843828125,-6.63521484375,-4.338359375
8.32283984375,-0.84869921875,-3.87687890625,11.293796875,1.29565625,2.79230078125,0.459515625000001,-15.04712109375,11.89895703125,5.671484375,0.80277734375,-5.54080078125,15.440703125,7.57859375,4.7533125,0.83946875,-4.339265625,5.63859765625,3.9780625,2.01969140625,-6.35290625,-11.42281640625,0.12436328125,2.84353125,-1.84249609375,-8.04341015625,-3.06284765625,-8.6143828125,-8.85221484375,-5.971359375
6.62183984375,-1.84169921875,-5.73387890625,9.505796875,-0.42434375,1.91330078125,0.674515625000001,-15.26012109375,9.26795703125,4.468484375,0.42977734375,-4.22980078125,12.146703125,5.32759375,3.6983125,0.849468749999999,-4.047265625,1.81059765625,2.2220625,1.50569140625,-6.15890625,-15.63581640625,-2.29863671875,1.63653125,-2.35549609375,-8.26241015625,-4.79184765625,-11.3253828125,-10.75021484375,-7.247359375
4.47183984375,-2.80069921875,-7.59587890625,7.223796875,-2.48234375,0.37930078125,0.187515625000001,-15.75912109375,6.25095703125,2.559484375,-0.70822265625,-3.35280078125,8.225703125,2.49059375,1.8603125,0.227468749999999,-3.729265625,-2.65340234375,0.2210625,0.77169140625,-5.89190625,-20.13581640625,-4.59663671875,0.67553125,-2.64549609375,-7.87541015625,-5.91984765625,-12.7493828125,-11.35821484375,-7.428359375
3.16983984375,-2.85669921875,-8.37587890625,5.371796875,-3.95634375,-1.04069921875,-0.488484375,-15.87512109375,4.00595703125,0.796484375,-1.94722265625,-2.82080078125,5.063703125,0.21659375,0.1773125,-0.55653125,-3.390265625,-6.18040234375,-1.1189375,0.36169140625,-5.39790625,-23.16981640625,-5.70963671875,0.69753125,-2.26049609375,-6.81041015625,-5.62084765625,-12.0623828125,-10.11121484375,-6.160359375
3.62483984375,-1.54669921875,-7.47087890625,4.674796875,-4.21834375,-1.64869921875,-0.825484374999999,-15.12312109375,3.29095703125,-0.0555156250000002,-2.60122265625,-2.44180078125,3.843703125,-0.55940625,-0.5436875,-1.04253125,-3.032265625,-7.49740234375,-1.1429375,0.68769140625,-4.58290625,-23.41281640625,-4.97563671875,2.03953125,-0.984496093749999,-5.14341015625,-3.55284765625,-9.1113828125,-7.05121484375,-3.545359375
5.83983984375,0.87130078125,-5.09287890625,5.393796875,-3.18634375,-1.12069921875,-0.510484374999999,-13.44312109375,4.16395703125,0.365484375,-2.25922265625,-2.00280078125,5.045703125,0.48259375,0.0273124999999999,-0.97653125,-2.635265625,-6.13240234375,0.2770625,1.83869140625,-3.46790625,-20.55381640625,-2.43663671875,4.48453125,1.03050390625,-3.07841015625,-0.0398476562499992,-4.5373828125,-2.81821484375,-0.065359374999999
8.90283984375,3.49330078125,-2.17187890625,7.246796875,-1.33034375,0.36430078125,0.434515625,-11.23112109375,6.00495703125,1.874484375,-0.96022265625,-1.38080078125,8.220703125,2.92759375,1.6173125,-0.417531250000001,-2.180265625,-2.59740234375,2.6920625,3.50469140625,-2.21790625,-15.45281640625,1.15336328125,7.33953125,3.27150390625,-0.935410156250001,4.00215234375,0.4126171875,1.56178515625,3.593640625
11.48783984375,5.22930078125,0.115121093750002,9.507796875,0.56665625,2.22430078125,1.653515625,-9.15312109375,7.83895703125,3.855484375,0.84277734375,-0.616800781249999,12.165703125,5.83759375,3.5363125,0.31346875,-1.708265625,1.84159765625,5.2860625,5.10769140625,-1.13090625,-9.80081640625,4.62636328125,9.72953125,5.05750390625,0.888589843749999,7.40515234375,4.3306171875,5.02678515625,6.745640625
12.55983984375,5.37430078125,0.917121093750001,11.324796875,1.79065625,3.76430078125,2.617515625,-7.84312109375,8.81495703125,5.584484375,2.50177734375,0.0891992187500019,15.446703125,8.19559375,5.0453125,0.804468749999999,-1.353265625,5.69759765625,7.2460625,6.06669140625,-0.53690625,-5.41581640625,6.89336328125,10.95053125,5.83350390625,2.00158984375,9.21315234375,6.2036171875,6.82978515625,8.880640625
11.84183984375,3.93730078125,0.0651210937500011,12.120796875,2.07065625,4.51330078125,2.886515625,-7.63612109375,8.63695703125,6.561484375,3.47477734375,0.484199218750001,17.039703125,9.36959375,5.7193125,0.767468749999999,-1.285265625,7.86259765625,8.1160625,6.07069140625,-0.660906250000001,-3.48281640625,7.40036328125,10.75453125,5.43950390625,2.14958984375,9.07315234375,5.8436171875,6.78878515625,9.774640625
9.81883984375,1.56530078125,-1.95987890625,11.867796875,1.70665625,4.40530078125,2.334515625,-8.46012109375,7.68295703125,6.699484375,3.53977734375,0.381199218750002,16.742703125,9.34959375,5.5873125,0.17846875,-1.606265625,7.99859765625,7.9570625,5.22369140625,-1.48790625,-4.10581640625,6.33236328125,9.42053125,4.19250390625,1.34658984375,7.36115234375,3.9516171875,5.32778515625,9.532640625
7.34283984375,-0.84169921875,-4.35987890625,11.020796875,1.32765625,3.74130078125,1.187515625,-9.94612109375,6.74095703125,6.265484375,2.82577734375,-0.269800781249999,15.169703125,8.63959375,5.0133125,-0.703531250000001,-2.277265625,6.54659765625,7.2440625,3.97269140625,-2.73990625,-6.38581640625,4.47736328125,7.60553125,2.74250390625,-0.0984101562500008,4.99915234375,1.7656171875,3.27278515625,8.531640625
5.18983984375,-2.54669921875,-6.41487890625,10.167796875,1.44265625,2.97930078125,-0.120484375,-11.61412109375,6.50995703125,5.679484375,1.70377734375,-1.36080078125,13.345703125,7.91659375,4.4303125,-1.45453125,-3.135265625,4.40659765625,6.5770625,2.87769140625,-3.97190625,-8.96681640625,2.82536328125,6.03253125,1.76350390625,-1.68541015625,3.01715234375,0.4316171875,1.48378515625,7.242640625
3.83483984375,-3.19969921875,-7.70687890625,9.683796875,2.15365625,2.51830078125,-1.132484375,-13.00812109375,7.22395703125,5.294484375,0.62677734375,-2.62980078125,12.185703125,7.68959375,4.1243125,-1.65553125,-3.956265625,2.52159765625,6.3980625,2.37569140625,-4.74990625,-10.72481640625,2.12636328125,5.19753125,1.64850390625,-2.94441015625,2.11215234375,0.456617187499999,0.47278515625,5.996640625
3.50183984375,-2.78469921875,-8.09287890625,9.633796875,3.20765625,2.59630078125,-1.474484375,-13.72412109375,8.61795703125,5.296484375,0.0237773437500004,-3.66180078125,12.130703125,8.14159375,4.1823125,-1.03053125,-4.502265625,1.53759765625,6.8690625,2.65769140625,-4.78590625,-11.21581640625,2.62936328125,5.24353125,2.39650390625,-3.61741015625,2.41915234375,1.5526171875,0.23778515625,4.851640625
4.32083984375,-1.42569921875,-7.54087890625,9.920796875,4.27465625,3.30330078125,-0.920484375,-13.42512109375,10.17795703125,5.742484375,0.23477734375,-3.95880078125,13.090703125,9.17359375,4.6003125,0.49746875,-4.551265625,1.67659765625,7.9120625,3.70369140625,-3.96890625,-10.68081640625,4.10236328125,6.03053125,3.72150390625,-3.67841015625,3.60415234375,2.9356171875,0.40778515625,3.675640625
6.35383984375,0.733300781250001,-6.04587890625,10.467796875,5.16865625,4.61630078125,0.552515625000001,-11.95212109375,11.46195703125,6.629484375,1.42377734375,-3.11980078125,14.623703125,10.53659375,5.3833125,2.80246875,-3.946265625,2.76959765625,9.3320625,5.37369140625,-2.35390625,-9.69881640625,6.05636328125,7.30853125,5.26650390625,-3.21141015625,5.15315234375,3.8346171875,0.566785156249999,2.365640625
9.45783984375,3.47930078125,-3.69587890625,11.256796875,5.87265625,6.38330078125,2.693515625,-9.48212109375,12.27495703125,7.886484375,3.47377734375,-1.07780078125,16.166703125,11.93059375,6.5393125,5.55146875,-2.690265625,4.40959765625,10.8810625,7.44669140625,-0.13290625,-8.82281640625,7.97136328125,8.81853125,6.74750390625,-2.28741015625,6.60515234375,3.8516171875,0.49778515625,1.002640625
13.14483984375,6.41330078125,-0.825878906249998,12.219796875,6.41365625,8.25830078125,4.985515625,-6.59612109375,12.63695703125,9.289484375,5.91077734375,1.73319921875,17.212703125,13.03259375,7.9453125,8.20746875,-1.020265625,6.09959765625,12.2590625,9.57769140625,2.34809375,-8.40881640625,9.40436328125,10.29453125,7.95050390625,-0.943410156250001,7.63115234375,3.0166171875,0.21278515625,-0.166359374999999
16.61683984375,8.90830078125,1.93412109375,13.105796875,6.70065625,9.70230078125,6.748515625,-4.15812109375,12.61195703125,10.412484375,7.98077734375,4.42419921875,17.427703125,13.50859375,9.2553125,10.10546875,0.605734374999999,7.38059765625,13.1150625,11.26369140625,4.58409375,-8.63881640625,10.02936328125,11.41153125,8.67050390625,0.696589843749999,8.00215234375,1.6326171875,-0.16521484375,-0.902359374999999
18.95683984375,10.24030078125,3.77512109375,13.481796875,6.46365625,10.12630078125,7.321515625,-3.01512109375,12.16795703125,10.732484375,8.87777734375,5.96019921875,16.725703125,13.07459375,9.9523125,10.62146875,1.662734375,7.92059765625,13.1160625,11.94169140625,5.97409375,-9.55281640625,9.67936328125,11.80653125,8.68850390625,2.29558984375,7.57615234375,0.0766171874999992,-0.55621484375,-1.149359375
19.38083984375,9.79230078125,3.95912109375,12.935796875,5.38065625,9.12930078125,6.299515625,-3.66312109375,11.18095703125,9.853484375,8.06377734375,5.59119921875,15.306703125,11.60359375,9.5533125,9.40146875,1.763734375,7.56859765625,12.0620625,11.19669140625,6.00309375,-11.04281640625,8.39436328125,11.17453125,7.83550390625,3.33058984375,6.33015234375,-1.3453828125,-0.988214843750001,-1.086359375
17.40983984375,7.24030078125,2.08912109375,11.356796875,3.32365625,6.71330078125,3.720515625,-6.05012109375,9.58995703125,7.719484375,5.50877734375,3.20719921875,13.589703125,9.22159375,7.8503125,6.53646875,0.814734374999999,6.35659765625,9.9860625,8.98269140625,4.47409375,-12.86781640625,6.40136328125,9.41453125,6.11650390625,3.31558984375,4.39515234375,-2.5113828125,-1.57821484375,-1.025359375
12.98283984375,2.68430078125,-1.72087890625,9.055796875,0.53565625,3.32730078125,0.107515625,-9.61512109375,7.53095703125,4.676484375,1.72577734375,-0.592800781249999,12.045703125,6.30559375,5.0383125,2.59546875,-0.948265625000001,4.46159765625,7.1740625,5.69969140625,1.68509375,-14.72481640625,4.03836328125,6.70053125,3.77650390625,2.12458984375,2.06015234375,-3.4963828125,-2.44521484375,-1.201359375
6.54183984375,-3.30069921875,-6.82587890625,6.621796875,-2.44034375,-0.27369921875,-3.694484375,-13.51112109375,5.33295703125,1.369484375,-2.39822265625,-4.73980078125,10.989703125,3.37559375,1.6763125,-1.53153125,-3.040265625,2.14559765625,4.0900625,2.09369140625,-1.59290625,-16.34381640625,1.65536328125,3.47253125,1.29750390625,0.170589843749999,-0.271847656249999,-4.4623828125,-3.58621484375,-1.600359375
-0.94116015625,-9.71869921875,-12.19787890625,4.614796875,-4.99534375,-3.28969921875,-6.799484375,-16.86912109375,3.37195703125,-1.478515625,-5.89822265625,-8.11780078125,10.446703125,0.94459375,-1.4866875,-4.90653125,-4.885265625,-0.27940234375,1.2660625,-0.98830859375,-4.35190625,-17.52081640625,-0.425636718749999,0.32153125,-0.733496093749999,-1.70541015625,-2.14784765625,-5.4753828125,-4.79821484375,-1.925359375
-8.09416015625,-15.35669921875,-16.69587890625,3.337796875,-6.67934375,-5.12469921875,-8.535484375,-18.99212109375,1.92895703125,-3.300515625,-8.01722265625,-9.93980078125,10.195703125,-0.62640625,-3.7436875,-6.83453125,-5.991265625,-2.45140234375,-0.8209375,-2.86930859375,-5.71490625,-18.10481640625,-1.93563671875,-2.17346875,-1.80949609375,-2.60041015625,-3.18084765625,-6.3873828125,-5.70421484375,-1.742359375
-13.47116015625,-19.12169921875,-19.39287890625,2.787796875,-7.30334375,-5.53769921875,-8.598484375,-19.49512109375,1.11495703125,-3.850515625,-8.39322265625,-9.93780078125,9.933703125,-1.20340625,-4.6436875,-7.06953125,-6.100265625,-3.98840234375,-1.8479375,-3.24930859375,-5.26890625,-18.00181640625,-2.69463671875,-3.61346875,-1.68849609375,-1.97941015625,-3.17484765625,-6.8833828125,-5.90021484375,-0.731359374999999
-16.01016015625,-20.41269921875,-19.87387890625,2.735796875,-6.96334375,-4.68569921875,-7.148484375,-18.42412109375,0.87095703125,-3.248515625,-7.14922265625,-8.35580078125,9.457703125,-0.90440625,-4.1406875,-5.85653125,-5.267265625,-4.58940234375,-1.7339375,-2.28730859375,-3.21790625,-17.24781640625,-2.65963671875,-3.89946875,-0.495496093749999,0.0725898437499986,-2.21084765625,-6.6693828125,-5.17621484375,1.100640625
-15.44116015625,-19.35769921875,-18.39187890625,2.851796875,-6.03934375,-3.07069921875,-4.804484375,-16.29712109375,0.97595703125,-1.927515625,-4.86822265625,-5.83080078125,8.750703125,-0.0734062500000001,-2.6326875,-3.83053125,-3.847265625,-4.18340234375,-0.6959375,-0.54230859375,-0.31890625,-16.07781640625,-1.98363671875,-3.28046875,1.28350390625,2.86758984375,-0.654847656249999,-5.6893828125,-3.67821484375,3.352640625
-12.43016015625,-16.78469921875,-15.78887890625,2.861796875,-5.08234375,-1.38869921875,-2.483484375,-13.97512109375,1.11095703125,-0.498515625,-2.42722265625,-3.20080078125,7.976703125,0.82459375,-0.8456875,-1.80453125,-2.373265625,-2.99240234375,0.7880625,1.20769140625,2.39409375,-14.86981640625,-0.997636718749999,-2.26146875,2.94350390625,5.37358984375,0.939152343750001,-4.2283828125,-1.92621484375,5.331640625
-8.35216015625,-13.90269921875,-13.17587890625,2.680796875,-4.59834375,-0.30669921875,-1.075484375,-12.32412109375,0.99695703125,0.433484375,-0.72522265625,-1.27380078125,7.407703125,1.36859375,0.4243125,-0.51553125,-1.373265625,-1.41840234375,2.1350625,2.24169140625,3.98909375,-13.93181640625,-0.0916367187499998,-1.41146875,3.81350390625,6.59958984375,2.02815234375,-2.7913828125,-0.598214843750001,6.311640625
-4.79116015625,-11.85269921875,-11.52187890625,2.428796875,-4.84334375,-0.23769921875,-1.116484375,-11.87712109375,0.51895703125,0.464484375,-0.38522265625,-0.606800781249999,7.295703125,1.34059375,0.6033125,-0.39853125,-1.187265625,0.15359765625,2.8730625,2.16169140625,3.97809375,-13.30581640625,0.45236328125,-1.13646875,3.52450390625,5.99258984375,2.30515234375,-1.8253828125,-0.187214843750001,5.877640625
-3.01716015625,-11.35469921875,-11.35687890625,2.270796875,-5.78734375,-1.25069921875,-2.644484375,-12.66512109375,-0.26204296875,-0.518515625,-1.58922265625,-1.36780078125,7.705703125,0.75359375,-0.4836875,-1.49353125,-1.855265625,1.49559765625,2.7720625,0.99569140625,2.46409375,-12.78581640625,0.554363281250001,-1.57046875,2.14850390625,3.68258984375,1.82015234375,-1.4803828125,-0.735214843750001,4.155640625
-3.62716015625,-12.58169921875,-12.69987890625,2.212796875,-7.23934375,-3.13569921875,-5.274484375,-14.32112109375,-1.21804296875,-2.377515625,-4.09022265625,-3.33280078125,8.373703125,-0.26240625,-2.6366875,-3.51653125,-3.119265625,2.49459765625,1.8250625,-0.90130859375,0.0140937499999998,-12.18481640625,0.267363281250001,-2.63346875,0.110503906250001,0.44258984375,0.880152343750001,-1.5953828125,-1.84921484375,1.776640625
-6.44116015625,-15.22569921875,-15.17187890625,2.031796875,-8.98634375,-5.56269921875,-8.406484375,-16.33712109375,-2.27804296875,-4.861515625,-7.37522265625,-6.01480078125,8.727703125,-1.61740625,-5.4526875,-6.03553125,-4.561265625,3.04159765625,0.1280625,-3.10030859375,-2.65790625,-11.61381640625,-0.38963671875,-4.18746875,-2.08349609375,-2.68541015625,-0.206847656249999,-1.9143828125,-2.99721484375,-0.481359374999999
-10.59216015625,-18.64169921875,-18.16187890625,1.389796875,-10.87134375,-8.22769921875,-11.452484375,-18.32212109375,-3.47304296875,-7.699515625,-10.85822265625,-8.83580078125,8.129703125,-3.31540625,-8.5036875,-8.65653125,-5.807265625,2.97459765625,-2.2049375,-5.32730859375,-5.03890625,-11.50681640625,-1.50363671875,-6.15746875,-4.12149609375,-4.90041015625,-1.33684765625,-2.3233828125,-3.86321484375,-2.126359375
-14.78916015625,-22.00569921875,-20.98287890625,0.0717968749999995,-12.76634375,-10.87569921875,-13.990484375,-20.12112109375,-4.85604296875,-10.593515625,-14.01622265625,-11.29980078125,6.262703125,-5.35640625,-11.4236875,-11.10953125,-6.700265625,2.18459765625,-5.0199375,-7.49130859375,-6.97690625,-12.33281640625,-3.16363671875,-8.49346875,-5.96849609375,-5.99241015625,-2.60584765625,-2.8933828125,-4.48821484375,-3.169359375
-17.66816015625,-24.45969921875,-22.96387890625,-1.788203125,-14.46834375,-13.22569921875,-15.795484375,-21.71812109375,-6.33304296875,-13.144515625,-16.43222265625,-13.07780078125,3.426703125,-7.55340625,-13.8516875,-13.20553125,-7.313265625,0.80459765625,-7.9909375,-9.52830859375,-8.55690625,-14.19581640625,-5.23063671875,-11.00446875,-7.70049609375,-6.29341015625,-4.07684765625,-3.7043828125,-5.09821484375,-3.952359375
-18.17816015625,-25.28169921875,-23.53287890625,-3.621203125,-15.60434375,-14.89869921875,-16.745484375,-23.03312109375,-7.55704296875,-14.834515625,-17.77222265625,-13.98480078125,0.544703125,-9.42540625,-15.3736875,-14.72953125,-7.816265625,-0.68240234375,-10.5369375,-11.19330859375,-9.81890625,-16.63681640625,-7.20863671875,-13.22246875,-9.23249609375,-6.28341015625,-5.54684765625,-4.6353828125,-5.78721484375,-4.738359375
-15.91516015625,-24.05669921875,-22.32187890625,-4.597203125,-15.66534375,-15.44769921875,-16.730484375,-23.78712109375,-7.98204296875,-15.136515625,-17.78522265625,-13.91080078125,-1.184296875,-10.30140625,-15.5646875,-15.38253125,-8.277265625,-1.55240234375,-11.9049375,-12.02130859375,-10.54190625,-18.78081640625,-8.36063671875,-14.44746875,-10.17749609375,-6.16341015625,-6.49784765625,-5.3103828125,-6.31721484375,-5.402359375
-11.28416015625,-20.82669921875,-19.30087890625,-4.019203125,-14.24034375,-14.52569921875,-15.677484375,-23.59612109375,-7.12004296875,-13.729515625,-16.38322265625,-12.79980078125,-0.825296874999999,-9.59040625,-14.1796875,-14.86053125,-8.573265625,-1.13240234375,-11.4459375,-11.51330859375,-10.30090625,-19.72981640625,-8.00663671875,-14.01346875,-9.97149609375,-5.71841015625,-6.30384765625,-5.2653828125,-6.21321484375,-5.441359375
-5.42116015625,-16.14969921875,-14.87787890625,-1.680203125,-11.28234375,-12.08669921875,-13.659484375,-22.22012109375,-4.80604296875,-10.680515625,-13.73022265625,-10.73180078125,1.833703125,-7.08340625,-11.3336875,-13.02153125,-8.457265625,0.89359765625,-8.9319375,-9.42730859375,-8.74390625,-18.95581640625,-5.85663671875,-11.61446875,-8.20549609375,-4.55441015625,-4.55084765625,-4.1973828125,-5.04121484375,-4.307359375
0.17883984375,-10.98769921875,-9.85487890625,2.039796875,-7.20334375,-8.47169921875,-10.936484375,-19.78712109375,-1.29804296875,-6.479515625,-10.25522265625,-7.98280078125,6.140703125,-3.09340625,-7.5266875,-10.02653125,-7.718265625,4.33659765625,-4.7219375,-5.97330859375,-5.89090625,-16.51581640625,-2.17163671875,-7.50146875,-4.93049609375,-2.50241015625,-1.30684765625,-2.1493828125,-2.70021484375,-1.796359375
4.20083984375,-6.41169921875,-5.19887890625,6.372796875,-2.73534375,-4.32669921875,-7.884484375,-16.81212109375,2.83095703125,-1.903515625,-6.53622265625,-4.99480078125,10.825703125,1.62759375,-3.4766875,-6.34753125,-6.339265625,8.55959765625,0.3250625,-1.79530859375,-2.22790625,-13.04981640625,2.28836328125,-2.43546875,-0.746496093749999,0.12158984375,2.82315234375,0.449617187499999,0.444785156249999,1.711640625
5.99783984375,-3.23969921875,-1.73187890625,10.440796875,1.30365625,-0.39969921875,-4.896484375,-14.01912109375,6.88495703125,2.236484375,-3.14022265625,-2.25480078125,14.494703125,6.11359375,0.1183125,-2.63653125,-4.541265625,12.66559765625,5.1180625,2.23569140625,1.42609375,-9.60681640625,6.49336328125,2.53753125,3.37550390625,2.58758984375,6.83815234375,2.8656171875,3.61078515625,5.288640625
5.76483984375,-1.80069921875,0.109121093750002,13.461796875,4.20565625,2.66530078125,-2.314484375,-12.08112109375,10.19095703125,5.319484375,-0.49222265625,-0.161800781249999,16.152703125,9.44859375,2.7723125,0.46446875,-2.716265625,15.73259765625,8.6560625,5.31269140625,4.21309375,-7.32281640625,9.45336328125,6.39153125,6.43450390625,4.10258984375,9.66115234375,4.2866171875,5.84578515625,7.774640625
4.32983984375,-1.92169921875,0.348121093750002,14.904796875,5.53765625,4.47030078125,-0.394484375,-11.37812109375,12.21095703125,7.034484375,1.18877734375,1.06319921875,15.556703125,11.01759375,4.2833125,2.50646875,-1.253265625,17.06659765625,10.3070625,6.94169140625,5.56809375,-6.98381640625,10.52036328125,8.42153125,7.77350390625,4.23658984375,10.52915234375,4.1406171875,6.40878515625,8.293640625
2.69483984375,-3.11969921875,-0.628878906249998,14.601796875,5.25565625,4.93330078125,0.746515625000001,-11.86212109375,12.64895703125,7.380484375,1.89777734375,1.41819921875,13.257703125,10.65859375,4.7043125,3.34646875,-0.365265625000001,16.43359765625,9.9650625,7.07069140625,5.43109375,-8.64481640625,9.59736328125,8.45353125,7.32750390625,3.16958984375,9.30515234375,2.4056171875,5.13878515625,6.711640625
1.56383984375,-4.84369921875,-2.24787890625,12.806796875,3.70565625,4.25430078125,1.146515625,-13.09312109375,11.51995703125,6.583484375,1.80177734375,1.09719921875,10.320703125,8.69459375,4.2513125,3.15146875,0.00273437499999929,14.16059765625,8.0420625,6.04869140625,4.24709375,-11.53881640625,7.16836328125,6.88953125,5.61950390625,1.58858984375,6.54815234375,-0.301382812500001,2.58078515625,3.747640625
1.10383984375,-6.63769921875,-3.92687890625,10.108796875,1.47465625,2.81830078125,0.956515625000001,-14.41512109375,9.15595703125,5.005484375,1.15677734375,0.40919921875,7.850703125,5.79259375,3.1943125,2.29546875,0.104734374999999,11.04859765625,5.2720625,4.43969140625,2.74209375,-14.38781640625,4.12136328125,4.53953125,3.50450390625,0.30758984375,3.29615234375,-2.9553828125,-0.241214843750001,0.644640625000001
1.01783984375,-8.18969921875,-5.20387890625,7.233796875,-0.83434375,1.06130078125,0.364515625,-15.20712109375,6.12395703125,3.045484375,0.215777343750001,-0.357800781249999,6.551703125,2.73559375,1.7733125,1.19946875,0.214734374999999,8.08559765625,2.4350625,2.78569140625,1.59409375,-15.98981640625,1.41336328125,2.30453125,1.77750390625,-0.164410156250001,0.622152343750001,-4.5753828125,-2.30321484375,-1.442359375
0.85883984375,-9.30869921875,-5.81987890625,4.804796875,-2.77234375,-0.66569921875,-0.467484375,-15.13312109375,3.07995703125,1.035484375,-0.84322265625,-1.06580078125,6.498703125,0.16159375,0.1633125,0.16546875,0.422734374999999,6.09559765625,0.1000625,1.41669140625,1.16609375,-15.78981640625,-0.288636718749999,0.81653125,0.842503906250001,0.139589843749999,-0.797847656249999,-4.7083828125,-3.05221484375,-1.989359375
0.35883984375,-9.88969921875,-5.75187890625,3.166796875,-4.12734375,-2.17569921875,-1.432484375,-14.31612109375,0.57595703125,-0.815515625,-1.93922265625,-1.77280078125,7.187703125,-1.60440625,-1.5156875,-0.69253125,0.558734374999999,5.44159765625,-1.4959375,0.39169140625,1.42009375,-14.14881640625,-0.83863671875,0.22453125,0.608503906250001,0.715589843749999,-0.932847656249999,-3.6633828125,-2.64421484375,-1.301359375
-0.39916015625,-9.88869921875,-5.17687890625,2.330796875,-4.90734375,-3.43169921875,-2.481484375,-13.31212109375,-1.09604296875,-2.398515625,-3.04222265625,-2.66280078125,7.803703125,-2.56840625,-3.1336875,-1.42453125,0.290734374999999,5.93159765625,-2.4039375,-0.41530859375,2.03009375,-12.18581640625,-0.58763671875,0.21253125,0.658503906250001,0.923589843749999,-0.300847656249999,-2.3513828125,-1.78921484375,-0.238359374999999
-1.02416015625,-9.31269921875,-4.37887890625,2.092796875,-5.20334375,-4.43669921875,-3.570484375,-12.84712109375,-1.91404296875,-3.605515625,-4.09722265625,-3.88880078125,7.618703125,-2.92940625,-4.4816875,-2.11453125,-0.637265625000001,6.98159765625,-2.7959375,-1.12630859375,2.62509375,-11.18981640625,-0.10563671875,0.27153125,0.581503906250001,0.39058984375,0.38915234375,-1.7583828125,-1.29221484375,0.343640625000001
-1.02916015625,-8.23669921875,-3.61687890625,2.243796875,-5.02434375,-5.12969921875,-4.585484375,-13.42612109375,-1.97904296875,-4.249515625,-4.95222265625,-5.44280078125,6.364703125,-2.86640625,-5.2726875,-2.78253125,-2.198265625,7.95559765625,-2.7889375,-1.72430859375,2.98309375,-11.89881640625,0.16036328125,0.04153125,0.23650390625,-0.78541015625,0.636152343750001,-2.3713828125,-1.58921484375,0.0616406250000008
-0.12016015625,-6.85269921875,-3.08387890625,2.711796875,-4.23334375,-5.36969921875,-5.333484375,-15.08812109375,-1.35404296875,-4.114515625,-5.39222265625,-7.14180078125,4.396703125,-2.43340625,-5.2556875,-3.37553125,-4.069265625,8.44759765625,-2.3909375,-2.07030859375,3.07109375,-14.09181640625,0.0933632812500003,-0.48546875,-0.22049609375,-2.13941015625,0.322152343750001,-3.9453828125,-2.58321484375,-0.901359374999999
1.51883984375,-5.54469921875,-2.97587890625,3.519796875,-2.71434375,-5.04069921875,-5.649484375,-17.46212109375,-0.0660429687499999,-3.100515625,-5.27622265625,-8.73180078125,2.526703125,-1.60940625,-4.4036875,-3.84653125,-5.816265625,8.37059765625,-1.5929375,-2.06230859375,2.93109375,-16.77681640625,-0.13563671875,-1.02946875,-0.529496093749999,-3.16741015625,-0.36284765625,-5.7523828125,-3.84821484375,-2.068359375
3.11683984375,-4.91669921875,-3.59887890625,4.615796875,-0.59134375,-4.18769921875,-5.541484375,-20.04812109375,1.77295703125,-1.366515625,-4.67122265625,-10.02380078125,1.604703125,-0.42340625,-3.0116875,-4.22953125,-7.145265625,7.85859765625,-0.4959375,-1.77830859375,2.56709375,-18.82581640625,-0.27463671875,-1.24446875,-0.552496093749999,-3.60441015625,-1.12784765625,-7.0823828125,-4.95121484375,-2.996359375
3.50583984375,-5.64869921875,-5.35087890625,5.794796875,1.68765625,-3.05069921875,-5.207484375,-22.46812109375,3.87595703125,0.656484375,-3.86422265625,-10.96580078125,2.120703125,0.97759375,-1.6226875,-4.62953125,-8.008265625,7.15459765625,0.6640625,-1.48530859375,1.94909375,-19.57281640625,-0.16963671875,-0.94246875,-0.360496093749999,-3.50341015625,-1.75784765625,-7.6013828125,-5.65021484375,-3.441359375
1.63283984375,-8.16269921875,-8.48487890625,6.785796875,3.52365625,-1.96969921875,-4.910484375,-24.51912109375,5.85695703125,2.415484375,-3.22922265625,-11.60780078125,4.046703125,2.37859375,-0.7746875,-5.13353125,-8.530265625,6.54459765625,1.6090625,-1.49530859375,1.08909375,-18.98081640625,0.182363281250001,-0.18946875,-0.160496093749999,-3.13341015625,-2.16484765625,-7.3763828125,-5.91021484375,-3.361359375
-2.82316015625,-12.26769921875,-12.79687890625,7.416796875,4.42765625,-1.22369921875,-4.799484375,-26.04312109375,7.38995703125,3.475484375,-3.03022265625,-11.98680078125,6.943703125,3.58959375,-0.7556875,-5.72453125,-8.821265625,6.29759765625,2.1520625,-1.99330859375,0.114093749999999,-17.44181640625,0.69636328125,0.74553125,-0.15149609375,-2.82941015625,-2.36784765625,-6.6793828125,-5.82921484375,-2.897359375
-9.10716015625,-17.04169921875,-17.49487890625,7.725796875,4.20465625,-0.90569921875,-4.813484375,-26.78712109375,8.33795703125,3.701484375,-3.28722265625,-12.02880078125,10.201703125,4.50859375,-1.4686875,-6.26053125,-8.846265625,6.58259765625,2.2630625,-2.92630859375,-0.75190625,-15.47781640625,1.29736328125,1.53853125,-0.413496093749999,-2.83641015625,-2.42284765625,-5.7853828125,-5.55521484375,-2.325359375
-15.55616015625,-21.11669921875,-21.39387890625,7.927796875,3.00965625,-0.91969921875,-4.721484375,-26.40912109375,8.74595703125,3.267484375,-3.77822265625,-11.55780078125,13.236703125,5.11759375,-2.5056875,-6.53453125,-8.446265625,7.37759765625,2.0540625,-4.01330859375,-1.26090625,-13.57781640625,1.96436328125,1.97853125,-0.87349609375,-3.20041015625,-2.36884765625,-4.8863828125,-5.21421484375,-1.942359375
-20.27816015625,-23.27269921875,-23.41387890625,8.264796875,1.26865625,-1.08169921875,-4.263484375,-24.69012109375,8.73495703125,2.502484375,-4.18522265625,-10.44980078125,15.586703125,5.42259375,-3.3666875,-6.40553125,-7.505265625,8.42459765625,1.6960625,-4.88630859375,-1.26490625,-12.17281640625,2.67536328125,2.05153125,-1.35149609375,-3.74041015625,-2.21184765625,-4.1213828125,-4.87221484375,-1.921359375
-21.96416015625,-22.99069921875,-23.08087890625,8.821796875,-0.50734375,-1.26269921875,-3.362484375,-21.84012109375,8.36595703125,1.681484375,-4.28622265625,-8.83780078125,16.899703125,5.38959375,-3.7096875,-5.92053125,-6.143265625,9.27459765625,1.3200625,-5.26730859375,-0.82090625,-11.59981640625,3.34236328125,1.89953125,-1.68349609375,-4.17141015625,-1.94184765625,-3.6223828125,-4.54121484375,-2.232359375
-20.41716015625,-20.65969921875,-20.74887890625,9.427796875,-1.93434375,-1.45669921875,-2.244484375,-18.65312109375,7.58995703125,0.933484375,-4.06722265625,-7.19480078125,16.937703125,4.95159375,-3.4706875,-5.32953125,-4.787265625,9.44859765625,0.9760625,-5.09030859375,-0.20990625,-11.96981640625,3.81536328125,1.72353125,-1.80849609375,-4.28141015625,-1.55084765625,-3.4773828125,-4.20421484375,-2.686359375
-16.51916015625,-17.31169921875,-17.40087890625,9.732796875,-2.85034375,-1.71669921875,-1.351484375,-16.29612109375,6.32695703125,0.299484375,-3.67722265625,-6.17080078125,15.644703125,4.09459375,-2.7846875,-4.95053125,-4.020265625,8.68659765625,0.6820625,-4.48630859375,0.19409375,-13.00581640625,3.99036328125,1.70053125,-1.75849609375,-4.04241015625,-1.00584765625,-3.5873828125,-3.79121484375,-3.021359375
-11.73816015625,-14.10469921875,-14.18787890625,9.402796875,-3.26034375,-2.03269921875,-1.064484375,-15.78512109375,4.61595703125,-0.155515625,-3.26622265625,-6.25280078125,13.228703125,2.95559375,-1.8216875,-4.96053125,-4.281265625,7.12959765625,0.5060625,-3.65630859375,0.13909375,-14.07481640625,3.92836328125,1.96753125,-1.57049609375,-3.55141015625,-0.226847656249999,-3.6053828125,-3.13621484375,-2.986359375
-7.50916015625,-11.86769921875,-11.98787890625,8.296796875,-3.24134375,-2.28769921875,-1.475484375,-17.48512109375,2.68695703125,-0.327515625,-2.89422265625,-7.49780078125,10.154703125,1.79459375,-0.6946875,-5.28853125,-5.624265625,5.26859765625,0.5590625,-2.77830859375,-0.361906250000001,-14.52081640625,3.81836328125,2.57753125,-1.23049609375,-2.92341015625,0.848152343750001,-3.1043828125,-2.05921484375,-2.440359375
-4.80416015625,-10.91169921875,-11.20087890625,6.524796875,-2.94334375,-2.36369921875,-2.395484375,-20.96512109375,0.87695703125,-0.179515625,-2.57422265625,-9.51180078125,7.014703125,0.84959375,0.4713125,-5.69953125,-7.679265625,3.67059765625,0.8710625,-1.99330859375,-1.08490625,-14.10281640625,3.81236328125,3.43453125,-0.727496093749999,-2.23041015625,2.14715234375,-1.9193828125,-0.56421484375,-1.488359375
-3.96316015625,-11.11569921875,-11.79187890625,4.395796875,-2.62934375,-2.28569921875,-3.551484375,-25.24212109375,-0.51704296875,0.131484375,-2.40022265625,-11.67680078125,4.333703125,0.17659375,1.4233125,-5.99153125,-9.816265625,2.68559765625,1.2750625,-1.45830859375,-1.76790625,-13.17081640625,3.86636328125,4.25253125,-0.15149609375,-1.53041015625,3.38415234375,-0.380382812500001,0.996785156249999,-0.530359374999999
-4.71516015625,-12.08969921875,-13.40387890625,2.337796875,-2.62134375,-2.25969921875,-4.746484375,-29.20012109375,-1.33204296875,0.262484375,-2.57422265625,-13.43380078125,2.421703125,-0.35640625,1.8063125,-6.13553125,-11.402265625,2.35759765625,1.4420625,-1.33130859375,-2.25990625,-12.40581640625,3.76436328125,4.64853125,0.294503906250001,-0.888410156250001,4.16315234375,0.8206171875,2.03078515625,-0.0903593749999994
-6.30016015625,-13.29969921875,-15.44487890625,0.781796875,-3.13334375,-2.54469921875,-5.869484375,-31.96012109375,-1.54804296875,-0.147515625,-3.27422265625,-14.44580078125,1.335703125,-0.90740625,1.3573125,-6.23353125,-12.018265625,2.56259765625,1.1060625,-1.66830859375,-2.52590625,-12.31881640625,3.31636328125,4.36153125,0.423503906250001,-0.350410156250001,4.21415234375,1.0826171875,2.06878515625,-0.473359374999999
-7.73116015625,-14.18669921875,-17.20387890625,0.035796875,-4.15234375,-3.26169921875,-6.827484375,-33.09912109375,-1.27204296875,-1.231515625,-4.47822265625,-14.63280078125,0.911703125,-1.49140625,0.1173125,-6.37853125,-11.578265625,3.18559765625,0.2720625,-2.34130859375,-2.57690625,-12.92781640625,2.55436328125,3.42853125,0.20450390625,0.10258984375,3.61015234375,0.291617187499999,1.10478515625,-1.506359375
-8.19916015625,-14.32669921875,-18.08087890625,0.174796875,-5.42934375,-4.29769921875,-7.539484375,-32.70912109375,-0.72304296875,-2.777515625,-5.91522265625,-14.13180078125,0.841703125,-1.95940625,-1.5276875,-6.56853125,-10.343265625,4.15759765625,-0.7619375,-3.08030859375,-2.42390625,-13.83981640625,1.73536328125,2.15953125,-0.217496093749999,0.53758984375,2.73115234375,-1.1213828125,-0.381214843750001,-2.595359375
-7.46316015625,-13.63669921875,-17.87487890625,1.020796875,-6.57934375,-5.36069921875,-7.967484375,-31.30012109375,-0.18704296875,-4.319515625,-7.18122265625,-13.24680078125,0.782703124999999,-2.11740625,-3.0396875,-6.73553125,-8.819265625,5.37359765625,-1.5949375,-3.64530859375,-2.10590625,-14.61081640625,1.14036328125,0.93753125,-0.662496093749999,0.995589843749999,2.00815234375,-2.5143828125,-1.73821484375,-3.093359375
-6.00516015625,-12.46469921875,-16.93487890625,2.195796875,-7.21134375,-6.15969921875,-8.157484375,-29.59412109375,0.0609570312500001,-5.380515625,-7.96222265625,-12.38080078125,0.471703124999999,-1.91140625,-4.0146875,-6.85953125,-7.579265625,6.57759765625,-1.9909375,-4.00830859375,-1.74290625,-15.07281640625,0.84236328125,-0.0334687500000002,-1.08649609375,1.42558984375,1.60915234375,-3.4623828125,-2.56921484375,-2.718359375
-4.82816015625,-11.48169921875,-16.05587890625,3.228796875,-7.10534375,-6.57169921875,-8.250484375,-28.30312109375,-0.13904296875,-5.725515625,-8.20022265625,-11.91580078125,-0.190296875,-1.50640625,-4.3966875,-7.03953125,-7.067265625,7.34359765625,-2.0439375,-4.41430859375,-1.54290625,-15.42381640625,0.61636328125,-0.84246875,-1.64349609375,1.69158984375,1.32315234375,-3.9913828125,-2.94721484375,-1.741359375
-4.97516015625,-11.39569921875,-16.12287890625,3.698796875,-6.35434375,-6.70169921875,-8.455484375,-27.94112109375,-0.77304296875,-5.462515625,-8.12522265625,-12.09080078125,-1.129296875,-1.24340625,-4.4856875,-7.45953125,-7.457265625,7.19759765625,-2.1369375,-5.24730859375,-1.73390625,-16.04181640625,0.0743632812500001,-1.78746875,-2.57249609375,1.65658984375,0.713152343750001,-4.4713828125,-3.31421484375,-0.832359374999999
-6.98816015625,-12.62269921875,-17.68287890625,3.420796875,-5.35834375,-6.81369921875,-8.968484375,-28.66312109375,-1.63104296875,-4.978515625,-8.13022265625,-12.90380078125,-2.148296875,-1.46140625,-4.7486875,-8.25853125,-8.596265625,5.86359765625,-2.7179375,-6.77830859375,-2.44190625,-17.16281640625,-1.07863671875,-3.14246875,-4.00849609375,1.28158984375,-0.566847656249999,-5.3013828125,-4.13221484375,-0.681359374999999
-10.56916015625,-15.03969921875,-20.62787890625,2.590796875,-4.61434375,-7.15169921875,-9.834484375,-30.17612109375,-2.36004296875,-4.728515625,-8.53822265625,-14.08380078125,-3.003296875,-2.29940625,-5.5196875,-9.38853125,-10.053265625,3.51059765625,-4.0159375,-8.92730859375,-3.57390625,-18.65481640625,-2.82263671875,-4.91046875,-5.82849609375,0.673589843749999,-2.50484765625,-6.5813828125,-5.53921484375,-1.606359375
-14.56716015625,-17.90969921875,-24.11687890625,1.774796875,-4.42334375,-7.76369921875,-10.848484375,-31.79212109375,-2.58004296875,-4.994515625,-9.39022265625,-15.14280078125,-3.445296875,-3.58140625,-6.7756875,-10.55253125,-11.264265625,0.80459765625,-5.8409375,-11.18930859375,-4.79690625,-20.01181640625,-4.74963671875,-6.73046875,-7.62549609375,0.0575898437499998,-4.65084765625,-7.9923828125,-7.20221484375,-3.354359375
-17.35716015625,-20.06669921875,-26.83587890625,1.668796875,-4.71934375,-8.42569921875,-11.587484375,-32.66412109375,-2.03004296875,-5.702515625,-10.35922265625,-15.51280078125,-3.243296875,-4.84440625,-8.0836875,-11.27153125,-11.740265625,-1.31840234375,-7.6059375,-12.79330859375,-5.62190625,-20.61281640625,-6.20563671875,-7.98246875,-8.83649609375,-0.30441015625,-6.26784765625,-8.9293828125,-8.44821484375,-5.169359375
-17.48416015625,-20.33769921875,-27.50087890625,2.773796875,-5.10834375,-8.72769921875,-11.585484375,-32.13712109375,-0.67104296875,-6.435515625,-10.88222265625,-14.75680078125,-2.243296875,-5.52640625,-8.7926875,-11.06953125,-11.260265625,-2.06740234375,-8.5719375,-13.03230859375,-5.59590625,-20.08581640625,-6.57163671875,-8.08046875,-8.95249609375,-0.20341015625,-6.64984765625,-8.8323828125,-8.59721484375,-6.110359375
-14.31316015625,-18.06969921875,-25.43687890625,5.149796875,-5.08134375,-8.30269921875,-10.569484375,-30.05412109375,1.28495703125,-6.664515625,-10.45122265625,-12.79280078125,-0.490296875,-5.22140625,-8.3606875,-9.71853125,-9.973265625,-1.15040234375,-8.2119375,-11.62630859375,-4.51990625,-18.55381640625,-5.58563671875,-6.78746875,-7.76749609375,0.401589843749999,-5.47984765625,-7.5123828125,-7.35721484375,-5.520359375
-8.40516015625,-13.51269921875,-20.95287890625,8.348796875,-4.32334375,-7.08469921875,-8.657484375,-26.87712109375,3.40495703125,-6.078515625,-8.94822265625,-10.03180078125,1.634703125,-3.91540625,-6.6866875,-7.43553125,-8.363265625,1.08359765625,-6.5289375,-8.94330859375,-2.61390625,-16.62481640625,-3.51563671875,-4.40546875,-5.56349609375,1.30458984375,-3.06884765625,-5.3353828125,-5.06721484375,-3.452359375
-1.39316015625,-7.83369921875,-15.31587890625,11.531796875,-2.94434375,-5.44269921875,-6.420484375,-23.55512109375,5.12695703125,-4.819515625,-6.80822265625,-7.31780078125,3.419703125,-2.05640625,-4.2466875,-4.90453125,-7.080265625,3.76959765625,-4.1289375,-5.93730859375,-0.53090625,-15.11381640625,-1.10563671875,-1.73146875,-3.09849609375,2.06058984375,-0.305847656249999,-3.1203828125,-2.64721484375,-0.778359374999999
4.62283984375,-2.70269921875,-10.27987890625,13.747796875,-1.47534375,-4.03869921875,-4.688484375,-21.15612109375,5.93595703125,-3.420515625,-4.87022265625,-5.62380078125,4.058703125,-0.37740625,-1.9186875,-3.03353125,-6.678265625,5.88159765625,-1.9759375,-3.76530859375,0.880093749999999,-14.66481640625,0.74536328125,0.27653125,-1.33549609375,2.17358984375,1.71815234375,-1.7653828125,-1.18221484375,1.200640625
7.94783984375,0.382300781250001,-7.34787890625,14.336796875,-0.54234375,-3.47269921875,-4.134484375,-20.37512109375,5.62295703125,-2.490515625,-3.93722265625,-5.59080078125,3.052703125,0.47159375,-0.5486875,-2.52053125,-7.356265625,6.66959765625,-0.9119375,-3.25630859375,0.98509375,-15.45981640625,1.40436328125,0.95753125,-0.993496093749999,1.39158984375,2.24615234375,-1.7863828125,-1.33421484375,1.478640625
7.97983984375,0.72130078125,-7.15087890625,13.250796875,-0.45434375,-3.92469921875,-4.872484375,-21.20112109375,4.45995703125,-2.342515625,-4.31622265625,-7.17680078125,0.545703125,0.27859375,-0.5226875,-3.46953125,-8.844265625,5.99559765625,-1.1999375,-4.50530859375,-0.279906250000001,-17.15681640625,0.82236328125,0.28453125,-2.15749609375,-0.0604101562500006,1.25015234375,-3.0243828125,-2.93621484375,-0.0393593749999992
5.35983984375,-1.36569921875,-9.28287890625,11.073796875,-1.04634375,-5.04669921875,-6.385484375,-22.97712109375,3.11095703125,-2.834515625,-5.64922265625,-9.64680078125,-2.657296875,-0.64640625,-1.5996875,-5.31853125,-10.503265625,4.34159765625,-2.4179375,-6.85830859375,-2.35390625,-19.07181640625,-0.47063671875,-1.14646875,-4.23449609375,-1.53541015625,-0.57884765625,-4.7353828125,-5.07221484375,-2.473359375
1.52283984375,-4.80369921875,-12.64387890625,8.719796875,-1.86234375,-6.18569921875,-7.840484375,-24.79112109375,2.27795703125,-3.515515625,-7.14722265625,-11.95680078125,-5.445296875,-1.70540625,-3.0986875,-7.14953125,-11.631265625,2.49659765625,-3.7399375,-9.27630859375,-4.36190625,-20.48681640625,-1.67263671875,-2.47946875,-6.28649609375,-2.31441015625,-2.23784765625,-5.9883828125,-6.61321484375,-4.528359375
-2.03316015625,-8.31069921875,-16.01987890625,7.022796875,-2.48134375,-6.75269921875,-8.528484375,-25.91812109375,2.32595703125,-3.938515625,-8.03322265625,-13.27680078125,-6.919296875,-2.36340625,-4.2786875,-8.17853125,-11.788265625,1.14459765625,-4.4109375,-10.83330859375,-5.56190625,-20.90781640625,-2.12463671875,-3.05546875,-7.53549609375,-2.01441015625,-2.94584765625,-6.1363828125,-6.83721484375,-5.259359375
-4.31516015625,-10.87469921875,-18.50087890625,6.470796875,-2.68834375,-6.48669921875,-8.147484375,-26.05512109375,3.17895703125,-3.881515625,-7.88922265625,-13.33080078125,-6.749296875,-2.35940625,-4.6586875,-8.09553125,-10.971265625,0.61259765625,-4.0779375,-11.06530859375,-5.65790625,-20.15281640625,-1.56363671875,-2.67046875,-7.67749609375,-0.76741015625,-2.46284765625,-5.0483828125,-5.73421484375,-4.529359375
-5.01516015625,-11.96969921875,-19.62787890625,7.150796875,-2.45134375,-5.48369921875,-6.827484375,-25.32612109375,4.47695703125,-3.366515625,-6.75222265625,-12.38480078125,-5.219296875,-1.69440625,-4.1196875,-7.09253125,-9.560265625,0.87159765625,-2.8359375,-10.01430859375,-4.80590625,-18.31581640625,-0.11963671875,-1.55146875,-6.88249609375,0.950589843749999,-1.04984765625,-3.0303828125,-3.83721484375,-2.887359375
-4.37716015625,-11.56369921875,-19.35687890625,8.818796875,-1.83034375,-4.05369921875,-4.986484375,-24.15212109375,5.82995703125,-2.525515625,-4.99022265625,-10.97080078125,-3.014296875,-0.50540625,-2.8316875,-5.62453125,-8.102265625,1.66859765625,-1.0729375,-8.07530859375,-3.42590625,-15.72481640625,1.84336328125,-0.14446875,-5.55449609375,2.63958984375,0.797152343750001,-0.598382812500001,-1.81721484375,-1.094359375
-2.92916015625,-10.03769921875,-17.98387890625,10.997796875,-0.91134375,-2.55769921875,-3.138484375,-23.06512109375,6.97195703125,-1.497515625,-3.10122265625,-9.59280078125,-0.900296875,1.01459375,-1.1196875,-4.15653125,-7.062265625,2.66359765625,0.7320625,-5.79430859375,-1.96690625,-12.91381640625,3.87436328125,1.09153125,-4.11049609375,3.97258984375,2.58115234375,1.6916171875,-0.18121484375,0.299640625
-1.22116015625,-8.02269921875,-16.03387890625,13.108796875,0.20665625,-1.28369921875,-1.708484375,-22.49212109375,7.78395703125,-0.398515625,-1.51722265625,-8.56580078125,0.546703125,2.62459375,0.6623125,-3.00453125,-6.669265625,3.53959765625,2.1600625,-3.72530859375,-0.779906250000001,-10.54281640625,5.52036328125,1.81853125,-2.88849609375,4.77958984375,3.90615234375,3.3016171875,0.778785156249999,1.047640625
0.40183984375,-6.14769921875,-14.07787890625,14.659796875,1.43065625,-0.38769921875,-0.901484374999999,-22.59212109375,8.24195703125,0.674484375,-0.46722265625,-7.98380078125,1.111703125,4.05459375,2.2353125,-2.30753125,-6.878265625,4.08959765625,2.9620625,-2.30430859375,-0.0699062500000007,-9.20681640625,6.42136328125,1.89453125,-2.12549609375,4.97558984375,4.49415234375,3.7806171875,0.912785156249999,1.093640625
1.91483984375,-4.76469921875,-12.51687890625,15.418796875,2.68165625,0.15430078125,-0.659484374999999,-23.21812109375,8.40195703125,1.688484375,0.0907773437500006,-7.76980078125,0.986703125,5.09159375,3.4803125,-2.02853125,-7.427265625,4.28359765625,3.1300625,-1.71730859375,0.135093749999999,-9.21881640625,6.44036328125,1.41853125,-1.91649609375,4.56658984375,4.24815234375,2.9106171875,0.20278515625,0.496640625
3.53783984375,-3.82969921875,-11.45987890625,15.505796875,3.93665625,0.53330078125,-0.707484374999999,-24.01412109375,8.41695703125,2.714484375,0.428777343750001,-7.74580078125,0.659703125,5.69359375,4.4743125,-1.98053125,-7.957265625,4.27459765625,2.9160625,-1.81330859375,-0.00990625000000023,-10.48881640625,5.76936328125,0.73153125,-2.14149609375,3.73958984375,3.34615234375,0.895617187499999,-1.14721484375,-0.516359375
5.49183984375,-3.03569921875,-10.76687890625,15.349796875,5.27065625,1.04130078125,-0.661484375,-24.56812109375,8.55295703125,3.901484375,0.917777343750001,-7.69780078125,0.691703125,6.04259375,5.4373125,-1.87753125,-8.145265625,4.31759765625,2.7450625,-2.14830859375,-0.207906250000001,-12.55581640625,4.88436328125,0.31153125,-2.45449609375,2.88158984375,2.24315234375,-1.6233828125,-2.66221484375,-1.482359375
7.73183984375,-2.09269921875,-10.21087890625,15.480796875,6.81465625,1.93330078125,-0.165484375,-24.57712109375,9.11495703125,5.370484375,1.85177734375,-7.45180078125,1.459703125,6.46859375,6.5923125,-1.42853125,-7.829265625,4.62559765625,3.0440625,-2.18230859375,-0.13790625,-14.76481640625,4.35936328125,0.60153125,-2.39449609375,2.43558984375,1.54415234375,-3.7733828125,-3.71721484375,-1.795359375
9.84683984375,-0.98269921875,-9.67887890625,16.245796875,8.60265625,3.28130078125,0.932515625000001,-23.97212109375,10.25795703125,7.096484375,3.29277734375,-6.92080078125,2.974703125,7.24659375,8.0103125,-0.474531250000001,-7.051265625,5.22259765625,4.0340625,-1.53130859375,0.382093749999999,-16.49381640625,4.61436328125,1.79953125,-1.60349609375,2.67558984375,1.75015234375,-4.8213828125,-3.80521484375,-0.982359374999999
11.17383984375,-0.0416992187499998,-9.30087890625,17.608796875,10.43565625,4.90930078125,2.475515625,-22.97612109375,11.81095703125,8.869484375,5.00577734375,-6.14580078125,4.853703125,8.40459375,9.5333125,0.92046875,-5.996265625,5.89659765625,5.6020625,-0.15830859375,1.29209375,-17.36481640625,5.73236328125,3.73253125,-0.0344960937499996,3.53458984375,3.01415234375,-4.4973828125,-2.81921484375,0.943640625
11.12183984375,0.21030078125,-9.39387890625,19.189796875,11.93765625,6.46430078125,4.047515625,-21.99412109375,13.29095703125,10.368484375,6.56577734375,-5.27480078125,6.476703125,9.68359375,10.8373125,2.47546875,-4.865265625,6.30959765625,7.3410625,1.60869140625,2.31209375,-17.33981640625,7.42036328125,5.89953125,1.97750390625,4.59758984375,5.02715234375,-3.0813828125,-1.16421484375,3.324640625
9.56883984375,-0.54869921875,-10.19287890625,20.537796875,12.82265625,7.62730078125,5.236515625,-21.35412109375,14.19595703125,11.338484375,7.60477734375,-4.47380078125,7.307703125,10.71359375,11.6603125,3.84746875,-3.756265625,6.21559765625,8.7860625,3.28169140625,3.11309375,-16.65881640625,9.18536328125,7.70353125,3.86950390625,5.31158984375,7.17415234375,-1.1913828125,0.435785156249999,5.093640625
7.13783984375,-2.06969921875,-11.50587890625,21.444796875,13.15865625,8.35330078125,5.916515625,-21.04912109375,14.36895703125,11.811484375,8.08077734375,-3.77280078125,7.226703125,11.30859375,12.0363125,4.88446875,-2.607265625,5.68159765625,9.7100625,4.53569140625,3.56609375,-15.61081640625,10.63836328125,8.80353125,5.18850390625,5.34958984375,8.89815234375,0.614617187499999,1.39278515625,5.406640625
5.06483984375,-3.46169921875,-12.59287890625,22.096796875,13.38665625,8.95630078125,6.357515625,-20.70212109375,14.16995703125,12.179484375,8.37477734375,-2.98780078125,6.651703125,11.65359375,12.3843125,5.76146875,-1.252265625,5.13059765625,10.2930625,5.43069140625,3.89709375,-14.29381640625,11.74436328125,9.33353125,5.90050390625,4.89258984375,10.06615234375,2.1756171875,1.67478515625,4.280640625
4.62983984375,-3.61169921875,-12.48987890625,22.930796875,14.06865625,9.91230078125,7.048515625,-19.84712109375,14.26095703125,13.003484375,9.07277734375,-1.83880078125,6.292703125,12.20659375,13.2983125,6.88146875,0.443734374999999,5.15659765625,11.0060625,6.35569140625,4.58309375,-12.57781640625,12.80336328125,9.81253125,6.40150390625,4.58058984375,11.01315234375,3.7216171875,1.84578515625,2.712640625
6.42683984375,-1.86569921875,-10.59487890625,24.269796875,15.51665625,11.49630078125,8.326515625,-18.35012109375,15.16595703125,14.620484375,10.54777734375,-0.219800781249999,6.691703125,13.34659375,15.1343125,8.53146875,2.421734375,6.16459765625,12.2450625,7.68269140625,6.00809375,-10.30681640625,14.14936328125,10.74453125,7.19350390625,5.07958984375,12.19515234375,5.5256171875,2.61278515625,2.054640625
9.96183984375,1.49930078125,-7.11287890625,26.002796875,17.53965625,13.51030078125,10.091515625,-16.64712109375,16.87895703125,16.838484375,12.63977734375,1.59019921875,7.864703125,15.03759375,17.6903125,10.59846875,4.357734375,8.08159765625,13.9980625,9.42269140625,8.11509375,-7.57681640625,15.81536328125,12.21953125,8.45550390625,6.56958984375,13.74315234375,7.5166171875,4.22678515625,3.072640625
13.86183984375,5.38330078125,-2.99587890625,27.592796875,19.49765625,15.34830078125,11.817515625,-15.55612109375,18.85995703125,19.003484375,14.70677734375,3.00919921875,9.365703125,16.79759375,20.2533125,12.57146875,5.782734375,10.36859765625,15.8190625,11.16969140625,10.37309375,-4.80181640625,17.48436328125,13.84953125,9.90450390625,8.57758984375,15.33215234375,9.2296171875,6.24578515625,5.446640625
16.59583984375,8.48830078125,0.583121093750002,28.435796875,20.67465625,16.39430078125,12.894515625,-15.72412109375,20.39995703125,20.398484375,16.02577734375,3.51019921875,10.676703125,18.01659375,22.0243125,13.86246875,6.320734375,12.36559765625,17.1540625,12.40069140625,12.09509375,-2.51281640625,18.76236328125,15.09553125,11.04350390625,10.29658984375,16.46615234375,10.1876171875,7.90078515625,8.076640625
17.23683984375,10.02630078125,2.86612109375,28.303796875,20.73465625,16.42330078125,13.039515625,-17.12212109375,21.09695703125,20.689484375,16.24977734375,2.99219921875,11.595703125,18.36459375,22.5853125,14.18646875,5.916734375,13.70359765625,17.7420625,12.85769140625,12.86409375,-1.04981640625,19.51436328125,15.69953125,11.56050390625,11.12658984375,16.91515234375,10.3626171875,8.71378515625,9.897640625
15.85183984375,10.05830078125,3.82412109375,27.496796875,19.92665625,15.74230078125,12.468515625,-18.93812109375,21.07095703125,20.094484375,15.60077734375,1.89219921875,12.301703125,17.98959375,22.0993125,13.72746875,4.873734375,14.46559765625,17.7810625,12.70469140625,12.74409375,-0.36781640625,19.96236328125,15.85153125,11.54350390625,11.00458984375,16.90015234375,10.2806171875,8.82378515625,10.502640625
13.35983984375,9.32330078125,4.02512109375,26.616796875,18.91165625,14.99330078125,11.725515625,-19.97112109375,20.80495703125,19.219484375,14.70477734375,0.971199218750002,13.111703125,17.39359375,21.1343125,13.00746875,3.692734375,15.01259765625,17.7420625,12.38169140625,12.15209375,-0.0328164062499994,20.48736328125,16.00353125,11.35850390625,10.33558984375,16.90315234375,10.6526171875,8.78878515625,10.196640625
11.03183984375,8.75030078125,4.20612109375,26.189796875,18.38265625,14.79130078125,11.370515625,-19.18312109375,20.80295703125,18.724484375,14.24377734375,0.91919921875,14.169703125,17.13259375,20.3143125,12.59446875,2.846734375,15.65559765625,18.0500625,12.31569140625,11.56309375,0.677183593750001,21.32636328125,16.52953125,11.36650390625,9.66358984375,17.30115234375,11.8556171875,9.10278515625,9.606640625
9.88283984375,8.98330078125,4.86612109375,26.377796875,18.74965625,15.45130078125,11.734515625,-16.08712109375,21.28195703125,19.016484375,14.63977734375,2.04819921875,15.300703125,17.53459375,20.0253125,12.84746875,2.629734375,16.42259765625,18.8340625,12.70269140625,11.28109375,2.61118359375,22.39436328125,17.47553125,11.69850390625,9.35458984375,18.12615234375,13.6676171875,9.86478515625,9.264640625
10.24083984375,10.13930078125,6.08612109375,26.910796875,19.99165625,16.87230078125,12.840515625,-10.82812109375,22.06395703125,20.082484375,15.90377734375,4.19119921875,16.091703125,18.55159375,20.2893125,13.77846875,3.102734375,17.03959765625,19.8840625,13.44569140625,11.35009375,6.49918359375,23.31636328125,18.54153125,12.20750390625,9.44258984375,19.05915234375,15.4306171875,10.77978515625,9.375640625
11.65883984375,11.84330078125,7.58212109375,27.196796875,21.64465625,18.60630078125,14.421515625,-4.03512109375,22.63495703125,21.507484375,17.64877734375,6.83819921875,16.113703125,19.77159375,20.8193125,15.08346875,4.127734375,17.07759765625,20.7700625,14.22769140625,11.60209375,12.63218359375,23.62636328125,19.23253125,12.56650390625,9.65058984375,19.62515234375,16.4596171875,11.39978515625,9.804640625
13.23183984375,13.48930078125,8.94312109375,26.563796875,22.95365625,20.04630078125,16.035515625,3.45687890625,22.37095703125,22.645484375,19.26077734375,9.39719921875,15.176703125,20.59359375,21.1733125,16.29546875,5.428734375,16.18659765625,21.0440625,14.67169140625,11.78609375,20.60818359375,23.02036328125,19.10053125,12.45750390625,9.54558984375,19.44415234375,16.4116171875,11.39278515625,10.196640625
14.14283984375,14.58130078125,9.96112109375,24.545796875,23.17665625,20.66330078125,17.280515625,10.95687890625,20.82595703125,22.877484375,20.16677734375,11.48019921875,13.452703125,20.49259375,20.9823125,17.01946875,6.714734375,14.30359765625,20.4500625,14.53569140625,11.74409375,29.36818359375,21.50736328125,17.97653125,11.74850390625,8.79958984375,18.40715234375,15.4136171875,10.70678515625,10.190640625
14.11483984375,15.03630078125,10.86012109375,21.062796875,21.91765625,20.21430078125,18.012515625,18.18987890625,17.92895703125,21.821484375,20.08077734375,13.06919921875,11.396703125,19.23059375,20.1003125,17.13046875,7.814734375,11.73159765625,19.0300625,13.82469140625,11.54409375,37.55218359375,19.40036328125,16.06853125,10.58550390625,7.40958984375,16.71015234375,13.9216171875,9.56078515625,9.610640625
13.50083984375,15.24930078125,12.24512109375,16.366796875,19.25865625,18.79430078125,18.402515625,25.33487890625,13.97495703125,19.450484375,19.09877734375,14.48119921875,9.458703125,16.91859375,18.6283125,16.82346875,8.776734375,9.02959765625,17.0640625,12.77869140625,11.46009375,43.97418359375,17.15036328125,13.86053125,9.33450390625,5.76758984375,14.73315234375,12.4086171875,8.29178515625,8.537640625
12.93183984375,15.84730078125,14.76112109375,10.829796875,15.65165625,16.75230078125,18.788515625,32.80287890625,9.42895703125,16.073484375,17.59977734375,16.16419921875,7.774703125,13.90659375,16.8023125,16.48046875,9.854734375,6.76059765625,14.9050625,11.73269140625,11.80809375,47.94718359375,15.12636328125,11.86753125,8.39850390625,4.51258984375,12.85115234375,11.1026171875,7.15978515625,7.250640625
12.80783984375,17.28930078125,18.66112109375,4.770796875,11.68065625,14.53130078125,19.450515625,40.91687890625,4.76095703125,12.224484375,16.03677734375,18.44819921875,6.069703125,10.61059375,14.8523125,16.46346875,11.387734375,5.24359765625,12.8060625,10.93769140625,12.74709375,49.34318359375,13.47336328125,10.38553125,8.02950390625,4.24658984375,11.28015234375,9.9136171875,6.25878515625,6.107640625
12.99283984375,19.56930078125,23.60812109375,-1.527203125,7.90465625,12.52430078125,20.481515625,49.69187890625,0.40995703125,8.505484375,14.75077734375,21.38619921875,3.851703125,7.38159375,12.9403125,16.94046875,13.614734375,4.41959765625,10.8600625,10.46369140625,14.17409375,48.48818359375,12.09436328125,9.38653125,8.22950390625,5.24658984375,10.03515234375,8.6016171875,5.54678515625,5.417640625
12.92383984375,22.22130078125,28.82912109375,-7.705203125,4.77765625,10.99230078125,21.781515625,58.80187890625,-3.19904296875,5.439484375,13.88377734375,24.74319921875,0.786703125,4.46259375,11.1763125,17.82946875,16.536734375,3.90659765625,9.0470625,10.20169140625,15.76409375,46.04918359375,10.78036328125,8.60653125,8.78950390625,7.32458984375,9.00115234375,7.0656171875,4.98078515625,5.349640625
12.02383984375,24.60730078125,33.51312109375,-13.264203125,2.60765625,10.04430078125,23.145515625,67.67587890625,-5.69104296875,3.374484375,13.40577734375,28.10619921875,-2.987296875,2.01359375,9.6703125,18.88246875,19.883734375,3.22759765625,7.3440625,9.95969140625,17.13609375,42.96818359375,9.39336328125,7.74053125,9.42650390625,9.92158984375,8.08015234375,5.5596171875,4.62978515625,5.909640625
10.11483984375,26.27730078125,37.18912109375,-17.653203125,1.53365625,9.67630078125,24.396515625,75.69487890625,-6.84504296875,2.446484375,13.21677734375,31.07419921875,-6.788296875,0.16359375,8.5663125,19.83246875,23.221734375,2.12559765625,5.8180625,9.59269140625,18.04809375,40.39018359375,8.01036328125,6.65253125,9.93050390625,12.35858984375,7.30215234375,4.7076171875,4.69078515625,6.955640625
7.55583984375,27.18130078125,39.88512109375,-20.431203125,1.55265625,9.83830078125,25.515515625,82.39287890625,-6.67904296875,2.588484375,13.25977734375,33.42119921875,-9.609296875,-0.93340625,8.0383125,20.54146875,26.136734375,0.76959765625,4.6650625,9.09669140625,18.51309375,39.46318359375,6.93336328125,5.46953125,10.24650390625,14.10058984375,6.82315234375,5.2506171875,5.38678515625,8.233640625
5.01383984375,27.62330078125,41.97312109375,-21.439203125,2.51665625,10.46330078125,26.649515625,87.56087890625,-5.49104296875,3.563484375,13.56377734375,35.15919921875,-10.547296875,-1.13940625,8.2043125,21.04246875,28.383734375,-0.33040234375,4.1350625,8.61369140625,18.76909375,40.93918359375,6.52136328125,4.51153125,10.43950390625,14.88458984375,6.82215234375,7.6156171875,6.78478515625,9.426640625
3.02483984375,27.98730078125,43.80312109375,-20.928203125,4.05465625,11.42430078125,27.941515625,91.18287890625,-3.86904296875,4.973484375,14.14677734375,36.44519921875,-9.300296875,-0.48740625,9.0043125,21.46046875,29.909734375,-0.73840234375,4.3420625,8.32669140625,19.10109375,44.64918359375,6.90536328125,4.08053125,10.60050390625,14.72758984375,7.32715234375,11.4996171875,8.66578515625,10.230640625
1.64383984375,28.42430078125,45.38712109375,-19.588203125,5.50365625,12.42930078125,29.290515625,93.28187890625,-2.63704296875,6.259484375,14.86977734375,37.38119921875,-6.469296875,0.65859375,10.0893125,21.85646875,30.757734375,-0.54440234375,5.0820625,8.30269140625,19.64009375,49.19118359375,7.75536328125,4.21153125,10.73550390625,13.84658984375,8.08415234375,15.7126171875,10.48578515625,10.444640625
0.43183984375,28.72530078125,46.35912109375,-18.400203125,6.03365625,12.99830078125,30.260515625,93.84087890625,-2.66104296875,6.770484375,15.35577734375,37.88719921875,-3.439296875,1.59759375,10.8453125,22.10546875,30.963734375,-0.47240234375,5.7970625,8.37069140625,20.23009375,52.24118359375,8.28436328125,4.56353125,10.71450390625,12.54258984375,8.54315234375,18.4676171875,11.48478515625,9.983640625
-1.17216015625,28.49230078125,46.26912109375,-18.326203125,4.97465625,12.58430078125,30.246515625,92.85687890625,-4.52404296875,5.938484375,15.09877734375,37.71619921875,-1.845296875,1.54359375,10.5873125,21.89446875,30.504734375,-1.48640234375,5.7790625,8.14969140625,20.46409375,51.59018359375,7.58736328125,4.53853125,10.29550390625,11.05958984375,8.03515234375,18.1216171875,10.92178515625,8.801640625
-3.39916015625,27.45930078125,44.95412109375,-19.951203125,2.13065625,10.81430078125,28.779515625,90.44687890625,-8.23604296875,3.523484375,13.69177734375,36.59819921875,-2.879296875,0.00259374999999984,8.8573125,20.85346875,29.346734375,-4.16940234375,4.5140625,7.21069140625,19.85809375,46.38118359375,5.15136328125,3.59153125,9.22750390625,9.49358984375,6.09615234375,14.0276171875,8.39578515625,6.837640625
-5.96316015625,25.68630078125,42.67112109375,-23.280203125,-2.13434375,7.68530078125,25.775515625,86.86987890625,-13.19904296875,-0.232515625,11.04177734375,34.40519921875,-6.817296875,-2.97840625,5.6443125,18.72946875,27.512734375,-8.32440234375,1.9240625,5.30069140625,18.07409375,37.70418359375,1.18436328125,1.52053125,7.37450390625,7.80258984375,2.73815234375,6.9666171875,4.08878515625,4.065640625
-8.29716015625,23.46730078125,39.91012109375,-27.766203125,-7.04334375,3.60530078125,21.607515625,82.45387890625,-18.44104296875,-4.663515625,7.44377734375,31.25119921875,-12.943296875,-6.85540625,1.4193125,15.53746875,25.110734375,-13.07740234375,-1.6129375,2.48469140625,15.10309375,28.06718359375,-3.47063671875,-1.44046875,4.80150390625,5.92058984375,-1.51084765625,-1.1743828125,-1.20821484375,0.640640625000001
-9.99816015625,21.08230078125,37.06512109375,-32.525203125,-11.66834375,-0.73269921875,16.996515625,77.47687890625,-22.96104296875,-8.926515625,3.49277734375,27.49019921875,-19.844296875,-10.84740625,-3.0466875,11.60146875,22.296734375,-17.33840234375,-5.4549375,-0.86230859375,11.30009375,20.12418359375,-7.77863671875,-4.74246875,1.77350390625,3.87658984375,-5.82984765625,-8.2773828125,-6.36421484375,-3.017359375
-11.13416015625,18.61030078125,34.22412109375,-36.617203125,-15.19534375,-4.55769921875,12.763515625,72.10487890625,-26.01704296875,-12.264515625,-0.10622265625,23.62219921875,-25.863296875,-14.23440625,-6.9336875,7.48946875,19.218734375,-20.28040234375,-8.9399375,-4.18230859375,7.27209375,15.53518359375,-10.95163671875,-7.76346875,-1.31449609375,1.82658984375,-9.43284765625,-12.8523828125,-10.30621484375,-6.305359375
-12.18416015625,15.97230078125,31.22312109375,-39.252203125,-17.09234375,-7.20469921875,9.568515625,66.44287890625,-27.23804296875,-14.163515625,-2.73722265625,20.16719921875,-29.526296875,-16.50240625,-9.5896875,3.86446875,16.012734375,-21.52940234375,-11.5379375,-6.89030859375,3.66509375,14.59618359375,-12.63363671875,-10.00146875,-4.03349609375,-0.000410156250000071,-11.79084765625,-14.4153828125,-12.35821484375,-8.652359375
-13.63216015625,13.16130078125,27.92212109375,-39.860203125,-17.16234375,-8.23969921875,7.781515625,60.66487890625,-26.57504296875,-14.387515625,-3.99922265625,17.55019921875,-29.867296875,-17.35740625,-10.6186875,1.32046875,12.872734375,-21.07840234375,-12.8769375,-8.49430859375,0.983093749999999,16.61818359375,-12.79463671875,-11.13446875,-5.99249609375,-1.37541015625,-12.67084765625,-13.3163828125,-12.33321484375,-9.708359375
-15.48916015625,10.45730078125,24.47412109375,-38.109203125,-15.48734375,-7.52869921875,7.478515625,55.11287890625,-24.18004296875,-12.955515625,-3.75822265625,16.03019921875,-26.690296875,-16.68440625,-9.9086875,0.22946875,10.133734375,-19.12740234375,-12.7499375,-8.68930859375,-0.503906250000001,20.53618359375,-11.57563671875,-11.02146875,-6.90049609375,-2.11741015625,-12.08184765625,-10.3093828125,-10.45621484375,-9.399359375
-17.11516015625,8.44930078125,21.40212109375,-34.006203125,-12.41034375,-5.30769921875,8.455515625,50.24487890625,-20.36604296875,-10.156515625,-2.19122265625,15.62019921875,-20.728296875,-14.58640625,-7.6706875,0.618468749999999,8.237734375,-16.03240234375,-11.1659375,-7.45330859375,-0.77890625,25.29918359375,-9.22363671875,-9.71946875,-6.63549609375,-2.11841015625,-10.22584765625,-6.2083828125,-7.21621484375,-7.897359375
-17.48716015625,7.79330078125,19.39212109375,-28.069203125,-8.55234375,-2.17969921875,10.232515625,46.41687890625,-15.66004296875,-6.549515625,0.22077734375,16.05319921875,-13.546296875,-11.45440625,-4.4426875,2.14446875,7.574734375,-12.33740234375,-8.4279375,-5.09830859375,-0.0499062500000003,29.98718359375,-6.12663671875,-7.51746875,-5.31449609375,-1.38141015625,-7.47784765625,-1.7643828125,-3.28221484375,-5.570359375
-15.76316015625,8.84530078125,18.94112109375,-21.344203125,-4.72734375,1.03830078125,12.136515625,43.70087890625,-10.78204296875,-2.866515625,2.79977734375,16.85419921875,-7.025296875,-7.92440625,-0.9886875,4.20646875,8.259734375,-8.71040234375,-5.1089375,-2.19330859375,1.33509375,33.85718359375,-2.80463671875,-4.91146875,-3.28249609375,-0.0524101562500014,-4.34984765625,2.3606171875,0.605785156249999,-2.922359375
-11.78516015625,11.42830078125,20.09012109375,-15.095203125,-1.65134375,3.61730078125,13.540515625,41.86687890625,-6.45004296875,0.214484375,4.92977734375,17.53919921875,-2.605296875,-4.67140625,1.9543125,6.18746875,10.013734375,-5.71340234375,-1.8559375,0.64969140625,3.01809375,36.46318359375,0.21636328125,-2.43746875,-0.99049609375,1.59358984375,-1.36584765625,5.6476171875,3.79378515625,-0.474359375
-6.22216015625,14.86430078125,22.38112109375,-10.325203125,0.38065625,5.20830078125,14.126515625,40.51987890625,-3.11304296875,2.312484375,6.31477734375,17.83319921875,-0.733296875000001,-2.14240625,3.9433125,7.69546875,12.220734375,-3.58540234375,0.8510625,2.99869140625,4.73009375,37.75318359375,2.57436328125,-0.48846875,1.16450390625,3.19958984375,1.08215234375,7.8186171875,5.89678515625,1.396640625
-0.29816015625,18.25130078125,25.03312109375,-7.451203125,1.57265625,5.92230078125,13.958515625,39.27487890625,-0.81904296875,3.443484375,7.05177734375,17.73119921875,-0.877296875000001,-0.42940625,4.9403125,8.64246875,14.140734375,-2.22740234375,2.8040625,4.69169140625,6.29309375,37.99918359375,4.14436328125,0.77153125,2.93150390625,4.40658984375,2.79915234375,8.8886171875,6.87478515625,2.542640625
4.70783984375,20.80730078125,27.23812109375,-6.298203125,2.42965625,6.15030078125,13.340515625,37.86487890625,0.68895703125,3.924484375,7.47877734375,17.37619921875,-2.017296875,0.64259375,5.2123125,9.13046875,15.166734375,-1.41440234375,4.0000625,5.76569140625,7.54709375,37.55218359375,4.97036328125,1.35053125,4.18250390625,4.92358984375,3.74915234375,9.1056171875,6.96578515625,3.009640625
7.96083984375,22.12230078125,28.44812109375,-6.320203125,3.42665625,6.27630078125,12.590515625,36.19187890625,1.74895703125,4.126484375,7.90877734375,16.87119921875,-3.212296875,1.30059375,5.1053125,9.27346875,15.024734375,-1.02840234375,4.5010625,6.30869140625,8.31709375,36.63218359375,5.14636328125,1.31953125,4.83950390625,4.62058984375,3.97715234375,8.8086171875,6.52378515625,2.924640625
9.30583984375,22.22030078125,28.53312109375,-6.866203125,4.76965625,6.45230078125,11.884515625,34.30887890625,2.55295703125,4.258484375,8.43477734375,16.18819921875,-3.954296875,1.64259375,4.8583125,9.08346875,13.836734375,-1.13340234375,4.3400625,6.37269140625,8.44509375,35.28218359375,4.72836328125,0.75353125,4.84950390625,3.59558984375,3.55215234375,8.2906171875,5.86178515625,2.417640625
9.17683984375,21.44430078125,27.71812109375,-7.399203125,6.30065625,6.55630078125,11.198515625,32.32587890625,3.02995703125,4.278484375,8.88377734375,15.21219921875,-4.250296875,1.57959375,4.5433125,8.49346875,12.007734375,-1.88440234375,3.5310625,5.96469140625,7.86809375,33.46918359375,3.74236328125,-0.26046875,4.21050390625,2.18158984375,2.57915234375,7.7096171875,5.17478515625,1.604640625
8.24783984375,20.23430078125,26.37612109375,-7.657203125,7.55865625,6.29930078125,10.331515625,30.29287890625,2.88795703125,3.957484375,8.91677734375,13.84419921875,-4.504296875,0.90559375,4.1013125,7.44646875,10.028734375,-3.37540234375,2.1080625,5.10869140625,6.66609375,31.21818359375,2.23436328125,-1.59646875,3.00250390625,0.844589843749999,1.20915234375,7.0776171875,4.52478515625,0.605640625
7.09583984375,18.93030078125,24.82212109375,-7.713203125,7.98665625,5.39830078125,9.017515625,28.17587890625,1.81295703125,3.018484375,8.19877734375,12.08319921875,-5.254296875,-0.56540625,3.4363125,5.99446875,8.275734375,-5.53940234375,0.1610625,3.87669140625,5.04909375,28.69018359375,0.29236328125,-3.10946875,1.38550390625,-0.00441015625000141,-0.395847656249999,6.2816171875,3.86378515625,-0.460359374999999
6.03183984375,17.69530078125,23.23912109375,-7.913203125,7.20265625,3.74030078125,7.104515625,25.94287890625,-0.30804296875,1.280484375,6.57877734375,10.06419921875,-6.835296875,-2.87340625,2.4833125,4.31046875,6.913734375,-8.13640234375,-2.1529375,2.39369140625,3.29709375,26.15618359375,-1.97263671875,-4.67146875,-0.448496093749999,-0.18441015625,-2.13784765625,5.1176171875,3.04178515625,-1.540359375
5.12383984375,16.54130078125,21.72212109375,-8.707203125,5.14865625,1.43130078125,4.680515625,23.67287890625,-3.28904296875,-1.250515625,4.17877734375,8.03019921875,-9.166296875,-5.85840625,1.2273125,2.62946875,5.907734375,-10.83540234375,-4.6449375,0.784691406249999,1.66109375,23.89418359375,-4.46363671875,-6.23146875,-2.35049609375,0.151589843749999,-4.03084765625,3.3596171875,1.83578515625,-2.712359375
4.29083984375,15.40330078125,20.31912109375,-10.428203125,2.09465625,-1.22369921875,2.063515625,21.56587890625,-6.69704296875,-4.335515625,1.37477734375,6.25419921875,-11.774296875,-9.16640625,-0.3016875,1.14046875,5.112734375,-13.30140234375,-7.1199375,-0.85330859375,0.28509375,22.07018359375,-7.07663671875,-7.79646875,-4.24649609375,0.581589843749999,-6.14084765625,0.892617187499999,0.0547851562499986,-4.136359375
3.41783984375,14.21630078125,19.05912109375,-13.064203125,-1.43034375,-3.79269921875,-0.290484375,19.85487890625,-9.96204296875,-7.507515625,-1.30122265625,4.94319921875,-14.028296875,-12.27340625,-1.9956875,-0.0765312500000004,4.392734375,-15.23240234375,-9.3489375,-2.42030859375,-0.817906250000001,20.69918359375,-9.62463671875,-9.33746875,-6.07549609375,0.619589843749999,-8.41284765625,-2.0843828125,-2.25221484375,-5.853359375
2.47583984375,13.00430078125,17.96512109375,-16.093203125,-4.67634375,-5.77869921875,-1.915484375,18.70987890625,-12.44304296875,-10.111515625,-3.27722265625,4.18619921875,-15.387296875,-14.53040625,-3.6076875,-1.01453125,3.712734375,-16.31040234375,-11.0179375,-3.74030859375,-1.68690625,19.73018359375,-11.74463671875,-10.65746875,-7.67849609375,-0.00441015625000141,-10.51184765625,-4.9283828125,-4.60121484375,-7.552359375
1.61683984375,11.93830078125,17.10612109375,-18.517203125,-6.76334375,-6.69469921875,-2.465484375,18.18587890625,-13.49504296875,-11.437515625,-4.08122265625,3.95119921875,-15.565296875,-15.26040625,-4.7336875,-1.65253125,3.171734375,-16.17240234375,-11.7059375,-4.51330859375,-2.31790625,19.19118359375,-12.89463671875,-11.33646875,-8.72849609375,-1.16841015625,-11.81784765625,-6.6413828125,-6.11321484375,-8.547359375
1.16283984375,11.30130078125,16.57712109375,-19.215203125,-6.94834375,-6.21569921875,-1.851484375,18.19987890625,-12.65004296875,-10.947515625,-3.49322265625,4.10619921875,-14.547296875,-13.98840625,-4.9336875,-1.91253125,2.947734375,-14.51140234375,-11.0239375,-4.40130859375,-2.64190625,19.26318359375,-12.51763671875,-10.87746875,-8.82749609375,-2.38941015625,-11.65884765625,-6.2623828125,-5.86221484375,-8.063359375
1.42483984375,11.31530078125,16.42312109375,-17.488203125,-4.98234375,-4.35469921875,-0.343484375,18.54987890625,-9.88404296875,-8.563515625,-1.68122265625,4.44519921875,-12.515296875,-10.73640625,-3.9696875,-1.70453125,3.192734375,-11.31840234375,-8.8609375,-3.23330859375,-2.59090625,20.19318359375,-10.35163671875,-8.99246875,-7.74149609375,-3.08041015625,-9.70184765625,-3.3773828125,-3.40221484375,-5.721359375
2.44783984375,11.93030078125,16.51612109375,-13.463203125,-1.33734375,-1.58569921875,1.469515625,18.94187890625,-5.79204296875,-4.864515625,0.768777343750001,4.73219921875,-9.801296875,-6.20340625,-2.0336875,-1.04253125,3.935734375,-7.10940234375,-5.5979375,-1.19430859375,-2.18490625,22.04218359375,-6.71763671875,-5.88946875,-5.63549609375,-2.88741015625,-6.25184765625,1.5116171875,0.85678515625,-1.883359375
3.86183984375,12.74230078125,16.52512109375,-8.119203125,2.88265625,1.23130078125,2.863515625,19.04887890625,-1.50204296875,-1.007515625,3.00177734375,4.74519921875,-6.883296875,-1.65240625,0.2133125,-0.130531250000001,5.037734375,-2.92340234375,-2.1079375,1.12269140625,-1.58390625,24.46118359375,-2.57163671875,-2.33346875,-3.10949609375,-1.91541015625,-2.26984765625,7.0516171875,5.68578515625,2.367640625
4.97083984375,13.13930078125,16.04212109375,-2.941203125,6.32265625,3.13530078125,3.235515625,18.58687890625,1.70895703125,1.687484375,4.19277734375,4.33219921875,-4.389296875,1.53459375,1.8643125,0.66146875,6.215734375,0.0215976562500002,0.5380625,2.90569140625,-1.05490625,26.69618359375,0.80836328125,0.58353125,-1.01149609375,-0.72941015625,0.97215234375,11.5136171875,9.48278515625,5.611640625
5.07483984375,12.60030078125,14.79112109375,0.601796875,7.89165625,3.46030078125,2.334515625,17.40987890625,2.91095703125,2.295484375,3.87677734375,3.47619921875,-2.937296875,2.43459375,2.1703125,0.94146875,7.109734375,0.87559765625,1.5150625,3.46669140625,-0.88190625,27.92618359375,2.36536328125,1.88453125,-0.0914960937499991,-0.11241015625,2.41615234375,13.5066171875,10.95078515625,6.674640625
3.85583984375,10.99930078125,12.83312109375,1.555796875,7.19165625,2.13130078125,0.382515625000001,15.60487890625,1.88895703125,0.692484375,2.14877734375,2.33019921875,-2.844296875,0.99259375,0.9003125,0.490468749999999,7.386734375,-0.42840234375,0.6150625,2.55569140625,-1.25290625,27.71218359375,1.73336328125,1.14053125,-0.674496093749999,-0.66641015625,1.66915234375,12.5436171875,9.64978515625,5.130640625
1.60783984375,8.71930078125,10.59412109375,-0.199203125,4.64565625,-0.31769921875,-1.995484375,13.49687890625,-0.80004296875,-2.428515625,-0.36922265625,1.17319921875,-3.903296875,-1.98640625,-1.5476875,-0.62853125,6.863734375,-3.16340234375,-1.6889375,0.46769140625,-2.17090625,26.24118359375,-0.64763671875,-1.35346875,-2.54249609375,-2.49741015625,-0.864847656249999,9.1826171875,6.17678515625,1.518640625
-0.82916015625,6.52330078125,8.71812109375,-3.931203125,1.24565625,-3.01069921875,-4.055484375,11.54087890625,-4.10604296875,-5.909515625,-2.81522265625,0.280199218750001,-5.448296875,-5.24740625,-4.3616875,-2.11653125,5.588734375,-6.19840234375,-4.5069375,-2.10830859375,-3.46890625,24.16918359375,-3.80463671875,-4.73546875,-5.05049609375,-5.13941015625,-4.21784765625,4.7186171875,1.86678515625,-2.893359375
-2.42816015625,5.21830078125,7.77312109375,-8.338203125,-1.89834375,-5.11469921875,-5.286484375,10.13387890625,-6.91604296875,-8.627515625,-4.45122265625,-0.240800781249999,-6.717296875,-7.63440625,-6.6896875,-3.60153125,3.829734375,-8.53140234375,-6.9389375,-4.39230859375,-4.88390625,22.22118359375,-6.68163671875,-7.95246875,-7.42549609375,-7.79041015625,-7.28184765625,0.6186171875,-1.80621484375,-6.663359375
-2.46016015625,5.28130078125,8.00012109375,-12.026203125,-3.96634375,-6.14769921875,-5.604484375,9.48087890625,-8.44404296875,-9.901515625,-4.94122265625,-0.506800781249999,-7.267296875,-8.51840625,-7.9766875,-4.79753125,1.984734375,-9.68040234375,-8.4119375,-5.80330859375,-6.16190625,20.79318359375,-8.54063671875,-10.15346875,-9.06049609375,-9.70241015625,-9.23784765625,-2.0123828125,-3.81821484375,-8.779359375
-0.87316015625,6.60630078125,9.18012109375,-14.008203125,-4.62834375,-6.09169921875,-5.320484375,9.53587890625,-8.45204296875,-9.681515625,-4.42522265625,-0.794800781249999,-7.181296875,-7.95240625,-8.1206875,-5.59153125,0.423734374999999,-9.78340234375,-8.8159375,-6.11530859375,-7.10990625,19.77918359375,-9.17163671875,-10.95546875,-9.70249609375,-10.46241015625,-9.79484765625,-2.7513828125,-3.91821484375,-8.987359375
1.62783984375,8.50530078125,10.69512109375,-14.052203125,-4.08334375,-5.33269921875,-4.939484375,10.01787890625,-7.30004296875,-8.483515625,-3.40722265625,-1.35680078125,-6.986296875,-6.56340625,-7.4516875,-6.02653125,-0.649265625000001,-9.44140234375,-8.4539375,-5.46430859375,-7.60990625,18.67418359375,-8.86463671875,-10.50046875,-9.44849609375,-10.04741015625,-9.19084765625,-1.8873828125,-2.56721484375,-7.722359375
3.85883984375,9.98230078125,11.74412109375,-12.723203125,-2.97234375,-4.46069921875,-4.933484375,10.48887890625,-5.80604296875,-7.118515625,-2.51522265625,-2.25780078125,-7.354296875,-5.25840625,-6.5486875,-6.23053125,-1.247265625,-9.38140234375,-7.8529375,-4.24030859375,-7.61390625,16.92918359375,-8.18263671875,-9.31946875,-8.62649609375,-8.70541015625,-7.98584765625,-0.187382812500001,-0.598214843750001,-5.754359375
4.69683984375,10.15530078125,11.65912109375,-11.056203125,-2.11334375,-4.01369921875,-5.547484375,10.52787890625,-4.90304296875,-6.326515625,-2.24422265625,-3.32680078125,-8.738296875,-4.81240625,-5.9736875,-6.33153125,-1.524265625,-10.07740234375,-7.5119375,-2.92030859375,-7.14290625,14.36018359375,-7.66063671875,-8.07646875,-7.60849609375,-6.80141015625,-6.76984765625,1.4946171875,1.19778515625,-3.822359375
3.60283984375,8.67130078125,10.20512109375,-10.006203125,-2.08234375,-4.23869921875,-6.685484375,9.96987890625,-5.18704296875,-6.454515625,-2.73922265625,-4.22880078125,-11.112296875,-5.52340625,-6.0236875,-6.40353125,-1.617265625,-11.50840234375,-7.6679375,-1.89830859375,-6.28390625,11.32318359375,-7.56763671875,-7.28946875,-6.66749609375,-4.75241015625,-5.94384765625,2.5586171875,2.35278515625,-2.408359375
0.90683984375,5.90830078125,7.72112109375,-9.975203125,-2.89134375,-4.97069921875,-7.922484375,9.05987890625,-6.61504296875,-7.309515625,-3.73722265625,-4.60880078125,-13.939296875,-7.07840625,-6.5976875,-6.43553125,-1.519265625,-13.19440234375,-8.2029375,-1.35630859375,-5.15890625,8.53418359375,-7.84063671875,-7.16046875,-5.90049609375,-2.99541015625,-5.61884765625,2.8056171875,2.79578515625,-1.712359375
-2.30916015625,2.86030078125,5.02512109375,-10.685203125,-3.97034375,-5.70869921875,-8.676484375,8.36187890625,-8.50704296875,-8.254515625,-4.67222265625,-4.22480078125,-16.384296875,-8.71040625,-7.2486875,-6.33953125,-1.085265625,-14.45240234375,-8.7179375,-1.21530859375,-3.90990625,6.68318359375,-8.17263671875,-7.53846875,-5.25249609375,-1.93041015625,-5.63484765625,2.4086171875,2.75578515625,-1.708359375
-4.66216015625,0.72130078125,3.09112109375,-11.394203125,-4.47034375,-5.83569921875,-8.472484375,8.45387890625,-9.86504296875,-8.493515625,-4.92522265625,-3.03880078125,-17.648296875,-9.54440625,-7.3816875,-5.99253125,-0.178265625000001,-14.73840234375,-8.7239375,-1.18430859375,-2.67990625,6.13918359375,-8.18663671875,-8.03646875,-4.58649609375,-1.80441015625,-5.67384765625,1.7576171875,2.59278515625,-2.211359375
-5.07716015625,0.34330078125,2.62112109375,-11.314203125,-3.69434375,-4.90669921875,-7.137484375,9.59387890625,-9.81304296875,-7.440515625,-4.09022265625,-1.22780078125,-17.240296875,-8.98440625,-6.5326875,-5.31853125,1.153734375,-13.87040234375,-7.8649375,-0.90930859375,-1.61690625,6.87118359375,-7.61863671875,-8.23246875,-3.79049609375,-2.59341015625,-5.41184765625,1.2946171875,2.64278515625,-2.932359375
-3.31216015625,1.80830078125,3.70412109375,-10.005203125,-1.43734375,-2.85769921875,-4.862484375,11.54387890625,-7.98204296875,-5.005515625,-2.14722265625,0.871199218750002,-15.131296875,-6.95540625,-4.5926875,-4.34453125,2.603734375,-12.05540234375,-6.0829375,-0.15630859375,-0.851906250000001,8.56618359375,-6.43763671875,-7.86346875,-2.82949609375,-3.95941015625,-4.65384765625,1.3586171875,3.12978515625,-3.515359375
-0.12016015625,4.35930078125,5.73712109375,-7.612203125,1.86265625,-0.0546992187500002,-2.129484375,13.66587890625,-4.71804296875,-1.654515625,0.51777734375,2.87819921875,-11.785296875,-3.93240625,-1.8776875,-3.20353125,3.721734375,-9.74840234375,-3.6529375,1.06969140625,-0.46490625,10.78818359375,-4.83663671875,-6.92646875,-1.74849609375,-5.31341015625,-3.39384765625,2.1066171875,4.14178515625,-3.575359375
3.05783984375,6.73930078125,7.67212109375,-4.849203125,5.25665625,2.84530078125,0.453515625000001,15.22387890625,-1.00304296875,1.780484375,3.26877734375,4.49019921875,-8.054296875,-0.74940625,0.9813125,-2.05653125,4.154734375,-7.46040234375,-1.0919375,2.53869140625,-0.431906250000001,13.08018359375,-3.13663671875,-5.64446875,-0.60749609375,-6.00441015625,-1.77284765625,3.4916171875,5.67578515625,-2.763359375
4.75683984375,7.80230078125,8.52512109375,-2.701203125,7.66865625,5.15030078125,2.366515625,15.73987890625,1.92895703125,4.440484375,5.46077734375,5.54419921875,-4.938296875,1.73259375,3.3033125,-1.01553125,3.863734375,-5.58640234375,1.0410625,3.93269140625,-0.587906250000001,15.02518359375,-1.64463671875,-4.30846875,0.57450390625,-5.54241015625,-0.00284765624999928,5.3076171875,7.66278515625,-0.868359374999999
4.20283984375,7.07430078125,7.86512109375,-1.956203125,8.38665625,6.39730078125,3.349515625,15.20187890625,3.12495703125,5.774484375,6.67377734375,6.02619921875,-3.225296875,2.95459375,4.6193125,-0.10453125,3.153734375,-4.33140234375,2.3540625,4.99969140625,-0.66390625,16.28418359375,-0.55363671875,-3.12046875,1.82650390625,-3.77841015625,1.71015234375,7.2456171875,9.95478515625,2.046640625
1.68083984375,4.97730078125,6.04412109375,-2.824203125,7.35065625,6.50030078125,3.433515625,14.00587890625,2.31195703125,5.725484375,6.82477734375,6.02219921875,-3.182296875,2.84659375,4.8323125,0.692468749999999,2.506734375,-3.69040234375,2.7400625,5.64969140625,-0.412906250000001,16.67318359375,0.0973632812500007,-2.12546875,3.16750390625,-0.99041015625,3.18215234375,8.9566171875,12.24078515625,5.500640625
-1.65116015625,2.57930078125,4.00212109375,-4.867203125,5.10065625,5.72530078125,2.850515625,12.71787890625,-0.0330429687499998,4.704484375,6.13677734375,5.68019921875,-4.484296875,1.79059375,4.1963125,1.36246875,2.312734375,-3.49840234375,2.3720625,5.92969140625,0.241093749999999,16.22718359375,0.395363281250001,-1.26946875,4.50650390625,2.16258984375,4.24615234375,10.0826171875,13.98978515625,8.565640625
-4.36116015625,1.02730078125,2.77212109375,-7.243203125,2.46065625,4.54830078125,1.913515625,11.81887890625,-2.94304296875,3.360484375,5.01077734375,5.17119921875,-6.421296875,0.40559375,3.1603125,1.83846875,2.663734375,-3.49440234375,1.5840625,5.95069140625,1.15109375,15.22218359375,0.480363281250001,-0.52946875,5.61450390625,4.83658984375,4.73215234375,10.3266171875,14.55078515625,10.112640625
-5.42616015625,0.96330078125,2.95312109375,-9.120203125,0.20365625,3.45230078125,0.952515625,11.56487890625,-5.37204296875,2.282484375,3.88677734375,4.67619921875,-8.288296875,-0.73140625,2.1773125,2.05746875,3.344734375,-3.41540234375,0.7320625,5.82069140625,2.05209375,14.06818359375,0.46036328125,0.03553125,6.22150390625,6.32858984375,4.52415234375,9.5576171875,13.45178515625,9.330640625
-4.65016015625,2.23930078125,4.41312109375,-10.032203125,-1.21434375,2.76830078125,0.254515625,11.95387890625,-6.61104296875,1.767484375,3.12077734375,4.36219921875,-9.716296875,-1.31940625,1.5473125,2.03646875,3.996734375,-3.10640234375,0.0630625,5.62069140625,2.74109375,13.11918359375,0.35336328125,0.30553125,6.17750390625,6.41558984375,3.65115234375,7.9296171875,10.77078515625,6.272640625
-2.68516015625,4.02730078125,6.34812109375,-10.039203125,-1.76534375,2.57230078125,-0.0324843749999997,12.73387890625,-6.55004296875,1.748484375,2.87477734375,4.33619921875,-10.780296875,-1.44240625,1.3323125,1.88146875,4.302734375,-2.62540234375,-0.3669375,5.37969140625,3.15509375,12.49018359375,0.06336328125,0.17753125,5.53950390625,5.45258984375,2.32515234375,5.8796171875,7.24278515625,1.981640625
-0.68516015625,5.24030078125,7.66812109375,-9.620203125,-1.80734375,2.67930078125,0.0215156250000006,13.46287890625,-5.69604296875,1.875484375,3.05577734375,4.58919921875,-11.829296875,-1.49540625,1.3643125,1.69046875,4.108734375,-2.24240234375,-0.6979375,5.05069140625,3.29509375,12.03518359375,-0.57763671875,-0.40646875,4.50350390625,4.13458984375,0.849152343750001,3.9796171875,3.97778515625,-1.989359375
0.24983984375,5.05130078125,7.52012109375,-9.399203125,-1.88034375,2.73030078125,0.144515625,13.65887890625,-4.91904296875,1.692484375,3.34977734375,4.95519921875,-13.181296875,-1.96340625,1.3233125,1.44946875,3.426734375,-2.29840234375,-1.1919375,4.50769140625,3.09109375,11.49118359375,-1.72863671875,-1.44546875,3.25750390625,3.07158984375,-0.552847656249999,2.6696171875,1.92878515625,-4.363359375
-0.43816015625,3.25230078125,5.68512109375,-9.856203125,-2.45534375,2.34230078125,-0.0164843749999997,13.00587890625,-5.04504296875,0.847484375,3.35377734375,5.14019921875,-14.882296875,-3.15240625,0.862312499999999,0.99646875,2.386734375,-3.01940234375,-2.0939375,3.59369140625,2.36909375,10.61818359375,-3.44063671875,-2.89746875,1.87950390625,2.47458984375,-1.85584765625,2.0286171875,1.43178515625,-4.732359375
-2.57316015625,0.297300781250001,2.64612109375,-11.186203125,-3.78134375,1.24930078125,-0.764484374999999,11.50387890625,-6.51804296875,-0.775515625,2.72377734375,4.80919921875,-16.698296875,-5.04040625,-0.2746875,0.103468749999999,1.172734375,-4.41440234375,-3.5279375,2.17669140625,0.932093749999999,9.22918359375,-5.61063671875,-4.69146875,0.349503906250001,2.12458984375,-3.21784765625,1.7066171875,2.07378515625,-3.650359375
-5.46316015625,-2.99369921875,-0.706878906249998,-13.284203125,-5.83134375,-0.60269921875,-2.259484375,9.46887890625,-9.23604296875,-3.020515625,1.29277734375,3.73519921875,-18.268296875,-7.31340625,-2.1706875,-1.41453125,-0.0612656250000008,-6.30940234375,-5.4629375,0.20769140625,-1.29590625,7.17418359375,-8.01463671875,-6.74846875,-1.38549609375,1.55958984375,-4.85284765625,1.0816171875,2.92578515625,-2.256359375
-8.33516015625,-5.84869921875,-3.52987890625,-15.798203125,-8.30234375,-3.03269921875,-4.443484375,7.38087890625,-12.61004296875,-5.545515625,-0.87622265625,1.92819921875,-19.288296875,-9.52940625,-4.6986875,-3.58053125,-1.247265625,-8.42240234375,-7.7219375,-2.25530859375,-4.16990625,4.42718359375,-10.37463671875,-8.95646875,-3.31849609375,0.360589843749999,-6.85484765625,-0.3613828125,3.06878515625,-1.634359375
-10.68716015625,-7.83669921875,-5.36387890625,-18.214203125,-10.67234375,-5.67969921875,-7.041484375,5.66187890625,-15.79304296875,-7.958515625,-3.49522265625,-0.330800781249999,-19.607296875,-11.30540625,-7.5546875,-6.20753125,-2.391265625,-10.43440234375,-10.0259375,-5.02330859375,-7.30090625,1.22818359375,-12.41363671875,-11.13146875,-5.32849609375,-1.60641015625,-9.06484765625,-2.6643828125,2.10078515625,-2.259359375
-12.39316015625,-8.93469921875,-6.23987890625,-20.019203125,-12.38534375,-8.12169921875,-9.658484375,4.47387890625,-18.03404296875,-9.952515625,-6.14922265625,-2.60880078125,-19.284296875,-12.45440625,-10.3526875,-8.93353125,-3.492265625,-12.06340234375,-12.0699375,-7.80230859375,-10.16490625,-1.90781640625,-13.92363671875,-13.00846875,-7.20249609375,-4.09841015625,-11.09084765625,-5.3113828125,0.32178515625,-3.841359375
-13.58816015625,-9.41269921875,-6.54387890625,-20.874203125,-13.09434375,-10.00669921875,-11.926484375,3.68187890625,-18.98704296875,-11.365515625,-8.42022265625,-4.49780078125,-18.599296875,-13.03340625,-12.7356875,-11.32853125,-4.466265625,-13.14140234375,-13.6199375,-10.25230859375,-12.28390625,-4.39981640625,-14.82363671875,-14.31646875,-8.72049609375,-6.59841015625,-12.49684765625,-7.5143828125,-1.53121484375,-5.631359375
-14.46516015625,-9.62969921875,-6.73887890625,-20.701203125,-12.77134375,-11.11169921875,-13.553484375,3.02987890625,-18.79704296875,-12.150515625,-9.96822265625,-5.71380078125,-17.970296875,-13.24240625,-14.4186875,-12.98253125,-5.134265625,-13.64840234375,-14.5419375,-12.02630859375,-13.34890625,-5.86481640625,-15.17063671875,-14.83546875,-9.71349609375,-8.53841015625,-13.00484765625,-8.6323828125,-2.74721484375,-6.925359375
-15.05016015625,-9.78469921875,-7.03587890625,-19.622203125,-11.59334375,-11.29069921875,-14.259484375,2.44287890625,-17.87904296875,-12.264515625,-10.51822265625,-6.03880078125,-17.724296875,-13.24140625,-15.1376875,-13.54053125,-5.265265625,-13.63240234375,-14.7439375,-12.78430859375,-13.22990625,-6.21081640625,-15.07163671875,-14.42346875,-10.02649609375,-9.48441015625,-12.56784765625,-8.4263828125,-2.95821484375,-7.371359375
-15.06216015625,-9.74669921875,-7.19087890625,-17.880203125,-9.77634375,-10.42369921875,-13.752484375,2.18387890625,-16.59404296875,-11.596515625,-9.85422265625,-5.26280078125,-17.857296875,-12.99140625,-14.6266875,-12.72453125,-4.671265625,-13.09040234375,-14.1099375,-12.21730859375,-11.91590625,-5.53181640625,-14.55563671875,-12.99646875,-9.45949609375,-9.21541015625,-11.29284765625,-7.0273828125,-2.15021484375,-6.951359375
-14.00716015625,-9.08569921875,-6.59887890625,-15.806203125,-7.53434375,-8.47269921875,-11.873484375,2.71287890625,-15.08504296875,-10.021515625,-7.90022265625,-3.25280078125,-17.995296875,-12.28640625,-12.7356875,-10.43853125,-3.296265625,-11.93740234375,-12.5449375,-10.16930859375,-9.51490625,-3.96381640625,-13.54263671875,-10.57646875,-7.81849609375,-7.71041015625,-9.32584765625,-4.7553828125,-0.51321484375,-5.784359375
-11.50716015625,-7.36969921875,-4.67387890625,-13.799203125,-5.14234375,-5.63069921875,-8.822484375,4.32687890625,-13.36504296875,-7.586515625,-4.88222265625,-0.161800781249999,-17.639296875,-10.94540625,-9.6436875,-6.91353125,-1.303265625,-10.10040234375,-10.1279375,-6.82430859375,-6.31690625,-1.64381640625,-11.94563671875,-7.37546875,-5.08949609375,-5.13541015625,-6.85384765625,-1.9753828125,1.69178515625,-4.015359375
-7.66816015625,-4.51869921875,-1.29287890625,-12.247203125,-2.97034375,-2.41769921875,-5.238484375,6.85387890625,-11.50104296875,-4.659515625,-1.40222265625,3.42719921875,-16.511296875,-9.02340625,-5.9746875,-2.77653125,0.911734374999999,-7.67340234375,-7.2239375,-2.79930859375,-2.85290625,1.21918359375,-9.84163671875,-3.84346875,-1.61749609375,-1.85841015625,-4.16784765625,0.930617187499999,4.14678515625,-1.844359375
-3.21916015625,-0.98869921875,2.98412109375,-11.410203125,-1.40134375,0.40830078125,-2.038484375,9.61087890625,-9.71504296875,-1.916515625,1.67477734375,6.58619921875,-14.760296875,-6.87540625,-2.6856875,1.06646875,2.802734375,-4.98740234375,-4.4369375,0.975691406249999,0.17609375,4.27418359375,-7.55063671875,-0.58946875,1.88050390625,1.57158984375,-1.69584765625,3.5556171875,6.45778515625,0.394640625000001
0.69083984375,2.34430078125,7.04712109375,-11.345203125,-0.71434375,2.10230078125,-0.0864843749999995,11.64987890625,-8.36104296875,-0.105515625,3.50577734375,8.38819921875,-12.895296875,-5.04240625,-0.7406875,3.71346875,3.856734375,-2.54940234375,-2.4179375,3.56569140625,2.08609375,7.01618359375,-5.55263671875,1.79053125,4.54650390625,4.51458984375,0.0841523437500005,5.4856171875,8.17778515625,2.245640625
2.91183984375,4.50930078125,9.64412109375,-11.932203125,-0.99634375,2.21430078125,0.129515625,12.16387890625,-7.79004296875,0.235484375,3.58877734375,8.30519921875,-11.524296875,-4.04340625,-0.7436875,4.58746875,3.817734375,-0.87340234375,-1.6459375,4.38469140625,2.44309375,8.88518359375,-4.31263671875,2.88453125,5.71650390625,6.41758984375,0.793152343750001,6.3776171875,8.90778515625,3.260640625
2.74383984375,4.83830078125,9.90112109375,-12.941203125,-2.09834375,0.76530078125,-1.313484375,10.88287890625,-8.20204296875,-1.011515625,1.96877734375,6.47219921875,-11.081296875,-4.18040625,-2.6996875,3.64846875,2.819734375,-0.29540234375,-2.2799375,3.40169140625,1.24309375,9.43218359375,-4.11163671875,2.55753125,5.21250390625,6.99958984375,0.285152343750001,6.0586171875,8.42878515625,3.187640625
0.22683984375,3.26830078125,7.73112109375,-14.111203125,-3.67334375,-1.74969921875,-3.798484375,8.25587890625,-9.53604296875,-3.493515625,-0.75522265625,3.65319921875,-11.657296875,-5.42140625,-5.9986875,1.43146875,1.348734375,-0.86440234375,-4.1159375,1.13069140625,-1.04590625,8.49118359375,-4.95263671875,0.99153125,3.42350390625,6.37458984375,-1.27284765625,4.6266171875,6.82078515625,2.129640625
-3.82116015625,0.41730078125,3.93612109375,-15.214203125,-5.29334375,-4.53569921875,-6.429484375,5.29587890625,-11.47204296875,-6.496515625,-3.64622265625,0.934199218750001,-13.006296875,-7.40340625,-9.6096875,-1.13153125,0.0457343749999986,-2.33240234375,-6.6529375,-1.56430859375,-3.60990625,6.28718359375,-6.54163671875,-1.34546875,1.16950390625,5.02258984375,-3.39684765625,2.4916171875,4.51478515625,0.580640625000001
-8.09016015625,-2.64869921875,-0.0808789062499979,-16.086203125,-6.58134375,-6.75169921875,-8.364484375,3.13587890625,-13.50604296875,-9.155515625,-5.76022265625,-0.715800781249999,-14.650296875,-9.53340625,-12.4126875,-3.03153125,-0.569265625000001,-4.24240234375,-9.2139375,-3.75730859375,-5.55090625,3.42618359375,-8.33963671875,-3.76246875,-0.617496093749999,3.61458984375,-5.37384765625,0.337617187499999,2.24878515625,-0.705359374999999
-11.24216015625,-4.85369921875,-2.85287890625,-16.614203125,-7.27034375,-7.77669921875,-9.073484375,2.55487890625,-15.09204296875,-10.728515625,-6.46222265625,-0.808800781249999,-16.048296875,-11.15740625,-13.5646875,-3.55353125,-0.280265625000001,-6.04540234375,-11.1069375,-4.74930859375,-6.18690625,0.753183593750002,-9.72163671875,-5.49546875,-1.23449609375,2.74558984375,-6.46684765625,-1.0453828125,0.873785156249999,-0.974359374999999
-12.34916015625,-5.51569921875,-3.39887890625,-16.719203125,-7.20034375,-7.38969921875,-8.422484375,3.67587890625,-15.78504296875,-10.835515625,-5.60422265625,0.51519921875,-16.777296875,-11.76040625,-12.7546875,-2.53153125,0.784734374999999,-7.24440234375,-11.7959375,-4.25630859375,-5.27990625,-0.904816406249999,-10.17463671875,-5.92046875,-0.443496093749999,2.72358984375,-6.17284765625,-1.0313828125,1.04578515625,0.207640625000001
-11.10616015625,-4.52369921875,-1.54587890625,-16.405203125,-6.34534375,-5.81469921875,-6.659484375,5.96887890625,-15.40504296875,-9.576515625,-3.53422265625,2.59019921875,-16.668296875,-11.14640625,-10.2986875,-0.38353125,2.252734375,-7.52140234375,-11.0549375,-2.47830859375,-3.09990625,-1.03881640625,-9.48963671875,-4.77346875,1.48150390625,3.48558984375,-4.43584765625,0.579617187499998,2.92878515625,2.725640625
-7.80916015625,-2.26969921875,2.04012109375,-15.801203125,-4.88434375,-3.63869921875,-4.350484375,8.46487890625,-14.12604296875,-7.478515625,-0.95722265625,4.50619921875,-15.850296875,-9.52340625,-7.0136875,2.07146875,3.649734375,-6.84940234375,-9.0709375,-0.0113085937500004,-0.31890625,0.308183593750002,-7.85063671875,-2.27646875,3.88250390625,4.67858984375,-1.69484765625,3.4306171875,6.07178515625,5.920640625
-3.21816015625,0.531300781250001,6.10212109375,-15.120203125,-3.22834375,-1.62069921875,-2.264484375,10.09587890625,-12.44104296875,-5.309515625,1.28277734375,5.44219921875,-14.683296875,-7.45740625,-3.9546875,3.93346875,4.513734375,-5.52740234375,-6.4329375,2.33269140625,2.21309375,2.52218359375,-5.78563671875,0.88253125,5.95750390625,5.80958984375,1.25915234375,6.6976171875,9.53278515625,8.828640625
1.59183984375,3.04830078125,9.20412109375,-14.579203125,-1.96734375,-0.48069921875,-1.219484375,9.98487890625,-11.01104296875,-3.825515625,2.43577734375,4.91219921875,-13.644296875,-5.70840625,-2.0986875,4.52446875,4.470734375,-4.11940234375,-4.0129375,3.75269140625,3.70609375,4.60418359375,-4.01563671875,3.72153125,6.99250390625,6.39658984375,3.53215234375,9.3276171875,12.19378515625,10.545640625
5.38883984375,4.51730078125,10.15912109375,-14.394203125,-1.77134375,-0.72469921875,-1.933484375,7.60087890625,-10.48804296875,-3.567515625,2.00877734375,2.84119921875,-13.211296875,-5.01740625,-2.1016875,3.55446875,3.273734375,-3.30740234375,-2.7359375,3.65169140625,3.59509375,5.50118359375,-3.22263671875,5.23153125,6.52250390625,6.06858984375,4.37815234375,10.3346171875,13.09578515625,10.502640625
7.04883984375,4.40530078125,8.32412109375,-14.855203125,-3.27434375,-2.54769921875,-4.893484375,2.77587890625,-11.37304296875,-4.720515625,-0.15522265625,-0.525800781249999,-13.779296875,-5.89840625,-4.1886875,1.11846875,0.839734374999999,-3.70140234375,-3.3229375,1.75669140625,1.62309375,4.42918359375,-3.84263671875,4.66553125,4.40550390625,4.63258984375,3.40715234375,9.0586171875,11.68478515625,8.573640625
5.92883984375,2.55330078125,3.70912109375,-16.272203125,-6.86034375,-5.82669921875,-10.221484375,-4.32112109375,-13.88204296875,-7.116515625,-3.89322265625,-4.79380078125,-15.536296875,-8.48340625,-8.1586875,-2.42853125,-2.726265625,-5.61440234375,-6.0459375,-1.82730859375,-2.13190625,1.11818359375,-5.92663671875,1.78853125,0.81650390625,2.11758984375,0.662152343750001,5.3476171875,7.93378515625,5.025640625
2.20983984375,-0.76069921875,-3.07487890625,-18.729203125,-12.40234375,-10.17469921875,-17.553484375,-13.18712109375,-17.82704296875,-10.349515625,-8.78622265625,-9.56680078125,-18.358296875,-12.47740625,-13.4876875,-6.63953125,-7.149265625,-8.91540234375,-10.6089375,-6.67630859375,-7.27190625,-4.09481640625,-9.15963671875,-3.03846875,-3.82849609375,-1.22941015625,-3.42784765625,-0.370382812500001,2.33078515625,0.368640625
-3.02616015625,-4.85969921875,-10.97787890625,-21.879203125,-19.13334375,-15.04869921875,-26.019484375,-22.99212109375,-22.59804296875,-13.946515625,-14.25222265625,-14.52480078125,-21.791296875,-17.23540625,-19.4746875,-11.10253125,-12.017265625,-13.02340234375,-16.2039375,-12.15930859375,-13.13390625,-10.36281640625,-12.98363671875,-8.93846875,-8.98049609375,-5.00041015625,-8.19484765625,-7.1833828125,-4.24921484375,-4.798359375
-3.02616015625,-4.85969921875,-10.97787890625,-21.879203125,-19.13334375,-15.04869921875,-26.019484375,-22.99212109375,-22.59804296875,-13.946515625,-14.25222265625,-14.52480078125,-21.791296875,-17.23540625,-19.4746875,-11.10253125,-12.017265625,-13.02340234375,-16.2039375,-12.15930859375,-13.13390625,-10.36281640625,-12.98363671875,-8.93846875,-8.98049609375,-5.00041015625,-8.19484765625,-7.1833828125,-4.24921484375,-4.798359375
