"Fp1","Fpz","Fp2","F7","F3","Fz","F4","F8","FC5","FC1","FC2","FC6","T7","C3","Cz","C4","T8","CP5","CP1","CP2","CP6","P7","P3","Pz","P4","P8","POz","O1","Oz","O2"
3.75333984375,1.010921875,-1.0548828125,8.05940234375,2.05832421875,2.953765625,1.690296875,5.254625,3.49344921875,-1.53154296875,-4.8985859375,2.10336328125,-5.23311328125,-4.686375,-6.35173828125,-3.56497265625,-2.70103515625,1.51518359375,-3.41092578125,-2.848,2.9072578125,2.0666796875,0.95715234375,0.3737265625,2.36553125,1.10460546875,2.551359375,-0.37785546875,0.93297265625,1.47676171875
4.12233984375,1.777921875,-1.0368828125,5.55140234375,3.87832421875,4.416765625,1.378296875,2.692625,5.13144921875,1.00745703125,-2.3275859375,1.93936328125,-7.02311328125,-3.344375,-4.30573828125,-1.69997265625,2.23996484375,1.15318359375,-1.47192578125,0.431000000000001,5.0292578125,0.4496796875,1.90215234375,1.8557265625,4.65553125,3.16960546875,3.686359375,-0.49785546875,1.85097265625,1.76476171875
5.12033984375,2.774921875,-0.303882812499999,4.64740234375,5.98532421875,6.418765625,2.307296875,2.000625,6.77644921875,3.56245703125,0.279414062500002,2.55036328125,-8.59011328125,-1.715375,-2.02773828125,0.26202734375,6.20296484375,1.40818359375,0.47307421875,3.17,6.6262578125,-0.4963203125,2.86715234375,3.0697265625,6.37753125,4.79260546875,4.842359375,0.0531445312499996,2.77397265625,1.85576171875
6.49033984375,3.837921875,1.0121171875,5.06440234375,8.10032421875,8.584765625,4.154296875,2.980625,8.12544921875,5.80945703125,2.6004140625,3.70136328125,-9.46811328125,-0.0963749999999997,0.22626171875,2.03802734375,8.75396484375,2.14118359375,2.19007421875,5.166,7.6122578125,-0.6053203125,3.75915234375,3.9077265625,7.45353125,6.00960546875,5.967359375,1.30114453125,3.78597265625,1.90676171875
7.74633984375,4.704921875,2.5161171875,5.96540234375,9.79032421875,10.311765625,6.214296875,4.832625,8.86244921875,7.36345703125,4.2504140625,4.85536328125,-9.21311328125,1.074625,2.08426171875,3.26102734375,9.70596484375,2.94418359375,3.37307421875,6.328,8.0472578125,0.0576796874999999,4.40815234375,4.3087265625,7.94553125,6.98060546875,6.936359375,2.96314453125,4.89897265625,2.13076171875
8.46733984375,5.169921875,3.7451171875,6.48140234375,10.69732421875,11.139765625,7.856296875,6.612625,8.88844921875,8.02345703125,5.0154140625,5.44736328125,-7.86611328125,1.483625,3.27326171875,3.70702734375,9.28596484375,3.32518359375,3.79707421875,6.708,8.0972578125,1.1416796875,4.59515234375,4.2677265625,7.98353125,7.86860546875,7.559359375,4.47914453125,5.92597265625,2.61476171875
8.53533984375,5.211921875,4.3631171875,6.18940234375,10.76032421875,11.058765625,8.855296875,7.656625,8.42844921875,7.95745703125,5.0204140625,5.15636328125,-6.10911328125,1.164625,3.80926171875,3.44302734375,8.12796484375,2.97218359375,3.47307421875,6.523,7.9712578125,2.1096796875,4.17115234375,3.8587265625,7.71053125,8.75960546875,7.661359375,5.22714453125,6.51997265625,3.24876171875
8.19833984375,5.043921875,4.3101171875,5.29040234375,10.32332421875,10.561765625,9.413296875,7.783625,7.94644921875,7.71145703125,4.7344140625,4.06636328125,-4.87311328125,0.546625,4.04126171875,2.83902734375,7.03796484375,1.98218359375,2.72807421875,6.137,7.8882578125,2.4926796875,3.22215234375,3.2627265625,7.30353125,9.68560546875,7.235359375,4.86514453125,6.40597265625,3.82576171875
7.96033984375,5.062921875,3.8591171875,4.44540234375,10.03632421875,10.445765625,9.970296875,7.303625,7.93744921875,8.01245703125,4.7954140625,2.67736328125,-4.63411328125,0.305625,4.52926171875,2.41602734375,6.68696484375,0.89618359375,2.15107421875,5.991,8.0512578125,2.1616796875,2.14815234375,2.7877265625,6.99253125,10.66860546875,6.531359375,3.59214453125,5.64497265625,4.22876171875
8.33933984375,5.680921875,3.5581171875,4.40240234375,10.59232421875,11.433765625,10.924296875,6.862625,8.71144921875,9.43945703125,5.7404140625,1.74236328125,-4.95411328125,1.061625,5.78026171875,2.63202734375,7.36796484375,0.49118359375,2.36407421875,6.455,8.5942578125,1.4116796875,1.54315234375,2.7857265625,7.02153125,11.73660546875,5.990359375,2.13014453125,4.68997265625,4.53476171875
9.59533984375,7.106921875,4.0151171875,5.61040234375,12.36232421875,13.800765625,12.416296875,7.153625,10.26344921875,12.12245703125,7.7434140625,1.95236328125,-4.70411328125,3.062625,7.97226171875,3.67002734375,8.92496484375,1.37818359375,3.71607421875,7.641,9.5132578125,0.8016796875,1.90615234375,3.4797265625,7.52353125,12.83760546875,6.004359375,1.36414453125,4.14397265625,4.91876171875
11.56133984375,9.180921875,5.5511171875,7.96940234375,15.14832421875,17.148765625,14.232296875,8.531625,12.24644921875,15.61145703125,10.4874140625,3.56636328125,-2.90111328125,6.003625,10.78526171875,5.33402734375,10.84196484375,3.62218359375,6.05107421875,9.299,10.5882578125,0.8236796875,3.31615234375,4.7667265625,8.38453125,13.72060546875,6.648359375,1.82814453125,4.36897265625,5.44176171875
13.67433984375,11.365921875,7.9151171875,10.84640234375,18.18632421875,20.505765625,15.884296875,10.729625,14.08744921875,19.01145703125,13.2554140625,6.19536328125,0.43888671875,9.103625,13.47226171875,7.08402734375,12.44696484375,6.61118359375,8.68707421875,10.852,11.3852578125,1.6036796875,5.29015234375,6.1477265625,9.20153125,13.91460546875,7.556359375,3.36614453125,5.21097265625,5.89076171875
15.21233984375,12.945921875,10.3031171875,13.38240234375,20.45932421875,22.734765625,16.840296875,12.902625,15.19244921875,21.33245703125,15.2194140625,8.90836328125,4.11388671875,11.416625,15.16026171875,8.26402734375,13.13896484375,9.28318359375,10.65807421875,11.62,11.3752578125,2.8106796875,6.93915234375,6.8747265625,9.41353125,12.90360546875,8.063359375,5.19514453125,6.04897265625,5.83676171875
15.62833984375,13.366921875,11.7441171875,14.90640234375,21.17232421875,23.078765625,16.797296875,14.030625,15.19544921875,21.90745703125,15.8244140625,10.67736328125,6.39988671875,12.247625,15.26926171875,8.40902734375,12.55696484375,10.61218359375,11.13307421875,11.135,10.1902578125,3.8366796875,7.38015234375,6.3097265625,8.57353125,10.43360546875,7.571359375,6.33214453125,6.15497265625,4.89876171875
14.80333984375,12.520921875,11.6301171875,15.22040234375,20.14232421875,21.520765625,15.870296875,13.463625,14.11144921875,20.68645703125,15.0554140625,10.90736328125,6.13088671875,11.454625,13.80426171875,7.48902734375,10.71296484375,10.09418359375,9.82707421875,9.414,7.8592578125,4.1546796875,6.20515234375,4.2957265625,6.62353125,6.76560546875,5.929359375,6.14814453125,5.15197265625,3.04576171875
13.09833984375,10.832921875,10.0741171875,14.60640234375,17.87632421875,18.765765625,14.553296875,11.311625,12.36144921875,18.22745703125,13.4214140625,9.74236328125,3.44088671875,9.493625,11.36926171875,5.93002734375,8.06496484375,7.98218359375,7.15107421875,6.985,4.8972578125,3.6446796875,3.72615234375,1.3077265625,3.98953125,2.68760546875,3.582359375,4.70614453125,3.27097265625,0.71576171875
11.17333984375,9.051921875,7.8571171875,13.61040234375,15.26932421875,15.865765625,13.459296875,8.455625,10.59644921875,15.38245703125,11.6614140625,7.94736328125,-0.27411328125,7.175625,8.84326171875,4.38302734375,5.44296484375,5.17018359375,4.01107421875,4.639,2.1392578125,2.6606796875,0.85115234375,-1.7372734375,1.40653125,-0.787394531249999,1.364359375,2.69414453125,1.24197265625,-1.34623828125
9.66433984375,7.869921875,5.9891171875,12.74840234375,13.10832421875,13.687765625,12.969296875,6.134625,9.41444921875,12.85145703125,10.3314140625,6.45836328125,-3.07211328125,5.266625,6.91126171875,3.37402734375,3.74096484375,2.77818359375,1.36507421875,3.012,0.3722578125,1.7996796875,-1.36684765625,-3.9322734375,-0.44146875,-2.86139453125,0.0353593750000005,1.00714453125,-0.14002734375,-2.45823828125
8.88333984375,7.561921875,5.1431171875,12.28340234375,11.67232421875,12.519765625,13.024296875,5.286625,9.06844921875,10.86845703125,9.5194140625,5.87936328125,-3.41711328125,4.143625,5.74726171875,3.04102734375,3.46896484375,1.64618359375,-0.19692578125,2.299,-0.0347421875,1.5456796875,-2.23584765625,-4.7992734375,-1.23746875,-3.31539453125,-0.131640624999999,0.21114453125,-0.47302734375,-2.36823828125
8.71033984375,7.882921875,5.3111171875,12.15040234375,10.67532421875,12.020765625,13.193296875,6.042625,9.37344921875,9.22245703125,8.8764140625,6.22536328125,-0.87111328125,3.706625,5.02626171875,3.12202734375,4.42896484375,1.99318359375,-0.61292578125,2.253,0.7152578125,2.0226796875,-1.68884765625,-4.4392734375,-1.11646875,-2.57639453125,0.534359375,0.25714453125,0.0479726562499998,-1.39023828125
8.73733984375,8.264921875,5.8971171875,12.06040234375,9.55232421875,11.527765625,12.964296875,7.706625,9.85844921875,7.55345703125,7.9194140625,7.04636328125,3.79088671875,3.564625,4.25326171875,3.19702734375,5.78796484375,3.41518359375,-0.19992578125,2.463,2.0092578125,3.0126796875,-0.18984765625,-3.3302734375,-0.48146875,-1.43939453125,1.366359375,0.60114453125,0.80497265625,-0.21923828125
8.54933984375,8.178921875,6.1681171875,11.72440234375,7.89932421875,10.517765625,12.073296875,9.233625,10.07044921875,5.70345703125,6.4104140625,7.77836328125,8.97888671875,3.374625,3.16526171875,3.01602734375,6.56596484375,5.19318359375,0.65007421875,2.675,3.2022578125,4.1686796875,1.62715234375,-1.9562734375,0.298531249999999,-0.60039453125,1.793359375,0.64614453125,1.17397265625,0.48076171875
7.96033984375,7.427921875,5.7211171875,11.03540234375,5.76132421875,8.916765625,10.664296875,9.848625,9.80944921875,3.87245703125,4.5644140625,8.06136328125,12.93488671875,3.075625,1.93726171875,2.69302734375,6.24296484375,6.71718359375,1.72507421875,2.959,3.9692578125,5.2626796875,3.33115234375,-0.5032734375,1.11753125,-0.295394531249999,1.689359375,0.17814453125,0.92997265625,0.46076171875
7.08333984375,6.222921875,4.6611171875,10.11640234375,3.63732421875,7.096765625,9.189296875,9.399625,9.19844921875,2.52345703125,2.9594140625,7.85636328125,14.34588671875,2.915625,1.08426171875,2.63502734375,5.06196484375,7.76318359375,3.06707421875,3.651,4.4382578125,6.3076796875,4.87715234375,1.1957265625,2.17253125,-0.22939453125,1.445359375,-0.47585546875,0.40297265625,0.0317617187500001
6.23033984375,5.028921875,3.4521171875,9.22140234375,2.18832421875,5.611765625,8.151296875,8.300625,8.56444921875,2.09045703125,2.2254140625,7.37336328125,12.78688671875,3.275625,1.15126171875,3.28802734375,3.81496484375,8.53318359375,4.85907421875,5.113,5.0432578125,7.5136796875,6.54115234375,3.4967265625,3.79253125,0.18460546875,1.754359375,-0.60485546875,0.31297265625,-0.10223828125
5.70933984375,4.287921875,2.5871171875,8.61040234375,1.85932421875,4.859765625,7.816296875,7.202625,8.21544921875,2.68145703125,2.6774140625,6.90736328125,8.91188671875,4.412625,2.36126171875,4.86002734375,3.33496484375,9.44618359375,7.20407421875,7.47,6.2242578125,9.1156796875,8.66415234375,6.6517265625,6.18353125,1.46060546875,3.244359375,0.52414453125,1.40197265625,0.78876171875
5.64533984375,4.186921875,2.3141171875,8.42640234375,2.59232421875,4.864765625,8.059296875,6.615625,8.21344921875,3.93145703125,4.0984140625,6.69036328125,4.27688671875,6.257625,4.43526171875,7.16702734375,4.03996484375,10.82518359375,9.94207421875,10.455,8.1482578125,11.1936796875,11.37815234375,10.5767265625,9.23253125,3.73360546875,6.144359375,3.29114453125,4.02697265625,3.06076171875
5.90633984375,4.572921875,2.5591171875,8.61440234375,3.83232421875,5.264765625,8.431296875,6.682625,8.30844921875,5.14145703125,5.7984140625,6.79536328125,0.77688671875,8.387625,6.67626171875,9.68402734375,5.78496484375,12.64418359375,12.61907421875,13.465,10.5762578125,13.5586796875,14.45415234375,14.7807265625,12.47853125,6.65260546875,10.131359375,7.49014453125,7.93797265625,6.46176171875
6.17733984375,5.049921875,3.0491171875,8.93240234375,4.80632421875,5.526765625,8.408296875,7.195625,8.08544921875,5.61945703125,6.9314140625,7.13536328125,-0.11411328125,10.196625,8.28826171875,11.75602734375,8.00696484375,14.48718359375,14.65607421875,15.782,12.9562578125,15.7896796875,17.34815234375,18.5107265625,15.27853125,9.49760546875,14.427359375,12.36014453125,12.32997265625,10.19676171875
6.14433984375,5.218921875,3.5231171875,9.06340234375,4.92232421875,5.240765625,7.702296875,7.822625,7.26544921875,5.04645703125,6.9044140625,7.54036328125,2.01588671875,11.193625,8.75326171875,12.87902734375,10.01896484375,15.75818359375,15.60007421875,16.853,14.6702578125,17.3736796875,19.41115234375,21.0277265625,17.05753125,11.49360546875,18.093359375,16.85514453125,16.15497265625,13.26776171875
5.67933984375,4.901921875,3.8791171875,8.81540234375,4.05232421875,4.344765625,6.412296875,8.356625,5.93244921875,3.62845703125,5.6624140625,7.87336328125,6.33388671875,11.213625,8.03926171875,12.89702734375,11.30796484375,15.98618359375,15.31607421875,16.482,15.3232578125,17.9076796875,20.14715234375,21.8857265625,17.52953125,12.17860546875,20.380359375,20.03814453125,18.54197265625,14.93076171875
4.90833984375,4.240921875,4.1551171875,8.23640234375,2.56032421875,3.121765625,4.941296875,8.803625,4.49344921875,1.96945703125,3.6734140625,8.10136328125,11.11588671875,10.449625,6.55726171875,12.01802734375,11.73896484375,15.05818359375,14.02907421875,14.865,14.9092578125,17.2606796875,19.41015234375,21.0687265625,16.77153125,11.63960546875,20.969359375,21.41214453125,19.14397265625,15.03076171875
4.13833984375,3.582921875,4.4081171875,7.57940234375,1.06532421875,2.018765625,3.739296875,9.268625,3.42044921875,0.748457031249998,1.6644140625,8.28036328125,14.47588671875,9.278625,4.91626171875,10.65502734375,11.58396484375,13.22618359375,12.19307421875,12.468,13.7652578125,15.6186796875,17.42815234375,18.9377265625,15.13653125,10.45460546875,20.006359375,21.01714453125,18.20497265625,14.00376171875
3.67733984375,3.265921875,4.6231171875,7.12740234375,0.10932421875,1.406765625,3.082296875,9.799625,2.96044921875,0.376457031249998,0.263414062500002,8.48736328125,15.07088671875,8.027625,3.63826171875,9.21402734375,11.33496484375,10.92318359375,10.26507421875,9.818,12.3762578125,13.3546796875,14.65915234375,16.0287265625,13.04253125,9.36660546875,17.910359375,19.26614453125,16.32597265625,12.56176171875
3.68933984375,3.424921875,4.7471171875,7.01940234375,-0.0676757812499993,1.440765625,3.018296875,10.350625,3.04244921875,0.843457031249999,-0.214585937499998,8.76136328125,12.52288671875,6.851625,2.99826171875,7.96902734375,11.39996484375,8.56018359375,8.52607421875,7.329,11.1462578125,10.8126796875,11.57115234375,12.8367265625,10.79453125,8.89460546875,15.110359375,16.63614453125,14.06997265625,11.26176171875
4.15733984375,3.992921875,4.8121171875,7.21840234375,0.480324218750001,2.077765625,3.479296875,10.870625,3.41944921875,1.85145703125,0.244414062500002,9.12436328125,7.51888671875,5.785625,3.04626171875,7.08302734375,11.89396484375,6.44418359375,7.06007421875,5.262,10.2942578125,8.1586796875,8.50115234375,9.6987265625,8.57353125,9.14360546875,11.887359375,13.42914453125,11.69497265625,10.24076171875
4.96533984375,4.820921875,5.0271171875,7.63040234375,1.58732421875,3.191765625,4.434296875,11.408625,3.92744921875,3.10345703125,1.5224140625,9.64836328125,1.68088671875,4.899625,3.74426171875,6.70502734375,12.69196484375,4.81518359375,5.88107421875,3.82,9.8822578125,5.4166796875,5.65615234375,6.8187265625,6.53953125,9.85860546875,8.388359375,9.74414453125,9.15197265625,9.24576171875
6.02233984375,5.828921875,5.7451171875,8.25840234375,3.17032421875,4.675765625,5.946296875,12.125625,4.63344921875,4.52745703125,3.5014140625,10.46936328125,-2.83311328125,4.399625,5.06226171875,7.01002734375,13.59496484375,3.88518359375,5.05107421875,3.197,9.8812578125,2.6376796875,3.18015234375,4.3487265625,4.90053125,10.62360546875,4.754359375,5.64414453125,6.29297265625,7.89776171875
7.30033984375,7.026921875,7.2761171875,9.20340234375,5.25232421875,6.453765625,8.076296875,13.210625,5.77344921875,6.25345703125,6.0444140625,11.69836328125,-4.06911328125,4.562625,6.94826171875,8.11202734375,14.40696484375,3.79318359375,4.68507421875,3.524,10.1892578125,0.0376796874999998,1.19815234375,2.4287265625,3.84753125,11.03560546875,1.227359375,1.35514453125,3.10497265625,5.98376171875
8.76633984375,8.425921875,9.6601171875,10.51240234375,7.83132421875,8.404765625,10.709296875,14.730625,7.52544921875,8.40145703125,8.8894140625,13.27936328125,-1.21111328125,5.560625,9.21826171875,9.90702734375,14.88196484375,4.50618359375,4.85007421875,4.721,10.6032578125,-2.0083203125,-0.18884765625,1.1497265625,3.40853125,10.79160546875,-1.846640625,-2.67085546875,-0.18802734375,3.60776171875
10.29733984375,9.926921875,12.5211171875,12.02740234375,10.72832421875,10.288765625,13.462296875,16.503625,9.79744921875,10.87345703125,11.5734140625,14.89336328125,4.80688671875,7.316625,11.48226171875,11.96602734375,14.70196484375,5.79718359375,5.46907421875,6.405,10.8042578125,-3.1153203125,-0.94484765625,0.4967265625,3.35853125,9.72060546875,-4.120640625,-5.86685546875,-3.17502734375,1.13976171875
11.65433984375,11.286921875,15.1391171875,13.40840234375,13.54132421875,11.769765625,15.764296875,18.091625,12.17044921875,13.30945703125,13.5264140625,16.02336328125,11.53388671875,9.473625,13.22726171875,13.59902734375,13.61596484375,7.31518359375,6.30207421875,7.953,10.3982578125,-3.1003203125,-1.12284765625,0.3027265625,3.25253125,7.79260546875,-5.388640625,-7.77485546875,-5.43602734375,-0.99023828125
12.55033984375,12.181921875,16.7211171875,14.33940234375,15.76232421875,12.548765625,17.082296875,18.962625,14.06644921875,15.22545703125,14.2904140625,16.15536328125,16.10288671875,11.528625,14.00226171875,14.09602734375,11.58396484375,8.72818359375,7.02407421875,8.689,9.0442578125,-2.0953203125,-0.86084765625,0.2797265625,2.57853125,5.10460546875,-5.699640625,-8.24685546875,-6.74402734375,-2.53223828125
12.76433984375,12.338921875,16.7621171875,14.71840234375,16.96232421875,12.495765625,17.166296875,18.723625,15.02144921875,16.22245703125,13.7294140625,15.01236328125,16.67088671875,13.010625,13.60326171875,13.01502734375,8.80896484375,9.80618359375,7.34907421875,8.133,6.5802578125,-0.5093203125,-0.35584765625,0.0897265625000001,0.952531249999999,1.83760546875,-5.369640625,-7.52085546875,-7.17502734375,-3.54823828125
12.23233984375,11.666921875,15.2851171875,14.66140234375,16.98132421875,11.700765625,16.151296875,17.301625,14.89544921875,16.16345703125,12.1124140625,12.71036328125,13.39488671875,13.635625,12.16126171875,10.39502734375,5.64096484375,10.43318359375,7.14807421875,6.204,3.1282578125,1.1756796875,0.19315234375,-0.5252734375,-1.69446875,-1.80539453125,-4.862640625,-6.12485546875,-7.06102734375,-4.35923828125
11.08333984375,10.340921875,12.8551171875,14.36640234375,15.98932421875,10.428765625,14.495296875,14.999625,13.89744921875,15.21745703125,10.0114140625,9.75736328125,8.39288671875,13.378625,10.10926171875,6.80102734375,2.50896484375,10.56518359375,6.51007421875,3.298,-0.8797421875,2.6316796875,0.65415234375,-1.6152734375,-5.02446875,-5.59839453125,-4.585640625,-4.64885546875,-6.80902734375,-5.32923828125
9.61533984375,8.785921875,10.3511171875,13.99840234375,14.41932421875,9.030765625,12.774296875,12.440625,12.43844921875,13.77445703125,8.0914140625,6.90736328125,4.63888671875,12.451625,8.03026171875,3.17102734375,-0.0920351562500006,10.22718359375,5.69207421875,0.182,-4.7637421875,3.7816796875,1.00015234375,-2.9582734375,-8.36346875,-9.23639453125,-4.702640625,-3.52785546875,-6.71902734375,-6.63623828125
8.20133984375,7.536921875,8.6101171875,13.64240234375,12.78332421875,7.834765625,11.433296875,10.378625,10.92244921875,12.27345703125,6.8814140625,4.90536328125,4.40088671875,11.210625,6.46126171875,0.51002734375,-1.65003515625,9.54418359375,5.00407421875,-2.261,-7.7447421875,4.7316796875,1.31415234375,-4.1132734375,-10.89046875,-12.28739453125,-5.058640625,-2.88785546875,-6.86802734375,-8.13623828125
7.15633984375,7.025921875,8.1041171875,13.29940234375,11.48532421875,7.057765625,10.608296875,9.415625,9.59144921875,11.05145703125,6.6294140625,4.23436328125,8.05988671875,10.027625,5.72626171875,-0.44897265625,-1.81003515625,8.76618359375,4.69307421875,-3.319,-9.1417421875,5.6206796875,1.75515234375,-4.5782734375,-11.89146875,-14.20639453125,-5.232640625,-2.54285546875,-7.08102734375,-9.39223828125
6.61133984375,7.366921875,8.7901171875,12.88740234375,10.69532421875,6.733765625,10.114296875,9.744625,8.49244921875,10.23845703125,7.2644140625,4.95836328125,13.99788671875,9.153625,5.86026171875,0.50802734375,-0.55403515625,8.20918359375,4.86207421875,-2.672,-8.5777421875,6.4996796875,2.48915234375,-3.9912734375,-10.96546875,-14.48139453125,-4.721640625,-2.08485546875,-6.99102734375,-9.84823828125
6.46533984375,8.273921875,10.1831171875,12.26340234375,10.31632421875,6.709765625,9.615296875,11.043625,7.53244921875,9.71745703125,8.4464140625,6.69236328125,19.54388671875,8.616625,6.61526171875,3.02502734375,1.72396484375,8.10818359375,5.42907421875,-0.502999999999999,-6.1427421875,7.2946796875,3.59115234375,-2.3112734375,-8.16346875,-12.87039453125,-3.182640625,-1.05785546875,-6.18102734375,-9.06423828125
6.42133984375,9.159921875,11.5751171875,11.30740234375,10.02932421875,6.689765625,8.862296875,12.609625,6.57344921875,9.16645703125,9.6634140625,8.72736328125,22.34388671875,8.204625,7.53026171875,6.28802734375,4.31996484375,8.45018359375,6.10507421875,2.53,-2.4347421875,7.8436796875,4.94615234375,0.1127265625,-4.01746875,-9.59739453125,-0.648640625,0.84714453125,-4.38902734375,-6.92423828125
6.11133984375,9.395921875,12.2891171875,10.01240234375,9.44532421875,6.345765625,7.847296875,13.623625,5.50744921875,8.18545703125,10.3754140625,10.25036328125,21.36488671875,7.550625,8.06526171875,9.29102734375,6.44096484375,8.91618359375,6.46407421875,5.494,1.5772578125,7.9876796875,6.23415234375,2.6337265625,0.573531249999999,-5.35339453125,2.421359375,3.65314453125,-1.65902734375,-3.70923828125
5.26233984375,8.605921875,11.8821171875,8.50940234375,8.29232421875,5.437765625,6.768296875,13.454625,4.28444921875,6.50645703125,10.1694140625,10.62336328125,17.10688671875,6.320625,7.76126171875,11.12702734375,7.42096484375,8.98818359375,6.08907421875,7.476,4.8702578125,7.6606796875,7.02015234375,4.5317265625,4.61353125,-1.06639453125,5.288359375,7.05814453125,1.63097265625,0.0047617187500002
3.82333984375,6.837921875,10.2631171875,7.00840234375,6.56332421875,3.914765625,5.841296875,11.902625,2.92444921875,4.13945703125,8.8734140625,9.58936328125,11.10688671875,4.389625,6.37426171875,11.24102734375,6.88796484375,8.18218359375,4.73107421875,7.86,6.7172578125,6.9366796875,6.92015234375,5.2497265625,7.29053125,2.43060546875,7.209359375,10.51614453125,4.85997265625,3.53376171875
1.99333984375,4.501921875,7.7211171875,5.69240234375,4.50932421875,1.942765625,5.101296875,9.273625,1.50044921875,1.37245703125,6.5694140625,7.34536328125,5.15188671875,1.915625,3.93526171875,9.54502734375,4.91096484375,6.29518359375,2.40107421875,6.455,6.9012578125,5.9816796875,5.74615234375,4.5577265625,8.16853125,4.65160546875,7.696359375,13.38814453125,7.33797265625,6.27876171875
0.114339843750001,2.142921875,4.8191171875,4.60440234375,2.48932421875,-0.196234374999998,4.310296875,6.246625,0.11444921875,-1.38554296875,3.5264140625,4.40636328125,0.61288671875,-0.725375,0.71626171875,6.37002734375,2.07796484375,3.52518359375,-0.63192578125,3.485,5.6942578125,4.9676796875,3.59215234375,2.5737265625,7.23653125,5.53160546875,6.660359375,15.09514453125,8.50197265625,7.85476171875
-1.49366015625,0.188921875,2.1851171875,3.62640234375,0.784324218749999,-2.244234375,3.074296875,3.547625,-1.11255078125,-3.78954296875,0.0974140625000013,1.38636328125,-1.87911328125,-3.075375,-2.84773828125,2.32602734375,-0.63603515625,0.43918359375,-3.91592578125,-0.515999999999999,3.6612578125,3.9906796875,0.82115234375,-0.3032734375,4.85353125,5.33160546875,4.398359375,15.23314453125,8.09297265625,8.14976171875
-2.63366015625,-1.169078125,0.295117187500001,2.58840234375,-0.48567578125,-4.046234375,1.128296875,1.674625,-2.03655078125,-5.63354296875,-3.3205859375,-1.19063671875,-2.40311328125,-4.730375,-6.22473828125,-1.84697265625,-2.28603515625,-2.20981640625,-6.92092578125,-4.826,1.4102578125,3.0426796875,-2.03684765625,-3.5122734375,1.62653125,4.46960546875,1.452359375,13.64214453125,6.24197265625,7.31476171875
-3.24166015625,-1.931078125,-0.6418828125,1.45440234375,-1.32267578125,-5.509234375,-1.409703125,0.787624999999999,-2.50255078125,-6.83254296875,-6.2965859375,-2.96063671875,-1.49411328125,-5.448375,-8.87073828125,-5.41297265625,-2.46803515625,-3.76081640625,-9.18392578125,-8.688,-0.5867421875,2.0196796875,-4.47184765625,-6.4942734375,-1.76046875,3.34860546875,-1.615640625,10.43014453125,3.37397265625,5.65276171875
-3.33966015625,-2.177078125,-0.707882812499999,0.417402343749998,-1.77967578125,-6.531234375,-4.003703125,0.767625,-2.42455078125,-7.36554296875,-8.3935859375,-3.73763671875,0.16588671875,-5.248375,-10.36473828125,-7.77297265625,-1.55203515625,-3.92981640625,-10.47592578125,-11.487,-2.0857421875,0.7336796875,-6.21484765625,-8.8662734375,-4.75146875,2.21060546875,-4.434640625,5.90814453125,-0.03402734375,3.44676171875
-3.00666015625,-2.001078125,-0.209882812499999,-0.211597656250001,-1.93067578125,-7.003234375,-5.948703125,1.304625,-1.91855078125,-7.28154296875,-9.2795859375,-3.53963671875,1.94888671875,-4.457375,-10.56673828125,-8.60897265625,-0.425035156250001,-2.98481640625,-10.90192578125,-12.931,-3.0617421875,-1.0463203125,-7.37984765625,-10.5512734375,-7.07246875,1.09660546875,-6.947640625,0.47314453125,-3.67702734375,0.82376171875
-2.36066015625,-1.507078125,0.425117187500001,-0.227597656250001,-1.87667578125,-6.879234375,-6.701703125,2.005625,-1.33355078125,-6.71354296875,-8.8715859375,-2.60463671875,3.33688671875,-3.633375,-9.68573828125,-7.98397265625,0.0659648437499998,-1.69881640625,-10.86892578125,-13.111,-3.6337421875,-3.4913203125,-8.40584765625,-11.7642734375,-8.74446875,-0.0743945312499994,-9.339640625,-5.47485546875,-7.46402734375,-2.21523828125
-1.53366015625,-0.822078125,0.801117187500001,0.33140234375,-1.73167578125,-6.228234375,-6.109703125,2.546625,-1.09455078125,-5.88354296875,-7.4085859375,-1.32663671875,3.90488671875,-3.325375,-8.20173828125,-6.31497265625,-0.40803515625,-1.03081640625,-10.88692578125,-12.429,-3.9597421875,-6.5743203125,-9.80284765625,-12.8432734375,-9.96946875,-1.36639453125,-11.814640625,-11.49785546875,-11.34202734375,-5.61423828125
-0.654660156249999,-0.096078125,0.698117187500001,1.20540234375,-1.60567578125,-5.235234375,-4.453703125,2.796625,-1.43555078125,-5.06654296875,-5.4125859375,-0.12963671875,3.31288671875,-3.811375,-6.68573828125,-4.23897265625,-1.55803515625,-1.69781640625,-11.32792578125,-11.416,-4.1627421875,-9.9863203125,-11.84084765625,-14.0152734375,-10.94046875,-2.71739453125,-14.371640625,-17.03385546875,-15.06302734375,-9.08423828125
0.14133984375,0.519921875,0.121117187500001,2.03640234375,-1.58367578125,-4.180234375,-2.369703125,2.841625,-2.22855078125,-4.54554296875,-3.5425859375,0.67236328125,1.39688671875,-4.989375,-5.60773828125,-2.42097265625,-2.74703515625,-3.84981640625,-12.26592578125,-10.536,-4.3027421875,-13.1943203125,-14.36884765625,-15.2502734375,-11.71346875,-3.95039453125,-16.710640625,-21.38385546875,-18.11102734375,-12.08523828125
0.694339843750001,0.888921875,-0.754882812499999,2.48340234375,-1.73367578125,-3.398234375,-0.679703125,2.882625,-3.04555078125,-4.55954296875,-2.3915859375,0.94936328125,-1.68711328125,-6.472375,-5.21973828125,-1.37397265625,-3.41403515625,-7.03181640625,-13.46092578125,-10.056,-4.4067421875,-15.6293203125,-16.86084765625,-16.2712734375,-12.19046875,-4.86239453125,-18.342640625,-23.86485546875,-19.86202734375,-14.00723828125
0.83933984375,0.918921875,-1.6808828125,2.31940234375,-2.10767578125,-3.201234375,-0.0977031249999989,3.097625,-3.42755078125,-5.24054296875,-2.2925859375,0.74936328125,-5.35811328125,-7.816375,-5.52873828125,-1.34297265625,-3.35803515625,-10.38881640625,-14.49992578125,-10.017,-4.4947421875,-16.9083203125,-18.65384765625,-16.7072734375,-12.24146875,-5.33639453125,-18.824640625,-24.07185546875,-19.88702734375,-14.45323828125
0.469339843749999,0.574921875,-2.4268828125,1.48440234375,-2.74067578125,-3.769234375,-0.913703125,3.539625,-3.18955078125,-6.56954296875,-3.2265859375,0.21736328125,-8.68511328125,-8.728375,-6.35173828125,-2.28197265625,-2.75303515625,-13.02181640625,-15.00292578125,-10.312,-4.6377421875,-16.9683203125,-19.25084765625,-16.3002734375,-11.87346875,-5.43939453125,-17.996640625,-22.09585546875,-18.21502734375,-13.46823828125
-0.41266015625,-0.130078125,-2.8698828125,0.07140234375,-3.62867578125,-5.084234375,-2.838703125,4.073625,-2.58455078125,-8.36054296875,-4.8665859375,-0.52263671875,-10.67711328125,-9.173375,-7.42973828125,-3.93297265625,-1.99703515625,-14.32381640625,-14.78592578125,-10.81,-4.9817421875,-16.0353203125,-18.52684765625,-15.0562734375,-11.33146875,-5.44039453125,-16.084640625,-18.55385546875,-15.38302734375,-11.56723828125
-1.68566015625,-1.148078125,-3.0448828125,-1.73559765625,-4.70067578125,-6.933234375,-5.138703125,4.385625,-2.21355078125,-10.29954296875,-6.7325859375,-1.43963671875,-10.71611328125,-9.338375,-8.52373828125,-5.95897265625,-1.56303515625,-14.14681640625,-13.90892578125,-11.424,-5.7347421875,-14.4793203125,-16.73684765625,-13.2512734375,-11.02146875,-5.72239453125,-13.614640625,-14.38985546875,-12.21702734375,-9.52523828125
-3.14466015625,-2.391078125,-3.1008828125,-3.70959765625,-5.81567578125,-8.960234375,-6.982703125,4.121625,-2.70455078125,-12.02754296875,-8.3565859375,-2.54663671875,-8.88111328125,-9.486375,-9.45873828125,-8.02397265625,-1.92403515625,-12.76581640625,-12.59192578125,-12.096,-7.0557421875,-12.6483203125,-14.35384765625,-11.2962734375,-11.30646875,-6.60739453125,-11.174640625,-10.53385546875,-9.48202734375,-8.02923828125
-4.55266015625,-3.714078125,-3.1828828125,-5.57459765625,-6.78667578125,-10.750234375,-7.796703125,3.124625,-4.35755078125,-13.24154296875,-9.3845859375,-3.77463671875,-5.91611328125,-9.773375,-10.08873828125,-9.80597265625,-3.43003515625,-10.67881640625,-11.07192578125,-12.726,-8.9067421875,-10.7883203125,-11.83284765625,-9.5262734375,-12.27046875,-8.18639453125,-9.178640625,-7.57385546875,-7.59302734375,-7.39023828125
-5.68466015625,-4.887078125,-3.3098828125,-6.98559765625,-7.42767578125,-11.918234375,-7.438703125,1.592625,-6.92255078125,-13.75654296875,-9.5915859375,-4.86863671875,-2.82111328125,-10.145375,-10.26073828125,-10.97797265625,-6.10703515625,-8.37981640625,-9.48092578125,-13.092,-10.9607421875,-9.0143203125,-9.44484765625,-8.0492734375,-13.61446875,-10.23139453125,-7.712640625,-5.60485546875,-6.51802734375,-7.45323828125
-6.37466015625,-5.639078125,-3.3578828125,-7.57859765625,-7.62067578125,-12.231234375,-6.186703125,0.0176249999999998,-9.65655078125,-13.52654296875,-8.8845859375,-5.43163671875,-0.34411328125,-10.353375,-9.81973828125,-11.24097265625,-9.49403515625,-6.22681640625,-7.82692578125,-12.878,-12.6627421875,-7.3123203125,-7.24084765625,-6.7372734375,-14.73446875,-12.24739453125,-6.564640625,-4.29885546875,-5.88802734375,-7.74223828125
-6.55666015625,-5.766078125,-3.1528828125,-7.12259765625,-7.37067578125,-11.693234375,-4.556703125,-1.058375,-11.63955078125,-12.66054296875,-7.3275859375,-5.11263671875,1.28788671875,-10.123375,-8.69273828125,-10.42597265625,-12.69803515625,-4.44381640625,-6.07392578125,-11.821,-13.4457421875,-5.6003203125,-5.15384765625,-5.3692734375,-14.98546875,-13.66139453125,-5.409640625,-3.16385546875,-5.25002734375,-7.73623828125
-6.28266015625,-5.247078125,-2.5968828125,-5.68959765625,-6.82167578125,-10.546234375,-3.067703125,-1.291375,-12.21355078125,-11.41954296875,-5.1765859375,-3.82063671875,2.23188671875,-9.345375,-7.01773828125,-8.60597265625,-14.72503515625,-3.16281640625,-4.30592578125,-9.917,-12.9927421875,-3.8343203125,-3.16284765625,-3.8412734375,-14.00846875,-14.06339453125,-4.036640625,-1.84385546875,-4.31002734375,-7.13223828125
-5.70366015625,-4.285078125,-1.7508828125,-3.71659765625,-6.21467578125,-9.167234375,-2.042703125,-0.679375,-11.31155078125,-10.18354296875,-2.8535859375,-1.82363671875,2.67888671875,-8.195375,-5.18473828125,-6.13897265625,-14.91703515625,-2.46481640625,-2.79692578125,-7.522,-11.3907421875,-2.1213203125,-1.39084765625,-2.2722734375,-11.91446875,-13.37039453125,-2.490640625,-0.28285546875,-3.05402734375,-5.94723828125
-5.00366015625,-3.220078125,-0.844882812499999,-1.89059765625,-5.77867578125,-7.909234375,-1.537703125,0.431624999999999,-9.48855078125,-9.32454296875,-0.820585937499998,0.34636328125,2.60588671875,-7.077375,-3.73673828125,-3.59097265625,-13.24303515625,-2.35981640625,-1.92892578125,-5.238,-9.0987421875,-0.7273203125,-0.0778476562499999,-0.9552734375,-9.22746875,-11.84339453125,-1.027640625,1.29314453125,-1.68802734375,-4.45323828125
-4.33966015625,-2.378078125,-0.193882812499999,-0.863597656250001,-5.61267578125,-6.977234375,-1.430703125,1.475625,-7.61555078125,-9.03854296875,0.592414062500001,2.09936328125,1.85088671875,-6.423375,-3.13473828125,-1.55097265625,-10.30403515625,-2.76881640625,-1.99392578125,-3.646,-6.7487421875,0.0506796874999997,0.54415234375,-0.1972734375,-6.63846875,-9.97239453125,0.0303593750000006,2.54214453125,-0.50002734375,-3.01823828125
-3.80166015625,-1.949078125,-0.0528828124999992,-0.96659765625,-5.64267578125,-6.386234375,-1.577703125,1.897625,-6.41655078125,-9.24254296875,1.2874140625,2.99036328125,0.39088671875,-6.454375,-3.55773828125,-0.42297265625,-7.06403515625,-3.50581640625,-3.00792578125,-3.071,-4.9177421875,0.0406796874999995,0.38315234375,-0.1652734375,-4.72946875,-8.27739453125,0.457359375,3.18214453125,0.27497265625,-1.96323828125
-3.43866015625,-1.955078125,-0.469882812499999,-2.09359765625,-5.68967578125,-6.039234375,-1.932703125,1.399625,-6.13555078125,-9.61954296875,1.3684140625,2.83936328125,-1.41111328125,-7.081375,-4.83273828125,-0.30397265625,-4.46103515625,-4.32481640625,-4.69592578125,-3.488,-3.9537421875,-0.7033203125,-0.46984765625,-0.8432734375,-3.80746875,-7.11039453125,0.186359375,3.11514453125,0.51897265625,-1.45223828125
-3.31466015625,-2.319078125,-1.2618828125,-3.83059765625,-5.63767578125,-5.859234375,-2.538703125,0.0516249999999996,-6.52355078125,-9.82554296875,1.0034140625,1.74336328125,-2.87311328125,-8.010375,-6.57173828125,-1.00197265625,-3.11103515625,-5.03181640625,-6.63092578125,-4.62,-3.9267421875,-1.9563203125,-1.80284765625,-2.1032734375,-3.86146875,-6.53039453125,-0.721640624999999,2.43014453125,0.23497265625,-1.46423828125
-3.53466015625,-2.942078125,-2.1148828125,-5.72959765625,-5.56467578125,-5.893234375,-3.421703125,-1.769375,-7.09655078125,-9.71154296875,0.289414062500001,0.0213632812500002,-3.37711328125,-8.980375,-8.39073828125,-2.17197265625,-3.18603515625,-5.61981640625,-8.46692578125,-6.117,-4.6797421875,-3.4593203125,-3.42684765625,-3.8292734375,-4.64546875,-6.32839453125,-2.150640625,1.31714453125,-0.50402734375,-1.83323828125
-4.20166015625,-3.746078125,-2.7498828125,-7.49959765625,-5.73167578125,-6.285234375,-4.475703125,-3.551375,-7.47455078125,-9.43954296875,-0.782585937499999,-1.88663671875,-2.82311328125,-9.938375,-10.08273828125,-3.48097265625,-4.44703515625,-6.29881640625,-10.09492578125,-7.718,-5.9147421875,-5.0623203125,-5.27084765625,-5.9852734375,-5.81846875,-6.17639453125,-3.979640625,-0.0298554687500001,-1.60502734375,-2.34823828125
-5.30866015625,-4.650078125,-3.0328828125,-8.98159765625,-6.42067578125,-7.112234375,-5.428703125,-4.818375,-7.56055078125,-9.39054296875,-2.2105859375,-3.53563671875,-1.81911328125,-11.015375,-11.60873828125,-4.68897265625,-6.35503515625,-7.35581640625,-11.63192578125,-9.298,-7.2777421875,-6.7373203125,-7.36584765625,-8.5512734375,-7.06046875,-5.81439453125,-6.052640625,-1.44985546875,-2.96502734375,-2.82923828125
-6.66566015625,-5.531078125,-2.9858828125,-10.02759765625,-7.69467578125,-8.215234375,-5.932703125,-5.275375,-7.49755078125,-9.90054296875,-3.8255859375,-4.59263671875,-1.42511328125,-12.322375,-12.95873828125,-5.64697265625,-8.24303515625,-8.89681640625,-13.22292578125,-10.791,-8.3957421875,-8.4433203125,-9.68684765625,-11.3812734375,-8.11846875,-5.12839453125,-8.103640625,-2.77785546875,-4.39802734375,-3.13623828125
-7.90466015625,-6.199078125,-2.7158828125,-10.42159765625,-9.23967578125,-9.173234375,-5.712703125,-4.910375,-7.46455078125,-10.96854296875,-5.2185859375,-4.92363671875,-2.57511328125,-13.720375,-13.97173828125,-6.23397265625,-9.50103515625,-10.66081640625,-14.80792578125,-12.049,-8.9197421875,-9.9623203125,-11.97984765625,-14.0752734375,-8.77946875,-4.12239453125,-9.702640625,-3.77785546875,-5.56202734375,-3.11923828125
-8.59366015625,-6.431078125,-2.3218828125,-9.93359765625,-10.40367578125,-9.435234375,-4.673703125,-3.979375,-7.48955078125,-12.12754296875,-5.8435859375,-4.62163671875,-5.46111328125,-14.758375,-14.29373828125,-6.31997265625,-9.72403515625,-12.05681640625,-16.02992578125,-12.79,-8.5987421875,-10.8703203125,-13.72584765625,-16.0182734375,-8.85146875,-2.85839453125,-10.332640625,-4.15385546875,-6.00002734375,-2.61223828125
-8.38966015625,-6.042078125,-1.8348828125,-8.46159765625,-10.45367578125,-8.560234375,-2.904703125,-2.866375,-7.38455078125,-12.58254296875,-5.2565859375,-3.95563671875,-9.22411328125,-14.837375,-13.49873828125,-5.80197265625,-8.81903515625,-12.45081640625,-16.35892578125,-12.682,-7.4027421875,-10.7373203125,-14.32684765625,-16.5942734375,-8.21746875,-1.44839453125,-9.582640625,-3.67385546875,-5.34202734375,-1.50123828125
-7.17066015625,-4.972078125,-1.2328828125,-6.16159765625,-8.91667578125,-6.431234375,-0.606703124999999,-1.890375,-6.84455078125,-11.55554296875,-3.3465859375,-3.24763671875,-12.15711328125,-13.520375,-11.32073828125,-4.66297265625,-7.05403515625,-11.50881640625,-15.34292578125,-11.519,-5.5837421875,-9.4183203125,-13.38584765625,-15.4512734375,-6.90746875,-0.0903945312499994,-7.362640625,-2.33385546875,-3.54402734375,0.14876171875
-5.07966015625,-3.332078125,-0.496882812499999,-3.45959765625,-5.82267578125,-3.326234375,1.955296875,-1.181375,-5.64355078125,-8.65254296875,-0.407585937499999,-2.72063671875,-12.43111328125,-10.788375,-7.81773828125,-3.01897265625,-5.01503515625,-9.37781640625,-12.81592578125,-9.331,-3.6077421875,-7.2303203125,-10.91684765625,-12.6502734375,-5.11246875,0.92960546875,-3.989640625,-0.45985546875,-1.00002734375,2.04376171875
-2.46966015625,-1.375078125,0.356117187500001,-0.893597656250002,-1.69367578125,0.209765625000001,4.507296875,-0.670375,-3.80155078125,-4.05554296875,3.0034140625,-2.38463671875,-9.05211328125,-7.058375,-3.36873828125,-1.08197265625,-3.41403515625,-6.58181640625,-8.95092578125,-6.383,-1.9587421875,-4.8753203125,-7.35584765625,-8.6252734375,-3.12846875,1.32860546875,-0.0916406249999993,1.35714453125,1.57897265625,3.72676171875
0.23033984375,0.606921875,1.3121171875,1.14240234375,2.70032421875,3.625765625,6.845296875,-0.130375,-1.61155078125,1.54945703125,6.3294140625,-2.02263671875,-2.56311328125,-2.961375,1.48026171875,0.94202734375,-2.76903515625,-3.72881640625,-4.16492578125,-3.066,-0.9027421875,-3.1533203125,-3.37784765625,-3.9932734375,-1.23646875,0.96360546875,3.630359375,2.48514453125,3.44897265625,4.75376171875
2.64233984375,2.406921875,2.4311171875,2.58040234375,6.66032421875,6.598765625,8.912296875,0.717625,0.50844921875,7.23045703125,9.2354140625,-1.28663671875,5.00288671875,0.958625,6.21626171875,2.95002734375,-3.07903515625,-1.21881640625,1.02707421875,0.238,-0.3807421875,-2.6203203125,0.35715234375,0.6697265625,0.378531249999999,-0.0593945312499997,6.646359375,2.53014453125,4.13997265625,4.89176171875
4.52633984375,3.965921875,3.8481171875,3.64140234375,9.78332421875,9.088765625,10.807296875,2.068625,2.23044921875,12.13545703125,11.6584140625,0.11836328125,10.95788671875,4.413625,10.48526171875,4.94602734375,-3.75803515625,0.85418359375,6.14407421875,3.275,-0.0827421875000001,-3.3373203125,3.42815234375,4.9627265625,1.67353125,-1.40239453125,8.738359375,1.51214453125,3.64497265625,4.20176171875
5.78133984375,5.319921875,5.6411171875,4.59240234375,11.97532421875,11.190765625,12.647296875,3.863625,3.45844921875,15.69645703125,13.6804140625,2.24436328125,13.16788671875,7.336625,14.08126171875,6.96702734375,-3.93603515625,2.59518359375,10.77207421875,5.934,0.3362578125,-4.8543203125,5.71015234375,8.6757265625,2.69853125,-2.64939453125,9.986359375,-0.15985546875,2.37097265625,2.96976171875
6.40333984375,6.480921875,7.6581171875,5.49140234375,13.29932421875,12.920765625,14.390296875,5.730625,4.29444921875,17.66345703125,15.3084140625,4.79736328125,10.97488671875,9.693625,16.84126171875,8.95902734375,-3.01203515625,4.08918359375,14.51807421875,8.169,1.0272578125,-6.4173203125,7.27215234375,11.6827265625,3.50153125,-3.51839453125,10.591359375,-1.90785546875,0.87497265625,1.50976171875
6.44033984375,7.341921875,9.4551171875,6.08140234375,13.78532421875,14.091765625,15.730296875,7.091625,4.88644921875,17.99745703125,16.3494140625,7.20236328125,5.42588671875,11.336625,18.54026171875,10.71602734375,-1.07203515625,5.24718359375,16.97107421875,9.873,1.8582578125,-7.2943203125,8.20315234375,13.8317265625,4.04053125,-3.99339453125,10.690359375,-3.24285546875,-0.43502734375,-0.00823828124999992
5.95433984375,7.690921875,10.4311171875,5.92140234375,13.34132421875,14.357765625,16.171296875,7.410625,5.24744921875,16.76245703125,16.4414140625,8.82436328125,-1.23111328125,11.973625,18.88626171875,11.92402734375,1.11096484375,5.81318359375,17.75607421875,10.842,2.5122578125,-7.0473203125,8.51115234375,14.9227265625,4.20853125,-4.25939453125,10.266359375,-3.93385546875,-1.44302734375,-1.56223828125
5.00933984375,7.312921875,10.0981171875,4.63840234375,11.79532421875,13.385765625,15.243296875,6.448625,5.15944921875,14.08945703125,15.2414140625,9.25136328125,-6.52811328125,11.292625,17.63526171875,12.28402734375,2.49696484375,5.52018359375,16.66907421875,10.846,2.6902578125,-5.6583203125,8.13015234375,14.7807265625,3.92753125,-4.50539453125,9.206359375,-4.03385546875,-2.26002734375,-3.16223828125
3.67033984375,6.110921875,8.3231171875,2.17740234375,9.03032421875,11.050765625,12.748296875,4.385625,4.22044921875,10.20045703125,12.6244140625,8.45336328125,-8.80411328125,9.134625,14.74526171875,11.64102734375,2.33896484375,4.26818359375,13.79807421875,9.747,2.2752578125,-3.5293203125,6.98915234375,13.3467265625,3.22553125,-4.76039453125,7.409359375,-3.81885546875,-3.09502734375,-4.73323828125
2.01833984375,4.187921875,5.4151171875,-1.08859765625,5.11932421875,7.568765625,8.932296875,1.763625,2.06044921875,5.44945703125,8.8064140625,6.75336328125,-7.84911328125,5.631625,10.48926171875,10.04402734375,0.57696484375,2.23618359375,9.53107421875,7.593,1.3542578125,-1.3703203125,5.08815234375,10.7247265625,2.20553125,-4.90739453125,4.874359375,-3.68085546875,-4.14402734375,-6.12523828125
0.171339843749999,1.853921875,1.9961171875,-4.44559765625,0.42032421875,3.495765625,4.490296875,-0.733375000000001,-1.35755078125,0.347457031249998,4.3374140625,4.62736328125,-4.87411328125,1.261625,5.46026171875,7.73802734375,-2.14103515625,-0.14681640625,4.48007421875,4.647,0.1402578125,0.0376796874999998,2.54715234375,7.1817265625,0.98253125,-4.82639453125,1.743359375,-3.97285546875,-5.51502734375,-7.20723828125
-1.68066015625,-0.448078125,-1.2308828125,-7.10759765625,-4.41967578125,-0.422234374999999,0.376296875000001,-2.546375,-5.54855078125,-4.47954296875,-0.0395859374999983,2.49636328125,-1.82711328125,-3.242375,0.44726171875,5.09302734375,-4.77803515625,-2.35481640625,-0.63892578125,1.351,-1.1337421875,0.1556796875,-0.37184765625,3.1167265625,-0.354468750000001,-4.52539453125,-1.690640625,-4.84085546875,-7.15102734375,-7.91723828125
-3.29666015625,-2.268078125,-3.7088828125,-8.54859765625,-8.59167578125,-3.487234375,-2.524703125,-3.413375,-9.59155078125,-8.40554296875,-3.6145859375,0.60436328125,-0.45811328125,-7.088375,-3.78573828125,2.50602734375,-6.35303515625,-3.98981640625,-5.14792578125,-1.783,-2.2867421875,-1.0753203125,-3.29384765625,-1.0002734375,-1.71346875,-4.15539453125,-5.020640625,-6.12485546875,-8.79102734375,-8.24123828125
-4.43466015625,-3.311078125,-5.1488828125,-8.71659765625,-11.37367578125,-5.281234375,-3.734703125,-3.380375,-12.48355078125,-10.97154296875,-5.9415859375,-0.96063671875,-1.60311328125,-9.683375,-6.74573828125,0.29502734375,-6.32103515625,-4.94381640625,-8.56392578125,-4.338,-3.2077421875,-3.2133203125,-5.82784765625,-4.7242734375,-2.98146875,-3.91139453125,-7.804640625,-7.41185546875,-10.03902734375,-8.16623828125
-4.95066015625,-3.534078125,-5.5268828125,-8.00559765625,-12.37467578125,-5.790234375,-3.344703125,-2.678375,-13.57655078125,-12.03454296875,-6.9895859375,-2.19563671875,-4.93111328125,-10.811375,-8.34373828125,-1.36797265625,-4.74503515625,-5.38581640625,-10.68092578125,-6.129,-3.8577421875,-5.5133203125,-7.67784765625,-7.7082734375,-4.02646875,-3.90139453125,-9.674640625,-8.21585546875,-10.51202734375,-7.66523828125
-4.85766015625,-3.143078125,-5.0428828125,-7.03059765625,-11.67567578125,-5.387234375,-1.937703125,-1.606375,-12.86255078125,-11.80054296875,-7.1105859375,-3.10763671875,-9.12611328125,-10.669375,-8.85373828125,-2.48597265625,-2.25703515625,-5.57781640625,-11.56892578125,-7.211,-4.2407421875,-7.2433203125,-8.69184765625,-9.7212734375,-4.71346875,-4.06539453125,-10.397640625,-8.18385546875,-9.99902734375,-6.72123828125
-4.33366015625,-2.492078125,-4.0588828125,-6.33559765625,-9.80567578125,-4.664234375,-0.323703125,-0.459375,-10.94555078125,-10.75754296875,-6.8645859375,-3.70063671875,-12.40611328125,-9.758375,-8.74673828125,-3.20197265625,0.18296484375,-5.67081640625,-11.47692578125,-7.782,-4.3757421875,-7.9593203125,-8.86984765625,-10.6472734375,-4.94446875,-4.18939453125,-9.902640625,-7.23085546875,-8.52202734375,-5.36323828125
-3.65666015625,-1.940078125,-3.0148828125,-6.19059765625,-7.56267578125,-4.203234375,0.796296875000001,0.517625,-8.72955078125,-9.53654296875,-6.7635859375,-3.99063671875,-13.22811328125,-8.685375,-8.47373828125,-3.71997265625,1.64896484375,-5.63381640625,-10.73092578125,-8.055,-4.2737421875,-7.6183203125,-8.33684765625,-10.4862734375,-4.68746875,-3.99339453125,-8.286640625,-5.53585546875,-6.31702734375,-3.68323828125
-3.10266015625,-1.726078125,-2.3108828125,-6.55859765625,-5.75967578125,-4.363234375,1.072296875,1.156625,-7.00755078125,-8.71154296875,-7.0615859375,-4.00563671875,-10.95711328125,-7.955375,-8.31573828125,-4.20597265625,1.59096484375,-5.36081640625,-9.65992578125,-8.157,-3.9227421875,-6.4903203125,-7.31984765625,-9.3782734375,-3.98946875,-3.25439453125,-5.797640625,-3.42385546875,-3.74102734375,-1.81323828125
-2.83566015625,-1.899078125,-2.1838828125,-7.17959765625,-4.93567578125,-5.163234375,0.589296875,1.369625,-6.14355078125,-8.60054296875,-7.6515859375,-3.76663671875,-6.18711328125,-7.799375,-8.31873828125,-4.71597265625,0.0899648437499998,-4.82681640625,-8.51392578125,-8.084,-3.2937421875,-4.9183203125,-6.08884765625,-7.5882734375,-2.94446875,-1.88939453125,-2.780640625,-1.22485546875,-1.14902734375,0.0987617187500001
-2.83466015625,-2.311078125,-2.6248828125,-7.69659765625,-5.16267578125,-6.308234375,-0.258703125,1.155625,-5.98955078125,-9.12554296875,-8.1445859375,-3.26163671875,-0.48411328125,-8.107375,-8.33173828125,-5.17697265625,-2.11503515625,-4.14381640625,-7.42792578125,-7.724,-2.3667421875,-3.1103203125,-4.87884765625,-5.4652734375,-1.64746875,-0.00339453124999967,0.385359375000001,0.83314453125,1.20397265625,1.92376171875
-2.90166015625,-2.697078125,-3.3548828125,-7.76159765625,-6.03367578125,-7.310234375,-1.010703125,0.636625,-6.05155078125,-9.85454296875,-8.0675859375,-2.46063671875,4.30588671875,-8.494375,-8.12573828125,-5.42397265625,-3.88503515625,-3.47381640625,-6.43492578125,-6.952,-1.1777421875,-1.1183203125,-3.83684765625,-3.3702734375,-0.211468750000001,2.10660546875,3.338359375,2.62614453125,3.17397265625,3.53176171875
-2.76866015625,-2.804078125,-3.9198828125,-7.15259765625,-6.86667578125,-7.703234375,-1.381703125,0.071625,-5.80655078125,-10.22254296875,-7.1255859375,-1.37763671875,6.82188671875,-8.489375,-7.54473828125,-5.30797265625,-4.22003515625,-2.91681640625,-5.55692578125,-5.771,0.1182578125,1.0026796875,-3.03184765625,-1.6332734375,1.16353125,3.98660546875,5.724359375,4.06114453125,4.64397265625,4.74476171875
-2.26966015625,-2.532078125,-3.8968828125,-5.89259765625,-7.04567578125,-7.254234375,-1.376703125,-0.230375,-4.99655078125,-9.82554296875,-5.4055859375,-0.16163671875,6.68988671875,-7.775375,-6.62173828125,-4.80997265625,-2.80103515625,-2.45881640625,-4.87692578125,-4.407,1.2162578125,3.0336796875,-2.49784765625,-0.5342734375,2.13853125,5.09960546875,7.183359375,5.00414453125,5.43597265625,5.29176171875
-1.44166015625,-1.999078125,-3.1228828125,-4.29759765625,-6.29767578125,-6.083234375,-1.209703125,-0.128375,-3.72455078125,-8.60954296875,-3.3945859375,0.88236328125,4.62388671875,-6.338375,-5.56873828125,-4.10397265625,-0.196035156250001,-2.01981640625,-4.54092578125,-3.275,1.7152578125,4.6046796875,-2.25484765625,-0.2682734375,2.29653125,4.96260546875,7.386359375,5.27514453125,5.29397265625,4.85676171875
-0.507660156249999,-1.482078125,-1.7838828125,-2.84059765625,-4.76067578125,-4.578234375,-1.096703125,0.208625,-2.31155078125,-6.83154296875,-1.7595859375,1.40536328125,2.13988671875,-4.444375,-4.64373828125,-3.48897265625,2.42796484375,-1.51381640625,-4.63692578125,-2.799,1.2652578125,5.3816796875,-2.28584765625,-0.8642734375,1.33353125,3.33960546875,6.164359375,4.74614453125,4.00797265625,3.21576171875
0.27533984375,-1.250078125,-0.285882812499999,-1.87059765625,-2.82367578125,-3.133234375,-1.022703125,0.388624999999999,-1.03655078125,-4.85454296875,-0.987585937499999,1.20936328125,0.93988671875,-2.451375,-3.95673828125,-3.19497265625,3.92096484375,-0.86681640625,-5.05492578125,-3.159,-0.2387421875,5.2896796875,-2.47284765625,-2.1012734375,-0.72846875,0.39860546875,3.662359375,3.47014453125,1.60297265625,0.43176171875
0.780339843749999,-1.378078125,0.975117187500001,-1.38059765625,-0.868675781249999,-1.910234375,-0.681703125,0.0566249999999995,0.0234492187500006,-2.92954296875,-1.0745859375,0.40936328125,2.12788671875,-0.616375,-3.35973828125,-3.20997265625,3.69996484375,0.00118359374999955,-5.43492578125,-4.127,-2.5207421875,4.5956796875,-2.58284765625,-3.4762734375,-3.41546875,-3.23539453125,0.425359375,1.76014453125,-1.50902734375,-3.03123828125
1.08233984375,-1.676078125,1.7721171875,-1.01559765625,0.89432421875,-0.796234374999999,0.372296875,-0.837375,0.95644921875,-1.12054296875,-1.5055859375,-0.57763671875,5.61788671875,0.983625,-2.52873828125,-3.23797265625,1.94796484375,1.15818359375,-5.28992578125,-5.097,-4.9657421875,3.7906796875,-2.33084765625,-4.3402734375,-5.90546875,-6.63539453125,-2.700640625,0.13214453125,-4.56202734375,-6.37423828125
1.40333984375,-1.772078125,2.0801171875,-0.333597656250001,2.42332421875,0.441765625000002,2.435296875,-1.963375,1.90144921875,0.610457031249998,-1.5205859375,-1.20563671875,10.07088671875,2.394625,-1.17573828125,-2.84397265625,-0.569035156250001,2.59718359375,-4.24792578125,-5.355,-6.8057421875,3.3536796875,-1.51484765625,-4.1362734375,-7.31846875,-8.88539453125,-4.832640625,-0.87785546875,-6.67202734375,-8.71723828125
1.97833984375,-1.305078125,2.0211171875,0.865402343749999,3.73432421875,1.939765625,5.428296875,-2.729375,2.95344921875,2.25145703125,-0.528585937499998,-1.04063671875,13.49588671875,3.668625,0.73526171875,-1.66997265625,-2.86403515625,4.18518359375,-2.27492578125,-4.419,-7.4007421875,3.5326796875,-0.13984765625,-2.6432734375,-7.07046875,-9.40739453125,-5.368640625,-0.91285546875,-7.19002734375,-9.41623828125
2.90133984375,-0.128078125,1.7951171875,2.35940234375,4.79732421875,3.606765625,8.830296875,-2.591375,4.12544921875,3.65345703125,1.5814140625,0.0613632812500002,14.19988671875,4.793625,2.92126171875,0.38402734375,-4.09003515625,5.66718359375,0.27707421875,-2.273,-6.4587421875,4.2666796875,1.56515234375,-0.0702734375,-5.09946875,-8.14139453125,-4.195640625,0.0671445312499999,-5.94802734375,-8.29423828125
4.03533984375,1.590921875,1.6231171875,3.56140234375,5.51532421875,5.126765625,11.823296875,-1.380375,5.32244921875,4.57245703125,4.3684140625,1.90336328125,11.63088671875,5.684625,4.89626171875,3.09102734375,-3.79803515625,6.73818359375,2.82107421875,0.644,-4.1307421875,5.2686796875,3.24315234375,3.0397265625,-1.85146875,-5.50339453125,-1.691640625,1.79414453125,-3.29602734375,-5.66523828125
5.03333984375,3.401921875,1.6831171875,3.80740234375,5.77232421875,6.087765625,13.584296875,0.539625,6.32344921875,4.79645703125,7.0374140625,4.01936328125,6.65888671875,6.228625,6.18526171875,5.95702734375,-2.05503515625,7.14118359375,4.78407421875,3.655,-0.9447421875,6.2146796875,4.55515234375,6.0327265625,1.92053125,-2.18239453125,1.453359375,3.82614453125,0.0799726562499998,-2.18423828125
5.48533984375,4.739921875,2.0701171875,2.72840234375,5.51132421875,6.186765625,13.619296875,2.418625,6.80144921875,4.27345703125,8.7774140625,5.84736328125,1.19488671875,6.338625,6.53726171875,8.36902734375,0.59796484375,6.76818359375,5.81607421875,6.112,2.3672578125,6.8926796875,5.29615234375,8.3617265625,5.40853125,1.08460546875,4.498359375,5.71914453125,3.39597265625,1.36676171875
5.11833984375,5.140921875,2.7371171875,0.505402343749999,4.76132421875,5.378765625,11.983296875,3.472625,6.42144921875,3.13645703125,9.0934140625,6.91136328125,-2.68111328125,5.986625,5.99626171875,9.79602734375,3.36196484375,5.70318359375,5.87107421875,7.594,5.0922578125,7.2426796875,5.43515234375,9.7337265625,7.96553125,3.68460546875,6.862359375,7.13914453125,5.96397265625,4.27076171875
3.93333984375,4.423921875,3.4661171875,-2.14659765625,3.63832421875,3.916765625,9.244296875,3.221625,5.00044921875,1.65645703125,7.9854140625,6.94836328125,-3.66911328125,5.225625,4.86526171875,9.96202734375,5.52796484375,4.24118359375,5.18207421875,8.001,6.7442578125,7.3096796875,5.11115234375,10.1497265625,9.26753125,5.22960546875,8.276359375,7.91414453125,7.34197265625,6.01676171875
2.23333984375,2.774921875,3.9101171875,-4.25959765625,2.33932421875,2.252765625,6.239296875,1.653625,2.69244921875,0.173457031249999,5.9444140625,5.97036328125,-1.79611328125,4.216625,3.58426171875,8.95002734375,6.75596484375,2.85518359375,4.18107421875,7.562,7.1992578125,7.2046796875,4.62415234375,9.8837265625,9.38653125,5.64060546875,8.819359375,8.04414453125,7.46297265625,6.45176171875
0.51033984375,0.690921875,3.7531171875,-4.99959765625,1.12832421875,0.884765625000002,3.748296875,-0.785375,0.0594492187500002,-0.992542968750001,3.7574140625,4.25836328125,1.68088671875,3.226625,2.59426171875,7.19002734375,7.12596484375,2.08118359375,3.37207421875,6.729,6.7142578125,7.0696796875,4.37015234375,9.3837265625,8.74453125,5.17860546875,8.852359375,7.70014453125,6.67297265625,5.85176171875
-0.74566015625,-1.198078125,2.8971171875,-4.01959765625,0.27032421875,0.185765625000002,2.271296875,-3.341375,-2.09555078125,-1.62754296875,2.1934140625,2.29636328125,4.94588671875,2.548625,2.18726171875,5.31202734375,6.92996484375,2.30218359375,3.15507421875,5.993,5.7982578125,7.0286796875,4.68015234375,9.0897265625,7.91553125,4.35160546875,8.808359375,7.14314453125,5.56797265625,4.80676171875
-1.24166015625,-2.367078125,1.5241171875,-1.63759765625,-0.0916757812500002,0.249765625000002,1.922296875,-5.220375,-3.12055078125,-1.71954296875,1.6994140625,0.63736328125,6.49188671875,2.350625,2.39226171875,3.89002734375,6.41996484375,3.50718359375,3.66107421875,5.665,4.9862578125,7.1166796875,5.63315234375,9.2257265625,7.35453125,3.68760546875,8.937359375,6.57314453125,4.68397265625,3.91176171875
-0.975660156249999,-2.585078125,-0.00888281249999956,1.25740234375,-0.0296757812500008,0.836765625000002,2.445296875,-5.881375,-2.88255078125,-1.47954296875,2.2374140625,-0.27263671875,5.75888671875,2.549625,2.95426171875,3.23102734375,5.71796484375,5.19718359375,4.69007421875,5.759,4.6152578125,7.2426796875,6.96115234375,9.6937265625,7.21153125,3.47460546875,9.160359375,6.00214453125,4.21997265625,3.45176171875
-0.190660156249999,-1.978078125,-1.3318828125,3.54840234375,0.17332421875,1.471765625,3.337296875,-5.202375,-1.85055078125,-1.25654296875,3.3494140625,-0.22863671875,3.31688671875,2.848625,3.46926171875,3.31402734375,4.91796484375,6.56718359375,5.81907421875,6.052,4.7492578125,7.2286796875,8.14715234375,10.1587265625,7.33753125,3.68160546875,9.150359375,5.26914453125,3.99697265625,3.30476171875
0.76333984375,-0.926078125,-2.1668828125,4.35840234375,0.147324218750001,1.677765625,4.038296875,-3.421375,-0.83355078125,-1.37054296875,4.4114140625,0.70436328125,0.55488671875,2.899625,3.59226171875,3.89502734375,4.23596484375,6.87718359375,6.61407421875,6.263,5.2682578125,6.9226796875,8.67615234375,10.2757265625,7.46353125,4.11060546875,8.586359375,4.20814453125,3.65197265625,3.13976171875
1.56033984375,0.110921875,-2.3528828125,3.38040234375,-0.410675781249999,1.188765625,4.137296875,-0.963375000000001,-0.55855078125,-1.97154296875,4.8964140625,2.24736328125,-0.98611328125,2.463625,3.20426171875,4.65402734375,4.02296484375,5.80018359375,6.81107421875,6.222,6.0132578125,6.2936796875,8.26715234375,9.8867265625,7.40653125,4.65360546875,7.392359375,2.81714453125,2.93197265625,2.74076171875
1.96433984375,0.769921875,-1.8738828125,0.933402343749998,-1.63167578125,0.0127656250000019,3.486296875,1.690625,-1.36555078125,-3.00254296875,4.5324140625,4.01136328125,-0.35411328125,1.485625,2.42926171875,5.30502734375,4.60296484375,3.53318359375,6.37707421875,5.924,6.8772578125,5.4496796875,6.97115234375,9.0867265625,7.17953125,5.42460546875,5.804359375,1.30714453125,1.87597265625,2.18776171875
1.84733984375,0.877921875,-0.898882812499999,-2.23559765625,-3.42767578125,-1.628234375,2.208296875,4.049625,-3.13255078125,-4.26354296875,3.3164140625,5.59636328125,2.36488671875,0.0546250000000001,1.51526171875,5.63302734375,6.03996484375,0.65118359375,5.44307421875,5.46,7.7722578125,4.5856796875,5.09115234375,8.1057265625,6.92453125,6.64260546875,4.230359375,-0.000855468750000199,0.78297265625,1.77076171875
1.21433984375,0.484921875,0.219117187500001,-5.25059765625,-5.53867578125,-3.409234375,0.603296875,5.672625,-5.42355078125,-5.53454296875,1.4454140625,6.67236328125,6.11888671875,-1.672375,0.65326171875,5.50502734375,8.00496484375,-2.16781640625,4.16007421875,4.879,8.5482578125,3.8966796875,3.00715234375,7.1297265625,6.73053125,8.36660546875,3.013359375,-0.85185546875,-2.73437500002416e-05,1.72476171875
0.194339843750001,-0.201078125,1.0381171875,-7.41159765625,-7.62667578125,-5.010234375,-0.981703124999999,6.270625,-7.74055078125,-6.69754296875,-0.802585937499998,7.02336328125,9.36888671875,-3.535375,-0.14573828125,4.86502734375,9.87896484375,-4.38381640625,2.58307421875,4.091,8.9522578125,3.5156796875,1.01315234375,6.1617265625,6.49153125,10.29760546875,2.265359375,-1.15485546875,-0.28802734375,2.00376171875
-1.01166015625,-0.934078125,1.1661171875,-8.42659765625,-9.41567578125,-6.238234375,-2.305703125,5.788625,-9.72955078125,-7.80754296875,-3.1895859375,6.54936328125,10.66788671875,-5.406375,-1.08573828125,3.71002734375,11.02696484375,-5.72881640625,0.64107421875,2.872,8.6822578125,3.4716796875,-0.76184765625,5.0027265625,5.90753125,11.83260546875,1.839359375,-0.99685546875,-0.14502734375,2.25076171875
-2.23966015625,-1.581078125,0.409117187500001,-8.50859765625,-10.82267578125,-7.131234375,-3.358703125,4.409625,-11.28555078125,-9.07554296875,-5.6075859375,5.25636328125,9.06188671875,-7.206375,-2.50573828125,2.04802734375,11.07096484375,-6.23481640625,-1.82192578125,0.959000000000001,7.4982578125,3.6616796875,-2.36384765625,3.3357265625,4.62253125,12.30860546875,1.411359375,-0.59385546875,0.16597265625,1.98176171875
-3.43466015625,-2.208078125,-1.1718828125,-8.24759765625,-11.98667578125,-7.968234375,-4.391703125,2.492625,-12.49155078125,-10.76754296875,-8.0815859375,3.24236328125,4.34288671875,-8.903375,-4.74073828125,-0.10797265625,9.97496484375,-6.18081640625,-4.94292578125,-1.835,5.3322578125,3.8546796875,-3.96384765625,0.8587265625,2.38853125,11.29360546875,0.599359375000001,-0.24885546875,0.27897265625,0.82076171875
-4.64466015625,-3.026078125,-3.2808828125,-8.29059765625,-13.16567578125,-9.120234375,-5.812703125,0.444624999999999,-13.46155078125,-13.04454296875,-10.6725859375,0.70136328125,-2.77511328125,-10.478375,-7.93073828125,-2.68997265625,7.94896484375,-5.98181640625,-8.71192578125,-5.513,2.3562578125,3.7536796875,-5.76184765625,-2.5732734375,-0.799468750000001,8.78760546875,-0.913640624999999,-0.29785546875,-0.15602734375,-1.32023828125
-5.92166015625,-4.223078125,-5.5018828125,-8.99059765625,-14.53567578125,-10.813234375,-7.951703125,-1.409375,-14.16755078125,-15.80454296875,-13.3325859375,-2.05863671875,-10.59911328125,-11.876375,-11.87273828125,-5.50497265625,5.29796484375,-6.03181640625,-12.85492578125,-9.811,-1.0337421875,3.1376796875,-7.84084765625,-6.8232734375,-4.65646875,5.23560546875,-3.261640625,-1.00685546875,-1.34802734375,-4.19223828125
-7.21366015625,-5.778078125,-7.4428828125,-10.20359765625,-16.02367578125,-12.938234375,-10.829703125,-2.926375,-14.36755078125,-18.62754296875,-15.8215859375,-4.64763671875,-16.75711328125,-12.967375,-15.97973828125,-8.21197265625,2.34896484375,-6.53481640625,-16.80592578125,-14.188,-4.3147421875,1.9856796875,-10.04784765625,-11.4302734375,-8.64246875,1.36760546875,-6.305640625,-2.44885546875,-3.25802734375,-7.28423828125
-8.32466015625,-7.408078125,-8.8258828125,-11.34559765625,-17.26667578125,-15.037234375,-14.011703125,-4.115375,-13.71455078125,-20.89254296875,-17.7455859375,-6.67063671875,-18.99111328125,-13.547375,-19.42873828125,-10.38397265625,-0.52503515625,-7.40881640625,-19.83792578125,-17.931,-6.9897421875,0.5176796875,-11.98084765625,-15.6762734375,-12.10246875,-2.08339453125,-9.621640625,-4.40385546875,-5.55702734375,-9.98323828125
-8.98666015625,-8.673078125,-9.5018828125,-11.66259765625,-17.77667578125,-16.464234375,-16.675703125,-5.018375,-12.01955078125,-22.02954296875,-18.7045859375,-7.83763671875,-16.26411328125,-13.419375,-21.45373828125,-11.63397265625,-2.89403515625,-8.31081640625,-21.31092578125,-20.357,-8.7217421875,-0.9233203125,-13.11584765625,-18.7702734375,-14.44946875,-4.64239453125,-12.579640625,-6.39185546875,-7.71002734375,-11.74723828125
-9.01166015625,-9.203078125,-9.4228828125,-10.64759765625,-17.19367578125,-16.673234375,-17.893703125,-5.612375,-9.51355078125,-21.76954296875,-18.4735859375,-8.04163671875,-9.53311328125,-12.505375,-21.65473828125,-11.73797265625,-4.37003515625,-8.78781640625,-20.92992578125,-21.023,-9.3857421875,-2.0303203125,-13.03184765625,-20.0732734375,-15.29646875,-6.18539453125,-14.492640625,-7.82585546875,-9.12902734375,-12.23123828125
-8.43266015625,-8.893078125,-8.6638828125,-8.37459765625,-15.53367578125,-15.507234375,-17.090703125,-5.840375,-6.90455078125,-20.28054296875,-17.1265859375,-7.40063671875,-1.56111328125,-10.951375,-20.16673828125,-10.71297265625,-4.78603515625,-8.50081640625,-18.86592578125,-19.866,-9.0207421875,-2.6533203125,-11.60084765625,-19.2912734375,-14.51046875,-6.82539453125,-14.788640625,-8.22785546875,-9.35502734375,-11.32423828125
-7.52766015625,-7.983078125,-7.4688828125,-5.56559765625,-13.26367578125,-13.316234375,-14.459703125,-5.716375,-5.11355078125,-18.13254296875,-15.0695859375,-6.21663671875,4.30188671875,-9.123375,-17.59673828125,-8.82097265625,-4.33003515625,-7.39481640625,-15.68992578125,-17.203,-7.7647421875,-2.8203203125,-9.04984765625,-16.5522734375,-12.20846875,-6.70939453125,-13.168640625,-7.40585546875,-8.19002734375,-9.13523828125
-6.71366015625,-6.955078125,-6.2428828125,-3.31259765625,-11.16667578125,-10.844234375,-11.053703125,-5.375375,-4.83755078125,-16.09854296875,-12.9395859375,-4.89363671875,5.72988671875,-7.511375,-14.77973828125,-6.50597265625,-3.47003515625,-5.76481640625,-12.15892578125,-13.643,-5.8107421875,-2.6673203125,-5.89784765625,-12.3532734375,-8.73146875,-5.88839453125,-9.730640625,-5.48585546875,-5.75702734375,-5.94123828125
-6.35666015625,-6.319078125,-5.4588828125,-2.58159765625,-10.01767578125,-8.912234375,-8.418703125,-5.051375,-6.18855078125,-14.85054296875,-11.3955859375,-3.82463671875,2.49788671875,-6.546375,-12.43673828125,-4.28697265625,-2.72303515625,-4.16081640625,-8.94792578125,-9.905,-3.4157421875,-2.3223203125,-2.75884765625,-7.4122734375,-4.59846875,-4.36039453125,-4.967640625,-2.83585546875,-2.45502734375,-2.14523828125
-6.60266015625,-6.382078125,-5.4738828125,-3.76559765625,-10.22267578125,-8.061234375,-7.869703125,-4.997375,-8.63155078125,-14.67254296875,-10.8815859375,-3.28763671875,-3.53111328125,-6.428375,-10.92973828125,-2.62997265625,-2.43003515625,-3.16081640625,-6.43892578125,-6.604,-0.9177421875,-1.8063203125,-0.11284765625,-2.4582734375,-0.418468750000001,-2.22039453125,0.353359375000001,0.0991445312499999,1.17397265625,1.77676171875
-7.31866015625,-7.113078125,-6.3768828125,-6.49859765625,-11.59467578125,-8.331234375,-9.828703125,-5.404375,-11.21555078125,-15.33854296875,-11.4545859375,-3.38563671875,-9.42911328125,-7.018375,-10.18373828125,-1.82297265625,-2.65503515625,-3.08581640625,-4.64892578125,-4.091,1.2902578125,-1.0123203125,1.85615234375,1.9457265625,3.24253125,0.22160546875,5.427359375,2.95214453125,4.62297265625,5.35176171875
-8.17366015625,-8.181078125,-7.9128828125,-9.80159765625,-13.42267578125,-9.282234375,-13.605703125,-6.328375,-12.96955078125,-16.22854296875,-12.7615859375,-4.04463671875,-12.63411328125,-7.862375,-9.82073828125,-1.89697265625,-3.22003515625,-3.80481640625,-3.32492578125,-2.406,2.8622578125,0.1976796875,3.27215234375,5.4927265625,5.98753125,2.49160546875,9.637359375,5.51714453125,7.54697265625,8.21376171875
-8.81066015625,-9.129078125,-9.5748828125,-12.49159765625,-14.79867578125,-10.235234375,-17.727703125,-7.650375,-13.27855078125,-16.62854296875,-14.1995859375,-5.05863671875,-12.07111328125,-8.366375,-9.39173828125,-2.61597265625,-3.81203515625,-4.76881640625,-2.12392578125,-1.348,3.6232578125,1.8356796875,4.43315234375,8.1297265625,7.67053125,4.12660546875,12.697359375,7.75014453125,9.81497265625,10.18176171875
-8.99466015625,-9.584078125,-10.8028828125,-13.62959765625,-15.01967578125,-10.606234375,-20.628703125,-9.094375,-12.07955078125,-16.05154296875,-15.1355859375,-6.15063671875,-8.43911328125,-8.040375,-8.56973828125,-3.55397265625,-4.11903515625,-5.27081640625,-0.77492578125,-0.59,3.6572578125,3.7086796875,5.62615234375,9.9807265625,8.40853125,4.89360546875,14.649359375,9.67314453125,11.46497265625,11.27376171875
-8.65666015625,-9.371078125,-11.2148828125,-12.82659765625,-13.83767578125,-10.143234375,-21.310703125,-10.285375,-9.80355078125,-14.39154296875,-15.1115859375,-7.01163671875,-3.61311328125,-6.679375,-7.22273828125,-4.21497265625,-3.94703515625,-4.79581640625,0.84907421875,0.224,3.2962578125,5.4706796875,6.99215234375,11.2657265625,8.52453125,4.87060546875,15.746359375,11.25714453125,12.58797265625,11.63076171875
-7.83466015625,-8.507078125,-10.7258828125,-10.29659765625,-11.48967578125,-8.949234375,-19.651703125,-10.827375,-7.12155078125,-11.89054296875,-13.9405859375,-7.33763671875,0.40088671875,-4.407375,-5.36673828125,-4.17897265625,-3.27203515625,-3.24381640625,2.75707421875,1.386,2.9832578125,6.7406796875,8.48415234375,12.2137265625,8.41653125,4.36560546875,16.270359375,12.33414453125,13.18997265625,11.38276171875
-6.60066015625,-7.109078125,-9.5148828125,-6.70759765625,-8.51267578125,-7.317234375,-16.301703125,-10.397375,-4.65555078125,-8.95854296875,-11.6965859375,-6.88863671875,2.34688671875,-1.574375,-3.08473828125,-3.21997265625,-2.19103515625,-0.92381640625,4.87707421875,3.052,3.0922578125,7.2386796875,9.91515234375,13.0047265625,8.40653125,3.74260546875,16.383359375,12.63514453125,13.13697265625,10.59076171875
-5.03666015625,-5.320078125,-7.8918828125,-2.95059765625,-5.50367578125,-5.519234375,-12.283703125,-8.881375,-2.78855078125,-5.97654296875,-8.6365859375,-5.58463671875,2.00688671875,1.397625,-0.47573828125,-1.38097265625,-0.82303515625,1.62018359375,7.10907421875,5.192,3.7872578125,6.8736796875,11.05015234375,13.7407265625,8.64453125,3.29460546875,16.090359375,11.91914453125,12.25097265625,9.28376171875
-3.26266015625,-3.287078125,-6.1688828125,0.105402343749999,-2.91367578125,-3.690234375,-8.570703125,-6.488375,-1.60955078125,-3.17254296875,-5.1135859375,-3.57663671875,-0.0711132812500001,4.136625,2.34926171875,1.01702734375,0.734964843749999,3.81318359375,9.33107421875,7.596,4.9902578125,5.7506796875,11.68515234375,14.4197265625,9.09353125,3.20560546875,15.289359375,10.12814453125,10.48897265625,7.57576171875
-1.48066015625,-1.199078125,-4.5898828125,1.81640234375,-0.978675781250001,-1.864234375,-5.821703125,-3.746375,-0.96555078125,-0.639542968750002,-1.5215859375,-1.26663671875,-3.04211328125,6.379625,5.22326171875,3.43802734375,2.35296484375,5.21318359375,11.36007421875,9.901,6.4042578125,4.1146796875,11.67615234375,14.9037265625,9.55453125,3.53760546875,13.843359375,7.44214453125,8.01897265625,5.68776171875
0.0333398437499994,0.690921875,-3.3258828125,1.90440234375,0.242324218749999,-0.0992343749999982,-4.325703125,-1.346375,-0.557550781249999,1.54445703125,1.7214140625,0.78336328125,-6.07311328125,7.969625,7.86226171875,5.25402734375,3.77596484375,5.58818359375,12.91307421875,11.637,7.5942578125,2.2456796875,10.92515234375,14.9077265625,9.70053125,4.20660546875,11.621359375,4.21414453125,5.15597265625,3.84976171875
0.998339843750001,2.091921875,-2.4998828125,0.516402343749998,0.79232421875,1.414765625,-4.096703125,0.0976249999999999,-0.0795507812499991,3.22645703125,4.2024140625,2.02036328125,-8.41411328125,8.824625,9.87026171875,5.92302734375,4.63596484375,4.94618359375,13.63707421875,12.344,8.0992578125,0.4006796875,9.39215234375,14.0797265625,9.18253125,4.99360546875,8.550359375,0.85614453125,2.22197265625,2.16776171875
1.24033984375,2.777921875,-2.1848828125,-1.80659765625,0.77332421875,2.368765625,-4.984703125,0.258624999999999,0.663449218750001,4.19145703125,5.5724140625,2.11336328125,-9.37011328125,8.932625,10.84026171875,5.16102734375,4.65796484375,3.51918359375,13.23907421875,11.739,7.6012578125,-1.1913203125,7.14815234375,12.1767265625,7.77953125,5.65560546875,4.719359375,-2.24485546875,-0.52302734375,0.60776171875
0.787339843750001,2.692921875,-2.3688828125,-4.25059765625,0.33432421875,2.484765625,-6.717703125,-0.764375000000001,1.69044921875,4.27045703125,5.6524140625,1.10136328125,-8.37811328125,8.358625,10.52326171875,3.05702734375,3.85796484375,1.69418359375,11.64907421875,9.858,6.0712578125,-2.3333203125,4.43015234375,9.2327265625,5.54353125,6.03960546875,0.450359375000001,-4.76785546875,-2.87102734375,-0.89023828125
-0.12866015625,1.996921875,-2.9128828125,-5.94259765625,-0.336675781249999,1.691765625,-8.891703125,-2.456375,2.84944921875,3.46045703125,4.5084140625,-0.60763671875,-5.25111328125,7.251625,8.94626171875,0.0490273437499997,2.54296484375,-0.10381640625,9.07207421875,7.043,3.7802578125,-2.9213203125,1.59915234375,5.5887265625,2.78753125,6.10760546875,-3.730640625,-6.50385546875,-4.65102734375,-2.30423828125
-1.17466015625,0.991921875,-3.5698828125,-6.24459765625,-1.07267578125,0.196765625000001,-10.997703125,-4.071375,3.86644921875,1.94745703125,2.4554140625,-2.41463671875,-0.47311328125,5.806625,6.40826171875,-3.23997265625,1.06096484375,-1.57081640625,5.89207421875,3.788,1.1612578125,-3.0303203125,-1.00184765625,1.7467265625,-0.0754687500000006,5.82560546875,-7.273640625,-7.41785546875,-5.79402734375,-3.54223828125
-2.07166015625,-0.0260781249999997,-4.1048828125,-5.03459765625,-1.79167578125,-1.602234375,-12.555703125,-4.988375,4.40444921875,0.0454570312499989,-0.0205859374999982,-3.79663671875,4.68188671875,4.189625,3.37226171875,-6.23297265625,-0.42403515625,-2.64681640625,2.50407421875,0.522,-1.4017421875,-2.9423203125,-3.20884765625,-1.8722734375,-2.73846875,5.04360546875,-9.846640625,-7.72185546875,-6.40202734375,-4.56123828125
-2.69666015625,-0.890078125,-4.4168828125,-2.80859765625,-2.51667578125,-3.290234375,-13.287703125,-5.006375,4.16144921875,-1.91254296875,-2.4065859375,-4.51863671875,8.44288671875,2.500625,0.310261718750001,-8.58097265625,-1.91903515625,-3.52281640625,-0.83092578125,-2.529,-3.7227421875,-3.0603203125,-5.08984765625,-5.0862734375,-5.12646875,3.50460546875,-11.481640625,-7.83685546875,-6.76202734375,-5.45923828125
-3.07166015625,-1.586078125,-4.5708828125,-0.500597656250001,-3.31767578125,-4.586234375,-13.204703125,-4.396375,3.00044921875,-3.65854296875,-4.3065859375,-4.68563671875,9.24088671875,0.798625,-2.40473828125,-10.20797265625,-3.38903515625,-4.49281640625,-4.00192578125,-5.329,-5.8137421875,-3.7113203125,-6.85184765625,-7.9472734375,-7.35246875,1.00060546875,-12.519640625,-8.21085546875,-7.22502734375,-6.44223828125
-3.27666015625,-2.173078125,-4.7088828125,0.919402343749999,-4.22867578125,-5.390234375,-12.533703125,-3.678375,1.08444921875,-5.02654296875,-5.5175859375,-4.61963671875,6.50088671875,-0.827375,-4.55073828125,-11.21797265625,-4.61303515625,-5.73881640625,-6.94692578125,-7.9,-7.7617421875,-4.9163203125,-8.63684765625,-10.5682734375,-9.55046875,-2.43439453125,-13.350640625,-9.03785546875,-7.99402734375,-7.63323828125
-3.37466015625,-2.682078125,-4.9238828125,0.836402343749999,-5.18467578125,-5.763234375,-11.569703125,-3.291375,-1.12055078125,-5.93454296875,-6.0495859375,-4.66163671875,1.05088671875,-2.234375,-6.05873828125,-11.76097265625,-5.27003515625,-7.17981640625,-9.52892578125,-10.163,-9.5727421875,-6.2913203125,-10.35384765625,-12.9302734375,-11.67746875,-6.40239453125,-14.113640625,-10.06885546875,-8.92502734375,-8.88023828125
-3.39466015625,-3.079078125,-5.2008828125,-0.785597656250001,-6.05967578125,-5.874234375,-10.566703125,-3.374375,-3.02655078125,-6.37954296875,-6.0865859375,-5.00163671875,-5.17211328125,-3.273375,-6.98173828125,-11.92697265625,-5.18703515625,-8.49181640625,-11.49492578125,-11.884,-11.0867421875,-7.1923203125,-11.65684765625,-14.7942734375,-13.43046875,-10.19639453125,-14.544640625,-10.65385546875,-9.51502734375,-9.70023828125
-3.37966015625,-3.312078125,-5.4448828125,-3.44659765625,-6.77067578125,-5.933234375,-9.698703125,-3.747375,-4.21055078125,-6.46454296875,-5.9155859375,-5.60463671875,-10.03011328125,-3.895375,-7.46873828125,-11.74097265625,-4.51903515625,-9.26481640625,-12.57592578125,-12.773,-12.0197421875,-7.0603203125,-12.10184765625,-15.7862734375,-14.34346875,-12.99739453125,-14.102640625,-10.05285546875,-9.11802734375,-9.44923828125
-3.41766015625,-3.395078125,-5.5688828125,-6.36259765625,-7.36967578125,-6.139234375,-9.072703125,-4.062375,-4.64255078125,-6.42554296875,-5.8515859375,-6.27063671875,-12.19511328125,-4.206375,-7.73573828125,-11.23697265625,-3.71903515625,-9.20781640625,-12.64692578125,-12.67,-12.1097421875,-5.7673203125,-11.38984765625,-15.5962734375,-14.03646875,-14.17239453125,-12.304640625,-7.83585546875,-7.29902734375,-7.66923828125
-3.63866015625,-3.453078125,-5.5838828125,-8.79359765625,-8.03867578125,-6.636234375,-8.731703125,-4.033375,-4.67455078125,-6.57754296875,-6.1485859375,-6.77563671875,-11.67111328125,-4.424375,-8.01173828125,-10.53097265625,-3.32403515625,-8.29981640625,-11.82592578125,-11.677,-11.2817421875,-3.7053203125,-9.53784765625,-14.1442734375,-12.43046875,-13.54339453125,-9.065640625,-4.16885546875,-4.10802734375,-4.40623828125
-4.14066015625,-3.665078125,-5.6188828125,-10.30759765625,-8.94967578125,-7.482234375,-8.679703125,-3.613375,-4.79655078125,-7.16254296875,-6.9295859375,-7.00263671875,-9.55411328125,-4.754375,-8.45973828125,-9.82897265625,-3.69303515625,-6.81581640625,-10.43292578125,-10.12,-9.7217421875,-1.6023203125,-6.88884765625,-11.6432734375,-9.80546875,-11.47639453125,-4.825640625,0.18514453125,-0.11002734375,-0.30023828125
-4.91066015625,-4.163078125,-5.8538828125,-10.85059765625,-10.10967578125,-8.626234375,-8.898703125,-3.006375,-5.30755078125,-8.19054296875,-8.1405859375,-6.97663671875,-7.30411328125,-5.259375,-9.09873828125,-9.34297265625,-4.82803515625,-5.22381640625,-8.84792578125,-8.396,-7.8027421875,-0.1603203125,-3.98184765625,-8.5142734375,-6.66146875,-8.72439453125,-0.409640625,4.17214453125,3.82597265625,3.63976171875
-5.77966015625,-4.924078125,-6.3998828125,-10.65659765625,-11.28367578125,-9.885234375,-9.374703125,-2.515375,-6.11655078125,-9.37954296875,-9.5675859375,-6.80363671875,-6.03711328125,-5.811375,-9.78373828125,-9.14697265625,-6.32303515625,-3.97881640625,-7.35292578125,-6.787,-5.8947421875,0.2566796875,-1.35084765625,-5.2432734375,-3.49446875,-6.08539453125,3.307359375,6.88814453125,6.85997265625,6.45876171875
-6.46266015625,-5.747078125,-7.2108828125,-10.09159765625,-12.07067578125,-10.979234375,-10.094703125,-2.352375,-6.81655078125,-10.26654296875,-10.8955859375,-6.57063671875,-6.19211328125,-6.152375,-10.25173828125,-9.11097265625,-7.48703515625,-3.31581640625,-6.03192578125,-5.367,-4.2017421875,-0.2313203125,0.65715234375,-2.2202734375,-0.623468750000001,-4.03339453125,5.724359375,7.92014453125,8.47897265625,7.64276171875
-6.69366015625,-6.341078125,-8.0948828125,-9.53959765625,-12.10667578125,-11.639234375,-11.018703125,-2.554375,-6.97555078125,-10.42054296875,-11.8215859375,-6.30363671875,-7.56611328125,-6.022375,-10.24673828125,-8.98597265625,-7.64603515625,-3.16381640625,-4.78892578125,-4.04,-2.7297421875,-1.1003203125,1.96315234375,0.3197265625,1.83953125,-2.57839453125,6.685359375,7.44914453125,8.63897265625,7.28976171875
-6.37666015625,-6.485078125,-8.8108828125,-9.31059765625,-11.27967578125,-11.757234375,-12.059703125,-3.026375,-6.43955078125,-9.67854296875,-12.1815859375,-6.00563671875,-9.51111328125,-5.315375,-9.67373828125,-8.59697265625,-6.53003515625,-3.23081640625,-3.47792578125,-2.704,-1.4267421875,-1.6883203125,2.68615234375,2.2607265625,3.86753125,-1.40839453125,6.415359375,6.05914453125,7.70197265625,5.96376171875
-5.66966015625,-6.168078125,-9.1858828125,-9.53359765625,-9.84267578125,-11.455234375,-13.076703125,-3.642375,-5.44855078125,-8.26654296875,-12.0175859375,-5.72163671875,-11.15511328125,-4.176375,-8.70273828125,-8.01197265625,-4.51103515625,-3.20681640625,-2.08192578125,-1.436,-0.3697421875,-1.5453203125,2.98615234375,3.4987265625,5.33053125,-0.252394531249999,5.310359375,4.41414453125,6.20997265625,4.34976171875
-4.94366015625,-5.627078125,-9.2168828125,-10.08759765625,-8.34067578125,-11.055234375,-13.916703125,-4.354375,-4.51555078125,-6.73754296875,-11.5575859375,-5.58563671875,-11.68211328125,-2.992375,-7.75573828125,-7.57897265625,-2.52303515625,-2.95081640625,-0.81392578125,-0.555999999999999,0.1452578125,-0.6573203125,2.91515234375,3.8697265625,5.89953125,0.80160546875,3.693359375,2.95914453125,4.62197265625,2.88976171875
-4.62766015625,-5.255078125,-9.1008828125,-10.62659765625,-7.38267578125,-10.945234375,-14.488703125,-5.258375,-4.16855078125,-5.73654296875,-11.1135859375,-5.81463671875,-10.67311328125,-2.267375,-7.35673828125,-7.76997265625,-1.67303515625,-2.57381640625,-0.0659257812499998,-0.494,-0.2877421875,0.5896796875,2.39415234375,3.1947265625,5.15953125,1.26260546875,1.714359375,1.81014453125,3.14697265625,1.60476171875
-5.00566015625,-5.422078125,-9.1608828125,-10.74859765625,-7.36667578125,-11.404234375,-14.804703125,-6.544375,-4.66955078125,-5.68554296875,-10.9535859375,-6.62063671875,-8.35211328125,-2.390375,-7.89173828125,-8.93997265625,-2.70403515625,-2.36981640625,-0.19792578125,-1.537,-1.9457421875,1.6716796875,1.31915234375,1.4177265625,2.86853125,0.50960546875,-0.609640625,0.85514453125,1.76197265625,0.19276171875
-6.04866015625,-6.264078125,-9.6648828125,-10.19159765625,-8.28067578125,-12.445234375,-14.944703125,-8.295375,-5.85555078125,-6.57554296875,-11.1875859375,-8.07863671875,-5.53511328125,-3.413375,-9.40173828125,-11.10197265625,-5.58603515625,-2.61981640625,-1.31392578125,-3.604,-4.7377421875,2.2526796875,-0.27684765625,-1.2592734375,-0.796468750000001,-1.79239453125,-3.246640625,-0.0358554687500003,0.34697265625,-1.67123828125
-7.37866015625,-7.567078125,-10.6398828125,-8.92859765625,-9.66667578125,-13.747234375,-14.945703125,-10.296375,-7.15055078125,-7.93954296875,-11.7115859375,-10.01763671875,-3.23511328125,-4.958375,-11.49973828125,-13.85997265625,-9.47103515625,-3.36681640625,-3.12092578125,-6.191,-8.1327421875,2.3516796875,-2.11784765625,-4.3252734375,-5.16446875,-5.40239453125,-6.014640625,-0.82985546875,-1.14302734375,-4.04023828125
-8.41266015625,-8.831078125,-11.8168828125,-7.16359765625,-10.78767578125,-14.754234375,-14.742703125,-12.046375,-7.78855078125,-9.04654296875,-12.2425859375,-12.03663671875,-2.15111328125,-6.330375,-13.47973828125,-16.52597265625,-13.07503515625,-4.29781640625,-4.98192578125,-8.507,-11.2907421875,2.2666796875,-3.72184765625,-7.0612734375,-9.22246875,-9.47739453125,-8.536640625,-1.31885546875,-2.57102734375,-6.55423828125
-8.64466015625,-9.499078125,-12.7478828125,-5.25559765625,-10.93267578125,-14.929234375,-14.202703125,-13.022375,-7.14355078125,-9.22154296875,-12.4435859375,-13.64763671875,-2.32111328125,-6.832375,-14.57873828125,-18.38897265625,-15.25403515625,-4.84081640625,-6.14992578125,-9.764,-13.3557421875,2.3286796875,-4.57984765625,-8.7562734375,-11.93546875,-12.83539453125,-10.324640625,-1.26385546875,-3.64402734375,-8.54023828125
-7.91166015625,-9.253078125,-13.0068828125,-3.62759765625,-9.75267578125,-14.016234375,-13.241703125,-12.983375,-5.04855078125,-8.16354296875,-12.0795859375,-14.47563671875,-3.12411328125,-6.109375,-14.29873828125,-18.98897265625,-15.44903515625,-4.47481640625,-6.09992578125,-9.49,-13.7697421875,2.6346796875,-4.41784765625,-8.9732734375,-12.61046875,-14.38339453125,-10.957640625,-0.60185546875,-4.07402734375,-9.31223828125
-6.49066015625,-8.185078125,-12.3728828125,-2.65759765625,-7.46167578125,-12.184234375,-11.936703125,-12.107375,-1.93755078125,-6.11654296875,-11.1325859375,-14.40263671875,-3.62811328125,-4.355375,-12.63373828125,-18.27097265625,-13.79103515625,-3.09581640625,-4.78892578125,-7.726,-12.4637421875,2.9656796875,-3.37784765625,-7.7392734375,-11.14146875,-13.52539453125,-10.288640625,0.43214453125,-3.75602734375,-8.49523828125
-4.97266015625,-6.738078125,-10.9438828125,-2.56459765625,-4.78467578125,-9.968234375,-10.528703125,-10.881375,1.27444921875,-3.77754296875,-9.7995859375,-13.58163671875,-3.16011328125,-2.248375,-10.06973828125,-16.55597265625,-10.92903515625,-1.18981640625,-2.68892578125,-4.99,-9.8627421875,2.9416796875,-2.00484765625,-5.5522734375,-8.03446875,-10.36439453125,-8.522640625,1.36414453125,-2.83402734375,-6.20423828125
-3.96566015625,-5.465078125,-9.1228828125,-3.32059765625,-2.64567578125,-8.036234375,-9.334703125,-9.847375,3.55744921875,-1.97354296875,-8.3955859375,-12.33563671875,-1.76711328125,-0.641375,-7.35573828125,-14.38397265625,-7.73103515625,0.33418359375,-0.56792578125,-2.045,-6.6877421875,2.2986796875,-1.00984765625,-3.1802734375,-4.16546875,-5.62739453125,-6.141640625,1.70814453125,-1.59202734375,-2.98123828125
-3.81066015625,-4.740078125,-7.4698828125,-4.64259765625,-1.75467578125,-6.901234375,-8.597703125,-9.348375,4.22144921875,-1.27954296875,-7.2075859375,-11.00363671875,-0.26011328125,-0.175375,-5.18273828125,-12.29397265625,-5.01903515625,0.58818359375,0.84507421875,0.406000000000001,-3.6727421875,1.0756796875,-0.96384765625,-1.3432734375,-0.442468750000001,-0.35239453125,-3.700640625,1.21714453125,-0.27902734375,0.45076171875
-4.44366015625,-4.610078125,-6.4428828125,-6.06059765625,-2.28967578125,-6.694234375,-8.352703125,-9.393375,3.21044921875,-1.76754296875,-6.3895859375,-9.80663671875,0.26288671875,-1.000375,-3.92873828125,-10.66497265625,-3.36303515625,-0.82281640625,1.15007421875,1.938,-1.3267421875,-0.4453203125,-2.06484765625,-0.4552734375,2.48353125,4.45660546875,-1.632640625,0.00214453124999991,0.99497265625,3.46776171875
-5.47066015625,-4.823078125,-6.1928828125,-7.06459765625,-3.81367578125,-7.129234375,-8.398703125,-9.718375,1.09944921875,-2.99054296875,-5.9085859375,-8.81563671875,-0.87011328125,-2.735375,-3.57573828125,-9.63597265625,-2.96303515625,-3.59381640625,0.40207421875,2.469,0.1582578125,-1.9423203125,-4.08584765625,-0.5112734375,4.34853125,8.08860546875,-0.136640624999999,-1.55085546875,2.20797265625,5.70676171875
-6.36366015625,-5.008078125,-6.4938828125,-7.28159765625,-5.46567578125,-7.623234375,-8.373703125,-9.985375,-1.20455078125,-4.16754296875,-5.5635859375,-7.99163671875,-3.46011328125,-4.635375,-3.78273828125,-9.11497265625,-3.61703515625,-6.84281640625,-0.93292578125,2.218,0.8492578125,-3.2303203125,-6.45484765625,-1.1452734375,5.22753125,10.21960546875,0.821359375000001,-2.98985546875,3.32297265625,7.07776171875
-6.66466015625,-4.865078125,-6.8548828125,-6.59759765625,-6.28267578125,-7.510234375,-7.903703125,-9.965375,-2.83155078125,-4.45754296875,-5.0295859375,-7.25863671875,-6.53611328125,-5.865375,-4.02473828125,-8.84197265625,-4.80903515625,-9.46281640625,-2.13892578125,1.611,0.9562578125,-4.2923203125,-8.42184765625,-1.7882734375,5.41253125,10.89560546875,1.450359375,-3.97585546875,4.24197265625,7.69376171875
-6.11566015625,-4.261078125,-6.7108828125,-5.17459765625,-5.54567578125,-6.245234375,-6.747703125,-9.579375,-3.21855078125,-3.23254296875,-3.9215859375,-6.53963671875,-8.86311328125,-5.742375,-3.74873828125,-8.46297265625,-5.89203515625,-10.50281640625,-2.46592578125,1.16,0.7592578125,-5.1663203125,-9.24984765625,-1.8432734375,5.26253125,10.45860546875,2.044359375,-4.34085546875,4.85597265625,7.77576171875
-4.69466015625,-3.208078125,-5.6448828125,-3.35959765625,-3.00967578125,-3.571234375,-4.890703125,-8.848375,-2.20255078125,-0.275542968750001,-1.9265859375,-5.76763671875,-9.51111328125,-3.936375,-2.53173828125,-7.63797265625,-6.30203515625,-9.45281640625,-1.37192578125,1.334,0.5502578125,-5.8223203125,-8.41784765625,-0.8622734375,5.10353125,9.41560546875,2.905359375,-4.03285546875,5.16397265625,7.58076171875
-2.62166015625,-1.806078125,-3.5838828125,-1.55259765625,1.00432421875,0.334765625000001,-2.554703125,-7.856375,0.00544921874999993,4.11445703125,1.0304140625,-4.90563671875,-8.15911328125,-0.581375,-0.23373828125,-6.16997265625,-5.75103515625,-6.39481640625,1.27807421875,2.408,0.5672578125,-6.1143203125,-5.79984765625,1.3027265625,5.16953125,8.25660546875,4.249359375,-3.05985546875,5.32497265625,7.33376171875
-0.315660156249999,-0.223078125,-0.877882812499999,-0.0655976562500005,5.68432421875,4.812765625,-0.137703125,-6.783375,2.92144921875,9.14945703125,4.6454140625,-3.98063671875,-5.07811328125,3.714625,2.88626171875,-4.11297265625,-4.33603515625,-1.99181640625,5.11007421875,4.348,0.8912578125,-5.8393203125,-1.75584765625,4.4187265625,5.56053125,7.25260546875,6.120359375,-1.47685546875,5.59297265625,7.16776171875
1.68533984375,1.290921875,1.8271171875,0.986402343749999,9.94332421875,8.867765625,1.917296875,-5.884375,5.91644921875,13.73645703125,8.2454140625,-3.09963671875,-0.96411328125,8.027625,6.20226171875,-1.77597265625,-2.51603515625,2.69118359375,9.31307421875,6.784,1.3832578125,-4.8503203125,2.93115234375,7.8957265625,6.20453125,6.32860546875,8.343359375,0.56814453125,6.17197265625,7.08876171875
2.86133984375,2.410921875,3.8501171875,1.65940234375,12.73732421875,11.479765625,3.252296875,-5.411375,8.34944921875,16.79245703125,10.9874140625,-2.43663671875,3.22688671875,11.396625,8.90326171875,0.38702734375,-0.968035156250001,6.50018359375,12.85907421875,9.118,1.7092578125,-3.1643203125,7.26515234375,10.9567265625,6.85653125,5.08960546875,10.524359375,2.79714453125,7.04997265625,6.97076171875
2.86633984375,2.802921875,4.7211171875,2.04640234375,13.37432421875,11.956765625,3.633296875,-5.524375,9.68844921875,17.57645703125,12.1534140625,-2.18963671875,6.41588671875,13.099625,10.27326171875,1.92702734375,-0.38403515625,8.53318359375,14.83207421875,10.703,1.4632578125,-1.0113203125,10.33315234375,12.8517265625,7.13953125,2.99060546875,12.122359375,4.78214453125,7.92497265625,6.57576171875
1.64533984375,2.237921875,4.2891171875,2.11540234375,11.71932421875,10.146765625,2.938296875,-6.256375,9.62044921875,15.92845703125,11.4014140625,-2.52963671875,7.62488671875,12.851625,9.92626171875,2.52002734375,-1.27603515625,8.42318359375,14.70907421875,11.05,0.3252578125,1.2026796875,11.57415234375,13.0717265625,6.64453125,-0.39439453125,12.575359375,6.00914453125,8.27097265625,5.60976171875
-0.513660156249999,0.709921875,2.7441171875,1.71940234375,8.23632421875,6.506765625,1.186296875,-7.477375,8.15444921875,12.33545703125,8.9014140625,-3.51263671875,6.34988671875,10.880625,7.92926171875,2.05702734375,-3.80403515625,6.47818359375,12.53407421875,9.959,-1.7917421875,3.0236796875,10.93315234375,11.4847265625,5.07753125,-5.10839453125,11.482359375,6.04814453125,7.55297265625,3.83076171875
-3.01866015625,-1.481078125,0.5921171875,0.772402343749999,3.86532421875,2.004765625,-1.353703125,-8.844375,5.69744921875,7.80345703125,5.3204140625,-4.96963671875,2.92888671875,7.867625,4.78226171875,0.69402734375,-7.62103515625,3.60618359375,8.89907421875,7.589,-4.6497421875,4.1246796875,8.85915234375,8.3747265625,2.40753125,-10.67539453125,8.780359375,4.75714453125,5.49897265625,1.20076171875
-5.12866015625,-3.739078125,-1.4488828125,-0.590597656250001,-0.241675781250001,-2.121234375,-4.076703125,-9.848375,2.99644921875,3.56545703125,1.6654140625,-6.49063671875,-1.34611328125,4.744625,1.26126171875,-1.15197265625,-11.86503515625,0.99918359375,4.75607421875,4.417,-7.7167421875,4.4456796875,6.12615234375,4.3597265625,-1.06146875,-16.19039453125,4.811359375,2.39314453125,2.28297265625,-2.04123828125
-6.18466015625,-5.338078125,-2.6838828125,-2.00859765625,-3.05967578125,-4.742234375,-6.132703125,-10.007375,0.913449218750001,0.694457031249998,-1.0195859375,-7.55163671875,-4.62211328125,2.379625,-1.82573828125,-2.93397265625,-15.38703515625,-0.36381640625,1.08707421875,1.105,-10.3427421875,4.1796796875,3.52715234375,0.1917265625,-4.75946875,-20.64639453125,0.205359375,-0.50885546875,-1.53602734375,-5.44923828125
-5.85966015625,-5.692078125,-2.7198828125,-3.05459765625,-4.01167578125,-5.225234375,-6.701703125,-9.112375,0.0664492187499999,-0.257542968750002,-2.0105859375,-7.74763671875,-5.26511328125,1.261625,-3.90073828125,-4.17397265625,-17.19003515625,-0.15681640625,-1.43892578125,-1.725,-11.9987421875,3.6106796875,1.55415234375,-3.4872734375,-8.04546875,-23.29139453125,-4.371640625,-3.41685546875,-5.27402734375,-8.56323828125
-4.30466015625,-4.638078125,-1.6358828125,-3.41759765625,-3.16667578125,-3.659234375,-5.354703125,-7.354375,0.52444921875,0.557457031249999,-1.1775859375,-7.00363671875,-2.67311328125,1.339625,-4.77673828125,-4.63497265625,-16.82503515625,1.14718359375,-2.67192578125,-3.683,-12.4597421875,2.8986796875,0.24115234375,-6.3212734375,-10.42446875,-23.83939453125,-8.435640625,-6.03685546875,-8.41802734375,-11.04623828125
-2.11366015625,-2.544078125,0.0731171875000012,-3.03859765625,-1.19767578125,-0.811234374999998,-2.303703125,-5.259375,1.72444921875,2.38545703125,0.980414062500001,-5.60063671875,2.35688671875,2.085625,-4.66473828125,-4.34997265625,-14.51903515625,2.50718359375,-2.94292578125,-4.68,-11.8177421875,1.9906796875,-0.75984765625,-8.2322734375,-11.64946875,-22.41139453125,-11.741640625,-8.34785546875,-10.75002734375,-12.68623828125
-0.0986601562500002,-0.185078125,1.7341171875,-2.16159765625,0.88932421875,2.168765625,1.593296875,-3.457375,2.70944921875,4.23145703125,3.5524140625,-4.02363671875,7.90888671875,2.761625,-3.99973828125,-3.51597265625,-11.00503515625,2.81418359375,-2.79892578125,-4.838,-10.3507421875,0.7066796875,-1.88284765625,-9.2902734375,-11.67446875,-19.32639453125,-14.169640625,-10.45585546875,-12.26602734375,-13.32323828125
1.03433984375,1.582921875,2.8001171875,-1.27059765625,2.16032421875,4.193765625,5.113296875,-2.395375,2.58644921875,5.29645703125,5.6024140625,-2.70763671875,11.75888671875,2.769625,-3.20273828125,-2.34097265625,-7.18403515625,1.41918359375,-2.67192578125,-4.32,-8.3247421875,-1.0693203125,-3.34184765625,-9.5412734375,-10.53946875,-14.93039453125,-15.597640625,-12.39285546875,-13.02502734375,-12.80623828125
0.97133984375,2.187921875,3.0811171875,-0.903597656250001,2.11832421875,4.656765625,7.143296875,-2.143375,0.981449218750001,5.28445703125,6.5284140625,-1.82863671875,12.29088671875,1.935625,-2.47673828125,-0.92697265625,-3.77303515625,-1.53581640625,-2.65692578125,-3.217,-5.8617421875,-3.2443203125,-4.96084765625,-8.9382734375,-8.31246875,-9.54239453125,-15.852640625,-13.99585546875,-13.03902734375,-11.06023828125
-0.11266015625,1.563921875,2.7621171875,-1.40059765625,0.871324218750001,3.642765625,7.125296875,-2.400375,-1.75555078125,4.45145703125,6.2444140625,-1.29163671875,9.09188671875,0.579625,-1.75373828125,0.72502734375,-1.10303515625,-5.14681640625,-2.51892578125,-1.561,-2.9687421875,-5.4903203125,-6.24484765625,-7.4032734375,-5.12146875,-3.50639453125,-14.792640625,-14.91685546875,-12.26802734375,-8.17923828125
-1.68066015625,0.122921875,2.2281171875,-2.75459765625,-0.962675781250001,1.823765625,5.264296875,-2.746375,-4.70155078125,3.41045703125,5.1184140625,-0.876636718749999,3.03888671875,-0.660375,-0.81273828125,2.62002734375,0.84996484375,-8.13281640625,-1.88392578125,0.575,0.3212578125,-7.3573203125,-6.61684765625,-4.9732734375,-1.23346875,2.74660546875,-12.435640625,-14.74885546875,-10.66602734375,-4.47523828125
-3.10666015625,-1.498078125,1.7941171875,-4.62159765625,-2.56767578125,0.0907656250000013,2.386296875,-2.946375,-6.79755078125,2.79245703125,3.7254140625,-0.45963671875,-4.07311328125,-1.172375,0.52226171875,4.64902734375,2.23396484375,-9.38781640625,-0.51592578125,2.965,3.7832578125,-8.4473203125,-5.72884765625,-1.9262734375,2.89153125,8.68060546875,-9.061640625,-13.21185546875,-8.25902734375,-0.41923828125
-3.94866015625,-2.747078125,1.5501171875,-6.46859765625,-3.31767578125,-0.853234374999998,-0.450703124999999,-3.071375,-7.35355078125,2.94445703125,2.5544140625,-0.10963671875,-10.16011328125,-0.704375,2.20726171875,6.54102734375,3.09696484375,-8.45581640625,1.46907421875,5.197,6.9622578125,-8.5913203125,-3.68784765625,1.2027265625,6.62553125,13.69360546875,-5.227640625,-10.34585546875,-5.23402734375,3.44176171875
-4.08166015625,-3.365078125,1.3941171875,-7.76059765625,-3.02367578125,-0.744234374999998,-2.400703125,-3.369375,-6.34855078125,3.80045703125,1.8264140625,-0.0346367187499999,-13.54611328125,0.502625,3.95026171875,7.92402734375,3.35296484375,-5.70381640625,3.58607421875,6.765,9.2752578125,-7.9313203125,-1.07584765625,3.7347265625,9.29353125,17.18160546875,-1.661640625,-6.60785546875,-1.99602734375,6.56876171875
-3.67566015625,-3.399078125,1.1831171875,-8.12559765625,-1.93167578125,0.244765625000001,-3.123703125,-4.040375,-4.39055078125,4.98545703125,1.4954140625,-0.42263671875,-13.50211328125,1.839625,5.34926171875,8.47202734375,2.92096484375,-2.13581640625,5.17307421875,7.25,10.2262578125,-6.8513203125,1.25115234375,5.0757265625,10.35953125,18.64660546875,0.938359375000001,-2.80085546875,0.87597265625,8.48976171875
-3.03066015625,-3.073078125,0.879117187500001,-7.47359765625,-0.500675781250001,1.692765625,-2.828703125,-5.088375,-2.34055078125,6.07645703125,1.3834140625,-1.30863671875,-10.41211328125,2.656625,6.10126171875,8.05302734375,1.89396484375,1.03318359375,5.69307421875,6.513,9.5902578125,-5.7773203125,2.52115234375,4.9187265625,9.61153125,17.80860546875,2.130359375,0.18014453125,2.79997265625,8.88476171875
-2.40866015625,-2.637078125,0.577117187500001,-6.01159765625,0.868324218750001,3.162765625,-2.080703125,-6.303375,-0.85655078125,6.83545703125,1.3464140625,-2.55663671875,-5.47811328125,2.602625,6.16326171875,6.79502734375,0.550964843749999,2.85518359375,4.97407421875,4.773,7.4872578125,-4.9733203125,2.36215234375,3.3497265625,7.23953125,14.74960546875,1.863359375,1.69514453125,3.40397265625,7.68076171875
-1.91266015625,-2.251078125,0.449117187500001,-4.13159765625,1.99432421875,4.380765625,-1.480703125,-7.353375,-0.11255078125,7.29845703125,1.3624140625,-3.90563671875,-0.12311328125,1.795625,5.77526171875,5.06802734375,-0.77403515625,3.00618359375,3.29907421875,2.539,4.3542578125,-4.4213203125,0.95215234375,0.8227265625,3.79453125,9.99060546875,0.486359375000001,1.63814453125,2.70497265625,5.14176171875
-1.47666015625,-1.945078125,0.6401171875,-2.23059765625,2.92832421875,5.289765625,-1.353703125,-7.915375,0.167449218750001,7.71045703125,1.5424140625,-5.06263671875,4.55888671875,0.748625,5.36426171875,3.38302734375,-1.85203515625,1.86818359375,1.30807421875,0.453,0.8382578125,-3.8543203125,-1.04384765625,-1.9762734375,0.0545312499999993,4.45460546875,-1.381640625,0.47414453125,1.13297265625,1.85876171875
-0.940660156249999,-1.653078125,1.1671171875,-0.55659765625,3.85032421875,5.987765625,-1.600703125,-7.827375,0.461449218750001,8.37145703125,2.0384140625,-5.77863671875,8.03488671875,0.0906250000000002,5.35826171875,2.22302734375,-2.60503515625,0.31318359375,-0.22192578125,-0.906,-2.3757421875,-2.9423203125,-2.74384765625,-4.3202734375,-3.19146875,-0.76439453125,-3.063640625,-1.00385546875,-0.62302734375,-1.40723828125
-0.16666015625,-1.285078125,1.8831171875,0.84440234375,4.92732421875,6.592765625,-1.796703125,-7.165375,1.15644921875,9.46045703125,2.9184140625,-5.92363671875,10.19788671875,0.241625,5.99226171875,1.86802734375,-3.05903515625,-0.727816406250001,-0.68192578125,-1.212,-4.7587421875,-1.5413203125,-3.41684765625,-5.6632734375,-5.37846875,-4.76839453125,-4.061640625,-2.07285546875,-1.90102734375,-3.99723828125
0.86233984375,-0.810078125,2.5361171875,2.08540234375,6.19132421875,7.157765625,-1.480703125,-6.196375,2.37344921875,10.90645703125,4.0734140625,-5.52063671875,11.08488671875,1.224625,7.19026171875,2.28502734375,-3.26303515625,-0.67881640625,0.11707421875,-0.52,-6.0987421875,0.1316796875,-2.79184765625,-5.8102734375,-6.35646875,-7.17939453125,-4.222640625,-2.41185546875,-2.34902734375,-5.58523828125
2.00833984375,-0.300078125,2.8771171875,3.32940234375,7.49932421875,7.648765625,-0.467703125,-5.244375,3.94844921875,12.40045703125,5.2304140625,-4.74763671875,10.66488671875,2.699625,8.59726171875,3.15402734375,-3.24503515625,0.48318359375,1.88407421875,0.772,-6.5227421875,1.5546796875,-1.12284765625,-4.9342734375,-6.39846875,-8.21939453125,-3.750640625,-2.16085546875,-2.01702734375,-6.24723828125
3.04533984375,0.115921875,2.7761171875,4.67940234375,8.60032421875,7.993765625,1.008296875,-4.545375,5.53444921875,13.54845703125,6.0644140625,-3.86263671875,8.89288671875,4.184625,9.76626171875,4.03102734375,-3.03203515625,2.32118359375,4.01907421875,2.123,-6.3627421875,2.1706796875,0.98915234375,-3.4322734375,-6.00246875,-8.49239453125,-3.051640625,-1.72885546875,-1.24102734375,-6.32023828125
3.76733984375,0.332921875,2.2751171875,6.13940234375,9.28632421875,8.155765625,2.407296875,-4.168375,6.77844921875,14.07745703125,6.3634140625,-3.10163671875,5.97488671875,5.306625,10.39326171875,4.56302734375,-2.68003515625,4.22118359375,5.91907421875,3.107,-5.9457421875,1.7156796875,2.92015234375,-1.7202734375,-5.61146875,-8.57839453125,-2.516640625,-1.51185546875,-0.42902734375,-6.16923828125
4.09733984375,0.344921875,1.5731171875,7.66240234375,9.50632421875,8.172765625,3.185296875,-4.012375,7.47244921875,13.96445703125,6.1194140625,-2.57263671875,2.61788671875,5.946625,10.45426171875,4.62602734375,-2.25003515625,5.66818359375,7.20807421875,3.575,-5.4527421875,0.3706796875,4.26315234375,-0.0932734374999999,-5.41846875,-8.72039453125,-2.369640625,-1.69185546875,0.10797265625,-5.99723828125
4.09233984375,0.262921875,0.965117187500001,9.17240234375,9.37832421875,8.131765625,3.098296875,-3.880375,7.62344921875,13.40545703125,5.5164140625,-2.23063671875,-0.0531132812500001,6.210625,10.18126171875,4.34002734375,-1.74703515625,6.39118359375,7.79907421875,3.638,-4.9087421875,-1.3153203125,4.90815234375,1.2967265625,-5.34146875,-8.75139453125,-2.619640625,-2.18885546875,0.23297265625,-5.80723828125
3.87433984375,0.254921875,0.719117187500001,10.51240234375,9.09132421875,8.095765625,2.324296875,-3.613375,7.41144921875,12.68145703125,4.8234140625,-1.91863671875,-0.98811328125,6.300625,9.91526171875,3.96602734375,-1.08603515625,6.36618359375,7.81707421875,3.541,-4.2717421875,-2.6853203125,4.98015234375,2.3917265625,-5.14146875,-8.30439453125,-3.110640625,-2.74685546875,-0.02602734375,-5.46823828125
3.54533984375,0.456921875,0.969117187500001,11.36840234375,8.78432421875,8.039765625,1.348296875,-3.199375,7.06044921875,12.01345703125,4.2644140625,-1.45363671875,0.17388671875,6.365625,9.92526171875,3.76702734375,-0.185035156250001,5.74318359375,7.47307421875,3.514,-3.5347421875,-3.2693203125,4.69015234375,3.1607265625,-4.57646875,-7.11839453125,-3.631640625,-3.09785546875,-0.52902734375,-4.84423828125
3.13733984375,0.895921875,1.6521171875,11.31640234375,8.45332421875,7.864765625,0.699296875,-2.759375,6.70144921875,11.46045703125,3.9244140625,-0.72263671875,2.83988671875,6.407625,10.28626171875,3.89802734375,0.877964843749999,4.73918359375,6.93107421875,3.656,-2.7517421875,-2.9833203125,4.20515234375,3.5577265625,-3.53746875,-5.25339453125,-4.037640625,-3.12285546875,-1.12702734375,-3.90823828125
2.61833984375,1.458921875,2.5421171875,10.03940234375,7.94932421875,7.461765625,0.695296875,-2.453375,6.28644921875,10.90445703125,3.7334140625,0.25836328125,5.72888671875,6.277625,10.83226171875,4.36602734375,1.81996484375,3.54218359375,6.23907421875,3.901,-1.9887421875,-2.1443203125,3.57315234375,3.5137265625,-2.10946875,-3.06939453125,-4.313640625,-2.90885546875,-1.74802734375,-2.77723828125
1.92833984375,1.914921875,3.3241171875,7.56540234375,7.04032421875,6.780765625,1.302296875,-2.398375,5.60644921875,10.12245703125,3.5214140625,1.31636328125,7.47088671875,5.743625,11.22126171875,5.05602734375,2.33796484375,2.27718359375,5.35707421875,4.067,-1.2467421875,-1.2893203125,2.76115234375,2.9907265625,-0.509468750000001,-1.01139453125,-4.545640625,-2.66185546875,-2.38302734375,-1.61523828125
1.01333984375,2.003921875,3.6931171875,4.35340234375,5.53932421875,5.841765625,2.186296875,-2.638375,4.40444921875,8.92345703125,3.1054140625,2.14736328125,7.17388671875,4.637625,11.09626171875,5.78402734375,2.35796484375,1.03018359375,4.25107421875,3.986,-0.4387421875,-0.9043203125,1.76715234375,2.0637265625,1.04153125,0.66660546875,-4.794640625,-2.49785546875,-2.96602734375,-0.48423828125
-0.12466015625,1.552921875,3.4401171875,1.16740234375,3.43332421875,4.729765625,2.906296875,-3.153375,2.55344921875,7.28445703125,2.3844140625,2.42636328125,4.72288671875,2.991625,10.27226171875,6.37602734375,2.11796484375,-0.08781640625,3.01107421875,3.616,0.5572578125,-1.2073203125,0.70915234375,0.9777265625,2.43853125,2.04660546875,-4.992640625,-2.29985546875,-3.27202734375,0.75876171875
-1.39066015625,0.591921875,2.5461171875,-1.20459765625,0.97132421875,3.587765625,3.167296875,-3.852375,0.18744921875,5.42545703125,1.3954140625,1.97336328125,0.76688671875,1.107625,8.86726171875,6.72102734375,2.00696484375,-0.929816406250001,1.88007421875,3.092,1.8092578125,-2.0833203125,-0.16784765625,0.1027265625,3.71653125,3.46360546875,-4.924640625,-1.75885546875,-2.96102734375,2.38576171875
-2.58566015625,-0.613078125,1.2181171875,-2.26159765625,-1.32767578125,2.591765625,2.962296875,-4.597375,-2.27555078125,3.76045703125,0.316414062500002,0.89636328125,-3.53111328125,-0.512375,7.30026171875,6.79902734375,2.31196484375,-1.36681640625,1.20407421875,2.689,3.2842578125,-3.1503203125,-0.56284765625,-0.1732734375,4.99853125,5.28560546875,-4.318640625,-0.56985546875,-1.74002734375,4.60676171875
-3.44666015625,-1.638078125,-0.183882812499999,-1.99159765625,-2.79967578125,1.893765625,2.523296875,-5.283375,-4.26055078125,2.76645703125,-0.592585937499998,-0.39863671875,-6.93311328125,-1.334375,6.15326171875,6.66102734375,3.08696484375,-1.37281640625,1.31807421875,2.739,4.8662578125,-3.9013203125,-0.21484765625,0.4337265625,6.43053125,7.69860546875,-2.948640625,1.37114453125,0.48997265625,7.41676171875
-3.72266015625,-2.082078125,-1.3018828125,-0.848597656250002,-2.85367578125,1.555765625,2.151296875,-5.917375,-5.24055078125,2.80445703125,-1.0955859375,-1.36663671875,-8.56211328125,-0.986375,5.95326171875,6.38202734375,4.19096484375,-1.04181640625,2.43507421875,3.524,6.4202578125,-3.8663203125,1.02615234375,2.0347265625,8.11953125,10.64360546875,-0.714640624999999,3.91514453125,3.61097265625,10.59776171875
-3.28266015625,-1.733078125,-1.9258828125,0.518402343749999,-1.20467578125,1.531765625,2.052296875,-6.595375,-4.94655078125,3.98945703125,-1.0755859375,-1.58563671875,-8.17011328125,0.620625,6.96726171875,6.02702734375,5.42096484375,-0.53481640625,4.56607421875,5.168,7.8562578125,-2.7793203125,3.15815234375,4.5587265625,10.09853125,13.91060546875,2.336359375,6.78314453125,7.38197265625,13.87376171875
-2.18766015625,-0.653078125,-2.0638828125,1.63640234375,1.96432421875,1.714765625,2.269296875,-7.404375,-3.48755078125,6.13845703125,-0.580585937499999,-0.96663671875,-6.12911328125,3.267625,9.08926171875,5.63602734375,6.62496484375,0.0181835937499999,7.51207421875,7.569,9.1572578125,-0.7003203125,6.01015234375,7.7827265625,12.31553125,17.28460546875,6.022359375,9.73814453125,11.54397265625,17.05776171875
-0.699660156249999,0.852921875,-1.9128828125,2.43340234375,6.02132421875,1.984765625,2.703296875,-8.334375,-1.33855078125,8.82945703125,0.192414062500002,0.19836328125,-3.23211328125,6.491625,11.86326171875,5.23102734375,7.75496484375,0.56618359375,10.90507421875,10.411,10.3672578125,1.9716796875,9.26415234375,11.3737265625,14.66053125,20.64560546875,10.054359375,12.67814453125,15.88197265625,20.13076171875
-0.699660156249999,0.852921875,-1.9128828125,2.43340234375,6.02132421875,1.984765625,2.703296875,-8.334375,-1.33855078125,8.82945703125,0.192414062500002,0.19836328125,-3.23211328125,6.491625,11.86326171875,5.23102734375,7.75496484375,0.56618359375,10.90507421875,10.411,10.3672578125,1.9716796875,9.26415234375,11.3737265625,14.66053125,20.64560546875,10.054359375,12.67814453125,15.88197265625,20.13076171875
