"Fp1","Fpz","Fp2","F7","F3","Fz","F4","F8","FC5","FC1","FC2","FC6","T7","C3","Cz","C4","T8","CP5","CP1","CP2","CP6","P7","P3","Pz","P4","P8","POz","O1","Oz","O2"
1.85357421875,-2.7372578125,-3.30981640625,12.7535625,5.60765625,-6.71893359375,-8.254625,0.741484375,6.051609375,-13.9994765625,-9.83066796875,-10.052578125,6.8365859375,-6.38166796875,-13.709796875,-11.23891796875,-0.61616015625,-1.22678515625,-5.6614140625,-11.614859375,-8.6457890625,0.91161328125,-6.22171875,-10.381734375,-12.942640625,-7.778453125,-5.36398046875,-6.0126328125,-21.3562109375,-13.794578125
2.94257421875,-3.5692578125,-3.32681640625,12.1125625,3.90965625,-8.00293359375,-8.926625,1.846484375,4.671609375,-13.8864765625,-9.78566796875,-10.814578125,9.6185859375,-6.07766796875,-13.714796875,-12.81091796875,-0.57816015625,-0.11678515625,-5.8684140625,-11.898859375,-9.1507890625,2.97361328125,-5.10571875,-10.324734375,-13.162640625,-8.639453125,-4.21198046875,-3.9716328125,-20.9792109375,-12.641578125
3.79157421875,-3.8402578125,-3.29381640625,11.9135625,3.28265625,-8.50493359375,-8.938625,2.441484375,4.584609375,-13.0764765625,-8.84266796875,-10.934578125,11.4805859375,-4.84166796875,-12.803796875,-12.65291796875,-0.69516015625,1.36821484375,-4.8494140625,-10.749859375,-8.9087890625,4.79161328125,-3.55671875,-9.105734375,-12.167640625,-8.567453125,-2.08598046875,-2.0026328125,-20.5842109375,-11.289578125
4.16657421875,-3.5812578125,-3.15081640625,12.0055625,3.67365625,-8.28793359375,-8.145625,2.632484375,5.425609375,-11.7474765625,-7.09266796875,-10.238578125,12.1685859375,-3.00266796875,-11.118796875,-10.55591796875,-0.65416015625,2.96321484375,-2.7684140625,-8.122859375,-7.6787890625,6.06661328125,-1.79371875,-6.779734375,-9.840640625,-7.490453125,0.88601953125,-0.2116328125,-20.1962109375,-9.676578125
3.84657421875,-3.0392578125,-2.85881640625,12.0225625,4.61265625,-7.72393359375,-6.706625,2.624484375,6.304609375,-10.3944765625,-4.99166796875,-8.758578125,11.6835859375,-1.30066796875,-9.148796875,-6.89291796875,-0.0671601562499997,4.15621484375,-0.2774140625,-4.495859375,-5.4327890625,6.48761328125,-0.25271875,-3.841734375,-6.457640625,-5.618453125,4.18001953125,1.2753671875,-19.8512109375,-7.824578125
2.75757421875,-2.5752578125,-2.45781640625,11.5435625,5.40165625,-7.32793359375,-5.092625,2.530484375,6.280609375,-9.6124765625,-3.18266796875,-6.764578125,10.3045859375,-0.51866796875,-7.496796875,-2.51491796875,1.23783984375,4.42121484375,1.7875859375,-0.687859375,-2.4157890625,5.90761328125,0.61428125,-1.005734375,-2.600640625,-3.328453125,7.10901953125,2.3473671875,-19.5782109375,-5.870578125
1.08957421875,-2.5152578125,-2.08481640625,10.3195625,5.42065625,-7.52693359375,-3.876625,2.330484375,4.859609375,-9.8184765625,-2.22966796875,-4.701578125,8.5055859375,-1.10966796875,-6.616796875,1.48708203125,3.02283984375,3.48221484375,2.7705859375,2.432140625,0.8762109375,4.46961328125,0.55128125,1.065265625,1.018359375,-1.028453125,9.09201953125,2.9533671875,-19.3862109375,-4.044578125
-0.71542578125,-3.0202578125,-1.94081640625,8.4395625,4.41765625,-8.45293359375,-3.418625,1.957484375,2.241609375,-11.0414765625,-2.39466796875,-3.062578125,6.7945859375,-2.99166796875,-6.646796875,4.07908203125,4.71983984375,1.47321484375,2.4605859375,4.234140625,3.8122109375,2.58661328125,-0.399718749999999,1.996265625,3.761359375,0.926546875000001,9.85701953125,3.1183671875,-19.2762109375,-2.578578125
-2.14042578125,-4.0242578125,-2.20081640625,6.3475625,2.62965625,-9.87993359375,-3.701625,1.398484375,-0.791390625,-12.8804765625,-3.53466796875,-2.237578125,5.5025859375,-5.58466796875,-7.384796875,4.57808203125,5.72983984375,-1.09678515625,1.1515859375,4.520140625,5.8082109375,0.75861328125,-1.91171875,1.803265625,5.256359375,2.277546875,9.50001953125,2.9203671875,-19.2752109375,-1.628578125
-2.84142578125,-5.2742578125,-2.91581640625,4.6335625,0.64265625,-11.32993359375,-4.427625,0.701484375,-3.286390625,-14.6534765625,-5.16966796875,-2.385578125,4.6605859375,-8.05566796875,-8.398796875,2.87608203125,5.75983984375,-3.55678515625,-0.5164140625,3.530140625,6.5112109375,-0.67138671875,-3.51671875,0.826265625,5.491359375,2.857546875,8.37901953125,2.4543671875,-19.4772109375,-1.235578125
-2.84042578125,-6.4682578125,-3.96381640625,3.7275625,-0.91634375,-12.32793359375,-5.271625,-0.0505156249999996,-4.585390625,-15.6984765625,-6.70566796875,-3.394578125,3.9855859375,-9.66366796875,-9.227796875,-0.51491796875,4.94683984375,-5.34878515625,-1.8674140625,1.797140625,5.9132109375,-1.67038671875,-4.79371875,-0.461734375,4.774359375,2.584546875,6.90301953125,1.7593671875,-20.0702109375,-1.376578125
-2.52942578125,-7.4102578125,-5.11081640625,3.6655625,-1.69434375,-12.66693359375,-6.091625,-0.734515625,-4.594390625,-15.6684765625,-7.69566796875,-4.936578125,2.9995859375,-10.04166796875,-9.579796875,-4.61291796875,3.70583984375,-6.21378515625,-2.4844140625,-0.0848593750000002,4.3352109375,-2.47238671875,-5.53071875,-1.659734375,3.556359375,1.446546875,5.35401953125,0.7783671875,-21.3222109375,-2.029578125
-2.45842578125,-8.0722578125,-6.10781640625,4.1085625,-1.73734375,-12.49393359375,-6.948625,-1.165515625,-3.720390625,-14.6774765625,-8.00766796875,-6.558578125,1.2625859375,-9.29766796875,-9.419796875,-8.26091796875,2.46583984375,-6.18278515625,-2.3314140625,-1.643859375,2.3082109375,-3.33438671875,-5.74371875,-2.539734375,2.253359375,-0.466453125,3.85501953125,-0.5846328125,-23.4412109375,-3.171578125
-3.01742578125,-8.5162578125,-6.75681640625,4.5915625,-1.40934375,-12.17293359375,-7.980625,-1.110515625,-2.555390625,-13.2034765625,-7.79066796875,-7.796578125,-1.3464140625,-7.88666796875,-8.904796875,-10.45891796875,1.49183984375,-5.43878515625,-1.6484140625,-2.588859375,0.4122109375,-4.24638671875,-5.54271875,-2.977734375,1.150359375,-2.887453125,2.48401953125,-2.3116328125,-26.3722109375,-4.698578125
-4.20842578125,-8.7752578125,-6.93281640625,4.8125625,-1.16434375,-12.04293359375,-9.244625,-0.397515625,-1.556390625,-11.8494765625,-7.32466796875,-8.287578125,-4.4474140625,-6.38566796875,-8.235796875,-10.64891796875,0.86083984375,-4.16878515625,-0.7444140625,-2.792859375,-0.8907890625,-4.83438671875,-4.97871875,-2.856734375,0.391359375,-5.329453125,1.40901953125,-4.1236328125,-29.6552109375,-6.355578125
-5.69842578125,-8.8352578125,-6.63881640625,4.7305625,-1.34334375,-12.28393359375,-10.652625,0.926484375,-0.934390625,-11.1214765625,-6.89066796875,-7.933578125,-7.2544140625,-5.30966796875,-7.593796875,-8.91491796875,0.52883984375,-2.53178515625,0.1385859375,-2.290859375,-1.3907890625,-4.57038671875,-4.02571875,-2.077734375,-0.00264062500000017,-7.178453125,0.87601953125,-5.5256328125,-32.5302109375,-7.768578125
-7.08342578125,-8.7322578125,-6.07981640625,4.4235625,-2.09934375,-12.95693359375,-12.013625,2.511484375,-0.767390625,-11.3144765625,-6.73566796875,-6.990578125,-8.9614140625,-5.03566796875,-7.177796875,-5.99891796875,0.39283984375,-0.72978515625,0.8195859375,-1.318859375,-1.1847890625,-3.16138671875,-2.70771875,-0.683734375,-0.125640625,-7.917453125,1.06101953125,-6.0196328125,-34.2622109375,-8.587578125
-8.15642578125,-8.6482578125,-5.64481640625,3.8775625,-3.44434375,-14.08793359375,-13.129625,3.767484375,-1.160390625,-12.5044765625,-7.08266796875,-5.988578125,-9.1734140625,-5.76066796875,-7.250796875,-3.05491796875,0.35283984375,0.94321484375,1.1295859375,-0.311859375,-0.6267890625,-0.81538671875,-1.22471875,1.006265625,-0.180640625,-7.377453125,1.90601953125,-5.3786328125,-34.4882109375,-8.654578125
-8.94242578125,-8.8652578125,-5.74181640625,2.9375625,-5.29434375,-15.66093359375,-13.851625,4.107484375,-2.248390625,-14.5524765625,-8.07066796875,-5.478578125,-8.1114140625,-7.43666796875,-8.071796875,-1.21291796875,0.33983984375,2.16121484375,0.8935859375,0.206140625,-0.1817890625,1.80261328125,0.0562812500000005,2.427265625,-0.432640625,-5.851453125,3.08201953125,-3.7806328125,-33.3942109375,-8.075578125
-9.55542578125,-9.6032578125,-6.56181640625,1.4595625,-7.44234375,-17.53093359375,-14.102625,3.262484375,-4.049390625,-17.1124765625,-9.65266796875,-5.772578125,-6.4674140625,-9.73266796875,-9.750796875,-1.14391796875,0.30583984375,2.70421484375,0.000585937499999911,-0.198859375,-0.2677890625,3.87161328125,0.75528125,2.950265625,-1.123640625,-4.023453125,4.10401953125,-1.7566328125,-31.6182109375,-7.180578125
-10.02042578125,-10.8592578125,-7.94381640625,-0.482437500000001,-9.52034375,-19.36893359375,-13.890625,1.473484375,-6.300390625,-19.6794765625,-11.53066796875,-6.819578125,-5.0334140625,-12.10766796875,-12.116796875,-2.83491796875,0.18283984375,2.57621484375,-1.5204140625,-1.699859375,-1.1247890625,4.76461328125,0.65328125,2.154265625,-2.383640625,-2.727453125,4.54601953125,0.0253671875000001,-29.9692109375,-6.392578125
-10.24342578125,-12.3552578125,-9.43481640625,-2.5034375,-11.04734375,-20.73493359375,-13.319625,-0.610515625,-8.455390625,-21.7084765625,-13.24766796875,-8.252578125,-4.3404140625,-13.98566796875,-14.729796875,-5.65991796875,-0.13216015625,1.99021484375,-3.4684140625,-4.129859375,-2.7537890625,4.26361328125,-0.21071875,0.0172656249999998,-4.172640625,-2.624453125,4.21701953125,1.0183671875,-29.0832109375,-6.061578125
-10.12142578125,-13.6452578125,-10.50781640625,-4.0494375,-11.61434375,-21.26593359375,-12.572625,-2.277515625,-9.883390625,-22.7974765625,-14.39566796875,-9.577578125,-4.4854140625,-14.98566796875,-17.056796875,-8.69391796875,-0.74316015625,1.23021484375,-5.5424140625,-7.056859375,-4.9177890625,2.57561328125,-1.58171875,-3.058734375,-6.283640625,-3.944453125,3.21901953125,1.0003671875,-29.1912109375,-6.342578125
-9.70242578125,-14.3462578125,-10.84281640625,-4.6584375,-11.09834375,-20.89193359375,-11.876625,-3.134515625,-10.180390625,-22.8744765625,-14.86266796875,-10.427578125,-5.2034140625,-15.08366796875,-18.736796875,-11.13891796875,-1.70316015625,0.47321484375,-7.4694140625,-9.973859375,-7.2457890625,0.17261328125,-3.14671875,-6.427734375,-8.413640625,-6.409453125,1.85901953125,0.1203671875,-30.0932109375,-7.143578125
-9.24342578125,-14.3702578125,-10.51981640625,-4.2214375,-9.79734375,-19.94593359375,-11.474625,-3.263515625,-9.416390625,-22.2584765625,-14.93366796875,-10.789578125,-6.0844140625,-14.63466796875,-19.763796875,-12.66991796875,-2.99316015625,-0.29978515625,-9.1324140625,-12.516859375,-9.3987890625,-2.41438671875,-4.69871875,-9.476734375,-10.283640625,-9.375453125,0.47801953125,-1.2046328125,-31.3182109375,-8.179578125
-9.11142578125,-13.9992578125,-10.00681640625,-3.0624375,-8.37634375,-19.06393359375,-11.608625,-3.107515625,-8.133390625,-21.5454765625,-15.17866796875,-11.030578125,-6.7994140625,-14.19266796875,-20.477796875,-13.51491796875,-4.50816015625,-1.23578515625,-10.5624140625,-14.580859375,-11.1887890625,-4.73538671875,-6.17471875,-11.834734375,-11.718640625,-12.077453125,-0.68498046875,-2.4606328125,-32.3542109375,-9.084578125
-9.55742578125,-13.7312578125,-9.92581640625,-1.8014375,-7.63134375,-18.88193359375,-12.484625,-3.170515625,-7.089390625,-21.3254765625,-16.13366796875,-11.671578125,-7.1974140625,-14.23566796875,-21.311796875,-14.22791796875,-6.05216015625,-2.43078515625,-11.8234140625,-16.265859375,-12.5657890625,-6.44738671875,-7.56571875,-13.419734375,-12.647640625,-13.857453125,-1.53398046875,-3.2136328125,-32.8372109375,-9.546578125
-10.52042578125,-13.9752578125,-10.68481640625,-1.0524375,-8.11734375,-19.66993359375,-14.170625,-3.695515625,-6.854390625,-21.8834765625,-17.94666796875,-13.003578125,-7.2914140625,-14.90266796875,-22.475796875,-15.29191796875,-7.32716015625,-3.77678515625,-12.8644140625,-17.692859375,-13.5127890625,-7.31038671875,-8.77671875,-14.334734375,-13.059640625,-14.300453125,-2.06898046875,-3.2106328125,-32.6402109375,-9.411578125
-11.60442578125,-14.7802578125,-12.19681640625,-1.1254375,-9.82134375,-21.15893359375,-16.479625,-4.490515625,-7.510390625,-23.0454765625,-20.21966796875,-14.804578125,-7.1684140625,-15.91966796875,-23.786796875,-16.79891796875,-7.96316015625,-4.95978515625,-13.4854140625,-18.837859375,-13.9497890625,-7.17838671875,-9.58971875,-14.723734375,-12.964640625,-13.321453125,-2.32798046875,-2.4416328125,-31.8732109375,-8.718578125
-12.26642578125,-15.7712578125,-13.85881640625,-1.8884375,-12.08234375,-22.63593359375,-18.905625,-5.006515625,-8.611390625,-24.2494765625,-22.14866796875,-16.373578125,-6.8904140625,-16.71066796875,-24.740796875,-18.38691796875,-7.63316015625,-5.58878515625,-13.4194140625,-19.495859375,-13.7407890625,-6.03938671875,-9.72671875,-14.665734375,-12.369640625,-11.179453125,-2.33998046875,-1.1066328125,-30.8102109375,-7.646578125
-12.12142578125,-16.3252578125,-14.80781640625,-2.8694375,-13.86234375,-23.27993359375,-20.702625,-4.673515625,-9.428390625,-24.8014765625,-22.91766796875,-16.887578125,-6.4164140625,-16.65966796875,-24.773796875,-19.43291796875,-6.21516015625,-5.37278515625,-12.4754140625,-19.364859375,-12.7777890625,-4.03838671875,-8.97871875,-14.127734375,-11.288640625,-8.398453125,-2.10798046875,0.4683671875,-29.7412109375,-6.411578125
-11.17142578125,-15.9002578125,-14.33681640625,-3.5284375,-14.26234375,-22.56793359375,-21.151625,-3.282515625,-9.343390625,-24.1954765625,-22.12466796875,-15.901578125,-5.6014140625,-15.40066796875,-23.563796875,-19.41091796875,-3.96216015625,-4.26278515625,-10.6654140625,-18.234859375,-11.0867890625,-1.49538671875,-7.33071875,-13.006734375,-9.771640625,-5.626453125,-1.63798046875,1.9383671875,-28.8642109375,-5.191578125
-9.82842578125,-14.3702578125,-12.28781640625,-3.5304375,-12.99034375,-20.56793359375,-19.925625,-1.190515625,-8.198390625,-22.3834765625,-20.02166796875,-13.686578125,-4.2974140625,-13.05366796875,-21.244796875,-18.22591796875,-1.53316015625,-2.51778515625,-8.2774140625,-16.186859375,-8.9207890625,1.10661328125,-5.04671875,-11.258734375,-7.961640625,-3.494453125,-1.00998046875,2.9903671875,-28.2782109375,-4.140578125
-8.70942578125,-12.1892578125,-9.24481640625,-2.8924375,-10.54634375,-17.98593359375,-17.377625,0.796484375,-6.425390625,-19.8584765625,-17.44566796875,-11.182578125,-2.5174140625,-10.26966796875,-18.429796875,-16.34291796875,0.17583984375,-0.66178515625,-5.8484140625,-13.683859375,-6.7707890625,3.21361328125,-2.66471875,-9.037734375,-6.152640625,-2.507453125,-0.44698046875,3.3643671875,-28.0772109375,-3.448578125
-8.31342578125,-10.2352578125,-6.37481640625,-1.9164375,-7.99934375,-15.88393359375,-14.525625,1.774484375,-4.835390625,-17.4784765625,-15.45866796875,-9.546578125,-0.5334140625,-8.01466796875,-15.986796875,-14.60491796875,0.39983984375,0.70021484375,-4.0064140625,-11.444859375,-5.2437890625,4.38561328125,-0.83471875,-6.734734375,-4.759640625,-2.932453125,-0.27498046875,2.9043671875,-28.3882109375,-3.329578125
-8.75142578125,-9.3812578125,-4.91381640625,-0.981437500000001,-6.46034375,-15.18693359375,-12.632625,1.179484375,-4.179390625,-16.0944765625,-14.87066796875,-9.538578125,1.1705859375,-7.14366796875,-14.670796875,-13.80791796875,-1.09316015625,1.15521484375,-3.2224140625,-10.142859375,-4.8247890625,4.50561328125,-0.0497187499999998,-4.845734375,-4.176640625,-4.673453125,-0.75898046875,1.6533671875,-29.3132109375,-3.923578125
-9.69242578125,-10.0382578125,-5.55381640625,-0.3174375,-6.52734375,-16.23893359375,-12.570625,-0.901515625,-4.716390625,-16.1644765625,-15.88166796875,-11.123578125,2.0915859375,-7.99366796875,-14.786796875,-14.28891796875,-3.80416015625,0.68721484375,-3.6074140625,-10.100859375,-5.6517890625,3.84461328125,-0.43471875,-3.758734375,-4.591640625,-7.241453125,-1.94098046875,-0.1096328125,-30.8072109375,-5.181578125
-10.57842578125,-11.9362578125,-8.07681640625,0.0715624999999998,-8.00034375,-18.65893359375,-14.396625,-3.735515625,-6.088390625,-17.5804765625,-18.03666796875,-13.519578125,1.9245859375,-10.23066796875,-16.097796875,-15.76791796875,-6.69116015625,-0.32278515625,-4.8854140625,-11.172859375,-7.4337890625,2.90261328125,-1.71871875,-3.594734375,-5.878640625,-9.878453125,-3.57898046875,-1.9516328125,-32.6282109375,-6.836578125
-10.96042578125,-14.2772578125,-11.47081640625,0.3265625,-10.04434375,-21.54793359375,-17.408625,-6.297515625,-7.542390625,-19.7754765625,-20.49066796875,-15.634578125,0.7095859375,-13.02366796875,-17.977796875,-17.51091796875,-8.65916015625,-1.31078515625,-6.5464140625,-12.843859375,-9.5777890625,2.13961328125,-3.39371875,-4.191734375,-7.625640625,-11.828453125,-5.25198046875,-3.4656328125,-34.4042109375,-8.474578125
-10.77042578125,-16.1332578125,-14.44981640625,0.566562499999999,-11.67634375,-23.92793359375,-20.608625,-7.798515625,-8.374390625,-22.0284765625,-22.42966796875,-16.634578125,-1.1424140625,-15.43666796875,-19.737796875,-18.71491796875,-9.09316015625,-1.83178515625,-8.0724140625,-14.474859375,-11.4217890625,1.77661328125,-4.95171875,-5.208734375,-9.302640625,-12.595453125,-6.55098046875,-4.4466328125,-35.7802109375,-9.702578125
-10.32742578125,-16.8812578125,-16.06981640625,0.777562499999999,-12.28434375,-25.15493359375,-23.216625,-8.051515625,-8.295390625,-23.7854765625,-23.41966796875,-16.335578125,-2.9604140625,-16.83066796875,-20.908796875,-18.90091796875,-8.12116015625,-1.77578515625,-9.1404140625,-15.557859375,-12.5007890625,1.76861328125,-6.07271875,-6.282734375,-10.474640625,-12.079453125,-7.25098046875,-4.9656328125,-36.5702109375,-10.309578125
-10.08742578125,-16.4502578125,-16.10881640625,0.827562499999999,-11.84834375,-25.12993359375,-24.905625,-7.445515625,-7.536390625,-24.8244765625,-23.50366796875,-15.223578125,-4.0404140625,-17.07766796875,-21.381796875,-18.12291796875,-6.46816015625,-1.38678515625,-9.7094140625,-15.878859375,-12.6967890625,1.91061328125,-6.71171875,-7.156734375,-10.952640625,-10.546453125,-7.37998046875,-5.3026328125,-36.8242109375,-10.337578125
-10.31442578125,-15.2762578125,-15.05981640625,0.5735625,-10.82534375,-24.22293359375,-25.693625,-6.626515625,-6.646390625,-25.2154765625,-23.03666796875,-14.133578125,-3.9124140625,-16.51566796875,-21.339796875,-16.88191796875,-5.02816015625,-1.11378515625,-9.9504140625,-15.527859375,-12.2177890625,1.97961328125,-7.03271875,-7.714734375,-10.811640625,-8.477453125,-7.12998046875,-5.7536328125,-36.7342109375,-10.019578125
-10.91642578125,-14.0172578125,-13.79981640625,-0.0374375000000002,-9.82834375,-22.98993359375,-25.716625,-6.143515625,-6.165390625,-25.1544765625,-22.40066796875,-13.745578125,-2.5624140625,-15.70066796875,-21.063796875,-15.79791796875,-4.38416015625,-1.35878515625,-10.0944140625,-14.777859375,-11.4267890625,1.83861328125,-7.24871875,-7.936734375,-10.272640625,-6.375453125,-6.67898046875,-6.3956328125,-36.4402109375,-9.584578125
-11.56842578125,-13.2212578125,-13.15281640625,-0.956437500000001,-9.33734375,-21.89593359375,-25.066625,-6.251515625,-6.380390625,-24.8174765625,-21.78966796875,-14.227578125,-0.4884140625,-15.12066796875,-20.760796875,-15.25891796875,-4.58116015625,-2.27178515625,-10.2684140625,-13.924859375,-10.6547890625,1.48161328125,-7.44671875,-7.838734375,-9.553640625,-4.623453125,-6.04498046875,-6.9746328125,-35.8612109375,-9.094578125
-11.99142578125,-13.1232578125,-13.53481640625,-2.0944375,-9.53734375,-21.16693359375,-23.810625,-6.884515625,-7.262390625,-24.3134765625,-21.19366796875,-15.213578125,1.4415859375,-15.00766796875,-20.506796875,-15.27091796875,-5.23316015625,-3.67178515625,-10.4374140625,-13.179859375,-10.0937890625,1.02061328125,-7.52571875,-7.455734375,-8.784640625,-3.433453125,-5.08398046875,-7.0016328125,-34.7132109375,-8.427578125
-12.16342578125,-13.6302578125,-14.79481640625,-3.3744375,-10.33434375,-20.79393359375,-22.080625,-7.762515625,-8.548390625,-23.7084765625,-20.51466796875,-16.097578125,2.2775859375,-15.29366796875,-20.274796875,-15.54691796875,-5.83916015625,-5.11878515625,-10.4544140625,-12.647859375,-9.8007890625,0.64261328125,-7.27371875,-6.863734375,-8.021640625,-2.874453125,-3.62798046875,-6.0396328125,-32.7412109375,-7.433578125
-12.27842578125,-14.4342578125,-16.30281640625,-4.7164375,-11.46734375,-20.62193359375,-20.138625,-8.577515625,-9.864390625,-23.0694765625,-19.72366796875,-16.400578125,1.3395859375,-15.70566796875,-19.997796875,-15.74791796875,-6.09216015625,-6.12078515625,-10.1684140625,-12.352859375,-9.7637890625,0.53461328125,-6.51671875,-6.201734375,-7.324640625,-2.929453125,-1.67398046875,-4.0006328125,-29.9862109375,-6.116578125
-12.54842578125,-15.1952578125,-17.27181640625,-6.0094375,-12.67134375,-20.46093359375,-18.347625,-9.178515625,-10.858390625,-22.4824765625,-18.93266796875,-16.012578125,-1.5144140625,-15.94866796875,-19.619796875,-15.69491796875,-6.00216015625,-6.37178515625,-9.5464140625,-12.275859375,-9.9657890625,0.81361328125,-5.26471875,-5.659734375,-6.802640625,-3.534453125,0.50501953125,-1.2586328125,-26.9072109375,-4.714578125
-13.02142578125,-15.7032578125,-17.15381640625,-7.1134375,-13.77434375,-20.21793359375,-17.086625,-9.619515625,-11.332390625,-22.0544765625,-18.35466796875,-15.199578125,-5.8004140625,-15.88266796875,-19.149796875,-15.44991796875,-5.84216015625,-5.92278515625,-8.7394140625,-12.388859375,-10.4117890625,1.45361328125,-3.77171875,-5.438734375,-6.610640625,-4.584453125,2.39301953125,1.4553671875,-24.2562109375,-3.601578125
-13.55742578125,-15.9512578125,-15.91281640625,-7.9124375,-14.69734375,-19.94193359375,-16.657625,-10.061515625,-11.330390625,-21.8724765625,-18.19566796875,-14.399578125,-10.5284140625,-15.59566796875,-18.669796875,-15.22691796875,-5.95816015625,-5.15678515625,-8.0474140625,-12.651859375,-11.0877890625,2.29161328125,-2.44671875,-5.681734375,-6.848640625,-5.890453125,3.42801953125,3.3643671875,-22.7542109375,-3.090578125
-13.91342578125,-16.0522578125,-14.00781640625,-8.3624375,-15.37434375,-19.75593359375,-17.189625,-10.609515625,-11.094390625,-21.9334765625,-18.48966796875,-13.929578125,-14.4634140625,-15.30666796875,-18.257796875,-15.17991796875,-6.53316015625,-4.56578515625,-7.7584140625,-12.950859375,-11.8407890625,3.11661328125,-1.64171875,-6.360734375,-7.420640625,-7.111453125,3.28101953125,4.0003671875,-22.7362109375,-3.234578125
-13.85642578125,-16.0752578125,-12.10081640625,-8.4954375,-15.67034375,-19.68893359375,-18.548625,-11.200515625,-10.895390625,-22.0614765625,-19.00266796875,-13.773578125,-16.4594140625,-15.15366796875,-17.861796875,-15.19091796875,-7.42716015625,-4.43378515625,-7.9294140625,-13.013859375,-12.2797890625,3.82161328125,-1.41371875,-7.185734375,-7.947640625,-7.744453125,2.09401953125,3.4573671875,-23.9472109375,-3.739578125
-13.26742578125,-15.9332578125,-10.71081640625,-8.3754375,-15.36934375,-19.56993359375,-20.295625,-11.604515625,-10.863390625,-21.9254765625,-19.26966796875,-13.599578125,-15.8174140625,-15.05966796875,-17.233796875,-14.83891796875,-8.21316015625,-4.65878515625,-8.2824140625,-12.425859375,-11.8347890625,4.48061328125,-1.45271875,-7.628734375,-7.837640625,-7.267453125,0.49201953125,2.3683671875,-25.6252109375,-4.047578125
-12.21142578125,-15.4332578125,-10.00581640625,-8.0674375,-14.27334375,-19.10093359375,-21.781625,-11.518515625,-10.930390625,-21.2014765625,-18.79866796875,-13.003578125,-12.6154140625,-14.80466796875,-16.063796875,-13.62191796875,-8.40316015625,-4.83478515625,-8.3354140625,-10.809859375,-10.0437890625,5.27561328125,-1.26071875,-7.142734375,-6.554640625,-5.392453125,-0.69198046875,1.5983671875,-26.8622109375,-3.597578125
-10.96042578125,-14.4652578125,-9.84981640625,-7.6354375,-12.39834375,-18.05693359375,-22.418625,-10.737515625,-10.944390625,-19.7894765625,-17.36866796875,-11.831578125,-7.8134140625,-14.24066796875,-14.228796875,-11.31091796875,-7.74816015625,-4.55178515625,-7.7174140625,-8.108859375,-6.8997890625,6.33761328125,-0.48571875,-5.499734375,-3.965640625,-2.284453125,-0.86998046875,1.7833671875,-27.0582109375,-2.150578125
-9.90342578125,-13.1472578125,-9.96081640625,-7.1694375,-10.10134375,-16.47093359375,-21.980625,-9.314515625,-10.829390625,-17.9324765625,-15.20866796875,-10.329578125,-2.9444140625,-13.45166796875,-11.988796875,-8.20491796875,-6.39416015625,-3.65378515625,-6.4424140625,-4.761859375,-3.0197890625,7.64061328125,0.83728125,-3.016734375,-0.533640625,1.430546875,-0.0429804687499997,2.9873671875,-26.2052109375,0.0104218749999996
-9.34842578125,-11.7962578125,-10.05581640625,-6.7594375,-8.01034375,-14.63693359375,-20.689625,-7.566515625,-10.626390625,-16.1134765625,-12.91266796875,-9.033578125,0.5595859375,-12.71366796875,-9.936796875,-5.07891796875,-4.79316015625,-2.30478515625,-4.9334140625,-1.622859375,0.5582109375,9.03461328125,2.31428125,-0.477734375,2.813359375,4.882546875,1.20401953125,4.6973671875,-24.8322109375,2.153421875
-9.32742578125,-10.7222578125,-9.90381640625,-6.4384375,-6.71434375,-12.93493359375,-19.008625,-5.898515625,-10.379390625,-14.7684765625,-11.10866796875,-8.444578125,2.0475859375,-12.26466796875,-8.706796875,-2.82891796875,-3.42716015625,-0.82478515625,-3.7724140625,0.413140625,2.8562109375,10.34661328125,3.46728125,1.246265625,5.116359375,7.298546875,2.07201953125,6.1523671875,-23.6562109375,3.461421875
-9.53342578125,-10.0232578125,-9.33881640625,-6.1144375,-6.42934375,-11.60393359375,-17.307625,-4.572515625,-9.972390625,-14.0234765625,-10.09966796875,-8.713578125,1.9045859375,-12.08766796875,-8.616796875,-2.02191796875,-2.55416015625,0.52821484375,-3.3334140625,0.846140625,3.4312109375,11.45661328125,4.04928125,1.671265625,5.866359375,8.268546875,2.03701953125,6.7953671875,-23.1492109375,3.464421875
-9.45242578125,-9.5352578125,-8.30381640625,-5.5984375,-6.87434375,-10.61593359375,-15.689625,-3.635515625,-9.107390625,-13.6194765625,-9.71966796875,-9.530578125,1.2235859375,-11.85566796875,-9.477796875,-2.62091796875,-2.17616015625,1.67121484375,-3.5524140625,-0.183859375,2.5322109375,12.30861328125,4.19728125,0.952265625,5.220359375,7.807546875,1.13801953125,6.5453671875,-23.3032109375,2.283421875
-8.62542578125,-8.9912578125,-6.90981640625,-4.7114375,-7.46134375,-9.76793359375,-14.091625,-3.029515625,-7.483390625,-13.1114765625,-9.50866796875,-10.323578125,1.1235859375,-11.11866796875,-10.694796875,-4.06991796875,-2.20716015625,2.64221484375,-3.9794140625,-2.011859375,0.8522109375,12.84961328125,4.29128125,-0.254734375,3.824359375,6.212546875,-0.12298046875,5.7423671875,-23.7152109375,0.516421875
-6.92842578125,-8.2682578125,-5.46581640625,-3.4374375,-7.64034375,-8.91193359375,-12.534625,-2.754515625,-5.082390625,-12.1714765625,-9.06566796875,-10.626578125,2.1125859375,-9.59866796875,-11.591796875,-5.65591796875,-2.66916015625,3.44321484375,-4.0794140625,-3.843859375,-0.9277890625,12.95461328125,4.63028125,-1.220734375,2.360359375,3.851546875,-1.16098046875,4.8303671875,-23.9112109375,-1.143578125
-4.69742578125,-7.5102578125,-4.39681640625,-1.9834375,-7.17634375,-8.13693359375,-11.265625,-2.906515625,-2.324390625,-10.8154765625,-8.31466796875,-10.349578125,3.8685859375,-7.41366796875,-11.759796875,-6.89091796875,-3.67716015625,3.93021484375,-3.5684140625,-5.164859375,-2.4917890625,12.41961328125,5.16028125,-1.584734375,1.161359375,1.040546875,-1.69998046875,4.0403671875,-23.6682109375,-2.280578125
-2.62542578125,-7.0162578125,-4.04281640625,-0.693437500000001,-6.19534375,-7.72393359375,-10.673625,-3.560515625,0.0426093750000001,-9.3804765625,-7.52266796875,-9.757578125,5.5345859375,-5.07066796875,-11.218796875,-7.66591796875,-5.23816015625,3.83921484375,-2.5654140625,-5.907859375,-3.9067890625,11.04261328125,5.45928125,-1.515734375,0.126359375,-1.925453125,-1.89998046875,3.3043671875,-23.0912109375,-2.888578125
-1.44342578125,-7.0082578125,-4.48081640625,0.1325625,-5.03534375,-7.92293359375,-11.077625,-4.617515625,1.277609375,-8.3104765625,-7.08666796875,-9.241578125,6.2735859375,-3.22666796875,-10.334796875,-8.16291796875,-7.07616015625,2.92521484375,-1.5054140625,-6.345859375,-5.3877890625,8.76861328125,4.99028125,-1.537734375,-1.073640625,-4.684453125,-2.19398046875,2.4133671875,-22.4522109375,-3.238578125
-1.57542578125,-7.4732578125,-5.50281640625,0.396562499999999,-4.04234375,-8.76393359375,-12.526625,-5.758515625,1.011609375,-7.9204765625,-7.29666796875,-9.111578125,5.7315859375,-2.40866796875,-9.602796875,-8.67091796875,-8.69316015625,1.11321484375,-0.8984140625,-6.847859375,-7.0347890625,5.79061328125,3.41428125,-2.171734375,-2.680640625,-6.802453125,-2.98298046875,1.2443671875,-21.9542109375,-3.605578125
-2.93642578125,-8.2112578125,-6.75781640625,0.227562499999999,-3.44534375,-10.04393359375,-14.764625,-6.582515625,-0.583390625,-8.2864765625,-8.20966796875,-9.545578125,4.1385859375,-2.81466796875,-9.435796875,-9.44891796875,-9.65316015625,-1.43078515625,-1.0954140625,-7.681859375,-8.7487890625,2.52861328125,0.78828125,-3.652734375,-4.683640625,-7.897453125,-4.41398046875,-0.1376328125,-21.6082109375,-4.094578125
-4.97942578125,-9.0052578125,-7.95081640625,-0.135437500000001,-3.35934375,-11.47493359375,-17.370625,-6.878515625,-2.901390625,-9.2764765625,-9.69066796875,-10.617578125,2.0845859375,-4.29866796875,-10.027796875,-10.65291796875,-9.85816015625,-4.33678515625,-2.1614140625,-8.949859375,-10.3237890625,-0.49838671875,-2.46471875,-5.828734375,-6.844640625,-7.833453125,-6.33498046875,-1.5366328125,-21.2942109375,-4.627578125
-6.96042578125,-9.7532578125,-8.94881640625,-0.506437500000001,-3.86034375,-12.83893359375,-19.928625,-6.815515625,-5.195390625,-10.6604765625,-11.51966796875,-12.301578125,0.1675859375,-6.47266796875,-11.328796875,-12.31591796875,-9.61816015625,-7.14378515625,-3.8974140625,-10.629859375,-11.6157890625,-2.83738671875,-5.73371875,-8.290734375,-8.868640625,-6.825453125,-8.42398046875,-2.7686328125,-20.9002109375,-5.075578125
-8.27242578125,-10.4762578125,-9.78181640625,-0.8544375,-5.02434375,-14.05993359375,-22.113625,-6.854515625,-6.890390625,-12.1994765625,-13.47066796875,-14.420578125,-1.2524140625,-8.86366796875,-13.092796875,-14.32591796875,-9.45716015625,-9.43478515625,-5.9554140625,-12.631859375,-12.6287890625,-4.23238671875,-8.47571875,-10.595734375,-10.567640625,-5.397453125,-10.37298046875,-3.7546328125,-20.4222109375,-5.390578125
-8.67142578125,-11.2262578125,-10.54781640625,-1.2544375,-6.85234375,-15.14293359375,-23.643625,-7.428515625,-7.753390625,-13.6744765625,-15.32066796875,-16.621578125,-2.1034140625,-11.03166796875,-14.953796875,-16.43691796875,-9.77516015625,-10.92578515625,-7.9664140625,-14.818859375,-13.4617890625,-4.65838671875,-10.36671875,-12.448734375,-11.888640625,-4.159453125,-11.98398046875,-4.4976328125,-19.9582109375,-5.643578125
-8.27242578125,-11.9672578125,-11.31581640625,-1.7474375,-9.13434375,-16.04893359375,-24.229625,-8.635515625,-7.865390625,-14.8484765625,-16.81766796875,-18.431578125,-2.4694140625,-12.60966796875,-16.492796875,-18.28391796875,-10.58616015625,-11.48578515625,-9.6034140625,-16.952859375,-14.1677890625,-4.22738671875,-11.29771875,-13.717734375,-12.817640625,-3.518453125,-13.12798046875,-4.9556328125,-19.5622109375,-5.903578125
-7.36042578125,-12.5182578125,-12.04181640625,-2.2034375,-11.37034375,-16.59593359375,-23.664625,-10.183515625,-7.449390625,-15.4314765625,-17.66266796875,-19.396578125,-2.4324140625,-13.29166796875,-17.285796875,-19.44491796875,-11.48216015625,-11.07678515625,-10.5674140625,-18.656859375,-14.6307890625,-3.05738671875,-11.24871875,-14.324734375,-13.240640625,-3.486453125,-13.62498046875,-4.9316328125,-19.0992109375,-6.080578125
-6.19342578125,-12.6132578125,-12.56481640625,-2.3104375,-12.82834375,-16.47993359375,-22.006625,-11.569515625,-6.692390625,-15.1124765625,-17.56566796875,-19.236578125,-2.0004140625,-12.84066796875,-16.989796875,-19.54991796875,-11.86016015625,-9.71878515625,-10.5864140625,-19.471859375,-14.5997890625,-1.20238671875,-10.18471875,-14.153734375,-12.925640625,-3.719453125,-13.20198046875,-4.1136328125,-18.2372109375,-5.888578125
-4.90642578125,-12.0262578125,-12.65881640625,-1.7194375,-12.76134375,-15.43393359375,-19.664625,-12.334515625,-5.643390625,-13.6744765625,-16.36066796875,-17.942578125,-1.1354140625,-11.16666796875,-15.459796875,-18.42891796875,-11.26516015625,-7.48478515625,-9.4754140625,-19.030859375,-13.8547890625,1.30061328125,-8.09071875,-13.085734375,-11.662640625,-3.783453125,-11.61098046875,-2.2666328125,-16.6302109375,-4.991578125
-3.51642578125,-10.6842578125,-12.10581640625,-0.2504375,-10.70434375,-13.40293359375,-17.227625,-12.234515625,-4.233390625,-11.1204765625,-14.09766796875,-15.748578125,0.1845859375,-8.40166796875,-12.826796875,-16.19691796875,-9.63816015625,-4.53378515625,-7.2364140625,-17.240859375,-12.3847890625,4.33361328125,-5.06071875,-11.113734375,-9.447640625,-3.448453125,-8.82798046875,0.5463671875,-14.1752109375,-3.241578125
-1.96742578125,-8.6882578125,-10.74781640625,1.9725625,-6.70834375,-10.59393359375,-15.124625,-11.302515625,-2.355390625,-7.7094765625,-11.04766796875,-12.982578125,1.9655859375,-4.88566796875,-9.452796875,-13.19591796875,-7.32316015625,-1.13978515625,-4.0934140625,-14.335859375,-10.3937890625,7.63061328125,-1.36071875,-8.402734375,-6.569640625,-2.796453125,-5.15098046875,3.9173671875,-11.1102109375,-0.814578125
-0.18542578125,-6.2352578125,-8.51381640625,4.5485625,-1.40034375,-7.37993359375,-13.387625,-9.775515625,0.0366093750000001,-3.8684765625,-7.59366796875,-9.921578125,4.2035859375,-1.05266796875,-5.763796875,-9.83491796875,-4.86716015625,2.31221484375,-0.4294140625,-10.754859375,-8.1837890625,10.80061328125,2.62528125,-5.242734375,-3.502640625,-2.103453125,-1.10398046875,7.2603671875,-7.8952109375,1.869421875
1.83657421875,-3.5402578125,-5.48381640625,6.9675625,4.19465625,-4.14593359375,-11.710625,-7.950515625,2.851609375,-0.058476562500001,-4.10066796875,-6.747578125,6.8225859375,2.70433203125,-2.104796875,-6.44091796875,-2.73316015625,5.35821484375,3.3205859375,-6.964859375,-5.9987890625,13.40261328125,6.47728125,-1.940734375,-0.707640625,-1.620453125,2.78601953125,10.0673671875,-4.9562109375,4.353421875
3.95257421875,-0.808257812500001,-1.95781640625,8.8055625,8.98165625,-1.19793359375,-9.748625,-6.046515625,5.833609375,3.3415234375,-0.842667968750001,-3.633578125,9.5535859375,6.09433203125,1.327203125,-3.21691796875,-1.11616015625,7.54421484375,6.7615859375,-3.327859375,-3.9617890625,15.03661328125,9.82428125,1.246265625,1.536359375,-1.412453125,6.17301953125,12.0913671875,-2.5022109375,6.349421875
5.85957421875,1.7327421875,1.54118359375,9.8355625,12.11965625,1.26106640625,-7.428625,-4.176515625,8.603609375,6.0695234375,1.98733203125,-0.832578125,11.8675859375,8.90333203125,4.422203125,-0.29691796875,0.0498398437500003,8.55621484375,9.5715859375,-0.0668593749999999,-2.0857890625,15.45961328125,12.38728125,4.104265625,3.182359375,-1.315453125,8.93601953125,13.3563671875,-0.505210937500003,7.805421875
7.18257421875,3.8077421875,4.37718359375,10.0305625,13.22465625,3.08506640625,-5.026625,-2.425515625,10.731609375,7.9425234375,4.21333203125,1.309421875,13.0875859375,10.91933203125,7.052203125,2.17408203125,0.93883984375,8.34821484375,11.5045859375,2.667140625,-0.3427890625,14.66661328125,13.99328125,6.415265625,4.345359375,-1.034453125,11.07901953125,14.0183671875,1.1617890625,8.843421875
7.62757421875,5.1087421875,6.00318359375,9.5105625,12.41665625,4.12306640625,-2.998625,-0.933515625,11.833609375,8.8015234375,5.63033203125,2.449421875,12.6885859375,11.88733203125,8.968203125,3.98308203125,1.64983984375,7.18421484375,12.3695859375,4.710140625,1.2572109375,12.92861328125,14.56728125,7.922265625,5.178359375,-0.316453125,12.58901953125,14.1833671875,2.5407890625,9.623421875
7.10857421875,5.3927421875,6.18118359375,8.4845625,10.24565625,4.22706640625,-1.718625,0.0924843750000004,11.689609375,8.5125234375,6.04133203125,2.411421875,10.6275859375,11.58033203125,9.830203125,4.89208203125,2.14083984375,5.55621484375,12.0695859375,5.872140625,2.6232109375,10.73161328125,14.14628125,8.390265625,5.787359375,0.924546875,13.39601953125,13.8263671875,3.5247890625,10.264421875
5.79957421875,4.6297421875,5.09718359375,7.2155625,7.51065625,3.35706640625,-1.324625,0.453484375,10.360609375,7.0825234375,5.37633203125,1.328421875,7.4885859375,9.99133203125,9.372203125,4.77408203125,2.30083984375,4.03621484375,10.7035859375,6.041140625,3.6282109375,8.67861328125,12.93128125,7.755265625,6.255359375,2.609546875,13.47701953125,12.8943671875,3.9697890625,10.856421875
4.09057421875,3.0947421875,3.31018359375,5.9665625,5.02165625,1.72206640625,-1.739625,0.0554843750000004,8.255609375,4.8025234375,3.82133203125,-0.353578124999999,4.2805859375,7.49433203125,7.633203125,3.75908203125,2.08183984375,3.08921484375,8.6555859375,5.334140625,4.2042109375,7.33561328125,11.32628125,6.275265625,6.699359375,4.606546875,13.00301953125,11.4773671875,3.8657890625,11.507421875
2.44057421875,1.2877421875,1.48518359375,4.9315625,3.34465625,-0.205933593749998,-2.756625,-1.036515625,6.013609375,2.2515234375,1.82333203125,-2.062578125,1.9955859375,4.80633203125,5.058203125,2.26008203125,1.52883984375,2.92121484375,6.5265859375,4.136140625,4.3942109375,7.03561328125,9.85128125,4.500265625,7.276359375,6.795546875,12.34401953125,9.8523671875,3.4027890625,12.312421875
1.19257421875,-0.286257812500001,0.0631835937499989,4.1775625,2.63365625,-1.85093359375,-4.110625,-2.616515625,4.246609375,0.105523437499999,-0.045667968750001,-3.377578125,1.1735859375,2.69833203125,2.354203125,0.82808203125,0.71183984375,3.40721484375,4.8985859375,2.968140625,4.3182109375,7.72661328125,8.92928125,3.047265625,8.087359375,9.020546875,11.87701953125,8.3503671875,2.8337890625,13.243421875
0.47757421875,-1.3262578125,-0.898816406250001,3.6515625,2.63565625,-2.76993359375,-5.465625,-4.406515625,3.278609375,-1.1234765625,-1.28966796875,-4.183578125,1.7545859375,1.65033203125,0.228203125,-0.0489179687500005,-0.33416015625,4.15821484375,4.0855859375,2.268140625,4.1062109375,8.97661328125,8.68928125,2.326265625,9.082359375,11.023546875,11.74601953125,7.1503671875,2.2957890625,14.082421875
0.24257421875,-1.7702578125,-1.60981640625,3.2495625,2.86565625,-2.77993359375,-6.401625,-6.154515625,3.052609375,-1.2514765625,-1.61966796875,-4.600578125,3.2805859375,1.67533203125,-0.838796875,-0.0729179687500006,-1.55616015625,4.72821484375,4.0595859375,2.268140625,3.8892109375,10.18961328125,8.95828125,2.410265625,10.091359375,12.487546875,11.78601953125,6.2173671875,1.7557890625,14.506421875
0.38057421875,-1.6852578125,-2.24081640625,2.9165625,2.90265625,-1.94393359375,-6.472625,-7.660515625,3.263609375,-0.392476562500001,-0.95366796875,-4.738578125,5.2265859375,2.42233203125,-0.678796875,0.85308203125,-2.74816015625,4.86721484375,4.5805859375,3.015140625,3.8352109375,10.92261328125,9.43628125,3.124265625,10.961359375,13.204546875,11.68301953125,5.4133671875,1.1077890625,14.306421875
0.84857421875,-1.1342578125,-2.71581640625,2.7085625,2.61265625,-0.45693359375,-5.340625,-8.743515625,3.618609375,1.1985234375,0.63533203125,-4.527578125,7.2095859375,3.46033203125,0.614203125000001,2.66608203125,-3.49316015625,4.66721484375,5.4325859375,4.458140625,4.1692109375,11.08761328125,9.93228125,4.249265625,11.689359375,13.232546875,11.23901953125,4.6813671875,0.340789062499997,13.576421875
1.68857421875,-0.111257812500001,-2.73781640625,2.7945625,2.20565625,1.46006640625,-2.981625,-9.194515625,4.073609375,3.3125234375,2.97333203125,-3.715578125,8.9925859375,4.58633203125,2.807203125,5.18108203125,-3.28816015625,4.53421484375,6.6035859375,6.516140625,5.1142109375,10.96461328125,10.51028125,5.695265625,12.446359375,12.931546875,10.56601953125,4.1553671875,-0.383210937500003,12.727421875
2.98157421875,1.4307421875,-1.97281640625,3.3835625,2.09865625,3.65406640625,0.207375000000001,-8.816515625,4.904609375,5.8815234375,5.82333203125,-2.040578125,10.4045859375,5.96733203125,5.648203125,8.11408203125,-1.79016015625,4.98121484375,8.2905859375,9.081140625,6.7742109375,11.02261328125,11.46628125,7.527265625,13.472359375,12.822546875,10.04801953125,4.1123671875,-0.775210937500002,12.297421875
4.78157421875,3.5027421875,-0.232816406250001,4.6215625,2.70265625,6.06406640625,3.509375,-7.525515625,6.545609375,8.9395234375,8.91833203125,0.549421875,11.3285859375,8.01133203125,8.919203125,11.10708203125,0.92783984375,6.37421484375,10.7285859375,11.956140625,9.0172109375,11.68261328125,13.12728125,9.826265625,14.879359375,13.323546875,10.10401953125,4.7983671875,-0.584210937500004,12.641421875
7.05657421875,5.9877421875,2.43218359375,6.4875625,4.24665625,8.67706640625,6.207375,-5.447515625,9.262609375,12.4605234375,11.97933203125,3.746421875,11.7565859375,11.02333203125,12.385203125,13.73508203125,4.27383984375,8.72421484375,13.9145859375,14.792140625,11.4232109375,13.10861328125,15.56728125,12.476265625,16.489359375,14.503546875,10.88201953125,6.2123671875,0.214789062499996,13.699421875
9.62357421875,8.5907421875,5.71618359375,8.7275625,6.67965625,11.43506640625,7.918375,-2.931515625,12.857609375,16.1905234375,14.75633203125,6.917421875,11.8155859375,14.86133203125,15.728203125,15.58308203125,7.27383984375,11.64921484375,17.4465859375,17.116140625,13.3942109375,15.11361328125,18.44028125,15.065265625,17.835359375,16.016546875,12.12201953125,8.0293671875,1.3557890625,14.990421875
12.11557421875,10.8997421875,9.10818359375,10.8765625,9.66965625,14.18206640625,8.747375,-0.470515625,16.592609375,19.6155234375,17.05433203125,9.348421875,11.7045859375,18.83233203125,18.542203125,16.39708203125,8.95683984375,14.50421484375,20.5945859375,18.487140625,14.4222109375,17.23961328125,21.05828125,17.003265625,18.380359375,17.274546875,13.27401953125,9.7163671875,2.3947890625,15.851421875
13.98557421875,12.5067421875,11.98018359375,12.3725625,12.65065625,16.65906640625,9.160375,1.446484375,19.408609375,22.0935234375,18.75033203125,10.550421875,11.5545859375,21.91033203125,20.422203125,16.21708203125,8.79483984375,16.61021484375,22.5755859375,18.679140625,14.3522109375,18.93261328125,22.67928125,17.790265625,17.816359375,17.739546875,13.77901953125,10.7643671875,2.9327890625,15.771421875
14.63057421875,13.1307421875,13.72018359375,12.7165625,14.93265625,18.52006640625,9.679375,2.519484375,20.337609375,23.0715234375,19.75133203125,10.436421875,11.2945859375,23.13133203125,21.058203125,15.35908203125,6.94683984375,17.44621484375,22.8505859375,17.758140625,13.4282109375,19.69861328125,22.80528125,17.229265625,16.234359375,17.144546875,13.32601953125,10.8673671875,2.7737890625,14.605421875
13.61457421875,12.6537421875,13.89018359375,11.6335625,15.87465625,19.36206640625,10.544375,2.738484375,18.887609375,22.2675234375,19.94433203125,9.282421875,10.6465859375,21.97833203125,20.299203125,14.23508203125,4.15683984375,16.74421484375,21.2965859375,16.005140625,12.0872109375,19.18261328125,21.32328125,15.488265625,14.056359375,15.560546875,11.94501953125,9.9673671875,1.9427890625,12.568421875
10.92657421875,11.1407421875,12.40518359375,9.1895625,15.08365625,18.84906640625,11.566375,2.336484375,15.270609375,19.7825234375,19.21833203125,7.543421875,9.3095859375,18.59233203125,18.229203125,13.13708203125,1.39883984375,14.51721484375,18.2405859375,13.791140625,10.6842109375,17.24161328125,18.50528125,13.031265625,11.819359375,13.327546875,9.96901953125,8.2243671875,0.637789062499998,10.094421875
7.10357421875,8.8527421875,9.62218359375,5.8075625,12.60165625,16.90406640625,12.243375,1.586484375,10.352609375,16.1265234375,17.57133203125,5.668421875,7.2185859375,13.76633203125,15.226203125,12.15508203125,-0.54816015625,11.09121484375,14.3785859375,11.506140625,9.3602109375,14.05661328125,14.93828125,10.487265625,9.974359375,10.930546875,7.92801953125,5.9913671875,-0.812210937500002,7.675421875
3.09257421875,6.2187421875,6.25918359375,2.1715625,8.95965625,13.85906640625,12.062375,0.643484375,5.356609375,12.1185234375,15.22433203125,3.954421875,4.6845859375,8.69433203125,11.931203125,11.21308203125,-1.38516015625,7.11321484375,10.5845859375,9.501140625,8.0962109375,10.23461328125,11.40728125,8.490265625,8.777359375,8.834546875,6.38801953125,3.8033671875,-1.9752109375,5.762421875
-0.10542578125,3.7377421875,3.14318359375,-0.983437500000001,5.05565625,10.40506640625,10.804375,-0.490515625,1.428609375,8.6505234375,12.60733203125,2.482421875,2.3025859375,4.56233203125,9.049203125,10.16308203125,-1.33016015625,3.45621484375,7.6325859375,8.023140625,6.8222109375,6.71261328125,8.70628125,7.485265625,8.259359375,7.319546875,5.77201953125,2.2723671875,-2.3972109375,4.685421875
-1.83042578125,1.8307421875,0.911183593749999,-3.0954375,1.87765625,7.34706640625,8.652375,-1.843515625,-0.726390625,6.3965234375,10.21233203125,1.151421875,0.7165859375,2.15533203125,7.077203125,8.87708203125,-0.93316015625,0.95321484375,5.9465859375,7.135140625,5.5102109375,4.42161328125,7.38028125,7.569265625,8.245359375,6.395546875,6.20501953125,1.8803671875,-1.7652109375,4.575421875
-1.97042578125,0.762742187499999,-0.150816406250001,-3.9174375,0.17565625,5.31706640625,6.110375,-3.349515625,-0.965390625,5.6015234375,8.41433203125,-0.161578124999999,0.3675859375,1.65433203125,6.117203125,7.33708203125,-0.75216015625,0.07521484375,5.4925859375,6.718140625,4.2022109375,3.86361328125,7.53228125,8.454265625,8.427359375,5.858546875,7.45901953125,2.7563671875,-0.0752109375000032,5.320421875
-0.89042578125,0.6267421875,-0.0848164062500008,-3.5174375,0.24565625,4.59206640625,3.792375,-4.765515625,0.422609375,6.0615234375,7.38333203125,-1.421578125,1.3175859375,2.69733203125,5.906203125,5.70808203125,-1.05616015625,0.71821484375,5.8925859375,6.569140625,3.0242109375,4.85061328125,8.77528125,9.613265625,8.479359375,5.425546875,9.05301953125,4.5573671875,2.2897890625,6.569421875
0.81957421875,1.3627421875,0.871183593749999,-2.1744375,1.88565625,5.06706640625,2.206375,-5.676515625,2.937609375,7.2835234375,7.11233203125,-2.363578125,3.2025859375,4.61433203125,6.017203125,4.33208203125,-1.71416015625,2.26121484375,6.6565859375,6.525140625,2.1502109375,6.58561328125,10.38428125,10.518265625,8.177359375,4.885546875,10.42901953125,6.5483671875,4.6307890625,7.815421875
2.64557421875,2.7877421875,2.41918359375,-0.2344375,4.53865625,6.37106640625,1.605375,-5.622515625,6.037609375,8.7155234375,7.50033203125,-2.607578125,5.3695859375,6.70833203125,6.111203125,3.61908203125,-2.28116015625,3.85221484375,7.4075859375,6.533140625,1.7512109375,8.04061328125,11.57428125,10.843265625,7.464359375,4.175546875,11.13601953125,7.8543671875,6.1577890625,8.532421875
4.29357421875,4.6127421875,4.23718359375,1.9885625,7.49165625,8.03106640625,1.908375,-4.335515625,9.205609375,9.9395234375,8.39833203125,-1.892578125,7.1635859375,8.46033203125,6.097203125,3.87208203125,-2.25316015625,4.77221484375,7.9655859375,6.617140625,1.9182109375,8.42161328125,11.79028125,10.532265625,6.447359375,3.386546875,10.93101953125,7.8043671875,6.2837890625,8.316421875
5.65757421875,6.4797421875,5.96318359375,4.2455625,10.07265625,9.59406640625,2.719375,-1.977515625,11.965609375,10.7445234375,9.58333203125,-0.291578125,8.1875859375,9.59033203125,6.101203125,5.10308203125,-1.35716015625,4.67421484375,8.2765859375,6.782140625,2.5882109375,7.46461328125,10.85328125,9.702265625,5.305359375,2.688546875,9.77601953125,6.1573671875,4.8157890625,6.996421875
6.66057421875,8.0067421875,7.18218359375,6.3075625,11.80365625,10.67706640625,3.470375,0.824484375,13.902609375,11.0845234375,10.71833203125,1.717421875,8.3665859375,9.99833203125,6.303203125,6.94608203125,0.25583984375,3.61021484375,8.2745859375,6.929140625,3.5052109375,5.42861328125,8.91828125,8.471265625,4.172359375,2.201546875,7.74901953125,3.1393671875,1.9697890625,4.663421875
7.16557421875,8.8507421875,7.51318359375,7.9305625,12.48365625,11.00506640625,3.661375,3.224484375,14.730609375,11.0065234375,11.39133203125,3.406421875,7.8525859375,9.67433203125,6.756203125,8.71908203125,2.03083984375,1.91921484375,7.8125859375,6.837140625,4.2682109375,2.87261328125,6.32728125,6.849265625,3.058359375,1.891546875,4.95301953125,-0.7146328125,-1.7772109375,1.624421875
7.05357421875,8.8217421875,6.80618359375,8.8745625,12.21365625,10.51106640625,3.125375,4.545484375,14.375609375,10.6275234375,11.28133203125,4.142421875,6.9055859375,8.69033203125,7.347203125,9.67608203125,3.26583984375,0.08421484375,6.7605859375,6.264140625,4.4692109375,0.40861328125,3.49528125,4.802265625,1.865359375,1.595546875,1.52901953125,-4.7566328125,-5.8592109375,-1.682578125
6.38957421875,8.0167421875,5.32318359375,9.0275625,11.34865625,9.44506640625,2.173375,4.602484375,13.052609375,10.1535234375,10.35333203125,3.743421875,5.8605859375,7.26433203125,7.892203125,9.33708203125,3.47883984375,-1.38978515625,5.1885859375,5.102140625,3.8852109375,-1.44938671875,0.89028125,2.407265625,0.491359375,1.149546875,-2.26498046875,-8.3626328125,-9.7122109375,-4.772578125
5.50157421875,6.8417421875,3.72118359375,8.5165625,10.40465625,8.37606640625,1.500375,3.771484375,11.256609375,9.8865234375,8.96033203125,2.611421875,5.1075859375,5.80033203125,8.281203125,7.71608203125,2.66783984375,-2.08778515625,3.4575859375,3.488140625,2.5892109375,-2.37538671875,-0.98671875,-0.0257343750000003,-1.050640625,0.522546875000001,-5.97698046875,-10.9906328125,-12.8062109375,-7.193578125
4.87057421875,5.8747421875,2.78018359375,7.7125625,9.92665625,7.99706640625,1.859375,2.763484375,9.616609375,10.1445234375,7.71733203125,1.538421875,4.9945859375,4.81333203125,8.557203125,5.33808203125,1.29083984375,-1.81478515625,2.1315859375,1.802140625,0.9312109375,-2.29538671875,-1.68371875,-2.002734375,-2.564640625,-0.138453125,-9.00498046875,-12.2386328125,-14.6792109375,-8.590578125
4.87157421875,5.5977421875,3.00718359375,7.0615625,10.30965625,8.79806640625,3.620375,2.206484375,8.662609375,11.1115234375,7.21233203125,1.278421875,5.6415859375,4.73533203125,8.893203125,3.01308203125,-0.00516015624999966,-0.68378515625,1.7255859375,0.538140625,-0.6007890625,-1.41238671875,-0.94971875,-3.025734375,-3.708640625,-0.584453125,-10.75698046875,-11.9216328125,-15.0222109375,-8.773578125
5.54957421875,6.1537421875,4.32218359375,6.8475625,11.59665625,10.79706640625,6.461375,2.244484375,8.596609375,12.7075234375,7.70633203125,2.132421875,6.8435859375,5.71433203125,9.481203125,1.49408203125,-0.73516015625,0.90921484375,2.4485859375,0.118140625,-1.5837890625,-0.12038671875,1.12828125,-2.814734375,-4.125640625,-0.594453125,-10.87398046875,-10.1266328125,-13.7702109375,-7.765578125
6.56857421875,7.2767421875,6.04318359375,7.0235625,13.38465625,13.46806640625,9.388375,2.460484375,9.207609375,14.5615234375,9.01133203125,3.786421875,8.1485859375,7.51133203125,10.405203125,1.17908203125,-0.76816015625,2.43621484375,4.0815859375,0.715140625,-1.8157890625,1.14261328125,4.09628125,-1.442734375,-3.616640625,-0.0744531249999998,-9.38498046875,-7.2146328125,-11.1522109375,-5.812578125
7.37057421875,8.4437421875,7.22118359375,7.2485625,14.95265625,15.95906640625,11.150375,2.188484375,9.982609375,16.1415234375,10.61933203125,5.485421875,9.0725859375,9.57233203125,11.575203125,2.00308203125,-0.29816015625,3.44921484375,6.0695859375,2.185140625,-1.3597890625,2.06061328125,7.23828125,0.696265625,-2.231640625,0.902546875000001,-6.70398046875,-3.7276328125,-7.6472109375,-3.320578125
7.47657421875,9.1657421875,7.17518359375,7.1135625,15.59865625,17.48506640625,10.877375,1.029484375,10.376609375,16.9885234375,11.99533203125,6.484421875,9.3285859375,11.26133203125,12.777203125,3.58608203125,0.35983984375,3.74121484375,7.7965859375,4.164140625,-0.4307890625,2.51661328125,9.82928125,3.075265625,-0.219640625,2.168546875,-3.42598046875,-0.2196328125,-3.8162109375,-0.719578125
6.74657421875,9.2497421875,5.90418359375,6.3895625,14.99065625,17.71006640625,8.602375,-0.839515625,10.081609375,16.9295234375,12.85433203125,6.489421875,8.9355859375,12.13233203125,13.793203125,5.52408203125,0.96083984375,3.40721484375,8.8685859375,6.259140625,0.7882109375,2.60261328125,11.41928125,5.287265625,2.129359375,3.557546875,-0.0699804687499999,2.9283671875,-0.112210937500002,1.692421875
5.44257421875,8.8387421875,4.07018359375,5.1435625,13.32365625,16.85706640625,5.333375,-2.736515625,9.137609375,16.1195234375,13.22833203125,5.793421875,8.1615859375,12.07733203125,14.491203125,7.58308203125,1.40483984375,2.77121484375,9.2435859375,8.210140625,2.2562109375,2.53261328125,11.97528125,7.193265625,4.616359375,4.956546875,3.08601953125,5.5763671875,3.2297890625,3.804421875
4.05057421875,8.2497421875,2.57018359375,3.6395625,11.17465625,15.49906640625,2.596375,-3.855515625,7.836609375,14.8785234375,13.31733203125,5.032421875,7.3315859375,11.26633203125,14.806203125,9.69008203125,1.69883984375,2.20921484375,9.1335859375,9.897140625,4.0202109375,2.50561328125,11.80628125,8.868265625,7.135359375,6.264546875,5.96701953125,7.7643671875,6.1437890625,5.632421875
3.01057421875,7.7327421875,1.98318359375,2.1485625,9.19965625,14.20206640625,1.678375,-3.704515625,6.521609375,13.4855234375,13.29233203125,4.785421875,6.6395859375,9.97833203125,14.692203125,11.78708203125,1.91583984375,1.97221484375,8.7945859375,11.257140625,6.0802109375,2.59361328125,11.33628125,10.422265625,9.600359375,7.356546875,8.53301953125,9.5453671875,8.6097890625,7.202421875
2.52557421875,7.3697421875,2.28718359375,0.8315625,7.85665625,13.29906640625,3.007375,-2.343515625,5.443609375,12.1055234375,13.21033203125,5.306421875,6.0665859375,8.47733203125,14.144203125,13.72508203125,2.19483984375,2.09921484375,8.4025859375,12.225140625,8.3032109375,2.73361328125,10.91428125,11.871265625,11.877359375,8.129546875,10.67301953125,10.8893671875,10.5837890625,8.473421875
2.54857421875,7.1187421875,2.96618359375,-0.248437500000001,7.32165625,12.87706640625,6.023375,-0.343515625,4.734609375,10.8595234375,13.07833203125,6.492421875,5.4445859375,7.01233203125,13.283203125,15.26108203125,2.71283984375,2.49221484375,8.0685859375,12.743140625,10.4322109375,2.83661328125,10.74328125,13.131265625,13.791359375,8.596546875,12.21201953125,11.6973671875,12.0147890625,9.357421875
2.88757421875,6.9167421875,3.37118359375,-1.0474375,7.57565625,12.88506640625,9.580375,1.510484375,4.447609375,9.9355234375,12.96133203125,7.994421875,4.6065859375,5.84833203125,12.395203125,16.10808203125,3.59383984375,3.05121484375,7.8865859375,12.798140625,12.1342109375,2.89961328125,10.89728125,14.089265625,15.154359375,8.905546875,13.01701953125,11.8993671875,12.9037890625,9.775421875
3.33057421875,6.7537421875,3.10018359375,-1.4824375,8.51265625,13.23606640625,12.578375,2.596484375,4.574609375,9.5765234375,13.00433203125,9.380421875,3.5505859375,5.22833203125,11.844203125,16.01908203125,4.78083984375,3.75121484375,7.9435859375,12.413140625,13.0672109375,3.03061328125,11.34828125,14.668265625,15.809359375,9.231546875,13.10201953125,11.5243671875,13.3057890625,9.708421875
3.73657421875,6.6987421875,2.22118359375,-1.4454375,10.00165625,13.87406640625,14.423375,2.733484375,5.049609375,9.9725234375,13.36133203125,10.320421875,2.5435859375,5.26833203125,11.905203125,14.88408203125,6.03583984375,4.61821484375,8.2785859375,11.655140625,12.9992109375,3.36561328125,11.99028125,14.862265625,15.687359375,9.649546875,12.67301953125,10.6993671875,13.3037890625,9.216421875
4.08357421875,6.9167421875,1.26718359375,-0.853437500000001,11.86965625,14.82506640625,15.116375,2.234484375,5.773609375,11.1475234375,14.11333203125,10.745421875,2.0855859375,5.91733203125,12.654203125,12.85608203125,7.09083984375,5.64521484375,8.8665859375,10.651140625,11.9472109375,3.95361328125,12.67928125,14.748265625,14.878359375,10.092546875,12.09801953125,9.5943671875,12.9847890625,8.430421875
4.48057421875,7.6397421875,1.01318359375,0.319562499999999,13.89165625,16.19506640625,15.065375,1.770484375,6.679609375,12.9325234375,15.23333203125,10.911421875,2.6835859375,7.00833203125,13.979203125,10.40708203125,7.84683984375,6.75121484375,9.6545859375,9.628140625,10.2752109375,4.68261328125,13.28628125,14.475265625,13.652359375,10.418546875,11.78101953125,8.3553671875,12.4267890625,7.523421875
5.11157421875,9.0657421875,2.11518359375,2.0185625,15.81365625,18.10206640625,14.796375,2.078484375,7.779609375,15.0425234375,16.64233203125,11.282421875,4.5585859375,8.38233203125,15.679203125,8.24008203125,8.44583984375,7.82321484375,10.6085859375,8.889140625,8.6202109375,5.31761328125,13.72528125,14.224265625,12.404359375,10.511546875,11.98601953125,7.0663671875,11.7007890625,6.652421875
6.13457421875,11.2287421875,4.76918359375,4.0975625,17.40065625,20.54306640625,14.740375,3.602484375,9.119609375,17.1865234375,18.26033203125,12.302421875,7.4565859375,9.96733203125,17.586203125,7.07908203125,9.15783984375,8.79921484375,11.7445859375,8.734140625,7.6732109375,5.63361328125,13.97828125,14.159265625,11.522359375,10.339546875,12.68801953125,5.7633671875,10.8707890625,5.906421875
7.56257421875,13.8967421875,8.54918359375,6.3035625,18.48965625,23.29806640625,15.159375,6.185484375,10.691609375,19.1495234375,20.02233203125,14.155421875,10.6895859375,11.77033203125,19.609203125,7.40708203125,10.16483984375,9.71721484375,13.0925859375,9.338140625,7.8812109375,5.56561328125,14.08528125,14.377265625,11.237359375,9.960546875,13.55201953125,4.4783671875,9.9777890625,5.270421875
9.21557421875,16.5657421875,12.49918359375,8.3025625,19.04365625,25.92506640625,16.155375,9.048484375,12.360609375,20.8005234375,21.81833203125,16.618421875,13.3515859375,13.79233203125,21.682203125,9.25208203125,11.41283984375,10.66321484375,14.6095859375,10.655140625,9.2312109375,5.25261328125,14.12228125,14.865265625,11.538359375,9.458546875,14.06701953125,3.2753671875,9.0317890625,4.625421875
10.74057421875,18.5927421875,15.46218359375,9.7475625,19.17265625,27.86806640625,17.682375,11.112484375,13.876609375,22.0525234375,23.43033203125,19.090421875,14.6025859375,15.91333203125,23.640203125,12.12908203125,12.62283984375,11.66421484375,16.1125859375,12.381140625,11.2262109375,4.92861328125,14.14628125,15.486265625,12.167359375,8.877546875,13.77201953125,2.2353671875,8.0237890625,3.817421875
11.72957421875,19.4237421875,16.53618359375,10.3775625,19.09765625,28.65706640625,19.511375,11.531484375,14.963609375,22.8205234375,24.52833203125,20.799421875,13.9655859375,17.84233203125,25.161203125,15.19108203125,13.42983984375,12.61821484375,17.3035859375,14.038140625,13.1162109375,4.73861328125,14.16728125,16.010265625,12.755359375,8.194546875,12.47801953125,1.4243671875,6.9767890625,2.757421875
11.88357421875,18.8457421875,15.46718359375,10.1035625,19.03465625,28.13106640625,21.225375,10.121484375,15.418609375,23.0265234375,24.80433203125,21.176421875,11.5265859375,19.18933203125,25.860203125,17.58408203125,13.56283984375,13.31321484375,17.8925859375,15.169140625,14.2852109375,4.63161328125,14.16028125,16.238265625,13.020359375,7.364546875,10.38901953125,0.8843671875,6.0207890625,1.531421875
11.16457421875,17.1127421875,12.79518359375,9.0425625,19.09265625,26.55706640625,22.371375,7.470484375,15.180609375,22.6505234375,24.15033203125,20.192421875,7.9325859375,19.64133203125,25.505203125,18.83208203125,12.99583984375,13.53221484375,17.7685859375,15.546140625,14.5652109375,4.38961328125,14.11128125,16.116265625,12.937359375,6.426546875,8.06501953125,0.6533671875,5.4197890625,0.430421875
9.83557421875,14.8527421875,9.62518359375,7.4615625,19.22765625,24.54206640625,22.707375,4.689484375,14.330609375,21.7825234375,22.78533203125,18.437421875,4.1235859375,19.13033203125,24.186203125,19.02408203125,11.99383984375,13.15921484375,17.0675859375,15.254140625,14.2892109375,3.78061328125,14.02228125,15.772265625,12.746359375,5.560546875,6.21801953125,0.7833671875,5.4907890625,-0.143578125
8.34057421875,12.7857421875,7.13818359375,5.6755625,19.26165625,22.76106640625,22.315375,2.914484375,13.026609375,20.5955234375,21.16533203125,16.828421875,0.9195859375,17.86133203125,22.299203125,18.68308203125,11.03683984375,12.22321484375,16.0685859375,14.593140625,14.0302109375,2.71361328125,13.88228125,15.413265625,12.773359375,5.046546875,5.41001953125,1.3103671875,6.4267890625,0.111421875
7.06857421875,11.4227421875,6.08918359375,3.9165625,18.90965625,21.64606640625,21.459375,2.781484375,11.418609375,19.2455234375,19.74733203125,16.123421875,-1.2834140625,16.18433203125,20.331203125,18.38808203125,10.61083984375,10.85721484375,14.9965859375,13.845140625,14.2092109375,1.30061328125,13.60828125,15.145265625,13.158359375,5.115546875,5.78401953125,2.1793671875,8.14078906249999,1.193421875
6.16757421875,10.8987421875,6.55018359375,2.2915625,17.83565625,21.21906640625,20.305375,4.121484375,9.614609375,17.7805234375,18.74333203125,16.521421875,-2.5374140625,14.39833203125,18.599203125,18.40308203125,10.94383984375,9.21121484375,13.8625859375,13.082140625,14.8132109375,-0.21838671875,13.03528125,14.855265625,13.688359375,5.784546875,6.97401953125,3.1843671875,10.2287890625,2.712421875
5.52457421875,10.9967421875,7.97318359375,0.827562499999999,15.80065625,21.14906640625,18.806375,6.068484375,7.723609375,16.1465234375,18.05833203125,17.562421875,-3.1374140625,12.62733203125,17.133203125,18.54308203125,11.82983984375,7.39921484375,12.4765859375,12.140140625,15.3992109375,-1.61638671875,11.97128125,14.243265625,13.864359375,6.782546875,8.27501953125,3.9793671875,12.0917890625,4.027421875
4.94357421875,11.3167421875,9.49818359375,-0.425437500000001,12.87465625,20.99506640625,16.847375,7.526484375,5.927609375,14.3155234375,17.45033203125,18.397421875,-3.3574140625,10.87733203125,15.769203125,18.34708203125,12.69683984375,5.51921484375,10.6425859375,10.787140625,15.3712109375,-2.77538671875,10.32928125,13.021265625,13.203359375,7.638546875,8.99601953125,4.2163671875,13.1957890625,4.551421875
4.36357421875,11.4977421875,10.34018359375,-1.3354375,9.58765625,20.49606640625,14.517375,7.724484375,4.517609375,12.4565234375,16.78533203125,18.291421875,-3.2914140625,9.21233203125,14.386203125,17.47808203125,12.91583984375,3.73221484375,8.4265859375,8.993140625,14.3882109375,-3.65838671875,8.27328125,11.168265625,11.587359375,7.923546875,8.82701953125,3.7533671875,13.3337890625,4.075421875
3.95757421875,11.3887421875,10.11718359375,-1.7274375,6.81665625,19.71606640625,12.261375,6.570484375,3.827609375,10.9725234375,16.20733203125,17.070421875,-2.8574140625,7.87933203125,13.107203125,16.04408203125,12.17783984375,2.31021484375,6.2755859375,7.104140625,12.6302109375,-4.19538671875,6.26328125,9.066265625,9.445359375,7.486546875,7.99901953125,2.8123671875,12.7647890625,2.902421875
4.00757421875,11.0877421875,8.97418359375,-1.5164375,5.38965625,18.95306640625,10.752375,4.655484375,4.078609375,10.3185234375,16.04933203125,15.236421875,-1.9404140625,7.24433203125,12.275203125,14.60708203125,10.67283984375,1.57821484375,4.8705859375,5.735140625,10.7352109375,-4.25438671875,4.89728125,7.368265625,7.570359375,6.518546875,7.10601953125,1.9073671875,12.0907890625,1.701421875
4.63757421875,10.8057421875,7.44518359375,-0.836437500000001,5.61765625,18.45906640625,10.536375,2.935484375,5.193609375,10.6745234375,16.55033203125,13.654421875,-0.6014140625,7.53533203125,12.199203125,13.82108203125,8.96183984375,1.73921484375,4.7455859375,5.427140625,9.4142109375,-3.74438671875,4.59328125,6.639265625,6.684359375,5.402546875,6.69801953125,1.5543671875,11.9127890625,1.123421875
5.62657421875,10.6797421875,6.13918359375,-0.0624375000000006,7.05765625,18.21706640625,11.656375,2.248484375,6.735609375,11.7365234375,17.58233203125,13.019421875,0.8355859375,8.60233203125,12.881203125,13.97308203125,7.63283984375,2.72321484375,5.9415859375,6.285140625,9.0162109375,-2.77038671875,5.33428125,7.019265625,7.019359375,4.486546875,6.93801953125,1.9573671875,12.5027890625,1.452421875
6.48457421875,10.6797421875,5.46418359375,0.352562499999999,8.70865625,17.95406640625,13.534375,2.893484375,8.053609375,12.8195234375,18.61433203125,13.458421875,1.9045859375,9.92733203125,13.944203125,14.76608203125,7.00883984375,4.16721484375,7.9425859375,7.882140625,9.3642109375,-1.65338671875,6.67128125,8.147265625,8.206359375,3.965546875,7.54301953125,2.9223671875,13.6887890625,2.489421875
6.73157421875,10.6317421875,5.47418359375,0.1195625,9.53065625,17.34506640625,15.204375,4.463484375,8.562609375,13.1935234375,18.95133203125,14.467421875,2.2515859375,10.85533203125,14.816203125,15.48108203125,7.03783984375,5.55121484375,9.9115859375,9.469140625,9.9252109375,-0.77638671875,7.95528125,9.358265625,9.520359375,3.892546875,8.03101953125,4.0233671875,15.0277890625,3.726421875
6.15457421875,10.3167421875,5.86918359375,-0.7454375,8.95765625,16.20906640625,15.753375,6.055484375,7.977609375,12.4275234375,18.08633203125,15.201421875,1.7925859375,10.86333203125,14.998203125,15.38008203125,7.37683984375,6.36021484375,11.0425859375,10.323140625,10.1612109375,-0.42238671875,8.61328125,10.001265625,10.264359375,4.232546875,8.01601953125,4.8613671875,16.0607890625,4.630421875
4.86957421875,9.5567421875,6.12818359375,-2.0004375,7.08565625,14.56606640625,14.697375,6.719484375,6.355609375,10.5205234375,15.93433203125,14.928421875,0.6825859375,9.70333203125,14.245203125,14.08608203125,7.59683984375,6.21721484375,10.8125859375,10.014140625,9.8092109375,-0.71738671875,8.28728125,9.654265625,10.063359375,4.868546875,7.34901953125,5.1983671875,16.4947890625,4.845421875
3.17757421875,8.2947421875,5.75918359375,-3.3854375,4.48165625,12.58506640625,12.130375,5.924484375,4.001609375,7.8275234375,12.85533203125,13.429421875,-0.8274140625,7.41133203125,12.601203125,11.75908203125,7.38983984375,4.96921484375,9.0895859375,8.496140625,8.9562109375,-1.64538671875,6.86928125,8.205265625,8.943359375,5.602546875,6.07001953125,4.9553671875,16.2257890625,4.262421875
1.40057421875,6.6537421875,4.58218359375,-4.7534375,1.83465625,10.51906640625,8.657375,3.786484375,1.327609375,4.8835234375,9.49933203125,11.113421875,-2.4824140625,4.27733203125,10.333203125,9.00008203125,6.70183984375,2.76721484375,6.1255859375,6.070140625,7.9222109375,-3.07838671875,4.48328125,5.827265625,7.245359375,6.197546875,4.28501953125,4.1373671875,15.2797890625,2.969421875
-0.22042578125,4.9297421875,2.85718359375,-6.0494375,-0.33834375,8.64106640625,5.165375,1.004484375,-1.249390625,2.2205234375,6.55033203125,8.763421875,-4.0074140625,0.80833203125,7.817203125,6.55608203125,5.73983984375,0.07021484375,2.4655859375,3.226140625,7.0322109375,-4.78338671875,1.45428125,2.886265625,5.415359375,6.453546875,2.07301953125,2.7763671875,13.7347890625,1.161421875
-1.53742578125,3.4817421875,1.14518359375,-7.2144375,-1.79634375,7.16006640625,2.491375,-1.461515625,-3.378390625,0.2225234375,4.48533203125,7.096421875,-5.0924140625,-2.37266796875,5.411203125,4.96908203125,4.84483984375,-2.50678515625,-1.2374140625,0.455140625,6.4142109375,-6.48238671875,-1.78571875,-0.214734375,3.782359375,6.251546875,-0.54098046875,0.9043671875,11.6657890625,-0.956578125
-2.46742578125,2.5777421875,-0.00881640625000113,-8.1254375,-2.55334375,6.16506640625,1.112375,-2.792515625,-4.822390625,-0.9504765625,3.43433203125,6.420421875,-5.4714140625,-4.68966796875,3.367203125,4.37908203125,4.30883984375,-4.44278515625,-4.4184140625,-1.912859375,5.9402109375,-7.94338671875,-4.83371875,-3.169734375,2.412359375,5.563546875,-3.57098046875,-1.4346328125,9.1537890625,-3.225578125
-2.95542578125,2.3017421875,-0.347816406250002,-8.6364375,-2.77834375,5.62706640625,1.030375,-2.606515625,-5.475390625,-1.3414765625,3.20833203125,6.590421875,-5.0994140625,-5.78366796875,1.807203125,4.55608203125,4.22883984375,-5.51778515625,-6.7564140625,-3.761859375,5.3602109375,-9.07338671875,-7.43371875,-5.837734375,1.120359375,4.444546875,-7.00798046875,-4.1356328125,6.3347890625,-5.524578125
-2.96642578125,2.5387421875,0.0191835937499985,-8.6764375,-2.69334375,5.45206640625,1.935375,-1.017515625,-5.381390625,-1.1184765625,3.45433203125,7.190421875,-4.2704140625,-5.65266796875,0.758203125000001,5.08808203125,4.48683984375,-5.84878515625,-8.2134140625,-5.135859375,4.4892109375,-9.92138671875,-9.52071875,-8.203734375,-0.386640625,3.003546875,-10.75298046875,-6.9886328125,3.4347890625,-7.717578125
-2.51842578125,3.0547421875,0.765183593749999,-8.3184375,-2.48834375,5.55706640625,3.460375,1.501484375,-4.748390625,-0.487476562500001,3.84433203125,7.808421875,-3.5254140625,-4.66866796875,0.201203125000001,5.59808203125,4.84083984375,-5.76078515625,-8.9604140625,-6.120859375,3.3352109375,-10.60838671875,-11.16771875,-10.281734375,-2.301640625,1.377546875,-14.55998046875,-9.6876328125,0.745789062499998,-9.613578125
-1.71442578125,3.6147421875,1.59118359375,-7.7944375,-2.27834375,5.91406640625,5.326375,4.322484375,-3.934390625,0.3765234375,4.20633203125,8.220421875,-3.3654140625,-3.44566796875,0.124203125000001,5.88508203125,5.06283984375,-5.59778515625,-9.2354140625,-6.735859375,2.0832109375,-11.21738671875,-12.46671875,-11.988734375,-4.540640625,-0.276453125,-18.00998046875,-11.8776328125,-1.4272109375,-10.983578125
-0.72842578125,4.0797421875,2.38918359375,-7.4014375,-2.08434375,6.55606640625,7.306375,6.828484375,-3.315390625,1.3715234375,4.55833203125,8.444421875,-3.9544140625,-2.57766796875,0.553203125000001,5.97008203125,5.03383984375,-5.56178515625,-9.1874140625,-6.878859375,0.9902109375,-11.70138671875,-13.39871875,-13.078734375,-6.705640625,-1.790453125,-20.54898046875,-13.2366328125,-2.8062109375,-11.618578125
0.23957421875,4.4417421875,3.20418359375,-7.3694375,-1.83734375,7.53106640625,9.153375,8.551484375,-3.116390625,2.4775234375,5.04233203125,8.655421875,-5.0414140625,-2.38266796875,1.535203125,6.02708203125,4.74883984375,-5.65378515625,-8.8164140625,-6.378859375,0.2462109375,-11.88938671875,-13.81971875,-13.203734375,-8.212640625,-3.022453125,-21.62098046875,-13.5696328125,-3.1902109375,-11.410578125
1.02957421875,4.7677421875,4.06318359375,-7.7294375,-1.40534375,8.81606640625,10.641375,9.301484375,-3.286390625,3.7305234375,5.80733203125,9.020421875,-6.1504140625,-2.77766796875,3.085203125,6.24308203125,4.25583984375,-5.73078515625,-8.0384140625,-5.121859375,-0.1077890625,-11.59738671875,-13.57771875,-12.096734375,-8.558640625,-3.927453125,-20.89598046875,-12.9086328125,-2.5282109375,-10.416578125
1.55657421875,5.1407421875,4.86518359375,-8.2594375,-0.63634375,10.28406640625,11.680375,9.216484375,-3.509390625,5.1925234375,6.90633203125,9.602421875,-6.8854140625,-3.35366796875,5.122203125,6.71608203125,3.62283984375,-5.62478515625,-6.8074140625,-3.153859375,-0.146789062499999,-10.78738671875,-12.66171875,-9.754734375,-7.560640625,-4.572453125,-18.45198046875,-11.5556328125,-0.982210937500003,-8.870578125
1.83857421875,5.6437421875,5.43518359375,-8.5504375,0.58565625,11.76306640625,12.389375,8.698484375,-3.348390625,6.9195234375,8.27833203125,10.384421875,-7.0984140625,-3.56966796875,7.464203125,7.46908203125,2.96483984375,-5.24678515625,-5.1784140625,-0.679859375,0.0652109375000003,-9.64138671875,-11.25071875,-6.503734375,-5.425640625,-5.026453125,-14.80098046875,-10.0056328125,1.0877890625,-7.094578125
1.98657421875,6.3557421875,5.69618359375,-8.1914375,2.28765625,13.10806640625,13.044375,8.246484375,-2.475390625,8.9225234375,9.79933203125,11.369421875,-6.8494140625,-2.99066796875,9.861203125,8.52608203125,2.48983984375,-4.61678515625,-3.3034140625,2.029140625,0.6052109375,-8.49838671875,-9.63071875,-2.889734375,-2.621640625,-5.213453125,-10.70798046875,-8.7646328125,3.2377890625,-5.373578125
2.13257421875,7.3077421875,5.77218359375,-7.0124375,4.32065625,14.22406640625,13.892375,8.286484375,-0.922390625,11.0905234375,11.32733203125,12.620421875,-6.2494140625,-1.48066796875,12.014203125,9.95508203125,2.47483984375,-3.84778515625,-1.3914140625,4.719140625,1.6732109375,-7.69438671875,-8.07371875,0.491265625,0.325359375,-4.878453125,-6.91098046875,-8.1376328125,5.0927890625,-3.829578125
2.35057421875,8.4037421875,5.92818359375,-5.2354375,6.30565625,14.99906640625,14.951375,9.049484375,0.834609375,13.1225234375,12.70233203125,14.182421875,-5.3714140625,0.713332031249999,13.604203125,11.77508203125,3.14583984375,-3.08978515625,0.3155859375,7.170140625,3.4252109375,-7.41338671875,-6.75871875,3.170265625,3.004359375,-3.719453125,-3.87698046875,-8.0896328125,6.4867890625,-2.394578125
2.62057421875,9.3837421875,6.38718359375,-3.4294375,7.66265625,15.25206640625,15.919375,10.492484375,2.035609375,14.5545234375,13.71233203125,15.917421875,-4.2684140625,3.03933203125,14.354203125,13.82208203125,4.51683984375,-2.48078515625,1.5705859375,9.169140625,5.7672109375,-7.61138671875,-5.75171875,4.904265625,5.171359375,-1.623453125,-1.70598046875,-8.2476328125,7.52478906249999,-0.866578125
2.85657421875,9.8967421875,7.16118359375,-2.2524375,7.80065625,14.75206640625,16.313375,12.290484375,2.009609375,14.9005234375,14.08033203125,17.410421875,-3.0634140625,4.82933203125,14.132203125,15.66308203125,6.29283984375,-2.10978515625,2.1805859375,10.489140625,8.2652109375,-8.05838671875,-5.04771875,5.696265625,6.710359375,1.167546875,-0.21498046875,-8.0526328125,8.5347890625,0.974421875
2.96657421875,9.6457421875,7.99718359375,-2.1354375,6.41365625,13.33306640625,15.742375,13.950484375,0.549609375,13.8735234375,13.54633203125,18.038421875,-1.9954140625,5.52933203125,13.021203125,16.65808203125,7.92683984375,-2.00578515625,2.0545859375,10.902140625,10.2302109375,-8.44538671875,-4.62671875,5.710265625,7.539359375,4.076546875,0.86401953125,-7.0096328125,9.9087890625,3.236421875
2.89957421875,8.5627421875,8.49218359375,-3.0624375,3.71965625,11.03506640625,14.157375,14.997484375,-1.927390625,11.5735234375,11.99133203125,17.227421875,-1.3534140625,4.88333203125,11.308203125,16.19008203125,8.81783984375,-2.15678515625,1.2305859375,10.247140625,10.9832109375,-8.52038671875,-4.50371875,5.154265625,7.577359375,6.398546875,1.69301953125,-4.9396328125,11.9007890625,5.838421875
2.67357421875,6.8987421875,8.31918359375,-4.5674375,0.47165625,8.20006640625,11.906375,15.150484375,-4.533390625,8.5335234375,9.56633203125,14.785421875,-1.3254140625,3.04233203125,9.391203125,13.96208203125,8.59383984375,-2.52678515625,-0.1234140625,8.534140625,10.1782109375,-8.17438671875,-4.71571875,4.197265625,6.780359375,7.622546875,2.25301953125,-2.0806328125,14.4837890625,8.501421875
2.35757421875,5.1607421875,7.42418359375,-5.9454375,-2.32734375,5.43106640625,9.586375,14.409484375,-6.295390625,5.5715234375,6.70733203125,11.093421875,-1.8574140625,0.543332031249999,7.645203125,10.21308203125,7.33283984375,-3.06878515625,-1.7294140625,6.033140625,8.0222109375,-7.47138671875,-5.24771875,2.963265625,5.254359375,7.687546875,2.41001953125,1.0103671875,17.3397890625,10.823421875
2.01857421875,3.8967421875,6.05818359375,-6.5724375,-3.84534375,3.37006640625,7.779375,13.042484375,-6.616390625,3.4765234375,3.98733203125,7.006421875,-2.6514140625,-1.86866796875,6.296203125,5.70308203125,5.57283984375,-3.72178515625,-3.2584140625,3.238140625,5.2272109375,-6.60038671875,-5.97971875,1.574265625,3.292359375,6.982546875,2.04401953125,3.6843671875,19.9677890625,12.389421875
1.67257421875,3.4177421875,4.62018359375,-6.1964375,-3.80034375,2.36706640625,6.776375,11.481484375,-5.540390625,2.6525234375,1.84733203125,3.496421875,-3.3144140625,-3.54066796875,5.328203125,1.42308203125,4.06083984375,-4.41978515625,-4.4364140625,0.704140625,2.6882109375,-5.80238671875,-6.71271875,0.150265625,1.281359375,6.084546875,1.11001953125,5.4243671875,21.8397890625,12.879421875
1.25557421875,3.6367421875,3.41818359375,-5.0484375,-2.58534375,2.27006640625,6.401375,10.131484375,-3.691390625,2.9195234375,0.36633203125,1.241421875,-3.5654140625,-4.17366796875,4.500203125,-1.78991796875,3.35583984375,-5.09378515625,-5.1424140625,-1.181859375,1.0492109375,-5.24038671875,-7.25571875,-1.216734375,-0.494640625,5.378546875,-0.38398046875,5.9633671875,22.5457890625,12.143421875
0.67257421875,4.1267421875,2.52418359375,-3.7024375,-1.07834375,2.49106640625,6.056375,9.164484375,-1.922390625,3.6065234375,-0.77466796875,0.384421875,-3.3354140625,-3.89366796875,3.462203125,-3.54591796875,3.52283984375,-5.64578515625,-5.4334140625,-2.345859375,0.4282109375,-4.90238671875,-7.50171875,-2.497734375,-1.997640625,4.848546875,-2.41898046875,5.3043671875,21.8977890625,10.230421875
-0.13442578125,4.3657421875,1.79218359375,-2.7764375,-0.19134375,2.32006640625,5.024375,8.449484375,-0.912390625,3.8975234375,-2.07066796875,0.569421875000001,-2.7494140625,-3.12066796875,1.962203125,-3.96991796875,4.10983984375,-5.94778515625,-5.4844140625,-3.004859375,0.4392109375,-4.60938671875,-7.46771875,-3.728734375,-3.429640625,4.148546875,-4.95398046875,3.6653671875,19.9967890625,7.369421875
-1.14442578125,4.0037421875,1.02118359375,-2.6394375,-0.41534375,1.31606640625,2.900375,7.667484375,-0.927390625,3.2375234375,-3.85266796875,1.166421875,-2.0364140625,-2.35466796875,0.00320312500000064,-3.55191796875,4.41983984375,-5.88878515625,-5.4984140625,-3.495859375,0.450210937500001,-4.17838671875,-7.29071875,-4.976734375,-5.067640625,2.870546875,-7.88598046875,1.3923671875,17.2057890625,3.920421875
-2.26442578125,3.0127421875,0.133183593749999,-3.2944375,-1.62534375,-0.464933593749999,-0.105625,6.544484375,-1.834390625,1.5785234375,-6.04166796875,1.573421875,-1.4454140625,-1.98866796875,-2.099796875,-2.87791796875,3.89583984375,-5.46978515625,-5.6264140625,-4.057859375,-0.0807890624999996,-3.61438671875,-7.18871875,-6.273734375,-7.034640625,0.833546875000001,-10.98598046875,-1.1336328125,14.0577890625,0.304421875
-3.36742578125,1.6717421875,-0.744816406250001,-4.4574375,-3.26434375,-2.51193359375,-3.195625,5.017484375,-3.272390625,-0.629476562500001,-8.13166796875,1.450421875,-1.1724140625,-2.19266796875,-3.817796875,-2.34791796875,2.38283984375,-4.86578515625,-5.9064140625,-4.677859375,-1.3387890625,-3.14338671875,-7.35871875,-7.533734375,-9.145640625,-1.755453125,-13.87498046875,-3.5496328125,11.1387890625,-3.028578125
-4.28542578125,0.399742187499998,-1.34881640625,-5.7424375,-4.71134375,-4.12593359375,-5.330625,3.265484375,-4.838390625,-2.6644765625,-9.42766796875,0.821421875,-1.2884140625,-2.86866796875,-4.607796875,-2.03591796875,0.17783984375,-4.35478515625,-6.2384140625,-5.073859375,-3.0687890625,-3.02338671875,-7.85271875,-8.509734375,-10.904640625,-4.339453125,-16.04298046875,-5.5306328125,8.9737890625,-5.616578125
-4.80642578125,-0.442257812500001,-1.45081640625,-6.8124375,-5.58134375,-4.76393359375,-5.692625,1.631484375,-6.177390625,-3.8364765625,-9.38366796875,-0.00157812499999999,-1.6934140625,-3.67366796875,-4.147796875,-1.73791796875,-2.13716015625,-4.15278515625,-6.4024140625,-4.859859375,-4.7017890625,-3.30538671875,-8.50071875,-8.849734375,-11.682640625,-6.223453125,-16.94798046875,-6.8026328125,7.9387890625,-7.039578125
-4.70942578125,-0.681257812500001,-1.00081640625,-7.4394375,-5.78834375,-4.25693359375,-4.050625,0.487484375,-6.997390625,-3.7254765625,-7.87166796875,-0.608578124999999,-2.1444140625,-4.13066796875,-2.496796875,-1.16491796875,-3.92516015625,-4.26178515625,-6.1434140625,-3.767859375,-5.6167890625,-3.73238671875,-8.95371875,-8.228734375,-11.003640625,-6.859453125,-16.17198046875,-7.1966328125,8.1947890625,-7.024578125
-3.87642578125,-0.333257812500001,-0.149816406250001,-7.5064375,-5.41934375,-2.80893359375,-0.843624999999999,0.0864843750000004,-7.066390625,-2.2844765625,-5.24066796875,-0.685578124999999,-2.3274140625,-3.79466796875,-0.0687968749999985,-0.14791796875,-4.70216015625,-4.42278515625,-5.2644140625,-1.813859375,-5.4167890625,-3.86338671875,-8.80171875,-6.512734375,-8.775640625,-6.053453125,-13.59198046875,-6.7076328125,9.6637890625,-5.559578125
-2.38542578125,0.497742187499999,0.874183593749999,-6.9814375,-4.58334375,-0.811933593749998,3.026375,0.468484375,-6.248390625,0.2095234375,-2.15166796875,-0.121578124999999,-1.9664140625,-2.41066796875,2.567203125,1.26908203125,-4.27416015625,-4.22078515625,-3.6924140625,0.696140625,-4.0797890625,-3.33238671875,-7.73371875,-3.832734375,-5.363640625,-4.012453125,-9.46898046875,-5.5176328125,12.0677890625,-2.950578125
-0.51442578125,1.6937421875,1.91118359375,-5.9154375,-3.34734375,1.35806640625,6.569375,1.461484375,-4.567390625,3.2715234375,0.69333203125,0.964421875000001,-0.9294140625,-0.0116679687500003,4.922203125,2.83108203125,-2.80116015625,-3.27878515625,-1.5094140625,3.292140625,-1.9447890625,-2.07138671875,-5.68871875,-0.567734375,-1.470640625,-1.264453125,-4.42598046875,-3.9576328125,14.9927890625,0.228421875
1.35357421875,3.1187421875,2.92818359375,-4.4764375,-1.77434375,3.42406640625,9.066375,2.750484375,-2.239390625,6.3445234375,2.78033203125,2.254421875,0.6605859375,3.07633203125,6.728203125,4.14708203125,-0.77616015625,-1.45778515625,1.0395859375,5.487140625,0.4092109375,-0.36438671875,-2.93071875,2.757265625,2.073359375,1.495546875,0.69101953125,-2.4196328125,17.9737890625,3.271421875
2.87657421875,4.5787421875,3.94018359375,-2.9504375,-0.01534375,5.19206640625,10.244375,3.942484375,0.368609375,8.9195234375,3.88733203125,3.334421875,2.3695859375,6.32033203125,7.929203125,4.80208203125,1.13583984375,1.05121484375,3.5785859375,6.900140625,2.3422109375,1.27761328125,-0.00271874999999966,5.608265625,4.549359375,3.591546875,5.02901953125,-1.2626328125,20.5787890625,5.544421875
3.87657421875,5.8297421875,4.90818359375,-1.6804375,1.66165625,6.52306640625,10.277375,4.653484375,2.842609375,10.6405234375,4.06833203125,3.872421875,3.5855859375,9.14133203125,8.580203125,4.49008203125,2.36283984375,3.75921484375,5.6815859375,7.335140625,3.3502109375,2.35261328125,2.46228125,7.579265625,5.538359375,4.581546875,7.96401953125,-0.6986328125,22.5167890625,6.683421875
4.37857421875,6.6647421875,5.71318359375,-0.9314375,2.96265625,7.34306640625,9.647375,4.633484375,4.834609375,11.3815234375,3.59833203125,3.803421875,3.8005859375,11.06633203125,8.771203125,3.16208203125,2.67383984375,6.03921484375,6.9905859375,6.819140625,3.2352109375,2.55461328125,3.95928125,8.489265625,5.037359375,4.403546875,9.26401953125,-0.7266328125,23.7157890625,6.711421875
4.55757421875,7.0067421875,6.20118359375,-0.7614375,3.71265625,7.68406640625,8.943375,3.870484375,6.126609375,11.2745234375,2.87033203125,3.382421875,2.9065859375,11.84733203125,8.594203125,1.10808203125,2.25583984375,7.33721484375,7.3315859375,5.610140625,2.1812109375,1.84961328125,4.29328125,8.420265625,3.452359375,3.370546875,9.11601953125,-1.1546328125,24.3037890625,6.001421875
4.62657421875,6.9537421875,6.27618359375,-1.0054375,3.96065625,7.70006640625,8.632375,2.601484375,6.650609375,10.6585234375,2.30333203125,3.063421875,1.2965859375,11.51033203125,8.179203125,-1.06591796875,1.55983984375,7.36321484375,6.7745859375,4.160140625,0.7052109375,0.43961328125,3.62128125,7.674265625,1.485359375,2.008546875,8.02501953125,-1.6886328125,24.5267890625,5.111421875
4.75257421875,6.7287421875,5.96118359375,-1.3644375,3.94765625,7.64306640625,8.892375,1.197484375,6.482609375,9.9755234375,2.24433203125,3.271421875,-0.3074140625,10.35033203125,7.722203125,-2.56291796875,1.03483984375,6.22121484375,5.6345859375,3.040140625,-0.4807890625,-1.30538671875,2.38728125,6.695265625,-0.064640625,0.856546875,6.65001953125,-2.0366328125,24.6577890625,4.581421875
5.06257421875,6.5797421875,5.43218359375,-1.5544375,3.98665625,7.78506640625,9.643375,0.0544843750000004,5.837609375,9.6455234375,2.91533203125,4.194421875,-1.2234140625,8.87733203125,7.475203125,-2.63991796875,0.93283984375,4.40221484375,4.3925859375,2.820140625,-0.6957890625,-2.92438671875,1.16228125,5.949265625,-0.527640625,0.311546875,5.62301953125,-1.9796328125,24.9257890625,4.796421875
5.67657421875,6.6907421875,5.02618359375,-1.4054375,4.29465625,8.31406640625,10.757375,-0.455515625,5.049609375,9.9415234375,4.37133203125,5.725421875,-1.1544140625,7.67433203125,7.659203125,-0.87991796875,1.29183984375,2.61021484375,3.5455859375,3.881140625,0.4752109375,-3.97038671875,0.44528125,5.787265625,0.439359375,0.557546875,5.38301953125,-1.3976328125,25.4877890625,5.922421875
6.68957421875,7.1497421875,5.19718359375,-0.893437500000001,4.87465625,9.25506640625,12.250375,-0.0145156249999996,4.481609375,10.8865234375,6.47233203125,7.571421875,-0.2924140625,7.18833203125,8.345203125,2.59908203125,2.05183984375,1.48021484375,3.4175859375,6.233140625,2.9922109375,-4.14838671875,0.48628125,6.328265625,2.726359375,1.569546875,6.05301953125,-0.2846328125,26.4077890625,7.899421875
8.06857421875,7.9537421875,6.35318359375,-0.1414375,5.47065625,10.45006640625,14.236375,1.511484375,4.371609375,12.2165234375,8.85433203125,9.427421875,0.8425859375,7.53733203125,9.382203125,7.11208203125,3.15783984375,1.30321484375,4.0355859375,9.437140625,6.3292109375,-3.44238671875,1.21428125,7.410265625,5.787359375,3.161546875,7.40701953125,1.2573671875,27.6467890625,10.460421875
9.53457421875,9.0057421875,8.57318359375,0.615562499999999,5.65865625,11.60406640625,16.702375,3.914484375,4.684609375,13.4645234375,10.98933203125,11.076421875,1.6945859375,8.44133203125,10.429203125,11.58608203125,4.55583984375,1.93121484375,5.1095859375,12.689140625,9.6352109375,-2.14738671875,2.28828125,8.633265625,8.799359375,5.026546875,8.93101953125,3.0303671875,29.0757890625,13.172421875
10.58557421875,10.0997421875,11.41618359375,1.0875625,5.06065625,12.38106640625,19.331375,6.635484375,5.094609375,14.1515234375,12.32733203125,12.347421875,1.9305859375,9.34633203125,11.099203125,14.88108203125,6.10983984375,2.89421484375,6.1555859375,15.077140625,12.0282109375,-0.76038671875,3.24128125,9.487265625,10.929359375,6.772546875,9.99801953125,4.7693671875,30.4777890625,15.509421875
10.70857421875,10.9567421875,14.01718359375,1.0425625,3.57365625,12.51806640625,21.548375,8.974484375,5.143609375,14.0085234375,12.51533203125,13.059421875,1.5235859375,9.70733203125,11.143203125,16.17208203125,7.56583984375,3.67321484375,6.7035859375,15.907140625,12.9142109375,0.21261328125,3.67228125,9.528265625,11.607359375,7.991546875,10.07201953125,6.1723671875,31.5757890625,16.974421875
9.69057421875,11.3147421875,15.49518359375,0.4245625,1.49265625,11.95406640625,22.761375,10.407484375,4.508609375,13.1155234375,11.57033203125,13.069421875,0.6765859375,9.27633203125,10.586203125,15.25108203125,8.62983984375,3.94421484375,6.5015859375,14.986140625,12.2002109375,0.45161328125,3.40428125,8.548265625,10.710359375,8.383546875,8.87301953125,6.9563671875,32.0687890625,17.221421875
7.80857421875,11.0757421875,15.44418359375,-0.576437500000001,-0.57534375,10.88706640625,22.616375,10.840484375,3.216609375,11.8695234375,9.92133203125,12.434421875,-0.3434140625,8.24433203125,9.732203125,12.64008203125,9.11683984375,3.70021484375,5.6165859375,12.713140625,10.3122109375,-0.0853867187500001,2.54228125,6.666265625,8.572359375,7.877546875,6.44801953125,6.9133671875,31.7007890625,16.136421875
5.76057421875,10.3837421875,14.16118359375,-1.5574375,-1.94234375,9.71906640625,21.178375,10.666484375,1.679609375,10.8015234375,8.26733203125,11.512421875,-1.3324140625,7.15133203125,9.029203125,9.40608203125,9.06783984375,3.19221484375,4.3995859375,9.930140625,8.0162109375,-1.17138671875,1.40528125,4.293265625,5.826359375,6.667546875,3.12701953125,5.9743671875,30.3427890625,13.865421875
4.33657421875,9.5967421875,12.49018359375,-2.0524375,-2.12934375,8.89106640625,18.956375,10.589484375,0.504609375,10.3505234375,7.31133203125,10.873421875,-2.1564140625,6.61733203125,8.873203125,6.75808203125,8.75183984375,2.76921484375,3.3345859375,7.595140625,6.1152109375,-2.39338671875,0.38428125,1.992265625,3.164359375,5.130546875,-0.55898046875,4.2783671875,28.0877890625,10.775421875
4.03757421875,9.1347421875,11.36918359375,-1.7554375,-1.10134375,8.70006640625,16.749375,11.262484375,0.177609375,10.6805234375,7.47633203125,11.046421875,-2.6564140625,7.02933203125,9.460203125,5.56908203125,8.54183984375,2.68621484375,2.8595859375,6.427140625,5.1722109375,-3.27538671875,-0.19071875,0.303265625,1.148359375,3.683546875,-3.96898046875,2.1923671875,25.3097890625,7.395421875
4.84557421875,9.2677421875,11.35118359375,-0.707437500000001,0.65465625,9.15706640625,15.341375,12.878484375,0.784609375,11.6295234375,8.71633203125,12.224421875,-2.5984140625,8.34633203125,10.723203125,6.05108203125,8.69283984375,2.98621484375,3.2145859375,6.685140625,5.3492109375,-3.43538671875,-0.13271875,-0.408734375,0.0953593749999997,2.643546875,-6.44098046875,0.2573671875,22.6227890625,4.324421875
6.25557421875,9.9327421875,12.33418359375,0.6825625,2.30265625,9.95506640625,15.163375,14.981484375,1.934609375,12.7795234375,10.50733203125,14.089421875,-1.7804140625,10.09733203125,12.354203125,7.68108203125,9.15783984375,3.50021484375,4.3635859375,8.122140625,6.3702109375,-2.76138671875,0.55928125,-0.0467343750000002,0.048359375,2.109546875,-7.42798046875,-0.9796328125,20.6947890625,2.079421875
7.53657421875,10.7157421875,13.62518359375,1.8435625,3.02565625,10.57706640625,16.092375,16.639484375,2.944609375,13.6365234375,12.05533203125,15.870421875,-0.2604140625,11.58033203125,13.901203125,9.43908203125,9.55383984375,3.96421484375,6.0075859375,10.120140625,7.6302109375,-1.52238671875,1.70628125,1.200265625,0.794359375,1.946546875,-6.66098046875,-1.1696328125,20.0087890625,0.956421875
8.08457421875,11.0417421875,14.30918359375,2.3775625,2.43665625,10.54606640625,17.524375,16.932484375,3.191609375,13.8565234375,12.64733203125,16.672421875,1.5315859375,12.20233203125,14.909203125,10.27908203125,9.36083984375,4.19221484375,7.7025859375,11.953140625,8.4482109375,-0.27638671875,3.01528125,2.957265625,1.960359375,1.900546875,-4.25198046875,-0.2936328125,20.6897890625,0.960421875
7.69357421875,10.5027421875,13.74418359375,2.2945625,0.76365625,9.69006640625,18.686375,15.462484375,2.437609375,13.4075234375,11.97633203125,15.941421875,2.9575859375,11.74733203125,15.076203125,9.62408203125,8.26483984375,4.16321484375,9.0235859375,13.058140625,8.3742109375,0.39361328125,4.18528125,4.806265625,3.157359375,1.786546875,-0.68898046875,1.3403671875,22.4887890625,1.839421875
6.61057421875,9.0937421875,11.86318359375,1.9855625,-1.29234375,8.23206640625,19.012375,12.593484375,0.920609375,12.5235234375,10.25233203125,13.767421875,3.5375859375,10.42733203125,14.312203125,7.61708203125,6.40683984375,3.98721484375,9.6675859375,13.181140625,7.3912109375,0.17661328125,4.98428125,6.378265625,4.103359375,1.624546875,3.29501953125,3.2153671875,24.8797890625,3.184421875
5.33357421875,7.2057421875,9.15918359375,1.9275625,-2.94334375,6.63706640625,18.337375,9.282484375,-0.818390625,11.4995234375,8.04133203125,10.832421875,3.2495859375,8.68333203125,12.701203125,4.99208203125,4.34083984375,3.75821484375,9.4655859375,12.367140625,5.8802109375,-0.83238671875,5.25128125,7.378265625,4.667359375,1.594546875,6.89501953125,4.7533671875,27.2157890625,4.543421875
4.31957421875,5.3977421875,6.39618359375,2.3615625,-3.69034375,5.32706640625,16.853375,6.584484375,-2.240390625,10.4805234375,5.95833203125,8.042421875,2.4885859375,6.91533203125,10.420203125,2.68008203125,2.72983984375,3.45221484375,8.3635859375,10.869140625,4.3892109375,-2.24738671875,4.87428125,7.587265625,4.849359375,1.902546875,9.43101953125,5.4863671875,28.9037890625,5.522421875
3.79357421875,4.1117421875,4.27718359375,3.1555625,-3.51334375,4.48206640625,14.920375,5.128484375,-3.038390625,9.4055234375,4.40633203125,6.114421875,1.7405859375,5.32733203125,7.713203125,1.39508203125,1.99683984375,2.93021484375,6.4205859375,9.063140625,3.3822109375,-3.64738671875,3.78728125,6.905265625,4.743359375,2.631546875,10.51401953125,5.1803671875,29.5787890625,5.872421875
3.70957421875,3.4907421875,3.21218359375,3.9135625,-2.80234375,4.01506640625,12.885375,4.854484375,-3.223390625,8.1235234375,3.47133203125,5.317421875,1.1835859375,3.92933203125,4.882203125,1.38808203125,2.13083984375,2.03121484375,3.8225859375,7.357140625,3.0622109375,-4.83538671875,2.00928125,5.404265625,4.484359375,3.686546875,10.11401953125,3.8953671875,29.2037890625,5.536421875
3.80757421875,3.3437421875,3.22318359375,4.1815625,-2.12934375,3.66206640625,10.988375,5.151484375,-3.062390625,6.5395234375,2.95033203125,5.434421875,0.5025859375,2.63933203125,2.228203125,2.39608203125,2.70683984375,0.68121484375,0.8605859375,6.064140625,3.3142109375,-5.95038671875,-0.33171875,3.319265625,4.157359375,4.782546875,8.50301953125,1.9103671875,28.0247890625,4.614421875
3.69957421875,3.2597421875,3.93618359375,3.6545625,-1.97234375,3.11706640625,9.324375,5.235484375,-2.932390625,4.6945234375,2.47433203125,5.896421875,-0.9374140625,1.37733203125,-0.0467968750000001,3.76208203125,3.06483984375,-1.03578515625,-2.1304140625,5.260140625,3.7472109375,-7.33338671875,-2.98371875,0.969265625,3.717359375,5.497546875,6.11501953125,-0.4106328125,26.4187890625,3.279421875
3.01657421875,2.8157421875,4.71018359375,2.2975625,-2.52034375,2.16606640625,7.836375,4.511484375,-3.136390625,2.7425234375,1.66933203125,6.024421875,-3.6234140625,0.136332031249999,-1.882796875,4.68508203125,2.58083984375,-2.86578515625,-4.8144140625,4.738140625,3.8532109375,-9.20238671875,-5.57971875,-1.318734375,2.978359375,5.391546875,3.39801953125,-2.7136328125,24.7417890625,1.700421875
1.59557421875,1.7837421875,4.86618359375,0.3775625,-3.63434375,0.775066406250001,6.354375,2.752484375,-3.764390625,0.899523437499999,0.31233203125,5.306421875,-7.4134140625,-1.00166796875,-3.333796875,4.52808203125,0.91383984375,-4.43578515625,-6.8974140625,4.117140625,3.2152109375,-11.37838671875,-7.68071875,-3.260734375,1.710359375,4.169546875,0.72901953125,-4.6856328125,23.2597890625,0.0214218749999997
-0.35442578125,0.234742187499999,3.96918359375,-1.6064375,-4.96134375,-0.896933593749999,4.704375,0.106484375,-4.667390625,-0.6234765625,-1.58266796875,3.584421875,-11.3854140625,-1.89066796875,-4.479796875,3.03608203125,-1.86616015625,-5.37978515625,-8.1724140625,3.030140625,1.6792109375,-13.28238671875,-8.88971875,-4.658734375,-0.220640625,1.808546875,-1.64898046875,-6.0786328125,22.1377890625,-1.629578125
-2.25142578125,-1.5332578125,2.00418359375,-3.1034375,-6.12734375,-2.57493359375,2.853375,-3.021515625,-5.557390625,-1.6554765625,-3.77566796875,1.082421875,-14.1784140625,-2.38966796875,-5.367796875,0.395082031249999,-5.31616015625,-5.48678515625,-8.5924140625,1.303140625,-0.5967890625,-14.23738671875,-9.02371875,-5.443734375,-2.755640625,-1.410453125,-3.65498046875,-6.7656328125,21.4317890625,-3.140578125
-3.35542578125,-3.1472578125,-0.631816406250001,-3.7154375,-6.88234375,-3.97293359375,0.974375,-6.138515625,-6.146390625,-2.0794765625,-5.89466796875,-1.698578125,-14.6594140625,-2.40966796875,-5.982796875,-2.86391796875,-8.79016015625,-4.80578515625,-8.2954140625,-0.960859375,-3.2217890625,-13.86438671875,-8.21871875,-5.705734375,-5.625640625,-4.991453125,-5.38398046875,-6.8146328125,21.0797890625,-4.438578125
-3.13742578125,-4.3112578125,-3.30681640625,-3.3514375,-7.14934375,-4.88993359375,-0.629624999999999,-8.860515625,-6.252390625,-1.8414765625,-7.57066796875,-4.180578125,-12.5454140625,-1.95666796875,-6.274796875,-6.06991796875,-11.65716015625,-3.66178515625,-7.5814140625,-3.426859375,-5.7377890625,-12.32538671875,-6.93071875,-5.685734375,-8.448640625,-8.371453125,-7.08198046875,-6.5126328125,20.8837890625,-5.520578125
-1.60342578125,-4.9022578125,-5.40781640625,-2.2604375,-6.99834375,-5.28693359375,-1.718625,-11.015515625,-5.856390625,-1.0134765625,-8.58166796875,-5.937578125,-8.6414140625,-1.15866796875,-6.235796875,-8.66691796875,-13.49416015625,-2.58078515625,-6.8484140625,-5.687859375,-7.8097890625,-10.28838671875,-5.81871875,-5.743734375,-10.884640625,-11.101453125,-9.09198046875,-6.3066328125,20.5337890625,-6.483578125
0.60857421875,-5.0042578125,-6.56781640625,-0.9314375,-6.59934375,-5.34293359375,-2.302625,-12.625515625,-5.129390625,0.120523437499999,-8.96366796875,-6.875578125,-4.5434140625,-0.30666796875,-6.005796875,-10.44391796875,-14.19316015625,-2.13878515625,-6.5294140625,-7.485859375,-9.3667890625,-8.66638671875,-5.56971875,-6.309734375,-12.793640625,-12.968453125,-11.74598046875,-6.6696328125,19.6747890625,-7.518578125
2.47057421875,-4.8702578125,-6.75981640625,0.102562499999999,-6.17434375,-5.40093359375,-2.681625,-13.784515625,-4.427390625,1.0645234375,-9.02866796875,-7.252578125,-1.9514140625,0.18333203125,-5.902796875,-11.58591796875,-13.94116015625,-2.76578515625,-7.0034140625,-8.833859375,-10.5757890625,-8.22538671875,-6.67071875,-7.758734375,-14.277640625,-14.014453125,-15.21598046875,-7.9206328125,18.0387890625,-8.840578125
3.05257421875,-4.7932578125,-6.24481640625,0.465562499999999,-5.95234375,-5.80493359375,-3.299625,-14.558515625,-4.175390625,1.2645234375,-9.21366796875,-7.479578125,-1.9024140625,-0.0996679687500004,-6.297796875,-12.48991796875,-13.08016015625,-4.54978515625,-8.4494140625,-9.955859375,-11.6707890625,-9.22638671875,-9.19371875,-10.230734375,-15.573640625,-14.437453125,-19.33998046875,-10.0516328125,15.6127890625,-10.569578125
1.99157421875,-4.9722578125,-5.41581640625,0.058562499999999,-6.13134375,-6.70693359375,-4.467625,-14.911515625,-4.684390625,0.362523437499998,-9.84866796875,-7.846578125,-4.3334140625,-1.36266796875,-7.408796875,-13.46491796875,-11.92716015625,-7.15778515625,-10.7324140625,-11.078859375,-12.7537890625,-11.28038671875,-12.69171875,-13.471734375,-16.856640625,-14.444453125,-23.55298046875,-12.6726328125,12.7257890625,-12.626578125
-0.32942578125,-5.4312578125,-4.64681640625,-0.962437500000001,-6.83634375,-8.00493359375,-6.133625,-14.701515625,-5.977390625,-1.6034765625,-10.96766796875,-8.356578125,-8.2134140625,-3.48366796875,-9.160796875,-14.52491796875,-10.66416015625,-9.92578515625,-13.3954140625,-12.246859375,-13.7267890625,-13.50638671875,-16.32471875,-16.836734375,-18.108640625,-14.173453125,-27.01398046875,-15.1216328125,9.9877890625,-14.704578125
-3.00742578125,-6.0562578125,-4.18981640625,-2.3094375,-8.09534375,-9.42893359375,-7.848625,-13.748515625,-7.748390625,-4.1934765625,-12.30666796875,-8.779578125,-12.1114140625,-6.01866796875,-11.202796875,-15.40291796875,-9.35616015625,-12.13678515625,-15.8134140625,-13.271859375,-14.3717890625,-14.95238671875,-19.16771875,-19.480734375,-19.120640625,-13.709453125,-28.89798046875,-16.7016328125,8.0957890625,-16.341578125
-5.08742578125,-6.6682578125,-4.12081640625,-3.7044375,-9.81534375,-10.70093359375,-8.986625,-11.983515625,-9.494390625,-6.7504765625,-13.45966796875,-8.855578125,-14.8394140625,-8.35966796875,-13.052796875,-15.74891796875,-8.06716015625,-13.32178515625,-17.4084140625,-13.831859375,-14.5027890625,-15.03038671875,-20.56071875,-20.673734375,-19.597640625,-13.158453125,-28.69898046875,-16.9146328125,7.6037890625,-17.060578125
-6.02042578125,-7.0972578125,-4.33081640625,-4.9494375,-11.77734375,-11.64093359375,-9.084625,-9.596515625,-10.745390625,-8.6674765625,-14.09166796875,-8.494578125,-15.8224140625,-9.94866796875,-14.274796875,-15.35791796875,-6.96616015625,-13.42378515625,-17.8484140625,-13.644859375,-14.0797890625,-13.75738671875,-20.32571875,-20.069734375,-19.314640625,-12.696453125,-26.40998046875,-15.6116328125,8.7607890625,-16.532578125
-5.82042578125,-7.2242578125,-4.56781640625,-5.9054375,-13.65434375,-12.17793359375,-8.082625,-7.043515625,-11.264390625,-9.5984765625,-14.06666796875,-7.860578125,-15.0934140625,-10.46266796875,-14.602796875,-14.28991796875,-6.33016015625,-12.75178515625,-17.1404140625,-12.625859375,-13.2407890625,-11.67238671875,-18.79271875,-17.830734375,-18.213640625,-12.535453125,-22.49598046875,-13.0036328125,11.4367890625,-14.709578125
-4.89042578125,-7.0032578125,-4.54081640625,-6.4654375,-15.06834375,-12.31193359375,-6.335625,-4.868515625,-11.095390625,-9.5204765625,-13.44066796875,-7.269578125,-13.0674140625,-9.89466796875,-13.992796875,-12.81991796875,-6.41816015625,-11.76278515625,-15.5964140625,-10.934859375,-12.2307890625,-9.51638671875,-16.61771875,-14.565734375,-16.432640625,-12.790453125,-17.72498046875,-9.5706328125,15.1727890625,-11.853578125
-3.68942578125,-6.4552578125,-4.03781640625,-6.5494375,-15.67234375,-12.05093359375,-4.390625,-3.467515625,-10.445390625,-8.6494765625,-12.35466796875,-6.975578125,-10.3194140625,-8.50766796875,-12.599796875,-11.25591796875,-7.28416015625,-10.81778515625,-13.6934140625,-8.898859375,-11.2847890625,-7.87738671875,-14.50271875,-11.095734375,-14.235640625,-13.355453125,-12.93298046875,-5.9136328125,19.3297890625,-8.465578125
-2.49742578125,-5.6552578125,-3.01481640625,-6.1664375,-15.27234375,-11.38993359375,-2.720625,-2.951515625,-9.540390625,-7.3074765625,-10.94766796875,-6.979578125,-7.4824140625,-6.71566796875,-10.736796875,-9.78091796875,-8.69316015625,-10.05978515625,-11.9024140625,-6.887859375,-10.5257890625,-6.99338671875,-12.94971875,-8.191734375,-11.939640625,-13.899453125,-8.84498046875,-2.6196328125,23.2457890625,-5.143578125
-1.43742578125,-4.7442578125,-1.62881640625,-5.4934375,-13.93934375,-10.36493359375,-1.560625,-3.179515625,-8.555390625,-5.8224765625,-9.35066796875,-7.045578125,-5.2084140625,-4.96066796875,-8.845796875,-8.42591796875,-10.24116015625,-9.46378515625,-10.5924140625,-5.234859375,-9.9737890625,-6.76238671875,-12.16671875,-6.378734375,-9.874640625,-14.061453125,-5.97898046875,-0.1826328125,26.3537890625,-2.446578125
-0.62442578125,-3.9242578125,-0.199816406250001,-4.8764375,-12.03634375,-9.13593359375,-0.942625,-3.898515625,-7.650390625,-4.5004765625,-7.75266796875,-6.901578125,-4.0674140625,-3.63566796875,-7.436796875,-7.19591796875,-11.57916015625,-8.98378515625,-10.0024140625,-4.224859375,-9.6287890625,-6.91038671875,-12.12071875,-5.884734375,-8.370640625,-13.705453125,-4.62898046875,1.0233671875,28.2377890625,-0.804578125
-0.23642578125,-3.4122578125,0.896183593749999,-4.7014375,-10.12434375,-7.98693359375,-0.838625,-4.868515625,-6.991390625,-3.5804765625,-6.43366796875,-6.449578125,-4.3454140625,-3.00666796875,-6.935796875,-6.16991796875,-12.56216015625,-8.64578515625,-10.2374140625,-4.062859375,-9.5307890625,-7.15938671875,-12.64971875,-6.657734375,-7.713640625,-13.026453125,-4.84398046875,0.7943671875,28.6987890625,-0.451578125
-0.41042578125,-3.3482578125,1.37318359375,-5.1894375,-8.73734375,-7.21693359375,-1.256625,-5.897515625,-6.722390625,-3.1854765625,-5.67366796875,-5.831578125,-5.8584140625,-3.14466796875,-7.493796875,-5.50791796875,-13.22816015625,-8.53278515625,-11.2434140625,-4.807859375,-9.7367890625,-7.33638671875,-13.55171875,-8.411734375,-8.042640625,-12.391453125,-6.40598046875,-0.8166328125,27.8317890625,-1.369578125
-1.06342578125,-3.7252578125,1.14518359375,-6.2194375,-8.14034375,-7.00593359375,-2.180625,-6.764515625,-6.895390625,-3.2734765625,-5.61466796875,-5.349578125,-7.9704140625,-3.91166796875,-8.868796875,-5.36891796875,-13.64616015625,-8.70878515625,-12.8054140625,-6.303859375,-10.2787890625,-7.43038671875,-14.64671875,-10.710734375,-9.274640625,-12.079453125,-8.87398046875,-3.4526328125,26.0357890625,-3.279578125
-1.82342578125,-4.4192578125,0.335183593749999,-7.3334375,-8.19434375,-7.36493359375,-3.412625,-7.153515625,-7.437390625,-3.6644765625,-6.16166796875,-5.350578125,-9.8614140625,-5.02166796875,-10.500796875,-5.85391796875,-13.79016015625,-9.17578515625,-14.6164140625,-8.222859375,-11.1577890625,-7.61838671875,-15.83571875,-13.090734375,-11.136640625,-12.129453125,-11.69898046875,-6.5116328125,23.8957890625,-5.709578125
-2.16142578125,-5.2802578125,-0.825816406250001,-7.9254375,-8.44234375,-8.18493359375,-4.518625,-6.695515625,-8.191390625,-4.1284765625,-7.01766796875,-6.129578125,-10.8794140625,-6.16366796875,-11.756796875,-6.99091796875,-13.53516015625,-9.89478515625,-16.3914140625,-10.193859375,-12.3727890625,-8.21738671875,-17.13471875,-15.196734375,-13.285640625,-12.388453125,-14.40298046875,-9.3376328125,21.9667890625,-8.150578125
-1.65442578125,-6.2082578125,-2.13381640625,-7.5404375,-8.38034375,-9.31793359375,-5.008625,-5.148515625,-9.000390625,-4.4874765625,-7.84266796875,-7.828578125,-10.7784140625,-7.11566796875,-12.198796875,-8.73291796875,-12.76516015625,-10.82178515625,-17.9584140625,-11.954859375,-13.9197890625,-9.52338671875,-18.61971875,-16.871734375,-15.446640625,-12.656453125,-16.71398046875,-11.4636328125,20.5727890625,-10.234578125
-0.22142578125,-7.1692578125,-3.47281640625,-6.1094375,-7.75534375,-10.62993359375,-4.659625,-2.579515625,-9.777390625,-4.6814765625,-8.43966796875,-10.361578125,-9.7294140625,-7.81566796875,-11.770796875,-10.95091796875,-11.49016015625,-11.91278515625,-19.2954140625,-13.427859375,-15.7567890625,-11.60838671875,-20.33671875,-18.160734375,-17.491640625,-12.812453125,-18.61698046875,-12.7936328125,19.7317890625,-11.858578125
1.80857421875,-8.1492578125,-4.80481640625,-4.0034375,-6.69034375,-12.01393359375,-3.728625,0.598484375,-10.516390625,-4.7654765625,-8.83566796875,-13.395578125,-8.1724140625,-8.35566796875,-10.793796875,-13.44191796875,-9.89416015625,-13.09978515625,-20.5044140625,-14.718859375,-17.7727890625,-14.21838671875,-22.23671875,-19.259734375,-19.447640625,-12.854453125,-20.30198046875,-13.6286328125,19.2037890625,-13.194578125
1.80857421875,-8.1492578125,-4.80481640625,-4.0034375,-6.69034375,-12.01393359375,-3.728625,0.598484375,-10.516390625,-4.7654765625,-8.83566796875,-13.395578125,-8.1724140625,-8.35566796875,-10.793796875,-13.44191796875,-9.89416015625,-13.09978515625,-20.5044140625,-14.718859375,-17.7727890625,-14.21838671875,-22.23671875,-19.259734375,-19.447640625,-12.854453125,-20.30198046875,-13.6286328125,19.2037890625,-13.194578125
