"Fp1","Fpz","Fp2","F7","F3","Fz","F4","F8","FC5","FC1","FC2","FC6","T7","C3","Cz","C4","T8","CP5","CP1","CP2","CP6","P7","P3","Pz","P4","P8","POz","O1","Oz","O2"
-1.6962734375,-9.91628125,-0.839164062500002,19.13089453125,1.00055859375,-1.404375,10.041484375,5.8935390625,1.0481171875,-1.43925,-5.7321875,2.47166015625,3.47321484375,-1.092171875,0.423253906250002,2.84439453125,11.91125390625,-0.38515625,1.08080078125,4.539828125,3.42347265625,9.34801953125,10.5733203125,7.95552734375,3.39191796875,0.79793359375,15.53084375,12.71853125,9.41021484375,7.34883984375
0.8457265625,-0.23828125,1.1698359375,13.47389453125,-0.49644140625,-3.507375,6.762484375,9.4615390625,0.9351171875,-1.25225,-6.1511875,-1.11133984375,3.00221484375,0.322828125,0.419253906250001,-0.75260546875,10.94325390625,-0.29615625,2.34480078125,3.658828125,1.59747265625,9.04001953125,10.8573203125,8.38952734375,4.14991796875,1.73193359375,14.96684375,11.69953125,9.04921484375,6.55983984375
3.0707265625,7.20271875,4.2698359375,9.34489453125,-0.30144140625,-4.553375,5.235484375,10.9845390625,1.1841171875,-0.744249999999999,-6.2481875,-2.36333984375,2.25721484375,1.371828125,0.776253906250002,-2.74260546875,9.42825390625,-0.34015625,3.22880078125,3.250828125,0.22347265625,8.68401953125,10.5633203125,8.71952734375,4.37291796875,2.30593359375,14.13184375,10.66153125,8.44621484375,5.58883984375
5.7307265625,12.78171875,8.8328359375,6.90489453125,1.38055859375,-4.503375,5.025484375,11.0105390625,1.7761171875,0.12975,-5.8461875,-1.20333984375,1.18121484375,2.157828125,1.62725390625,-2.98560546875,7.34325390625,-0.43315625,3.88680078125,3.457828125,-0.67952734375,8.28101953125,9.7913203125,9.03652734375,4.13691796875,2.49693359375,13.16684375,9.62453125,7.60721484375,4.48883984375
9.5097265625,17.19171875,14.5768359375,5.90089453125,3.75555859375,-3.586375,5.164484375,10.7375390625,2.5981171875,1.34175,-4.8531875,1.68866015625,-0.11978515625,2.895828125,3.00725390625,-1.82260546875,4.89125390625,-0.44715625,4.59480078125,4.269828125,-1.18152734375,7.84901953125,8.8513203125,9.44652734375,3.67391796875,2.36993359375,12.32084375,8.65753125,6.62921484375,3.39483984375
14.2117265625,20.56171875,20.3598359375,5.84289453125,5.87055859375,-2.133375,4.804484375,11.1565390625,3.5131171875,2.79575,-3.3501875,5.19866015625,-1.34578515625,3.743828125,4.80125390625,0.08939453125,2.45525390625,-0.32015625,5.53280078125,5.458828125,-1.37652734375,7.41201953125,8.0603203125,9.95952734375,3.19291796875,1.99393359375,11.77784375,7.85253125,5.64121484375,2.45383984375
18.5057265625,22.17771875,24.4458359375,6.20289453125,7.04255859375,-0.450374999999999,3.712484375,12.4235390625,4.3951171875,4.33075,-1.5931875,8.20566015625,-2.08578515625,4.678828125,6.74825390625,1.99739453125,0.479253906250001,-0.12515625,6.63180078125,6.608828125,-1.36752734375,6.96801953125,7.5623203125,10.42552734375,2.76091796875,1.39293359375,11.51384375,7.27853125,4.71921484375,1.71683984375
20.4857265625,21.02571875,25.1918359375,6.51089453125,7.08055859375,1.239625,2.353484375,13.8605390625,5.1391171875,5.73475,0.0808125000000004,9.95466015625,-2.01278515625,5.500828125,8.51125390625,3.26639453125,-0.690746093749999,-0.0391562499999999,7.59680078125,7.259828125,-1.28852734375,6.46401953125,7.2723203125,10.59952734375,2.31291796875,0.55193359375,11.29284375,6.94153125,3.85021484375,1.10083984375
18.7377265625,16.69571875,21.8298359375,6.43089453125,6.27255859375,2.778625,1.591484375,14.4945390625,5.6991171875,6.79075,1.3868125,10.24766015625,-1.03878515625,5.956828125,9.77925390625,3.56539453125,-0.931746093749999,-0.23715625,8.07180078125,7.114828125,-1.29152734375,5.83301953125,6.9743203125,10.27552734375,1.74791796875,-0.50206640625,10.80984375,6.79653125,2.97621484375,0.45483984375
13.3297265625,10.02271875,15.0318359375,5.89589453125,5.18455859375,4.036625,2.203484375,13.7435390625,6.1151171875,7.35075,2.1738125,9.42466015625,0.68121484375,5.903828125,10.36525390625,2.96039453125,-0.388746093749999,-0.74515625,7.84880078125,6.190828125,-1.48652734375,5.08201953125,6.4983203125,9.42252734375,1.05691796875,-1.62606640625,9.89384375,6.81553125,2.11121484375,-0.29016015625
6.1177265625,3.07371875,7.0278359375,5.23389453125,4.32455859375,4.854625,4.347484375,11.8015390625,6.4701171875,7.36675,2.4278125,8.13566015625,2.84721484375,5.393828125,10.25425390625,1.85139453125,0.583253906250001,-1.39115625,6.98580078125,4.819828125,-1.86452734375,4.36901953125,5.8533203125,8.21752734375,0.37191796875,-2.53406640625,8.62884375,7.03553125,1.41421484375,-1.02416015625
0.1017265625,-1.53628125,1.0448359375,5.06889453125,3.86355859375,5.033625,7.261484375,9.5235390625,6.8211171875,6.88575,2.2178125,7.01166015625,5.11021484375,4.652828125,9.58925390625,0.76539453125,1.55425390625,-1.87715625,5.77980078125,3.483828125,-2.28352734375,3.97001953125,5.2173203125,6.96852734375,-0.0890820312500002,-2.89306640625,7.30984375,7.51353125,1.13021484375,-1.50016015625
-1.8722734375,-1.71428125,0.0638359374999986,5.97489453125,3.63155859375,4.454625,9.518484375,7.9455390625,7.1791171875,6.06775,1.6728125,6.43266015625,7.09121484375,3.990828125,8.64025390625,0.14939453125,2.18425390625,-1.95115625,4.63480078125,2.607828125,-2.52552734375,4.12901953125,4.8233203125,5.97652734375,-0.13308203125,-2.48706640625,6.28684375,8.23653125,1.44621484375,-1.47316015625
1.5657265625,3.13771875,5.2998359375,8.11989453125,3.45555859375,3.291625,9.886484375,7.7565390625,7.5791171875,5.23175,1.0288125,6.53566015625,8.39321484375,3.711828125,7.78425390625,0.29139453125,2.36625390625,-1.53715625,3.93380078125,2.426828125,-2.37752734375,4.91501953125,4.8413203125,5.45352734375,0.31591796875,-1.33806640625,5.82984375,9.08853125,2.36221484375,-0.82416015625
9.5437265625,11.70671875,15.2748359375,11.12189453125,3.52055859375,2.151625,8.250484375,9.0025390625,8.1421171875,4.88475,0.7078125,7.36266015625,8.68021484375,4.067828125,7.47925390625,1.33239453125,2.26425390625,-0.74515625,3.96580078125,2.995828125,-1.70452734375,6.19401953125,5.3413203125,5.52752734375,1.21591796875,0.28993359375,6.08184375,9.91353125,3.70121484375,0.40783984375
19.0647265625,21.10671875,26.1438359375,14.19189453125,4.37055859375,1.923625,5.835484375,11.1325390625,9.0231171875,5.59975,1.2558125,8.94066015625,7.80521484375,5.223828125,8.16225390625,3.26939453125,2.22525390625,0.23384375,4.90080078125,4.239828125,-0.52352734375,7.73001953125,6.3223203125,6.26652734375,2.44991796875,2.00493359375,7.06884375,10.63353125,5.20821484375,2.07583984375
26.1257265625,27.89871875,33.3148359375,16.47189453125,6.50255859375,3.337625,4.493484375,13.2885390625,10.2751171875,7.73175,3.0778125,11.16366015625,5.92421484375,7.161828125,10.04125390625,5.89239453125,2.57325390625,1.23584375,6.71980078125,5.973828125,0.96347265625,9.32401953125,7.7463203125,7.65552734375,3.86291796875,3.44693359375,8.68984375,11.29453125,6.65721484375,3.95983984375
27.5377265625,29.43171875,33.6008359375,17.43689453125,9.84855859375,6.484625,5.532484375,14.6615390625,11.7381171875,11.12175,6.0998125,13.62866015625,3.51921484375,9.597828125,12.89425390625,8.72839453125,3.40225390625,2.16884375,9.14680078125,7.885828125,2.39647265625,10.87901953125,9.5133203125,9.51052734375,5.22991796875,4.37293359375,10.68684375,12.01053125,7.87421484375,5.79383984375
22.5197265625,24.96471875,26.7608359375,17.13289453125,13.58355859375,10.616625,8.864484375,14.7725390625,13.0561171875,15.01775,9.6158125,15.61966015625,1.28021484375,11.975828125,16.02625390625,11.08839453125,4.48025390625,2.97984375,11.64180078125,9.551828125,3.35947265625,12.35201953125,11.4223203125,11.44352734375,6.24791796875,4.68693359375,12.63284375,12.83853125,8.70521484375,7.27583984375
13.0367265625,16.04371875,15.5988359375,16.04289453125,16.41555859375,14.401625,12.989484375,13.6015390625,13.8001171875,18.31075,12.5148125,16.35766015625,-0.13178515625,13.644828125,18.48225390625,12.26839453125,5.33325390625,3.61584375,13.55480078125,10.532828125,3.51847265625,13.66401953125,13.1673203125,12.93552734375,6.59291796875,4.39893359375,14.02484375,13.69053125,8.99821484375,8.10383984375
2.6347265625,5.85471875,4.5358359375,14.71089453125,17.21755859375,16.520625,15.814484375,11.5175390625,13.6651171875,19.99875,13.7828125,15.38366015625,-0.33578515625,14.115828125,19.43125390625,11.82839453125,5.46325390625,4.02484375,14.35880078125,10.528828125,2.75147265625,14.67001953125,14.4113203125,13.53452734375,6.05191796875,3.58493359375,14.45884375,14.34753125,8.63221484375,8.05683984375
-5.4232734375,-2.16228125,-2.5351640625,13.44789453125,15.65755859375,16.303625,15.813484375,9.0825390625,12.6271171875,19.64175,12.9988125,12.84866015625,0.62921484375,13.288828125,18.54025390625,9.83539453125,4.58025390625,4.19284375,13.86780078125,9.516828125,1.23247265625,15.23201953125,14.9213203125,13.06152734375,4.65991796875,2.35793359375,13.81284375,14.57953125,7.61221484375,7.09283984375
-9.4602734375,-5.72928125,-3.8771640625,12.34889453125,12.43755859375,14.052625,12.868484375,6.8135390625,10.9761171875,17.57675,10.5758125,9.54266015625,2.34821484375,11.505828125,16.15725390625,6.93739453125,2.74425390625,4.19084375,12.33580078125,7.816828125,-0.56952734375,15.35501953125,14.7093203125,11.72952734375,2.77491796875,0.89793359375,12.35284375,14.30653125,6.15521484375,5.43983984375
-9.5382734375,-4.47828125,-0.245164062500001,11.44289453125,8.96255859375,10.897625,8.323484375,5.0195390625,9.2011171875,14.77775,7.6168125,6.59766015625,4.21921484375,9.434828125,13.22225390625,4.16239453125,0.377253906250001,4.17484375,10.38680078125,6.036828125,-2.00952734375,15.22501953125,14.0693203125,10.11852734375,1.02191796875,-0.51006640625,10.67884375,13.69053125,4.69221484375,3.58383984375
-6.8192734375,0.214718749999999,5.9308359375,10.75889453125,6.63755859375,8.265625,4.305484375,3.7385390625,7.7851171875,12.43175,5.4588125,5.02166015625,5.65021484375,7.808828125,10.88725390625,2.51539453125,-1.86974609375,4.31784375,8.79380078125,4.885828125,-2.49852734375,15.11601953125,13.4563203125,8.95952734375,0.09391796875,-1.49806640625,9.50084375,13.07653125,3.72421484375,2.11983984375
-2.8532734375,6.05071875,11.7758359375,10.28089453125,6.22855859375,7.242625,2.743484375,2.7995390625,7.0251171875,11.42575,5.0918125,5.26866015625,6.20921484375,7.123828125,10.01325390625,2.54539453125,-3.33874609375,4.69084375,8.15080078125,4.860828125,-1.76652734375,15.19301953125,13.2453203125,8.80152734375,0.45491796875,-1.74906640625,9.33284375,12.80053125,3.60521484375,1.52083984375
0.8617265625,10.81371875,14.9728359375,9.90789453125,7.61155859375,8.140625,4.557484375,1.9645390625,6.9581171875,11.99375,6.7188125,7.05866015625,5.72121484375,7.445828125,10.79025390625,4.12639453125,-3.59774609375,5.18484375,8.61280078125,5.995828125,-0.000527343749999798,15.37901953125,13.5243203125,9.73052734375,2.07791796875,-1.17406640625,10.25284375,12.99753125,4.36221484375,1.94383984375
3.1647265625,13.12171875,14.3778359375,9.44489453125,9.98255859375,10.474625,9.265484375,1.1095390625,7.4091171875,13.71075,9.6878125,9.53066015625,4.29921484375,8.440828125,12.69625390625,6.54639453125,-2.58474609375,5.54484375,9.87080078125,7.826828125,2.21947265625,15.38801953125,14.0623203125,11.33852734375,4.43391796875,0.00993359374999991,11.87384375,13.54553125,5.69621484375,3.17983984375
3.4517265625,12.69671875,10.2508359375,8.59989453125,12.32555859375,13.281625,15.175484375,0.299539062499999,8.1001171875,15.78475,12.8588125,11.64966015625,2.32321484375,9.611828125,14.83625390625,8.86239453125,-0.624746093749999,5.51384375,11.37980078125,9.643828125,4.17947265625,14.90301953125,14.4793203125,12.97652734375,6.74991796875,1.36693359375,13.55484375,14.17253125,7.15521484375,4.76483984375
1.8197265625,10.15171875,4.1448359375,7.09289453125,13.90555859375,15.615625,20.138484375,-0.2844609375,8.7941171875,17.47975,15.1628125,12.68266015625,0.32921484375,10.575828125,16.42025390625,10.35939453125,1.70125390625,4.99784375,12.67380078125,10.877828125,5.35247265625,13.78801953125,14.4893203125,14.12652734375,8.37791796875,2.45293359375,14.72884375,14.64653125,8.36921484375,6.19983984375
-0.9332734375,6.59371875,-1.5571640625,4.95189453125,14.54655859375,16.921625,22.548484375,-0.503460937500002,9.3651171875,18.41575,16.0648125,12.51066015625,-1.13378515625,11.211828125,17.11825390625,10.85039453125,3.78325390625,4.14084375,13.55480078125,11.382828125,5.61747265625,12.21301953125,14.0593203125,14.65552734375,9.07791796875,3.02693359375,15.15084375,14.91253125,9.21521484375,7.16183984375
-3.3792734375,3.35271875,-4.3491640625,2.80789453125,14.53855859375,17.132625,22.013484375,-0.341460937500001,9.7591171875,18.61775,15.7048125,11.63266015625,-1.63378515625,11.625828125,17.09625390625,10.69339453125,5.23325390625,3.26484375,14.10280078125,11.450828125,5.25747265625,10.61101953125,13.4033203125,14.80952734375,9.05191796875,3.14093359375,14.95584375,15.08853125,9.81721484375,7.61383984375
-3.7602734375,1.84571875,-2.4321640625,1.80089453125,14.26955859375,16.524625,19.294484375,0.1705390625,9.9221171875,18.34575,14.6948125,10.85366015625,-0.96278515625,12.005828125,16.79725390625,10.50239453125,6.00525390625,2.73084375,14.53080078125,11.570828125,4.76547265625,9.50301953125,12.8333203125,14.98752734375,8.76991796875,3.08393359375,14.51284375,15.36653125,10.39721484375,7.75583984375
-0.7102734375,3.27471875,4.5318359375,2.97689453125,13.88255859375,15.471625,15.694484375,1.0675390625,9.7821171875,17.87275,13.7248125,10.84166015625,0.80421484375,12.486828125,16.61525390625,10.77039453125,6.30825390625,2.78384375,15.01980078125,12.102828125,4.57447265625,9.27201953125,12.5793203125,15.46252734375,8.67691796875,3.18793359375,14.18284375,15.85453125,11.07521484375,7.86783984375
5.7017265625,7.99871875,15.0238359375,6.51089453125,13.28655859375,14.289625,12.382484375,2.4415390625,9.3321171875,17.36075,13.1978125,11.79466015625,3.30621484375,13.074828125,16.68425390625,11.61439453125,6.37725390625,3.46684375,15.59880078125,13.049828125,4.85147265625,10.00101953125,12.6733203125,16.19352734375,8.94691796875,3.61093359375,14.13084375,16.49253125,11.75221484375,8.13883984375
13.3657265625,14.98671875,26.0058359375,11.36389453125,12.46055859375,13.206625,10.067484375,4.2765390625,8.7431171875,16.87875,13.1048125,13.37666015625,5.98321484375,13.685828125,16.86625390625,12.77439453125,6.28925390625,4.62684375,16.13880078125,14.072828125,5.47047265625,11.45601953125,12.9483203125,16.85852734375,9.41091796875,4.23393359375,14.26384375,17.07353125,12.15421484375,8.57683984375
18.8187265625,21.96171875,34.0278359375,15.66589453125,11.72855859375,12.412625,9.055484375,6.2835390625,8.3491171875,16.49975,13.1718125,14.95066015625,8.22721484375,14.239828125,16.92825390625,13.82439453125,5.97825390625,5.98884375,16.45580078125,14.705828125,6.14647265625,13.18901953125,13.1593203125,17.06452734375,9.71091796875,4.74293359375,14.33584375,17.35353125,11.99521484375,9.03683984375
19.2047265625,26.41371875,36.6428359375,17.61989453125,11.70755859375,12.111625,9.494484375,7.9325390625,8.5061171875,16.36175,13.1688125,15.96966015625,9.54821484375,14.728828125,16.75425390625,14.45139453125,5.40825390625,7.25784375,16.45380078125,14.654828125,6.65947265625,14.73401953125,13.1333203125,16.61852734375,9.57291796875,4.84193359375,14.13284375,17.19353125,11.16421484375,9.32683984375
14.3147265625,26.87471875,33.4208359375,16.46489453125,12.93655859375,12.500625,11.499484375,8.7115390625,9.3981171875,16.62575,13.1088125,16.32566015625,9.69621484375,15.207828125,16.44925390625,14.65039453125,4.73325390625,8.22384375,16.19880078125,13.977828125,7.01447265625,15.77201953125,12.8613203125,15.66352734375,9.00891796875,4.45793359375,13.63584375,16.63253125,9.81921484375,9.32983984375
7.1527265625,23.63171875,26.1118359375,12.96489453125,15.41955859375,13.642625,14.974484375,8.4705390625,10.8841171875,17.34275,13.2068125,16.40366015625,8.73721484375,15.690828125,16.25925390625,14.70539453125,4.30025390625,8.79584375,15.86380078125,13.027828125,7.42547265625,16.20701953125,12.4613203125,14.59952734375,8.30591796875,3.79493359375,13.03284375,15.86453125,8.33921484375,9.06883984375
2.4117265625,18.51771875,17.9488359375,9.09889453125,18.36855859375,15.290625,19.241484375,7.6085390625,12.4671171875,18.30275,13.6408125,16.81066015625,7.05021484375,16.059828125,16.35225390625,14.96039453125,4.48525390625,8.97484375,15.58980078125,12.221828125,8.11947265625,16.12301953125,12.0583203125,13.83052734375,7.82991796875,3.21993359375,12.59584375,15.14053125,7.15321484375,8.67783984375
3.6937265625,13.97071875,12.4078359375,7.02189453125,20.38755859375,16.825625,22.887484375,6.9395390625,13.4421171875,18.99875,14.3308125,17.94066015625,5.22421484375,16.051828125,16.64825390625,15.53539453125,5.48225390625,8.78484375,15.37180078125,11.772828125,9.11447265625,15.66101953125,11.6653203125,13.52852734375,7.79491796875,3.07093359375,12.49184375,14.64253125,6.55321484375,8.31683984375
11.2337265625,11.88271875,11.7958359375,7.86289453125,20.14255859375,17.461625,24.249484375,7.2645390625,13.2231171875,18.81875,14.9168125,19.68166015625,3.86221484375,15.372828125,16.81825390625,16.21139453125,7.19225390625,8.21484375,15.05580078125,11.601828125,10.15947265625,14.90301953125,11.1573203125,13.56052734375,8.13491796875,3.47093359375,12.67784375,14.40453125,6.58321484375,8.09483984375
21.5447265625,12.73471875,16.1958359375,11.10389453125,17.17355859375,16.672625,22.370484375,8.8965390625,11.6861171875,17.38975,14.9838125,21.47366015625,3.35721484375,13.884828125,16.47725390625,16.58239453125,9.27325390625,7.22984375,14.43980078125,11.426828125,10.86947265625,13.83301953125,10.3723203125,13.59252734375,8.53691796875,4.28093359375,12.92084375,14.31853125,7.05121484375,8.03383984375
29.2257265625,15.43571875,23.2858359375,14.93089453125,12.30555859375,14.565625,17.752484375,11.4215390625,9.3011171875,14.86075,14.3748125,22.66066015625,3.75321484375,11.758828125,15.43925390625,16.31939453125,11.30725390625,5.84384375,13.43080078125,10.973828125,10.93747265625,12.39201953125,9.2513203125,13.29652734375,8.61791796875,5.18393359375,12.92784375,14.19453125,7.63221484375,8.07883984375
29.8927265625,17.96871875,29.3088359375,17.32189453125,7.29855859375,11.914625,12.288484375,13.8735390625,6.9201171875,11.90575,13.3478125,22.87066015625,4.76321484375,9.476828125,13.85925390625,15.37739453125,12.96025390625,4.19284375,12.14180078125,10.136828125,10.28547265625,10.57801953125,7.9313203125,12.52852734375,8.13291796875,5.85093359375,12.48884375,13.85453125,8.01321484375,8.11783984375
22.5637265625,18.50271875,30.8508359375,17.16289453125,3.94355859375,9.782625,8.329484375,15.2095390625,5.3661171875,9.41375,12.4378125,22.17266015625,5.96021484375,7.660828125,12.15025390625,13.99939453125,14.03525390625,2.55384375,10.85980078125,9.017828125,9.09547265625,8.53901953125,6.7063203125,11.38552734375,7.07991796875,6.09493359375,11.58084375,13.21253125,7.99021484375,8.02783984375
10.1627265625,16.38771875,26.5698359375,14.73389453125,3.21855859375,8.963625,7.469484375,14.8265390625,5.0711171875,8.07375,12.0918125,20.95166015625,7.02721484375,6.794828125,10.75225390625,12.57439453125,14.41925390625,1.27384375,9.90880078125,7.843828125,7.73147265625,6.58101953125,5.8823203125,10.12752734375,5.68791796875,5.92793359375,10.36084375,12.30353125,7.52321484375,7.74683984375
-2.1472734375,12.45071875,17.9008359375,11.32289453125,4.91955859375,9.560625,9.719484375,12.8305390625,5.9451171875,8.07075,12.3318125,19.63866015625,7.88621484375,7.023828125,9.90425390625,11.41839453125,14.02325390625,0.63684375,9.48480078125,6.829828125,6.58947265625,5.09501953125,5.6213203125,9.03352734375,4.29691796875,5.53493359375,9.09384375,11.25653125,6.72321484375,7.33083984375
-9.7202734375,8.47071875,8.2998359375,8.30589453125,7.89455859375,10.944625,13.507484375,9.9495390625,7.4871171875,9.04675,12.7018125,18.46266015625,8.61621484375,8.105828125,9.52725390625,10.60239453125,12.80325390625,0.72884375,9.56380078125,6.074828125,5.92447265625,4.38601953125,5.8523203125,8.26952734375,3.22391796875,5.19893359375,8.03584375,10.23653125,5.78221484375,6.94383984375
-10.5692734375,6.12471875,1.4898359375,6.40489453125,10.62855859375,12.088625,16.512484375,7.1435390625,9.0271171875,10.28975,12.5058125,17.38166015625,9.25921484375,9.503828125,9.27625390625,9.93639453125,10.85725390625,1.36784375,9.90280078125,5.510828125,5.72647265625,4.52401953125,6.2843203125,7.80352734375,2.63291796875,5.17093359375,7.31784375,9.35553125,4.88021484375,6.76383984375
-5.7362734375,6.07871875,-0.316164062500002,5.59389453125,11.89755859375,12.073625,16.889484375,5.1495390625,9.9811171875,11.02975,11.1758125,16.18566015625,9.69821484375,10.561828125,8.70025390625,9.10439453125,8.50225390625,2.14284375,10.09780078125,4.933828125,5.72947265625,5.28101953125,6.4993203125,7.39652734375,2.45391796875,5.54493359375,6.87484375,8.61353125,4.08221484375,6.86083984375
1.8447265625,7.71671875,2.7258359375,5.50189453125,11.19355859375,10.492625,14.184484375,4.1815390625,10.0051171875,10.72075,8.5588125,14.69066015625,9.68621484375,10.695828125,7.42725390625,7.86139453125,6.22925390625,2.55284375,9.71480078125,4.074828125,5.54447265625,6.21601953125,6.1083203125,6.69152734375,2.38191796875,6.19493359375,6.44984375,7.90953125,3.32221484375,7.12183984375
8.8707265625,9.62671875,8.4718359375,5.79389453125,8.78255859375,7.563625,9.384484375,3.9625390625,9.0291171875,9.19475,4.9848125,12.88866015625,9.02721484375,9.575828125,5.32525390625,6.17139453125,4.52425390625,2.20784375,8.45080078125,2.724828125,4.85347265625,6.88001953125,4.9053203125,5.37952734375,2.01491796875,6.83593359375,5.71684375,7.12753125,2.48021484375,7.29683984375
12.7917265625,10.46271875,14.0158359375,6.27889453125,5.44455859375,3.957625,4.171484375,4.0005390625,7.2181171875,6.66975,1.0978125,10.94266015625,7.73521484375,7.239828125,2.56225390625,4.20839453125,3.66325390625,0.99684375,6.29080078125,0.844828125000001,3.55647265625,7.02001953125,2.9813203125,3.38752734375,1.06591796875,7.16293359375,4.46784375,6.23953125,1.50521484375,7.11983984375
12.4397265625,9.66871875,17.0798359375,6.87789453125,2.10455859375,0.463625000000001,-0.0575156249999997,3.9515390625,4.9101171875,3.62175,-2.4371875,9.08266015625,6.08821484375,4.075828125,-0.446746093749999,2.27139453125,3.61325390625,-0.87515625,3.54780078125,-1.386171875,1.83247265625,6.66301953125,0.7213203125,0.965527343750001,-0.47408203125,6.98493359375,2.77584375,5.36353125,0.50121484375,6.45983984375
8.2877265625,7.72471875,16.9208359375,7.59189453125,-0.48044140625,-2.311375,-2.811515625,3.8345390625,2.5471171875,0.606750000000001,-5.1941875,7.49566015625,4.50821484375,0.691828125,-3.18674609375,0.67039453125,4.10725390625,-2.98315625,0.765800781249999,-3.623171875,0.0644726562500002,6.04201953125,-1.3266796875,-1.38547265625,-2.31808203125,6.27793359375,0.995843749999999,4.70353125,-0.294785156250001,5.37983984375
2.1907265625,5.80671875,14.3818359375,8.39189453125,-1.88144140625,-4.074375,-4.463515625,3.9685390625,0.5751171875,-1.88125,-7.0431875,6.29966015625,3.36021484375,-2.275171875,-5.18474609375,-0.37060546875,4.81925390625,-4.87215625,-1.47319921875,-5.484171875,-1.33152734375,5.40001953125,-2.6666796875,-3.11147265625,-4.02008203125,5.15393359375,-0.39015625,4.41753125,-0.63978515625,4.08683984375
-3.4582734375,5.04971875,11.1308359375,8.99689453125,-2.02844140625,-4.769375,-5.669515625,4.6815390625,-0.654882812499999,-3.46625,-8.0111875,5.59366015625,2.77021484375,-4.299171875,-6.10774609375,-0.751605468750001,5.53125390625,-6.21015625,-2.71019921875,-6.657171875,-2.08252734375,4.84401953125,-3.0276796875,-3.81547265625,-5.15708203125,3.79793359375,-1.00015625,4.51353125,-0.419785156250001,2.80483984375
-6.7342734375,5.84071875,8.5888359375,8.78589453125,-1.10644140625,-4.404375,-6.637515625,5.9935390625,-0.9418828125,-3.88625,-8.0821875,5.50666015625,2.61021484375,-5.035171875,-5.77174609375,-0.45760546875,6.18825390625,-6.85415625,-2.70819921875,-6.951171875,-2.16252734375,4.32101953125,-2.4226796875,-3.36147265625,-5.48408203125,2.39593359375,-0.697156250000001,4.84853125,0.28021484375,1.66983984375
-6.7682734375,7.64071875,7.2628359375,7.14989453125,0.60655859375,-2.934375,-6.771515625,7.5535390625,-0.2278828125,-2.98025,-7.0971875,6.19866015625,2.65421484375,-4.334171875,-4.12574609375,0.50839453125,6.84425390625,-6.80615625,-1.43819921875,-6.270171875,-1.74052734375,3.73901953125,-1.0616796875,-1.85347265625,-4.98108203125,1.07593359375,0.43284375,5.25353125,1.23121484375,0.72283984375
-3.7022734375,9.47271875,6.8708359375,4.12689453125,2.86655859375,-0.303374999999999,-5.014515625,8.8725390625,1.4251171875,-0.70825,-4.8501875,7.79566015625,2.78021484375,-2.216171875,-1.24774609375,2.16639453125,7.55525390625,-6.11415625,0.986800781249999,-4.592171875,-1.05252734375,3.11401953125,0.8103203125,0.490527343749999,-3.78508203125,-0.0980664062500001,2.20484375,5.68453125,2.20521484375,-0.0281601562500002
1.6517265625,10.69571875,6.9978359375,0.80789453125,5.48855859375,3.379625,-0.687515625000001,9.7005390625,3.8531171875,2.79075,-1.2881875,10.25666015625,3.04121484375,1.160828125,2.65225390625,4.50939453125,8.31125390625,-4.80515625,4.38680078125,-1.958171875,-0.26852734375,2.61701953125,3.0423203125,3.46552734375,-2.06708203125,-1.08606640625,4.46984375,6.28353125,3.11321484375,-0.54416015625
8.1217265625,11.44071875,7.6488359375,-0.93910546875,8.33255859375,7.728625,5.803484375,10.2305390625,6.8081171875,7.20075,3.2978125,13.26666015625,3.59721484375,5.514828125,7.23025390625,7.42239453125,9.02525390625,-2.86315625,8.53380078125,1.490828125,0.57347265625,2.48901953125,5.5983203125,6.92752734375,0.03791796875,-1.83006640625,7.13584375,7.30253125,4.03921484375,-0.72716015625
14.4467265625,12.45471875,9.2958359375,0.58889453125,11.30955859375,12.130625,12.974484375,10.9925390625,10.0021171875,12.08475,8.2668125,16.25566015625,4.59321484375,10.442828125,12.05625390625,10.65039453125,9.59725390625,-0.28915625,13.12080078125,5.477828125,1.54347265625,2.88901953125,8.4603203125,10.74652734375,2.41391796875,-2.27606640625,10.09784375,8.92653125,5.14721484375,-0.48516015625
19.6027265625,14.57471875,12.5068359375,5.83689453125,14.36655859375,15.963625,18.929484375,12.5065390625,13.1521171875,16.97575,12.8178125,18.59166015625,6.10221484375,15.437828125,16.67425390625,13.82039453125,9.98925390625,2.80284375,17.73380078125,9.598828125,2.72047265625,3.76401953125,11.4993203125,14.71052734375,4.88891796875,-2.43406640625,13.13384375,11.09053125,6.51621484375,0.17583984375
23.0427265625,18.20571875,17.4638359375,13.51589453125,17.39755859375,18.809625,22.212484375,14.9225390625,16.0001171875,21.43575,16.2988125,19.84266015625,8.10721484375,19.946828125,20.67625390625,16.53539453125,10.28325390625,6.12384375,21.88180078125,13.377828125,4.09247265625,4.82801953125,14.4083203125,18.46052734375,7.19891796875,-2.40406640625,15.88184375,13.42553125,8.02721484375,1.08283984375
24.6177265625,22.97171875,23.6208359375,21.20189453125,20.15055859375,20.551625,22.351484375,17.8725390625,18.3281171875,25.05475,18.4268125,19.95866015625,10.49521484375,23.460828125,23.73025390625,18.47439453125,10.65925390625,9.23084375,25.09080078125,16.391828125,5.50047265625,5.65001953125,16.7663203125,21.52952734375,9.05091796875,-2.32506640625,17.93584375,15.37353125,9.38021484375,1.93783984375
24.2167265625,27.64271875,29.6368359375,26.64389453125,22.25055859375,21.320625,19.924484375,20.6065390625,19.9641171875,27.45975,19.3048125,19.25866015625,13.04621484375,25.596828125,25.59625390625,19.50039453125,11.29025390625,11.65184375,26.99980078125,18.378828125,6.69347265625,5.83901953125,18.1923203125,23.46652734375,10.23691796875,-2.28406640625,18.99784375,16.41853125,10.23921484375,2.47083984375
21.5467265625,30.44571875,33.7458359375,28.85989453125,23.36755859375,21.343625,16.201484375,22.3315390625,20.8051171875,28.36775,19.2558125,18.24666015625,15.47021484375,26.169828125,26.13125390625,19.67239453125,12.20625390625,13.03984375,27.42280078125,19.274828125,7.41947265625,5.20901953125,18.4743203125,23.97152734375,10.70391796875,-2.26906640625,18.97784375,16.30853125,10.40021484375,2.58583984375
16.3947265625,29.82771875,34.5218359375,28.24789453125,23.33655859375,20.786625,12.565484375,22.5785390625,20.8061171875,27.65475,18.6098125,17.36966015625,17.46121484375,25.210828125,25.29325390625,19.16939453125,13.21625390625,13.26384375,26.35780078125,19.155828125,7.53047265625,3.85901953125,17.6163203125,22.99052734375,10.53891796875,-2.19606640625,17.98584375,15.15053125,9.87421484375,2.37683984375
9.2567265625,25.37571875,31.6038359375,25.85189453125,22.16255859375,19.675625,9.975484375,21.4155390625,19.9751171875,25.40775,17.5658125,16.84966015625,18.75021484375,22.947828125,23.14825390625,18.16339453125,13.95925390625,12.39884375,23.96980078125,18.143828125,7.01347265625,2.10201953125,15.7833203125,20.71052734375,9.87291796875,-1.99506640625,16.23884375,13.33653125,8.84821484375,2.03083984375
1.6817265625,18.25571875,25.8798359375,22.54089453125,19.93455859375,17.935625,8.752484375,19.3845390625,18.3611171875,21.91175,16.1648125,16.64566015625,19.14521484375,19.720828125,19.87325390625,16.73939453125,14.07625390625,10.62884375,20.54580078125,16.344828125,5.99547265625,0.32101953125,13.2103203125,17.49452734375,8.79391796875,-1.67506640625,13.96284375,11.36453125,7.57321484375,1.69783984375
-4.1972734375,10.75671875,18.9828359375,18.71289453125,16.79155859375,15.527625,8.680484375,17.1845390625,16.0611171875,17.60175,14.3578125,16.51766015625,18.55421484375,15.889828125,15.77525390625,14.91539453125,13.40725390625,8.15284375,16.44480078125,13.852828125,4.70447265625,-1.17298046875,10.1413203125,13.78252734375,7.31791796875,-1.31306640625,11.35684375,9.65253125,6.25421484375,1.42883984375
-6.8352734375,5.12071875,12.4268359375,14.49889453125,12.95155859375,12.578625,9.301484375,15.2695390625,13.2191171875,12.99575,12.1368125,16.15366015625,17.00221484375,11.783828125,11.29725390625,12.72339453125,12.09625390625,5.15284375,12.08180078125,10.823828125,3.41247265625,-2.20798046875,6.8303203125,10.01152734375,5.46591796875,-0.99506640625,8.61184375,8.43853125,5.00821484375,1.20583984375
-6.3362734375,2.37271875,6.9348359375,10.07189453125,8.76455859375,9.456625,10.184484375,13.6025390625,10.0281171875,8.64875,9.6678125,15.31166015625,14.63021484375,7.721828125,6.99725390625,10.28939453125,10.54225390625,1.83184375,7.90080078125,7.533828125,2.36847265625,-2.74398046875,3.5743203125,6.54952734375,3.35191796875,-0.73806640625,5.93584375,7.75753125,3.88321484375,1.01183984375
-4.5512734375,1.89571875,2.3258359375,5.80589453125,4.73455859375,6.695625,11.089484375,11.7405390625,6.7501171875,5.07775,7.3138125,13.93766015625,11.68321484375,4.017828125,3.44325390625,7.86939453125,9.20525390625,-1.53315625,4.31980078125,4.363828125,1.72147265625,-2.80698046875,0.7133203125,3.65552734375,1.21491796875,-0.47406640625,3.54384375,7.50753125,2.91521484375,0.86983984375
-4.1002734375,1.99671875,-1.9851640625,2.23489453125,1.41555859375,4.779625,11.925484375,9.2145390625,3.6871171875,2.63475,5.4788125,12.20866015625,8.48521484375,0.940828125,1.03125390625,5.78339453125,8.38125390625,-4.58615625,1.62780078125,1.688828125,1.46247265625,-2.42798046875,-1.4356796875,1.44752734375,-0.67108203125,-0.10406640625,1.61484375,7.53553125,2.15621484375,0.84883984375
-6.9822734375,1.03771875,-6.2611640625,-0.18710546875,-0.81044140625,3.859625,12.530484375,5.9625390625,1.0741171875,1.35875,4.3648125,10.43466015625,5.38821484375,-1.372171875,-0.183746093749999,4.27539453125,8.05625390625,-6.97115625,-0.117199218750001,-0.284171874999999,1.42647265625,-1.63398046875,-2.6896796875,-0.0954726562499992,-2.11008203125,0.44393359375,0.247843749999999,7.71353125,1.67521484375,1.03083984375
-13.6002734375,-1.62328125,-10.0741640625,-1.44710546875,-1.93944140625,3.618625,12.472484375,2.4755390625,-1.0398828125,0.918750000000001,3.8318125,8.88866015625,2.69121484375,-2.961171875,-0.539746093749999,3.35639453125,7.92925390625,-8.45215625,-1.08619921875,-1.601171875,1.35247265625,-0.47998046875,-3.0846796875,-1.08947265625,-3.04208203125,1.18493359375,-0.55815625,7.98953125,1.53721484375,1.47483984375
-22.5922734375,-5.42828125,-12.5801640625,-2.10810546875,-2.34144140625,3.423625,11.170484375,-0.443460937500001,-2.7958828125,0.74675,3.4558125,7.66866015625,0.59721484375,-4.006171875,-0.617746093749998,2.78939453125,7.56725390625,-8.99015625,-1.59319921875,-2.515171875,1.01647265625,0.92401953125,-2.8556796875,-1.67147265625,-3.51308203125,2.09093359375,-0.85615625,8.38353125,1.79221484375,2.19783984375
-31.3662734375,-9.11428125,-13.1751640625,-2.97510546875,-2.52544140625,2.697625,8.298484375,-2.1334609375,-4.3838828125,0.30775,2.7718125,6.68566015625,-0.77278515625,-4.723171875,-0.973746093749998,2.23639453125,6.62925390625,-8.72415625,-1.93719921875,-3.318171875,0.34847265625,2.43201953125,-2.3226796875,-1.94347265625,-3.60608203125,3.10393359375,-0.700156250000001,8.94553125,2.45021484375,3.19183984375
-37.1612734375,-11.50728125,-11.9461640625,-4.46510546875,-2.85944140625,1.228625,4.128484375,-2.3904609375,-5.8798828125,-0.64725,1.5228125,5.76266015625,-1.36178515625,-5.265171875,-1.88274609375,1.46839453125,5.04425390625,-7.90715625,-2.28119921875,-4.168171875,-0.52352734375,3.88401953125,-1.7606796875,-1.95847265625,-3.38608203125,4.13293359375,-0.117156250000001,9.68253125,3.46321484375,4.42083984375
-38.3092734375,-12.17128125,-9.6281640625,-6.26010546875,-3.47144140625,-0.767374999999999,-0.529515625,-1.4734609375,-7.2108828125,-2.02325,-0.211187499999999,4.74766015625,-1.22878515625,-5.673171875,-3.23674609375,0.47639453125,3.06925390625,-6.83315625,-2.62019921875,-5.023171875,-1.35052734375,5.10801953125,-1.3346796875,-1.75247265625,-2.90308203125,5.06693359375,0.83684375,10.48753125,4.68921484375,5.79783984375
-35.1352734375,-11.61328125,-7.2481640625,-7.55710546875,-4.33044140625,-2.832375,-4.694515625,0.0965390624999998,-8.2278828125,-3.50625,-2.0801875,3.58766015625,-0.62978515625,-5.902171875,-4.65674609375,-0.56160546875,1.20325390625,-5.79515625,-2.83719921875,-5.702171875,-1.89652734375,5.91001953125,-1.1206796875,-1.38247265625,-2.22508203125,5.80093359375,2.00084375,11.12853125,5.87621484375,7.14583984375
-29.8312734375,-10.93328125,-5.7581640625,-7.70610546875,-5.34144140625,-4.494375,-7.552515625,1.7295390625,-8.8008828125,-4.77525,-3.6401875,2.37166015625,-0.00278515624999986,-5.875171875,-5.72174609375,-1.38760546875,-0.0157460937499989,-5.04315625,-2.82319921875,-6.017171875,-2.04452734375,6.10201953125,-1.1746796875,-0.96347265625,-1.48208203125,6.26793359375,3.06184375,11.31453125,6.70321484375,8.20283984375
-25.2212734375,-11.07428125,-5.7971640625,-6.73510546875,-6.35244140625,-5.421375,-8.565515625,2.8715390625,-8.8648828125,-5.63225,-4.5391875,1.33066015625,0.20221484375,-5.542171875,-6.17674609375,-1.77360546875,-0.231746093749999,-4.73515625,-2.56119921875,-5.888171875,-1.82752734375,5.59201953125,-1.5826796875,-0.66547265625,-0.85508203125,6.45993359375,3.60784375,10.82653125,6.88021484375,8.69983984375
-23.1062734375,-12.10528125,-7.5311640625,-5.38710546875,-7.14744140625,-5.467375,-7.477515625,3.0815390625,-8.4408828125,-6.03425,-4.6101875,0.762660156249999,-0.24678515625,-4.910171875,-6.02974609375,-1.59360546875,0.585253906250001,-4.90515625,-2.14519921875,-5.389171875,-1.37752734375,4.44301953125,-2.4406796875,-0.66447265625,-0.50308203125,6.42893359375,3.27284375,9.62953125,6.25121484375,8.46483984375
-23.3132734375,-13.07428125,-10.5911640625,-4.67610546875,-7.53644140625,-4.683375,-4.378515625,2.1365390625,-7.6568828125,-6.05025,-3.8781875,0.889660156249999,-1.23978515625,-4.062171875,-5.50574609375,-0.86460546875,2.13625390625,-5.48415625,-1.73019921875,-4.705171875,-0.84252734375,2.87201953125,-3.7906796875,-1.07447265625,-0.48008203125,6.27593359375,1.90084375,7.90253125,4.86421484375,7.50883984375
-24.0722734375,-12.62228125,-14.1641640625,-5.21310546875,-7.48844140625,-3.310375,0.157484375,0.124539062499998,-6.7658828125,-5.81625,-2.5441875,1.70666015625,-2.38778515625,-3.182171875,-4.92674609375,0.27239453125,3.89825390625,-6.35015625,-1.47419921875,-4.031171875,-0.30752734375,1.17701953125,-5.5516796875,-1.87447265625,-0.68808203125,6.10893359375,-0.347156250000001,5.98453125,2.96121484375,6.04283984375
-23.4032734375,-9.95128125,-17.2051640625,-6.75410546875,-7.20544140625,-1.757375,4.996484375,-2.5114609375,-6.1108828125,-5.51425,-0.9751875,2.93366015625,-3.23478515625,-2.535171875,-4.56974609375,1.59339453125,5.30925390625,-7.36515625,-1.47719921875,-3.477171875,0.20547265625,-0.336980468750001,-7.4756796875,-2.89847265625,-0.92608203125,5.99693359375,-2.99915625,4.28453125,0.91921484375,4.43383984375
-20.5192734375,-5.47128125,-18.6821640625,-8.30710546875,-7.06344140625,-0.531374999999999,8.588484375,-5.0684609375,-6.0338828125,-5.32625,0.3628125,4.09666015625,-3.51878515625,-2.364171875,-4.56274609375,2.85439453125,5.93225390625,-8.37815625,-1.71719921875,-3.010171875,0.69547265625,-1.42198046875,-9.1666796875,-3.87047265625,-0.96008203125,5.95993359375,-5.39515625,3.18153125,-0.81978515625,3.10583984375
-16.3142734375,-0.665281250000001,-17.8371640625,-8.78210546875,-7.41144140625,-0.0693749999999991,9.450484375,-6.7874609375,-6.7348828125,-5.34925,1.0668125,4.72266015625,-3.31478515625,-2.737171875,-4.82574609375,3.85139453125,5.60425390625,-9.21115625,-2.00419921875,-2.476171875,1.15047265625,-1.90998046875,-10.1636796875,-4.47947265625,-0.59108203125,6.01093359375,-6.87615625,2.94553125,-1.83878515625,2.41783984375
-12.7332734375,2.67071875,-14.5091640625,-7.75710546875,-8.27644140625,-0.486374999999999,6.942484375,-7.1624609375,-8.0978828125,-5.47125,1.0198125,4.57166015625,-2.94778515625,-3.416171875,-5.07074609375,4.51439453125,4.48925390625,-9.64315625,-1.99919921875,-1.651171875,1.58147265625,-1.71998046875,-10.0726796875,-4.45847265625,0.30191796875,6.21793359375,-6.99015625,3.66653125,-1.82978515625,2.58083984375
-11.6252734375,3.26471875,-9.4231640625,-5.83110546875,-9.11944140625,-1.395375,1.923484375,-6.2044609375,-9.6038828125,-5.30325,0.5368125,3.79166015625,-2.72078515625,-3.864171875,-4.86674609375,4.98439453125,3.04025390625,-9.41815625,-1.31019921875,-0.334171874999999,2.09447265625,-0.853980468750001,-8.6866796875,-3.65047265625,1.73891796875,6.71593359375,-5.62815625,5.21853125,-0.68378515625,3.63383984375
-13.8962734375,0.819718749999999,-4.1671640625,-4.30510546875,-8.95044140625,-1.967375,-3.314515625,-4.4814609375,-10.4628828125,-4.30125,0.2988125,2.89766015625,-2.67078515625,-3.430171875,-3.78074609375,5.59539453125,1.83825390625,-8.31615625,0.347800781249999,1.565828125,2.90247265625,0.602019531249999,-6.0616796875,-2.05447265625,3.64691796875,7.66993359375,-3.04215625,7.29753125,1.46121484375,5.46183984375
-19.3142734375,-4.02428125,-0.685164062500002,-4.38610546875,-6.87744140625,-1.340375,-6.073515625,-2.8514609375,-9.9668828125,-2.08925,1.0328125,2.50966015625,-2.55178515625,-1.679171875,-1.60274609375,6.68439453125,1.35625390625,-6.26115625,2.98680078125,3.958828125,4.21947265625,2.45901953125,-2.5366796875,0.160527343749999,5.86291796875,9.17793359375,0.23384375,9.49853125,4.22121484375,7.81983984375
-26.6552734375,-9.98228125,-0.415164062500001,-6.34410546875,-2.81944140625,0.834625000000001,-4.722515625,-2.0024609375,-7.9048828125,1.16175,3.0538125,2.99466015625,-2.04978515625,1.283828125,1.44925390625,8.34439453125,1.74725390625,-3.46415625,6.23180078125,6.539828125,6.08747265625,4.42001953125,1.3013203125,2.63252734375,8.12491796875,11.16693359375,3.52784375,11.40453125,7.01421484375,10.33983984375
-33.8762734375,-15.41928125,-3.5001640625,-9.15010546875,2.19455859375,4.050625,0.320484375,-2.0694609375,-4.7428828125,4.59675,5.9418125,4.24166015625,-1.04678515625,4.701828125,4.67425390625,10.27839453125,2.77925390625,-0.47615625,9.33780078125,8.814828125,8.24947265625,6.10401953125,4.7133203125,4.82952734375,10.04991796875,13.32393359375,6.16384375,12.64153125,9.16421484375,12.54983984375
-38.4822734375,-18.64328125,-8.5661640625,-10.91110546875,6.38855859375,7.088625,6.737484375,-2.5484609375,-1.4618828125,6.95075,8.6258125,5.72566015625,0.26521484375,7.395828125,7.10525390625,11.87639453125,3.96925390625,1.89584375,11.39480078125,10.231828125,10.19947265625,7.12201953125,6.9673203125,6.15852734375,11.18291796875,15.14993359375,7.58684375,12.91653125,10.07721484375,13.94983984375
-38.4562734375,-18.37328125,-13.2991640625,-9.95510546875,8.09155859375,8.592625,11.470484375,-2.6094609375,0.8661171875,7.12975,9.8858125,6.78166015625,1.47821484375,8.288828125,7.91925390625,12.49339453125,4.86225390625,2.86184375,11.68480078125,10.376828125,11.36447265625,7.17601953125,7.5353203125,6.16052734375,11.15591796875,16.14293359375,7.48484375,12.07553125,9.44321484375,14.16583984375
-33.5282734375,-14.38928125,-15.6021640625,-5.90310546875,6.55655859375,7.760625,12.225484375,-1.6174609375,1.5331171875,4.79775,9.0018125,6.92966015625,2.21221484375,6.934828125,6.84525390625,11.76839453125,5.27325390625,1.97484375,10.01880078125,9.168828125,11.36447265625,6.15001953125,6.2663203125,4.73452734375,9.88891796875,16.03493359375,5.90284375,10.16153125,7.38421484375,13.11983984375
-25.7772734375,-7.98028125,-14.7121640625,0.0628945312500004,2.34855859375,4.789625,8.562484375,0.421539062499999,0.4801171875,0.612750000000001,6.1578125,6.08466015625,2.34321484375,3.761828125,4.31725390625,9.84739453125,5.35025390625,-0.62615625,6.85980078125,6.948828125,10.19947265625,4.16501953125,3.4653203125,2.22952734375,7.69591796875,14.93193359375,3.26984375,7.44453125,4.46021484375,11.11783984375
-18.8202734375,-1.65628125,-11.6291640625,5.89989453125,-2.89744140625,0.828625000000001,2.069484375,2.7735390625,-1.7358828125,-4.02025,2.4038125,4.59666015625,2.08221484375,-0.105171875,1.29125390625,7.37139453125,5.41725390625,-4.22915625,3.16180078125,4.391828125,8.26947265625,1.55601953125,-0.1966796875,-0.65847265625,5.18891796875,13.25393359375,0.28884375,4.37853125,1.46721484375,8.74983984375
-15.9882734375,1.92771875,-8.5761640625,9.79989453125,-7.21844140625,-2.530375,-4.413515625,4.3045390625,-4.2418828125,-7.54225,-0.7971875,3.07366015625,1.82921484375,-3.344171875,-1.15774609375,5.22339453125,5.74325390625,-7.82115625,-0.0101992187500004,2.256828125,6.20547265625,-1.21598046875,-3.8956796875,-3.16947265625,3.04091796875,11.53093359375,-2.30515625,1.46753125,-0.85978515625,6.62583984375
-18.7082734375,1.26271875,-7.7841640625,10.90189453125,-9.15844140625,-3.958375,-8.107515625,4.0405390625,-6.2338828125,-8.88025,-2.1761875,2.07966015625,1.86821484375,-4.981171875,-2.27174609375,4.14939453125,6.38725390625,-10.47515625,-1.87119921875,1.084828125,4.60547265625,-3.69298046875,-6.9036796875,-4.77147265625,1.71491796875,10.17593359375,-4.00515625,-0.873468750000001,-2.12178515625,5.10783984375
-26.0182734375,-3.32628125,-10.2321640625,9.36489453125,-8.26544140625,-2.946375,-7.489515625,1.6535390625,-7.2408828125,-7.81825,-1.1671875,1.86066015625,2.15721484375,-4.730171875,-1.85374609375,4.46439453125,7.21125390625,-11.66915625,-2.15419921875,0.994828125000002,3.82647265625,-5.52998046875,-8.7606796875,-5.32447265625,1.32591796875,9.35393359375,-4.68515625,-2.40946875,-2.34778515625,4.20683984375
-35.1742734375,-9.94928125,-15.0641640625,6.01089453125,-5.05344140625,0.0546250000000006,-2.873515625,-2.3644609375,-7.1708828125,-4.96725,1.8958125,2.26066015625,2.37421484375,-2.986171875,-0.265746093749998,5.98339453125,7.99925390625,-11.36815625,-1.12219921875,1.673828125,3.90547265625,-6.53698046875,-9.3096796875,-5.04047265625,1.66091796875,8.98293359375,-4.57015625,-3.10346875,-1.90478515625,3.68883984375
-42.8582734375,-16.10528125,-20.0171640625,1.85589453125,-0.61844140625,3.921625,3.819484375,-6.8794609375,-6.2108828125,-1.40125,5.9638125,2.87366015625,2.19121484375,-0.542171875,1.80025390625,8.15439453125,8.57225390625,-9.88615625,0.63680078125,2.577828125,4.62747265625,-6.66698046875,-8.6276796875,-4.29447265625,2.34291796875,8.84493359375,-4.05815625,-3.06646875,-1.26278515625,3.28483984375
-46.4772734375,-19.77428125,-22.7081640625,-2.22810546875,3.83255859375,7.404625,9.959484375,-10.5584609375,-4.6918828125,1.81275,9.7558125,3.27866015625,1.55521484375,1.822828125,3.64625390625,10.29939453125,8.83525390625,-7.64715625,2.50680078125,3.228828125,5.66847265625,-5.95098046875,-6.9236796875,-3.39347265625,3.04291796875,8.74493359375,-3.48915625,-2.47846875,-0.762785156250001,2.85883984375
-45.1252734375,-20.14028125,-22.0331640625,-5.58410546875,7.34255859375,9.652625,13.408484375,-12.3804609375,-2.9568828125,4.00475,12.2878125,3.22666015625,0.79021484375,3.648828125,4.84125390625,11.87239453125,8.75725390625,-4.99015625,4.09680078125,3.451828125,6.76647265625,-4.42998046875,-4.4366796875,-2.43847265625,3.62591796875,8.62693359375,-2.95915625,-1.49946875,-0.46578515625,2.46783984375
-39.7642734375,-17.64628125,-18.7781640625,-7.62710546875,9.41455859375,10.471625,13.479484375,-11.9764609375,-1.2648828125,5.04375,13.1958125,2.69866015625,0.49721484375,4.894828125,5.33225390625,12.62239453125,8.34225390625,-2.10215625,5.33380078125,3.426828125,7.83047265625,-2.13498046875,-1.4026796875,-1.32547265625,4.17491796875,8.59293359375,-2.27315625,-0.20746875,-0.14078515625,2.33183984375
-32.4592734375,-13.47528125,-14.9791640625,-7.81810546875,10.03555859375,10.219625,11.108484375,-9.6734609375,0.2471171875,5.22675,12.7398125,1.84866015625,1.27121484375,5.817828125,5.37225390625,12.61839453125,7.65125390625,0.91584375,6.38180078125,3.529828125,8.93547265625,0.87201953125,1.9333203125,0.134527343749999,4.89291796875,8.83593359375,-1.07215625,1.40353125,0.58621484375,2.72283984375
-25.1932734375,-8.81428125,-12.4731640625,-5.96110546875,9.54455859375,9.459625,8.133484375,-6.2634609375,1.5481171875,5.00575,11.5278125,0.903660156249999,3.36421484375,6.744828125,5.31125390625,12.10939453125,6.82825390625,3.91684375,7.46380078125,4.087828125,10.18947265625,4.38901953125,5.2733203125,2.05752734375,5.96191796875,9.50593359375,0.91684375,3.34853125,2.00621484375,3.81083984375
-19.0022734375,-4.40828125,-11.6981640625,-2.60110546875,8.41355859375,8.610625,6.213484375,-2.6934609375,2.6501171875,4.71175,10.1658125,0.0766601562499991,6.45821484375,7.836828125,5.38325390625,11.36739453125,6.10025390625,6.62184375,8.66980078125,5.180828125,11.58647265625,7.99801953125,8.2263203125,4.35552734375,7.41291796875,10.60193359375,3.64884375,5.53053125,4.11521484375,5.52583984375
-13.8882734375,-0.559281250000002,-11.5711640625,0.99589453125,7.05855859375,7.807625,6.081484375,0.171539062499999,3.5501171875,4.42275,9.0188125,-0.484339843750001,9.73221484375,8.958828125,5.60425390625,10.59439453125,5.72725390625,8.62784375,9.86980078125,6.618828125,12.95247265625,11.09501953125,10.3393203125,6.70452734375,9.06491796875,11.92093359375,6.67684375,7.65253125,6.53821484375,7.51483984375
-9.3232734375,2.63971875,-10.3831640625,3.45889453125,5.71755859375,6.987625,7.455484375,1.7295390625,4.1801171875,4.00775,8.1658125,-0.718339843750001,12.22521484375,9.724828125,5.82125390625,9.92339453125,5.90225390625,9.55484375,10.76980078125,8.057828125,14.00247265625,13.06101953125,11.2043203125,8.63952734375,10.56991796875,13.11893359375,9.29684375,9.24753125,8.64921484375,9.24883984375
-4.8942734375,5.14971875,-6.9251640625,4.10389453125,4.36655859375,6.041625,9.394484375,1.7875390625,4.4131171875,3.28175,7.5258125,-0.66833984375,13.28921484375,9.713828125,5.85625390625,9.43939453125,6.67725390625,9.22884375,11.08280078125,9.175828125,14.47147265625,13.49701953125,10.6293203125,9.72052734375,11.55091796875,13.86193359375,10.84084375,9.83953125,9.84921484375,10.23283984375
-0.7402734375,6.93871875,-1.1691640625,3.31989453125,2.77855859375,4.931625,10.793484375,0.629539062499999,4.1271171875,2.15775,6.9858125,-0.46933984375,12.83121484375,8.717828125,5.62225390625,9.15939453125,7.91125390625,7.80884375,10.69480078125,9.783828125,14.21647265625,12.38301953125,8.7593203125,9.70252734375,11.75191796875,13.96993359375,10.95584375,9.15453125,9.83321484375,10.20783984375
2.3507265625,7.91071875,5.6198359375,2.27689453125,0.75355859375,3.719625,10.852484375,-1.0824609375,3.3181171875,0.73075,6.4668125,-0.299339843750001,11.24021484375,6.884828125,5.13525390625,9.00639453125,9.30225390625,5.75684375,9.70980078125,9.834828125,13.28347265625,10.09501953125,6.0693203125,8.60352734375,11.12291796875,13.47293359375,9.72284375,7.27253125,8.70321484375,9.25783984375
3.2007265625,7.83171875,11.2178359375,2.16389453125,-1.57244140625,2.574625,9.427484375,-2.5964609375,2.1831171875,-0.732249999999999,5.9278125,-0.293339843750001,9.11321484375,4.680828125,4.46325390625,8.82639453125,10.48825390625,3.68384375,8.37980078125,9.359828125,11.91047265625,7.27001953125,3.2263203125,6.66452734375,9.81791796875,12.56493359375,7.57584375,4.65253125,6.89821484375,7.75983984375
0.8897265625,6.40571875,13.2008359375,3.40589453125,-3.62144140625,1.741625,7.081484375,-3.3654609375,1.0931171875,-1.87525,5.3618125,-0.483339843750001,6.99021484375,2.727828125,3.67525390625,8.44039453125,11.19825390625,2.16484375,7.00980078125,8.413828125,10.45747265625,4.60901953125,0.8873203125,4.27752734375,8.13491796875,11.50993359375,5.10084375,2.00853125,5.00421484375,6.23383984375
-4.4832734375,3.58971875,10.0988359375,5.35789453125,-4.62944140625,1.454625,4.732484375,-3.2124609375,0.4571171875,-2.38525,4.8028125,-0.80233984375,5.23921484375,1.603828125,2.83925390625,7.72039453125,11.35725390625,1.60084375,5.88480078125,7.090828125,9.28747265625,2.69501953125,-0.4596796875,1.90552734375,6.43791796875,10.55693359375,2.84684375,0.0915312499999992,3.55421484375,5.14683984375
-11.4372734375,-0.104281250000001,2.5028359375,6.71789453125,-4.11244140625,1.789625,3.104484375,-2.2754609375,0.5511171875,-2.10225,4.2918125,-1.13733984375,4.07621484375,1.668828125,2.04725390625,6.65739453125,11.10125390625,2.16784375,5.23380078125,5.551828125,8.63947265625,1.87501953125,-0.591679687499999,0.00352734374999919,5.04691796875,9.85593359375,1.19284375,-0.543468750000001,2.88321484375,4.77583984375
-17.5732734375,-3.62628125,-6.7071640625,6.39289453125,-2.17944140625,2.578625,2.382484375,-0.8584609375,1.4131171875,-1.07525,3.8318125,-1.37733984375,3.63921484375,2.951828125,1.42125390625,5.41039453125,10.66425390625,3.79484375,5.18980078125,4.051828125,8.54847265625,2.22101953125,0.4153203125,-1.08847265625,4.15091796875,9.41493359375,0.305843749999999,0.287531250000001,3.07221484375,5.15483984375
-20.7682734375,-5.81128125,-13.5221640625,4.16889453125,0.50655859375,3.469625,2.297484375,0.7025390625,2.8301171875,0.476750000000001,3.3978125,-1.41933984375,4.00121484375,5.159828125,1.10025390625,4.27639453125,10.23225390625,6.16784375,5.76180078125,2.896828125,8.85347265625,3.55001953125,2.2233203125,-1.22947265625,3.77591796875,9.11393359375,0.158843749999999,2.36053125,3.97521484375,6.11383984375
-20.3692734375,-6.01528125,-14.9461640625,0.766894531249999,3.09455859375,4.124625,2.492484375,2.0895390625,4.4091171875,2.25275,2.9948125,-1.19533984375,5.12721484375,7.771828125,1.19925390625,3.57339453125,9.83525390625,8.76884375,6.81380078125,2.338828125,9.27347265625,5.48501953125,4.3193203125,-0.51947265625,3.82191796875,8.79593359375,0.58284375,5.13553125,5.31521484375,7.37783984375
-17.5322734375,-4.57728125,-10.8281640625,-2.61710546875,4.94755859375,4.403625,2.860484375,3.0095390625,5.7011171875,3.93475,2.6898125,-0.715339843750001,6.82821484375,10.173828125,1.73925390625,3.49039453125,9.33825390625,10.97684375,8.06280078125,2.470828125,9.53547265625,7.55201953125,6.1483203125,0.73052734375,4.13891796875,8.37493359375,1.33084375,7.94853125,6.79721484375,8.66783984375
-14.4872734375,-2.74428125,-4.0451640625,-4.85510546875,5.83955859375,4.382625,3.591484375,3.2195390625,6.3201171875,5.20375,2.5488125,-0.119339843750001,8.77021484375,11.786828125,2.55725390625,3.98739453125,8.54725390625,12.21784375,9.10980078125,3.149828125,9.49847265625,9.28901953125,7.2473203125,2.08652734375,4.56691796875,7.89293359375,2.12884375,10.22053125,8.19021484375,9.78483984375
-13.2472734375,-2.02428125,1.2158359375,-5.29710546875,5.81455859375,4.192625,4.898484375,2.5805390625,6.0331171875,5.72975,2.5458125,0.319660156249999,10.52621484375,12.173828125,3.29325390625,4.80639453125,7.36825390625,12.13684375,9.52580078125,4.018828125,9.18947265625,10.34401953125,7.3653203125,3.11552734375,4.96591796875,7.48493359375,2.73084375,11.59353125,9.34921484375,10.62783984375
-14.6072734375,-3.29328125,1.9438359375,-4.01510546875,4.90555859375,3.827625,6.641484375,1.1555390625,4.8041171875,5.21875,2.5148125,0.273660156249999,11.65321484375,11.156828125,3.48025390625,5.55939453125,5.91625390625,10.71484375,9.01080078125,4.621828125,8.71547265625,10.52901953125,6.5243203125,3.52452734375,5.23091796875,7.30893359375,2.96784375,11.95653125,10.18221484375,11.14983984375
-17.8372734375,-6.22428125,-2.1531640625,-1.79410546875,2.99955859375,3.093625,8.212484375,-0.7144609375,2.8071171875,3.53475,2.2198125,-0.529339843750001,11.79521484375,8.885828125,2.74725390625,5.86639453125,4.48425390625,8.28084375,7.53680078125,4.587828125,8.15247265625,9.83201953125,4.9973203125,3.25452734375,5.31091796875,7.46393359375,2.79084375,11.39353125,10.61221484375,11.31183984375
-21.0952734375,-9.44228125,-8.9001640625,0.202894531249999,0.0145585937500003,1.778625,8.814484375,-2.4524609375,0.3931171875,0.837750000000001,1.4848125,-2.17333984375,10.79021484375,5.807828125,1.03225390625,5.51339453125,3.40225390625,5.39384375,5.39480078125,3.809828125,7.50747265625,8.38801953125,3.2013203125,2.48252734375,5.21991796875,7.95393359375,2.27984375,10.09153125,10.57821484375,11.06383984375
-22.4122734375,-11.35828125,-15.2541640625,0.95789453125,-3.79644140625,-0.120374999999999,7.918484375,-3.4684609375,-2.0148828125,-2.36125,0.3158125,-4.48733984375,8.75121484375,2.542828125,-1.31374609375,4.54439453125,2.87525390625,2.64084375,3.09980078125,2.528828125,6.79247265625,6.42101953125,1.5403203125,1.53552734375,5.02991796875,8.70893359375,1.60684375,8.26353125,10.06721484375,10.39183984375
-20.8992734375,-11.13528125,-18.9831640625,-0.0111054687499994,-7.72844140625,-2.266375,5.543484375,-3.4674609375,-4.0518828125,-5.31825,-1.0551875,-7.05733984375,6.05021484375,-0.291171875,-3.60174609375,3.24639453125,2.93325390625,0.43984375,1.22880078125,1.251828125,6.10547265625,4.17701953125,0.2683203125,0.769527343749999,4.85391796875,9.63693359375,0.98684375,6.11753125,9.14521484375,9.36083984375
-17.4672734375,-9.16728125,-19.4651640625,-2.57410546875,-10.80144140625,-4.062375,2.231484375,-2.6344609375,-5.4848828125,-7.27825,-2.2211875,-9.31033984375,3.20321484375,-2.219171875,-5.02874609375,2.03639453125,3.47025390625,-1.03315625,0.238800781249999,0.554828125000001,5.62747265625,1.88701953125,-0.5446796875,0.474527343749999,4.82391796875,10.66793359375,0.62584375,3.85853125,7.96621484375,8.12983984375
-14.3372734375,-6.70028125,-17.3951640625,-6.10210546875,-12.11344140625,-4.866375,-1.117515625,-1.5494609375,-6.1738828125,-7.70025,-2.7261875,-10.65133984375,0.73721484375,-2.983171875,-4.96574609375,1.33539453125,4.33225390625,-1.76315625,0.35480078125,0.842828125000001,5.53747265625,-0.217980468750001,-0.953679687499999,0.824527343750001,5.03991796875,11.74393359375,0.69184375,1.71853125,6.74421484375,6.92183984375
-13.4272734375,-4.86128125,-13.9251640625,-9.61810546875,-11.15644140625,-4.221375,-3.428515625,-0.850460937500001,-5.9868828125,-6.37925,-2.2101875,-10.62233984375,-0.90178515625,-2.515171875,-3.17974609375,1.46539453125,5.36525390625,-1.75115625,1.55080078125,2.180828125,5.93747265625,-1.87598046875,-1.0056796875,1.86552734375,5.52491796875,12.75493359375,1.30284375,-0.0484687499999996,5.69821484375,5.93883984375
-14.7172734375,-3.85028125,-9.8781640625,-12.01810546875,-7.99944140625,-2.033375,-3.742515625,-0.867460937500001,-4.8058828125,-3.46125,-0.5271875,-9.09233984375,-1.39978515625,-0.873171875,0.0872539062500017,2.56039453125,6.40825390625,-0.90215625,3.61780078125,4.274828125,6.80647265625,-2.81498046875,-0.6376796875,3.53152734375,6.20591796875,13.50793359375,2.49984375,-1.21246875,4.98921484375,5.28183984375
-15.9482734375,-2.89228125,-5.4861640625,-12.41810546875,-3.31344140625,1.366625,-1.627515625,-1.4554609375,-2.6378828125,0.62175,2.1908125,-6.39133984375,-0.62778515625,1.811828125,4.20425390625,4.49939453125,7.27825390625,0.92484375,6.26580078125,6.603828125,8.01547265625,-2.81798046875,0.325320312500001,5.66152734375,6.95391796875,13.75593359375,4.21684375,-1.63346875,4.67621484375,4.88983984375
-14.0112734375,-0.95228125,-0.681164062500001,-10.49110546875,1.83555859375,5.326625,2.525484375,-2.1114609375,0.2941171875,5.26075,5.5488125,-3.25233984375,1.29021484375,5.338828125,8.37125390625,6.91039453125,7.77925390625,3.76784375,9.20880078125,8.643828125,9.36947265625,-1.81798046875,2.0743203125,8.03552734375,7.64391796875,13.29893359375,6.26684375,-1.30646875,4.70721484375,4.57283984375
-7.0812734375,2.40771875,4.4088359375,-6.55910546875,6.38355859375,9.121625,7.592484375,-2.2404609375,3.5881171875,9.84775,9.0128125,-0.51733984375,3.96621484375,9.412828125,11.91525390625,9.31439453125,7.77025390625,7.43284375,12.22080078125,10.115828125,10.69047265625,0.0690195312499995,4.6793203125,10.43752734375,8.23091796875,12.09793359375,8.39884375,-0.354468750000001,4.96921484375,4.14683984375
3.9817265625,6.66771875,9.2028359375,-1.42810546875,9.67855859375,12.234625,12.181484375,-1.4264609375,6.8281171875,13.92875,12.1138125,1.24366015625,6.84221484375,13.653828125,14.51625390625,11.31139453125,7.26125390625,11.49084375,15.16280078125,11.107828125,11.90047265625,2.57501953125,7.9973203125,12.71852734375,8.79691796875,10.34293359375,10.37784375,1.02453125,5.35721484375,3.57183984375
15.8227265625,10.64471875,12.8248359375,3.87189453125,11.67855859375,14.508625,15.222484375,0.3885390625,9.7381171875,17.28775,14.6018125,1.94066015625,9.36921484375,17.635828125,16.26725390625,12.72439453125,6.46025390625,15.39184375,17.95280078125,12.000828125,13.02647265625,5.32701953125,11.6593203125,14.81452734375,9.52691796875,8.40393359375,12.04984375,2.60653125,5.80421484375,2.99483984375
24.1677265625,13.12471875,14.4528359375,8.33389453125,12.84455859375,16.105625,16.418484375,2.8155390625,12.2341171875,19.89375,16.4678125,1.86866015625,11.16421484375,20.934828125,17.50825390625,13.60439453125,5.71725390625,18.58884375,20.47780078125,13.205828125,14.13547265625,7.87401953125,15.1103203125,16.68052734375,10.58491796875,6.70093359375,13.33784375,4.13653125,6.24121484375,2.65783984375
25.7737265625,13.36571875,13.5608359375,11.23589453125,13.87755859375,17.316625,16.347484375,5.0835390625,14.3491171875,21.78175,17.8138125,1.43666015625,12.07221484375,23.172828125,18.55025390625,14.12539453125,5.35225390625,20.62984375,22.49980078125,14.864828125,15.22847265625,9.72001953125,17.7163203125,18.18352734375,11.95391796875,5.52493359375,14.19084375,5.32153125,6.55321484375,2.73183984375
19.7637265625,11.29271875,10.0568359375,12.36789453125,15.37355859375,18.329625,16.085484375,6.3245390625,16.1111171875,22.95275,18.6798125,0.893660156249999,12.11621484375,24.082828125,19.46225390625,14.42439453125,5.46325390625,21.21284375,23.65680078125,16.677828125,16.16847265625,10.42501953125,18.9243203125,19.06952734375,13.35491796875,4.95693359375,14.54984375,5.87453125,6.58721484375,3.20583984375
7.8937265625,7.41671875,4.4578359375,12.05089453125,17.49055859375,19.039625,16.407484375,6.0265390625,17.4181171875,23.31175,18.9268125,0.210660156249999,11.41021484375,23.583828125,20.01025390625,14.44439453125,5.83225390625,20.24584375,23.59280078125,17.979828125,16.67347265625,9.76901953125,18.4423203125,19.03052734375,14.31791796875,4.87893359375,14.35384375,5.62653125,6.24321484375,3.88583984375
-6.0782734375,2.65871875,-1.9731640625,10.91189453125,19.73655859375,19.007625,17.058484375,4.3675390625,18.0021171875,22.65675,18.2288125,-0.85033984375,10.09521484375,21.791828125,19.76025390625,13.87239453125,5.99925390625,17.89084375,22.11180078125,18.005828125,16.39047265625,7.88801953125,16.3403203125,17.84452734375,14.35891796875,5.07293359375,13.56884375,4.63553125,5.54221484375,4.47783984375
-17.5552734375,-1.85528125,-7.3691640625,9.56789453125,21.03055859375,17.602625,16.684484375,2.2005390625,17.4891171875,20.71875,16.1718125,-2.55733984375,8.33721484375,18.955828125,18.25925390625,12.26739453125,5.48525390625,14.56184375,19.26380078125,16.220828125,15.03847265625,5.27501953125,13.0403203125,15.47352734375,13.15991796875,5.30993359375,12.20784375,3.20353125,4.62421484375,4.71483984375
-22.5402734375,-4.99228125,-9.8601640625,8.38989453125,20.10655859375,14.330625,13.625484375,0.614539062499999,15.5631171875,17.27875,12.4708125,-5.00433984375,6.37121484375,15.348828125,15.24525390625,9.32139453125,4.04525390625,10.84984375,15.32480078125,12.558828125,12.56247265625,2.63601953125,9.1743203125,12.08752734375,10.67291796875,5.40693359375,10.32884375,1.77553125,3.67421484375,4.45583984375
-19.1222734375,-5.88028125,-8.4451640625,7.38689453125,16.13655859375,9.189625,7.114484375,0.322539062499999,12.1711171875,12.35775,7.2478125,-8.01033984375,4.48921484375,11.242828125,10.81525390625,5.13239453125,1.81025390625,7.39084375,10.73180078125,7.499828125,9.21847265625,0.63501953125,5.4103203125,8.03552734375,7.15991796875,5.25493359375,8.03784375,0.75953125,2.82721484375,3.72183984375
-8.4782734375,-4.27628125,-3.6891640625,6.19989453125,9.32955859375,2.875625,-1.909515625,1.2215390625,7.6991171875,6.39075,1.1978125,-11.14933984375,2.97121484375,6.974828125,5.48425390625,0.29639453125,-0.738746093749999,4.73184375,6.02980078125,1.943828125,5.54547265625,-0.30298046875,2.2983203125,3.80652734375,3.15491796875,4.83093359375,5.50784375,0.399531250000001,2.13921484375,2.66683984375
5.4557265625,-0.801281250000001,2.3508359375,4.32189453125,1.14155859375,-3.321375,-10.949515625,2.4345390625,3.0121171875,0.268750000000001,-4.5281875,-13.86433984375,1.99921484375,3.015828125,0.0952539062500009,-4.24760546875,-2.96774609375,3.25184375,1.80580078125,-3.040171875,2.21447265625,-0.0659804687500003,0.1953203125,-0.0264726562500002,-0.65008203125,4.20893359375,3.00684375,0.74753125,1.62921484375,1.52583984375
17.8477265625,3.27171875,7.1198359375,1.52689453125,-6.14444140625,-7.969375,-17.029515625,2.8335390625,-0.7388828125,-4.85825,-8.7311875,-15.62533984375,1.63421484375,-0.0641718750000004,-4.42774609375,-7.54960546875,-4.34274609375,3.11584375,-1.39119921875,-6.541171875,-0.18052734375,1.20901953125,-0.7346796875,-2.90047265625,-3.57208203125,3.55793359375,0.89684375,1.73153125,1.35321484375,0.56683984375
25.3017265625,6.64871875,8.9208359375,-1.73810546875,-10.39244140625,-10.105375,-18.133515625,1.7365390625,-2.5488828125,-8.00825,-10.6671875,-16.10833984375,1.84621484375,-1.768171875,-7.39574609375,-9.03860546875,-4.63174609375,4.25384375,-3.18619921875,-8.102171875,-1.32452734375,3.23201953125,-0.5066796875,-4.40747265625,-5.12808203125,3.12393359375,-0.456156250000001,3.21553125,1.41921484375,0.0238398437499998
27.0307265625,8.55771875,7.6718359375,-4.35810546875,-10.63744140625,-9.688375,-14.214515625,-0.689460937500002,-2.0188828125,-8.78425,-10.3681875,-15.37033984375,2.52921484375,-1.901171875,-8.60174609375,-8.76260546875,-3.98074609375,6.34584375,-3.51019921875,-7.854171875,-1.27952734375,5.61201953125,0.684320312500001,-4.44747265625,-5.18208203125,3.14093359375,-0.828156250000001,4.99653125,1.92321484375,0.0128398437499997
24.2627265625,8.73571875,4.5298359375,-5.08710546875,-7.50044140625,-7.603375,-7.258515625,-3.5684609375,0.3951171875,-7.56525,-8.6391875,-13.93033984375,3.48621484375,-0.716171875,-8.39774609375,-7.37260546875,-2.86874609375,8.85984375,-2.66919921875,-6.442171875,-0.43452734375,7.88801953125,2.4593203125,-3.30047265625,-4.00908203125,3.70993359375,-0.267156250000001,6.76453125,2.84121484375,0.46783984375
18.7017265625,7.02971875,0.820835937499998,-3.35610546875,-2.75944140625,-5.213375,-0.380515625,-5.8464609375,3.5611171875,-5.31925,-6.7171875,-12.63433984375,4.46021484375,1.124828125,-7.52174609375,-5.81960546875,-1.92574609375,11.14484375,-1.28519921875,-4.748171875,0.68347265625,9.57901953125,4.2903203125,-1.56947265625,-2.22808203125,4.70793359375,0.888843749999999,8.10253125,3.96121484375,1.14783984375
11.4087265625,3.21371875,-2.7821640625,0.14089453125,1.62555859375,-3.704375,3.557484375,-6.8304609375,6.1791171875,-3.14525,-5.7401875,-12.31233984375,5.21621484375,2.793828125,-6.77174609375,-4.92760546875,-1.68874609375,12.61184375,-0.0751992187500008,-3.535171875,1.63147265625,10.28201953125,5.6213203125,0.0125273437499995,-0.59108203125,5.78193359375,2.12884375,8.56653125,4.90821484375,1.71583984375
2.8727265625,-2.62928125,-6.2311640625,3.59589453125,4.37555859375,-3.602375,3.130484375,-6.4324609375,7.3571171875,-1.81725,-6.2611875,-13.38333984375,5.62321484375,3.633828125,-6.65574609375,-5.06460546875,-2.37074609375,12.90084375,0.43380078125,-3.172171875,2.18447265625,9.78701953125,6.0393203125,0.84552734375,0.29991796875,6.47693359375,2.95884375,7.83253125,5.27721484375,1.85783984375
-6.0372734375,-9.49028125,-9.4631640625,5.04789453125,5.20655859375,-4.684375,-1.163515625,-5.0604609375,6.9331171875,-1.56725,-8.0611875,-15.62033984375,5.67221484375,3.405828125,-7.22874609375,-6.04160546875,-3.77274609375,11.98684375,0.100800781249999,-3.559171875,2.34947265625,8.15601953125,5.4203203125,0.660527343749999,0.20691796875,6.41793359375,3.08584375,5.83553125,4.79221484375,1.38183984375
-13.3022734375,-15.27428125,-11.9051640625,3.63589453125,4.58655859375,-6.238375,-7.218515625,-3.3244609375,5.4121171875,-2.16125,-10.3081875,-18.18733984375,5.46021484375,2.313828125,-8.15574609375,-7.24560546875,-5.37874609375,10.16884375,-0.820199218750001,-4.251171875,2.30047265625,5.73001953125,3.9603203125,-0.406472656250001,-0.69608203125,5.44793359375,2.50584375,2.83453125,3.43621484375,0.29183984375
-16.1662734375,-17.53528125,-12.6651640625,0.18489453125,3.23655859375,-7.448375,-12.247515625,-1.7514609375,3.6151171875,-3.14225,-11.9571875,-19.96533984375,5.12421484375,0.863828125,-8.91574609375,-7.91860546875,-6.56874609375,7.97484375,-1.83119921875,-4.707171875,2.27047265625,3.05801953125,2.1063203125,-1.89947265625,-1.93808203125,3.69293359375,1.49084375,-0.613468749999999,1.49021484375,-1.19916015625
-12.7292734375,-14.83728125,-11.2331640625,-3.31810546875,1.73455859375,-7.711375,-13.970515625,-0.655460937500001,2.2581171875,-4.06025,-12.1781875,-20.03233984375,4.75621484375,-0.349171875,-9.04374609375,-7.48660546875,-6.86074609375,6.00984375,-2.40619921875,-4.528171875,2.45347265625,0.75401953125,0.404320312499999,-3.22447265625,-2.96808203125,1.52693359375,0.475843749999999,-3.79046875,-0.54878515625,-2.72116015625
-3.5562734375,-7.87028125,-8.0631640625,-4.99710546875,0.39555859375,-6.812375,-11.584515625,-0.174460937500001,1.7001171875,-4.59125,-10.6721875,-18.10333984375,4.34021484375,-0.846171875,-8.30674609375,-5.83660546875,-6.08974609375,4.77984375,-2.20219921875,-3.625171875,2.90947265625,-0.676980468750001,-0.671679687499999,-3.89947265625,-3.38608203125,-0.55306640625,-0.11915625,-6.02546875,-2.14178515625,-3.87516015625
8.0557265625,0.509718749999999,-4.5231640625,-4.17510546875,-0.61744140625,-4.953375,-6.051515625,-0.356460937500001,1.9111171875,-4.56525,-7.7941875,-14.71933984375,3.77521484375,-0.429171875,-6.80174609375,-3.41560546875,-4.45774609375,4.53584375,-1.20819921875,-2.249171875,3.51847265625,-0.996980468750001,-0.8886796875,-3.75747265625,-3.11808203125,-2.11406640625,-0.0801562499999999,-6.92746875,-2.92078515625,-4.36816015625
17.4457265625,6.52171875,-2.2241640625,-1.61310546875,-1.12844140625,-2.657375,0.417484375,-1.1744609375,2.6161171875,-3.96525,-4.4341875,-11.04533984375,2.98821484375,0.736828125,-4.92974609375,-1.08960546875,-2.43774609375,5.19284375,0.220800781249999,-0.898171874999999,4.00447265625,-0.311980468750001,-0.341679687499999,-3.02047265625,-2.43508203125,-2.94506640625,0.497843749999999,-6.52846875,-2.83978515625,-4.13116015625
20.7217265625,7.32571875,-2.2011640625,1.07989453125,-0.94644140625,-0.602374999999999,5.358484375,-2.4554609375,3.4651171875,-2.92125,-1.6651875,-8.37833984375,2.04821484375,2.177828125,-3.24774609375,0.19639453125,-0.582746093749999,6.37284375,1.50080078125,-0.0961718749999987,4.03047265625,0.97801953125,0.590320312499999,-2.17647265625,-1.80708203125,-3.11206640625,1.23684375,-5.24846875,-2.16778515625,-3.34716015625
16.4157265625,2.45271875,-4.4511640625,2.39189453125,0.00155859374999956,0.625625000000001,7.066484375,-3.8304609375,4.1651171875,-1.69325,-0.3021875,-7.59533984375,1.15621484375,3.309828125,-2.24074609375,-0.16360546875,0.664253906250001,7.57484375,2.08880078125,-0.144171874999999,3.36647265625,2.35101953125,1.4233203125,-1.70747265625,-1.63008203125,-2.86606640625,1.65384375,-3.68846875,-1.33678515625,-2.37616015625
5.9857265625,-5.99728125,-8.0791640625,1.65889453125,1.55555859375,0.761625000000001,5.250484375,-4.8314609375,4.5601171875,-0.58325,-0.570187499999999,-8.78133984375,0.52321484375,3.701828125,-2.10674609375,-2.11260546875,1.10025390625,8.38084375,1.74580078125,-0.947171874999999,2.06947265625,3.38501953125,1.7923203125,-1.84147265625,-1.99608203125,-2.47906640625,1.41484375,-2.34446875,-0.71178515625,-1.58516015625
-6.8642734375,-14.46428125,-11.8171640625,-0.700105468749999,3.33355859375,-0.013374999999999,1.111484375,-5.1394609375,4.6461171875,0.179750000000001,-2.0381875,-11.23133984375,0.23321484375,3.253828125,-2.66674609375,-4.89460546875,0.806253906250001,8.63484375,0.65980078125,-2.040171875,0.56047265625,3.93501953125,1.6223203125,-2.43747265625,-2.62608203125,-2.09806640625,0.52184375,-1.40146875,-0.40978515625,-1.17516015625
-17.6602734375,-19.62528125,-14.5381640625,-3.54710546875,4.85855859375,-1.158375,-3.263515625,-4.7594609375,4.5051171875,0.536750000000001,-3.8371875,-13.82733984375,0.21221484375,2.239828125,-3.45074609375,-7.36960546875,0.0932539062500011,8.49084375,-0.631199218750001,-2.792171875,-0.51052734375,4.18201953125,1.1463203125,-3.07247265625,-3.00108203125,-1.68306640625,-0.65315625,-0.68546875,-0.246785156250001,-1.07316015625
-22.8202734375,-19.79028125,-15.5251640625,-5.70710546875,5.69655859375,-2.040375,-5.933515625,-3.9744609375,4.2201171875,0.60275,-5.0321875,-15.58933984375,0.32721484375,1.171828125,-3.89274609375,-8.53660546875,-0.629746093749999,8.33184375,-1.46519921875,-2.687171875,-0.56152734375,4.52101953125,0.7943203125,-3.24147265625,-2.61208203125,-1.04606640625,-1.51815625,0.194531250000001,0.15321484375,-0.95816015625
-20.9072734375,-15.41328125,-14.5911640625,-6.55810546875,5.61555859375,-2.215375,-5.970515625,-3.1054609375,3.8431171875,0.599750000000001,-4.9871875,-16.08033984375,0.48621484375,0.576828125,-3.55674609375,-7.95360546875,-1.00974609375,8.56284375,-1.33619921875,-1.529171875,0.64347265625,5.32501953125,0.9843203125,-2.60247265625,-1.21908203125,0.0269335937499999,-1.51715625,1.59253125,1.14421484375,-0.42516015625
-13.0672734375,-8.67628125,-12.1741640625,-6.18410546875,4.73255859375,-1.556375,-3.670515625,-2.3344609375,3.4321171875,0.74675,-3.5651875,-15.45733984375,0.63021484375,0.762828125,-2.29774609375,-5.85660546875,-0.869746093749999,9.36384375,-0.131199218750001,0.491828125000001,2.88147265625,6.69101953125,1.8983203125,-1.15647265625,0.99491796875,1.61293359375,-0.41315625,3.57153125,2.82321484375,0.79183984375
-2.5042734375,-2.49828125,-9.3461640625,-5.18810546875,3.48155859375,-0.244374999999999,-0.131515625,-1.7084609375,3.0511171875,1.14475,-1.1301875,-14.23233984375,0.61621484375,1.666828125,-0.323746093749998,-2.99660546875,-0.231746093749999,10.52584375,1.77680078125,2.840828125,5.53647265625,8.28301953125,3.3263203125,0.692527343749999,3.43591796875,3.53193359375,1.53384375,5.75753125,4.89121484375,2.61483984375
6.8187265625,0.602718749999999,-7.5311640625,-4.37810546875,2.32055859375,1.310625,3.358484375,-1.3104609375,2.6721171875,1.67575,1.6148125,-12.98733984375,0.12321484375,2.830828125,1.85225390625,-0.33460546875,0.694253906250001,11.44284375,3.62580078125,4.776828125,7.78947265625,9.38601953125,4.6613203125,2.25252734375,5.29691796875,5.33593359375,3.59084375,7.38753125,6.67421484375,4.54383984375
11.7647265625,-0.601281250000001,-7.9361640625,-4.47910546875,1.33055859375,2.569625,5.785484375,-1.3794609375,2.0731171875,1.98675,3.8588125,-12.19533984375,-1.23278515625,3.548828125,3.55925390625,1.26239453125,1.54725390625,11.33484375,4.52080078125,5.563828125,8.86847265625,9.17401953125,5.0913203125,2.79652734375,5.85091796875,6.42293359375,4.79784375,7.55053125,7.33721484375,5.78683984375
11.2337265625,-5.67528125,-10.9131640625,-5.81910546875,0.0685585937499997,3.012625,6.624484375,-2.2524609375,0.8651171875,1.60175,4.9468125,-12.14533984375,-3.62778515625,3.128828125,4.20925390625,1.31239453125,1.88025390625,9.59884375,3.78180078125,4.746828125,8.31147265625,7.09201953125,3.9413203125,1.87352734375,4.73691796875,6.25393359375,4.36584375,5.54053125,6.20921484375,5.57583984375
6.4567265625,-12.74228125,-15.6391640625,-8.12310546875,-2.14744140625,2.341625,5.893484375,-4.1444609375,-1.2888828125,0.183750000000001,4.6348125,-12.89733984375,-6.79878515625,1.210828125,3.54925390625,-0.10060546875,1.31125390625,6.13784375,1.25880078125,2.395828125,6.16847265625,3.16301953125,1.0263203125,-0.473472656249999,2.12991796875,4.58293359375,2.03584375,1.20853125,3.08621484375,3.54583984375
0.1917265625,-19.20228125,-20.3191640625,-10.65910546875,-5.68844140625,0.636625000000001,4.004484375,-6.9134609375,-4.4068828125,-2.22025,3.2028125,-14.26233984375,-10.06678515625,-2.010171875,1.80425390625,-2.34860546875,-0.287746093749999,1.49184375,-2.53319921875,-0.830171874999999,3.01847265625,-1.96098046875,-3.1856796875,-3.67647265625,-1.28608203125,1.61193359375,-1.77415625,-4.89146875,-1.61778515625,-0.0521601562500003
-4.7062734375,-22.72828125,-22.8711640625,-12.72510546875,-10.18044140625,-1.644375,1.461484375,-9.9604609375,-8.0308828125,-5.10025,1.3318125,-15.88233984375,-12.65178515625,-5.790171875,-0.386746093749998,-4.52860546875,-2.66974609375,-3.34115625,-6.56219921875,-3.904171875,-0.24952734375,-7.23898046875,-7.6986796875,-6.84147265625,-4.55508203125,-2.02106640625,-6.12915625,-11.63646875,-6.99678515625,-4.41816015625
-6.5162734375,-22.14528125,-21.8261640625,-14.06910546875,-14.48444140625,-3.855375,-1.398515625,-12.3714609375,-11.3118828125,-7.63725,-0.2361875,-17.38333984375,-14.07278515625,-9.117171875,-2.25174609375,-5.85960546875,-5.26674609375,-7.29315625,-9.69119921875,-5.849171875,-2.79752734375,-11.66398046875,-11.3806796875,-9.11547265625,-6.82708203125,-5.48006640625,-9.97015625,-17.73346875,-11.97578515625,-8.54216015625
-5.0152734375,-17.79428125,-17.0481640625,-14.87810546875,-17.13944140625,-5.402375,-4.399515625,-13.2664609375,-13.3258828125,-9.02625,-1.0301875,-18.48833984375,-14.35378515625,-11.120171875,-3.20174609375,-5.97660546875,-7.42174609375,-9.62315625,-11.13919921875,-6.141171875,-4.13452734375,-14.62798046875,-13.4126796875,-10.01247265625,-7.67508203125,-8.05706640625,-12.52815625,-22.17646875,-15.69478515625,-11.61316015625
-1.0612734375,-11.21228125,-9.9021640625,-15.43910546875,-17.05144140625,-5.917375,-7.297515625,-12.1974609375,-13.4858828125,-8.79225,-0.9671875,-19.01733984375,-13.92578515625,-11.394171875,-3.03574609375,-4.98260546875,-8.67274609375,-10.15115625,-10.76219921875,-4.882171875,-4.22052734375,-16.06198046875,-13.5756796875,-9.55947265625,-7.20408203125,-9.43206640625,-13.56715625,-24.56946875,-17.75978515625,-13.31616015625
4.0937265625,-4.39428125,-2.7381640625,-15.82110546875,-14.03844140625,-5.322375,-9.596515625,-9.4144609375,-11.8318828125,-6.97425,-0.2501875,-18.84833984375,-13.32578515625,-10.109171875,-1.94674609375,-3.31260546875,-8.92874609375,-9.22215625,-9.02319921875,-2.681171875,-3.38052734375,-16.33998046875,-12.2626796875,-8.21447265625,-5.91908203125,-9.74206640625,-13.37315625,-25.16046875,-18.28878515625,-13.87016015625
9.2977265625,0.940718749999999,2.1338359375,-15.74910546875,-8.95844140625,-3.829375,-10.645515625,-5.8164609375,-9.0338828125,-4.11725,0.8028125,-17.91633984375,-12.90278515625,-7.895171875,-0.397746093749999,-1.50060546875,-8.46174609375,-7.49515625,-6.76319921875,-0.361171874999999,-2.12452734375,-16.02798046875,-10.2506796875,-6.62747265625,-4.48908203125,-9.45206640625,-12.53415625,-24.62346875,-17.76878515625,-13.83216015625
13.6907265625,3.80171875,3.5188359375,-14.69610546875,-3.37344140625,-1.911375,-10.006515625,-2.5594609375,-6.1098828125,-1.10225,1.8518125,-16.30533984375,-12.71078515625,-5.612171875,1.05525390625,-0.00860546875000034,-7.72174609375,-5.68415625,-4.87419921875,1.352828125,-0.97052734375,-15.64998046875,-8.3606796875,-5.41047265625,-3.50808203125,-9.12206640625,-11.66715625,-23.72046875,-16.79878515625,-13.78816015625
16.7057265625,4.04071875,1.9108359375,-12.19610546875,1.00555859375,-0.254375,-7.889515625,-0.5314609375,-4.0348828125,1.11675,2.5498125,-14.34533984375,-12.59378515625,-4.084171875,1.91225390625,0.82539453125,-7.11774609375,-4.35215625,-4.01819921875,2.032828125,-0.35352734375,-15.52698046875,-7.1636796875,-4.95647265625,-3.33708203125,-9.18106640625,-11.19015625,-22.98746875,-15.84678515625,-14.09616015625
17.9867265625,2.22571875,-0.758164062500001,-8.31910546875,2.85955859375,0.398625000000001,-5.315515625,0.0205390624999993,-3.4088828125,1.79975,2.5538125,-12.61833984375,-12.38978515625,-3.847171875,1.86125390625,0.78239453125,-6.88274609375,-3.79715625,-4.44419921875,1.613828125,-0.56552734375,-15.72398046875,-6.8306796875,-5.34847265625,-4.01308203125,-9.76806640625,-11.21715625,-22.58846875,-15.10878515625,-14.78316015625
17.3537265625,-0.682281250000001,-2.1991640625,-3.95210546875,1.67255859375,-0.474374999999999,-3.771515625,-0.537460937500001,-4.2858828125,0.672750000000001,1.6168125,-11.78333984375,-12.07578515625,-4.994171875,0.857253906250001,-0.22360546875,-7.06474609375,-4.02915625,-5.94619921875,0.355828125000001,-1.69752734375,-16.09598046875,-7.1706796875,-6.37147265625,-5.27508203125,-10.73506640625,-11.58915625,-22.35746875,-14.52278515625,-15.61216015625
14.8137265625,-3.73228125,-1.1361640625,-0.52310546875,-2.09244140625,-2.868375,-4.409515625,-1.5804609375,-6.2208828125,-1.95925,-0.276187499999999,-12.25833984375,-11.76578515625,-7.168171875,-0.858746093749998,-2.06560546875,-7.60074609375,-4.81615625,-7.99419921875,-1.289171875,-3.57952734375,-16.39198046875,-7.8136796875,-7.62447265625,-6.68508203125,-11.76406640625,-12.00915625,-21.99046875,-13.90578515625,-16.23216015625
10.5867265625,-6.29128125,1.8538359375,0.725894531249999,-7.14444140625,-6.152375,-7.280515625,-2.6464609375,-8.4968828125,-5.30625,-2.8091875,-13.94633984375,-11.58678515625,-9.714171875,-2.85074609375,-4.36760546875,-8.40074609375,-5.81215625,-9.97019921875,-2.852171875,-5.79152734375,-16.39798046875,-8.4256796875,-8.70447265625,-7.81408203125,-12.55206640625,-12.22015625,-21.25346875,-13.12178515625,-16.35916015625
5.1877265625,-8.11528125,4.6498359375,-0.636105468749999,-11.87244140625,-9.298375,-11.184515625,-3.6564609375,-10.4458828125,-8.40025,-5.3971875,-16.21833984375,-11.58878515625,-11.924171875,-4.66474609375,-6.60760546875,-9.38374609375,-6.70015625,-11.42219921875,-4.030171875,-7.81452734375,-16.04598046875,-8.8666796875,-9.39347265625,-8.41408203125,-12.93406640625,-12.15015625,-20.11646875,-12.18278515625,-15.90816015625
-0.3922734375,-9.19328125,4.8718359375,-4.10310546875,-14.98544140625,-11.375375,-14.305515625,-4.8514609375,-11.6888828125,-10.50125,-7.4441875,-18.22533984375,-11.74978515625,-13.318171875,-6.05474609375,-8.35960546875,-10.50874609375,-7.32515625,-12.23819921875,-4.810171875,-9.25452734375,-15.45598046875,-9.2286796875,-9.76847265625,-8.52808203125,-12.92906640625,-11.96215625,-18.76746875,-11.26178515625,-15.03816015625
-4.5592734375,-9.54228125,1.3308359375,-8.54810546875,-15.95544140625,-12.026375,-15.205515625,-6.5564609375,-12.2058828125,-11.41025,-8.6781875,-19.35533984375,-12.03678515625,-13.825171875,-7.12774609375,-9.51260546875,-11.77874609375,-7.75215625,-12.68119921875,-5.499171875,-10.01552734375,-14.88198046875,-9.7626796875,-10.19947265625,-8.49808203125,-12.70106640625,-12.00115625,-17.52546875,-10.61778515625,-14.08816015625
-5.4182734375,-9.13028125,-5.2591640625,-12.68810546875,-15.08844140625,-11.624375,-13.534515625,-8.9284609375,-12.2488828125,-11.51625,-9.3031875,-19.52833984375,-12.43078515625,-13.802171875,-8.29674609375,-10.34360546875,-13.20374609375,-8.21815625,-13.27019921875,-6.610171875,-10.32152734375,-14.59498046875,-10.7556796875,-11.19947265625,-8.83408203125,-12.48406640625,-12.66215625,-16.71346875,-10.49578515625,-13.43916015625
-1.6922734375,-7.98828125,-12.6251640625,-15.54210546875,-13.27444140625,-11.045375,-10.113515625,-11.8314609375,-12.1788828125,-11.55725,-9.8441875,-19.13533984375,-12.89978515625,-13.840171875,-10.04374609375,-11.36260546875,-14.73574609375,-9.01715625,-14.52119921875,-8.631171875,-10.58752734375,-14.77098046875,-12.3816796875,-13.18247265625,-9.99208203125,-12.47506640625,-14.21515625,-16.53746875,-11.01578515625,-13.36616015625
6.1617265625,-6.44628125,-18.0951640625,-16.75910546875,-11.56844140625,-11.187375,-6.476515625,-14.8334609375,-12.2908828125,-12.20825,-10.8051875,-18.72933984375,-13.37678515625,-14.452171875,-12.61474609375,-13.03860546875,-16.20774609375,-10.32615625,-16.67819921875,-11.770171875,-11.20952734375,-15.42198046875,-14.6076796875,-16.21647265625,-12.14408203125,-12.77006640625,-16.63915625,-17.01546875,-12.10278515625,-13.92816015625
15.5697265625,-5.24628125,-19.8641640625,-16.68910546875,-10.76744140625,-12.531375,-4.242515625,-17.3234609375,-12.6928828125,-13.76025,-12.4071875,-18.67733984375,-13.78278515625,-15.828171875,-15.86274609375,-15.54360546875,-17.37374609375,-12.09615625,-19.56619921875,-15.816171875,-12.38552734375,-16.39298046875,-17.1576796875,-19.92947265625,-15.09308203125,-13.34506640625,-19.56115625,-17.98346875,-13.48078515625,-14.95816015625
22.7727265625,-5.31928125,-17.7061640625,-16.10510546875,-11.17644140625,-14.998375,-4.638515625,-18.7004609375,-13.2998828125,-16.04325,-14.5891875,-19.04133984375,-14.06278515625,-17.769171875,-19.33174609375,-18.67160546875,-18.03174609375,-14.03215625,-22.66419921875,-20.183171875,-14.02352734375,-17.42398046875,-19.5886796875,-23.61647265625,-18.34508203125,-14.10406640625,-22.34815625,-19.17646875,-14.77178515625,-16.13116015625
24.7097265625,-7.22628125,-12.8291640625,-15.69310546875,-12.65844140625,-18.121375,-8.255515625,-18.5934609375,-13.9668828125,-18.61925,-17.1761875,-19.67333984375,-14.18378515625,-19.838171875,-22.50974609375,-21.96860546875,-18.15474609375,-15.70015625,-25.34219921875,-24.129171875,-15.79552734375,-18.25098046875,-21.4306796875,-26.52447265625,-21.30208203125,-14.92606640625,-24.35115625,-20.33646875,-15.65478515625,-17.10016015625
20.6457265625,-10.60928125,-7.1361640625,-15.63310546875,-14.85644140625,-21.349375,-14.921515625,-17.0274609375,-14.6258828125,-21.06725,-20.0221875,-20.40833984375,-14.09278515625,-21.583171875,-25.07774609375,-24.95960546875,-17.93974609375,-16.69815625,-27.13219921875,-27.032171875,-17.28152734375,-18.69398046875,-22.3616796875,-28.12847265625,-23.45208203125,-15.69806640625,-25.17415625,-21.29346875,-15.99478515625,-17.62616015625
12.5247265625,-14.13728125,-2.4571640625,-15.52510546875,-17.34944140625,-24.234375,-23.581515625,-14.4834609375,-15.2948828125,-23.14825,-22.9831875,-21.13533984375,-13.71778515625,-22.736171875,-26.99874609375,-27.30460546875,-17.70474609375,-16.81115625,-27.90319921875,-28.577171875,-18.14452734375,-18.71098046875,-22.3306796875,-28.30147265625,-24.51008203125,-16.33506640625,-24.81815625,-21.98346875,-15.88478515625,-17.65216015625
3.8937265625,-16.11628125,-0.0301640625000008,-14.70410546875,-19.66144140625,-26.464375,-32.311515625,-11.7674609375,-15.9768828125,-24.80525,-25.8151875,-21.73933984375,-13.01378515625,-23.286171875,-28.42974609375,-28.81660546875,-17.69574609375,-16.09215625,-27.87119921875,-28.803171875,-18.23252734375,-18.37398046875,-21.5656796875,-27.29447265625,-24.46708203125,-16.78306640625,-23.63215625,-22.41646875,-15.55378515625,-17.26616015625
-1.8192734375,-15.43128125,-0.256164062500002,-12.72310546875,-21.29644140625,-27.829375,-38.788515625,-9.6854609375,-16.5868828125,-26.07125,-28.1141875,-22.00333984375,-12.04978515625,-23.431171875,-29.53774609375,-29.40760546875,-17.92774609375,-14.84015625,-27.44819921875,-28.003171875,-17.60652734375,-17.81698046875,-20.4756796875,-25.58547265625,-23.53308203125,-17.01506640625,-22.11715625,-22.61946875,-15.20978515625,-16.62216015625
-2.7072734375,-12.19028125,-2.6251640625,-9.72610546875,-21.92844140625,-28.242375,-41.166515625,-8.6784609375,-16.9988828125,-26.99325,-29.4151875,-21.63033984375,-11.03378515625,-23.453171875,-30.35374609375,-29.06460546875,-18.16074609375,-13.48615625,-27.02219921875,-26.564171875,-16.48252734375,-17.17398046875,-19.4706796875,-23.67447265625,-22.01208203125,-16.99906640625,-20.70215625,-22.60446875,-14.92478515625,-15.84616015625
1.0947265625,-7.65928125,-5.9111640625,-6.48110546875,-21.60344140625,-27.773375,-38.891515625,-8.6554609375,-17.1348828125,-27.59425,-29.3871875,-20.38733984375,-10.24078515625,-23.568171875,-30.73174609375,-27.86960546875,-18.03974609375,-12.42115625,-26.78419921875,-24.819171875,-15.13852734375,-16.55298046875,-18.7996796875,-21.93147265625,-20.19108203125,-16.69006640625,-19.61615625,-22.38446875,-14.64078515625,-15.01116015625
7.7417265625,-3.55528125,-8.6901640625,-4.08610546875,-20.71444140625,-26.618375,-32.886515625,-9.1494609375,-16.9658828125,-27.84425,-28.0041875,-18.24133984375,-9.87378515625,-23.812171875,-30.43074609375,-26.01160546875,-17.32274609375,-11.83815625,-26.68019921875,-22.994171875,-13.82152734375,-16.04198046875,-18.4876796875,-20.55847265625,-18.31008203125,-16.06706640625,-18.89915625,-22.01546875,-14.28878515625,-14.17116015625
14.5167265625,-1.17228125,-9.9471640625,-3.54410546875,-19.74144140625,-25.016375,-25.086515625,-9.6514609375,-16.4568828125,-27.65825,-25.5961875,-15.42033984375,-9.94578515625,-24.009171875,-29.27974609375,-23.79260546875,-16.05074609375,-11.66815625,-26.49019921875,-21.228171875,-12.69152734375,-15.72798046875,-18.3776796875,-19.62647265625,-16.58408203125,-15.19506640625,-18.52015625,-21.63246875,-13.92278515625,-13.41216015625
18.7947265625,-0.884281250000001,-9.4651640625,-5.40610546875,-18.97844140625,-23.203375,-17.713515625,-9.9134609375,-15.5318828125,-26.95225,-22.7701875,-12.38133984375,-10.28978515625,-23.857171875,-27.34774609375,-21.60960546875,-14.55774609375,-11.64715625,-25.98719921875,-19.655171875,-11.83652734375,-15.68898046875,-18.2566796875,-19.14247265625,-15.22008203125,-14.24706640625,-18.47315625,-21.42246875,-13.73878515625,-12.87716015625
18.8747265625,-2.28328125,-7.7851640625,-9.52010546875,-18.44944140625,-21.452375,-12.677515625,-10.0214609375,-14.1518828125,-25.78425,-20.2761875,-9.74433984375,-10.68578515625,-23.117171875,-25.03974609375,-19.92360546875,-13.32674609375,-11.48415625,-25.09919921875,-18.464171875,-11.32052734375,-15.95198046875,-17.9906796875,-19.09947265625,-14.40608203125,-13.46506640625,-18.80715625,-21.55146875,-13.97778515625,-12.72116015625
14.5237265625,-4.68828125,-5.8511640625,-14.92410546875,-18.00244140625,-20.133375,-11.202515625,-10.2844609375,-12.4328828125,-24.45725,-18.8411875,-8.16333984375,-11.01178515625,-21.819171875,-23.05274609375,-19.17560546875,-12.79174609375,-11.05615625,-24.02519921875,-17.906171875,-11.21852734375,-16.45998046875,-17.6146796875,-19.49447265625,-14.27508203125,-13.07806640625,-19.56215625,-22.08146875,-14.77378515625,-13.03316015625
7.1527265625,-7.51728125,-4.5391640625,-19.96210546875,-17.46944140625,-19.641375,-13.564515625,-11.0054609375,-10.6998828125,-23.47525,-18.9541875,-8.10933984375,-11.26878515625,-20.337171875,-22.14174609375,-19.64860546875,-13.14974609375,-10.50215625,-23.19919921875,-18.205171875,-11.59252734375,-17.08898046875,-17.3176796875,-20.30847265625,-14.85508203125,-13.21206640625,-20.68015625,-22.93346875,-16.04478515625,-13.76616015625
-0.5532734375,-10.30828125,-4.3771640625,-22.80710546875,-16.81344140625,-20.213375,-18.937515625,-12.2504609375,-9.4358828125,-23.31125,-20.6151875,-9.60033984375,-11.51378515625,-19.257171875,-22.76174609375,-21.31960546875,-14.27074609375,-10.16015625,-23.08019921875,-19.417171875,-12.41352734375,-17.70298046875,-17.3316796875,-21.44647265625,-15.99508203125,-13.81006640625,-21.95315625,-23.90546875,-17.48478515625,-14.72916015625
-5.5852734375,-12.59828125,-5.5361640625,-22.25710546875,-16.20044140625,-21.707375,-25.488515625,-13.7544609375,-9.1128828125,-24.12625,-23.2161875,-12.06533984375,-11.76678515625,-19.091171875,-24.78074609375,-23.79460546875,-15.72074609375,-10.37915625,-23.87319921875,-21.305171875,-13.49852734375,-18.21198046875,-17.7746796875,-22.67847265625,-17.35208203125,-14.61206640625,-23.02715625,-24.72146875,-18.64978515625,-15.62416015625
-5.8722734375,-13.95528125,-7.9311640625,-18.35610546875,-15.95244140625,-23.578375,-30.871515625,-15.0024609375,-9.9908828125,-25.64025,-25.7111875,-14.48633984375,-12.02378515625,-20.027171875,-27.44674609375,-26.38760546875,-16.93974609375,-11.30515625,-25.37519921875,-23.340171875,-14.51352734375,-18.58598046875,-18.5466796875,-23.64947265625,-18.45808203125,-15.25106640625,-23.49315625,-25.09246875,-19.11078515625,-16.13416015625
-1.2522734375,-14.11628125,-11.1441640625,-12.42810546875,-16.37544140625,-25.093375,-33.126515625,-15.4554609375,-11.9718828125,-27.24725,-27.0641875,-15.81433984375,-12.30178515625,-21.835171875,-29.68474609375,-28.33260546875,-17.47274609375,-12.77915625,-27.03119921875,-24.861171875,-15.07852734375,-18.83698046875,-19.3496796875,-23.98347265625,-18.88908203125,-15.41506640625,-23.03615625,-24.79346875,-18.60478515625,-16.02416015625
6.4147265625,-13.01928125,-14.1771640625,-6.50110546875,-17.54544140625,-25.703375,-31.636515625,-14.7824609375,-14.5898828125,-28.29725,-26.7381875,-15.46233984375,-12.65778515625,-23.954171875,-30.56174609375,-29.06960546875,-17.15474609375,-14.36715625,-28.18119921875,-25.319171875,-14.93652734375,-18.98598046875,-19.8116796875,-23.43447265625,-18.43208203125,-14.99306640625,-21.58115625,-23.73946875,-17.13878515625,-15.22016015625
14.1447265625,-10.70728125,-15.4381640625,-2.46910546875,-19.17144140625,-25.301375,-27.550515625,-12.9954609375,-17.1318828125,-28.36225,-24.9231875,-13.57333984375,-13.10978515625,-25.682171875,-29.66874609375,-28.45260546875,-16.16074609375,-15.51015625,-28.33319921875,-24.478171875,-14.08852734375,-19.02698046875,-19.6466796875,-21.99347265625,-17.14608203125,-14.10206640625,-19.35315625,-22.02946875,-14.97778515625,-13.83216015625
19.3047265625,-7.28828125,-13.3291640625,-1.38510546875,-20.58944140625,-24.173375,-23.216515625,-10.4714609375,-18.8168828125,-27.33225,-22.3661875,-10.89033984375,-13.54178515625,-26.397171875,-27.22674609375,-26.74660546875,-14.92074609375,-15.72215625,-27.34219921875,-22.467171875,-12.75852734375,-18.90698046875,-18.7736796875,-19.90447265625,-15.30708203125,-12.99506640625,-16.80915625,-19.93146875,-12.55278515625,-12.11016015625
20.8287265625,-3.06328125,-7.2521640625,-3.10810546875,-20.92344140625,-22.690375,-20.799515625,-7.8414609375,-19.0048828125,-25.32225,-19.8941875,-8.28633984375,-13.68178515625,-25.724171875,-23.88374609375,-24.41060546875,-13.92974609375,-14.74915625,-25.41619921875,-19.663171875,-11.21252734375,-18.52298046875,-17.3246796875,-17.56647265625,-13.25108203125,-11.92406640625,-14.45315625,-17.79746875,-10.29978515625,-10.33416015625
19.5247265625,1.35471875,1.6828359375,-6.44210546875,-19.41544140625,-20.982375,-20.971515625,-5.7894609375,-17.3798828125,-22.51625,-17.9261875,-6.29033984375,-13.20378515625,-23.597171875,-20.33374609375,-21.81760546875,-13.51574609375,-12.64315625,-22.94619921875,-16.488171875,-9.55552734375,-17.75298046875,-15.5476796875,-15.35247265625,-11.21308203125,-11.01706640625,-12.62415625,-15.93746875,-8.50478515625,-8.72916015625
17.4117265625,5.16371875,10.9168359375,-9.71710546875,-15.80144140625,-18.865375,-22.553515625,-4.7804609375,-14.0778828125,-19.07725,-16.2651875,-4.88133984375,-11.88378515625,-20.231171875,-17.00574609375,-19.11160546875,-13.68274609375,-9.71315625,-20.27619921875,-13.234171875,-7.68152734375,-16.49798046875,-13.6706796875,-13.43747265625,-9.23308203125,-10.23806640625,-11.35515625,-14.51646875,-7.23078515625,-7.41216015625
16.6287265625,7.74171875,17.6158359375,-11.53410546875,-10.53644140625,-16.038375,-23.302515625,-4.8584609375,-9.6718828125,-15.18725,-14.3131875,-3.65633984375,-9.74778515625,-16.052171875,-13.95674609375,-16.24460546875,-14.10974609375,-6.40015625,-17.56019921875,-10.015171875,-5.44052734375,-14.74598046875,-11.8086796875,-11.73647265625,-7.19708203125,-9.43606640625,-10.41615625,-13.52346875,-6.34278515625,-6.38616015625
18.5027265625,9.02971875,20.0648359375,-11.31110546875,-4.69044140625,-12.415375,-21.261515625,-5.5974609375,-5.0198828125,-11.13525,-11.5461875,-2.15833984375,-7.10778515625,-11.626171875,-11.02874609375,-13.14560546875,-14.29174609375,-3.15815625,-14.81319921875,-6.852171875,-2.89452734375,-12.62998046875,-10.0046796875,-10.01547265625,-4.98808203125,-8.47706640625,-9.49815625,-12.84046875,-5.64778515625,-5.58316015625
23.0817265625,9.61171875,18.4768359375,-9.35810546875,0.38955859375,-8.358375,-15.914515625,-6.2754609375,-1.0418828125,-7.37825,-7.9491875,-0.144339843750001,-4.46878515625,-7.594171875,-8.10974609375,-9.89360546875,-13.75874609375,-0.39115625,-12.08419921875,-3.829171875,-0.48952734375,-10.45498046875,-8.3316796875,-8.11147265625,-2.64108203125,-7.36206640625,-8.44715625,-12.37346875,-5.03978515625,-4.92116015625
29.1337265625,10.37071875,14.7478359375,-6.56810546875,3.47755859375,-4.659375,-8.565515625,-6.1704609375,1.4831171875,-4.50025,-4.1341875,2.31066015625,-2.37878515625,-4.574171875,-5.34974609375,-6.80360546875,-12.27574609375,1.57384375,-9.60919921875,-1.186171875,1.02247265625,-8.66098046875,-6.9726796875,-6.11647265625,-0.39008203125,-6.24906640625,-7.39015625,-12.13846875,-4.58178515625,-4.37116015625
34.5907265625,11.83671875,11.3088359375,-3.91810546875,3.79555859375,-2.249375,-1.774515625,-4.8594609375,2.0761171875,-3.03725,-1.0831875,4.88366015625,-1.28178515625,-3.026171875,-3.16674609375,-4.33760546875,-9.95574609375,2.50184375,-7.80119921875,0.714828125000001,0.93247265625,-7.70098046875,-6.1806796875,-4.38547265625,1.41991796875,-5.37606640625,-6.67215625,-12.25446875,-4.46178515625,-3.99416015625
37.3327265625,13.68471875,9.7498359375,-2.04810546875,1.28255859375,-1.746375,1.927484375,-2.3914609375,0.704117187500001,-3.23225,0.349812500000001,7.16866015625,-1.39678515625,-3.124171875,-2.04174609375,-2.87860546875,-7.23874609375,2.29484375,-7.08619921875,1.561828125,-0.98552734375,-7.85998046875,-6.1506796875,-3.37247265625,2.50091796875,-4.93706640625,-6.65015625,-12.83446875,-4.86178515625,-3.90316015625
36.1107265625,14.79471875,10.0828359375,-1.09410546875,-3.26744140625,-3.081375,1.369484375,0.736539062499999,-2.1538828125,-4.82925,-0.0911874999999998,8.86166015625,-2.62878515625,-4.659171875,-2.20574609375,-2.47960546875,-4.70574609375,1.06784375,-7.64219921875,1.292828125,-4.22952734375,-9.09398046875,-6.8596796875,-3.36547265625,2.76491796875,-4.98906640625,-7.47015625,-13.86046875,-5.81578515625,-4.18316015625
31.1807265625,13.91771875,11.0898359375,-0.826105468750001,-8.35244140625,-5.458375,-2.695515625,3.8025390625,-5.5998828125,-7.06125,-1.8871875,9.86666015625,-4.53878515625,-7.044171875,-3.43474609375,-2.81160546875,-2.81874609375,-0.82515625,-9.23519921875,0.179828125000001,-7.74052734375,-11.00398046875,-8.0166796875,-4.29347265625,2.37891796875,-5.43906640625,-8.95215625,-15.12946875,-7.15678515625,-4.83216015625
24.2207265625,10.52271875,11.3748359375,-0.94610546875,-12.28144140625,-7.724375,-8.138515625,6.1205390625,-8.6148828125,-8.92325,-4.0021875,10.26166015625,-6.47978515625,-9.465171875,-5.10674609375,-3.35560546875,-1.74174609375,-2.84615625,-11.23819921875,-1.273171875,-10.42452734375,-12.96498046875,-9.1496796875,-5.72747265625,1.67891796875,-6.10606640625,-10.65615625,-16.33446875,-8.57978515625,-5.75216015625
17.4077265625,5.18271875,10.2658359375,-1.32010546875,-13.82644140625,-8.916375,-12.667515625,7.2235390625,-10.4248828125,-9.59925,-5.4161875,10.17366015625,-7.86578515625,-11.154171875,-6.48274609375,-3.73260546875,-1.37574609375,-4.43515625,-12.88519921875,-2.569171875,-11.71152734375,-14.37598046875,-9.8076796875,-7.08747265625,0.99591796875,-6.83106640625,-12.08015625,-17.20546875,-9.77878515625,-6.81216015625
12.2507265625,-0.688281250000001,7.9438359375,-2.02610546875,-12.63644140625,-8.646375,-14.840515625,6.9015390625,-10.7278828125,-8.79225,-5.6101875,9.67766015625,-8.42278515625,-11.664171875,-7.03574609375,-3.90860546875,-1.54574609375,-5.19015625,-13.60119921875,-3.430171875,-11.78052734375,-14.87998046875,-9.7576796875,-7.90547265625,0.48391796875,-7.56506640625,-12.87415625,-17.62246875,-10.56878515625,-7.89516015625
9.0627265625,-5.49928125,4.9698359375,-3.24810546875,-9.23344140625,-7.122375,-14.365515625,5.1665390625,-9.6988828125,-6.78125,-4.6661875,8.82366015625,-8.26278515625,-10.980171875,-6.60674609375,-4.15460546875,-2.14874609375,-4.96815625,-13.20019921875,-3.845171875,-11.37252734375,-14.45398046875,-9.0376796875,-7.99747265625,0.0909179687499999,-8.36106640625,-12.94515625,-17.61146875,-10.91578515625,-8.90516015625
7.4127265625,-8.12728125,1.8168359375,-5.05010546875,-4.71744140625,-4.888375,-11.762515625,2.2495390625,-7.8218828125,-4.21025,-3.0231875,7.73666015625,-7.74478515625,-9.446171875,-5.35874609375,-4.80560546875,-3.15474609375,-3.88315625,-11.88619921875,-3.961171875,-11.32552734375,-13.33398046875,-7.8706796875,-7.46147265625,-0.32908203125,-9.26606640625,-12.42615625,-17.23646875,-10.86878515625,-9.73116015625
6.9447265625,-8.29428125,-1.2541640625,-7.15210546875,-0.38944140625,-2.537375,-7.904515625,-1.3664609375,-5.6808828125,-1.80325,-1.1501875,6.66766015625,-7.24178515625,-7.597171875,-3.64374609375,-5.99060546875,-4.50774609375,-2.23815625,-10.11019921875,-3.927171875,-12.12852734375,-11.86998046875,-6.5206796875,-6.56647265625,-0.86608203125,-10.21806640625,-11.55215625,-16.50746875,-10.47778515625,-10.21416015625
7.6967265625,-6.59828125,-4.0931640625,-8.85010546875,2.55755859375,-0.572374999999999,-3.757515625,-4.9194609375,-3.8158828125,-0.167249999999999,0.5808125,5.91266015625,-6.96778515625,-6.008171875,-1.89474609375,-7.52460546875,-6.04974609375,-0.45815625,-8.42319921875,-3.825171875,-13.72952734375,-10.40598046875,-5.2106796875,-5.63647265625,-1.48608203125,-11.02506640625,-10.56315625,-15.38146875,-9.76978515625,-10.16816015625
9.6817265625,-4.21928125,-6.5591640625,-9.28510546875,3.29955859375,0.592625000000001,-0.363515625,-7.4724609375,-2.6698828125,0.295750000000001,1.8598125,5.65766015625,-6.96378515625,-5.180171875,-0.582746093749998,-9.01360546875,-7.55774609375,0.97384375,-7.34819921875,-3.703171875,-15.64152734375,-9.23398046875,-4.1356796875,-4.96347265625,-2.06108203125,-11.45106640625,-9.64815625,-13.88046875,-8.78978515625,-9.47116015625
12.2847265625,-2.38828125,-8.5151640625,-7.99910546875,1.57455859375,0.635625000000001,1.208484375,-8.2014609375,-2.5508828125,-0.581249999999999,2.3748125,5.85266015625,-7.20178515625,-5.442171875,-0.144746093749999,-10.07660546875,-8.84474609375,1.60784375,-7.26519921875,-3.630171875,-17.24752734375,-8.58098046875,-3.4996796875,-4.75147265625,-2.45508203125,-11.33706640625,-8.95315625,-12.20646875,-7.67078515625,-8.16516015625
14.2077265625,-1.89228125,-9.8631640625,-5.34210546875,-2.21444140625,-0.592374999999999,0.169484375000001,-6.7954609375,-3.5778828125,-2.70225,1.8648125,6.22966015625,-7.69278515625,-6.870171875,-0.861746093749998,-10.52060546875,-9.85674609375,1.15584375,-8.32519921875,-3.718171875,-18.09852734375,-8.58998046875,-3.5186796875,-5.08147265625,-2.61208203125,-10.69906640625,-8.59315625,-10.74546875,-6.64778515625,-6.49316015625
14.0977265625,-2.88728125,-10.5911640625,-2.38610546875,-7.07944140625,-2.943375,-3.529515625,-3.7404609375,-5.5998828125,-5.71025,0.2538125,6.44366015625,-8.49378515625,-9.270171875,-2.73574609375,-10.38260546875,-10.68474609375,-0.39715625,-10.40819921875,-4.094171875,-18.07252734375,-9.26698046875,-4.3496796875,-5.91347265625,-2.59608203125,-9.76206640625,-8.65015625,-9.91346875,-5.99978515625,-4.83216015625
11.3277265625,-5.06028125,-10.8201640625,-0.422105468750001,-11.74344140625,-5.929375,-8.943515625,-0.257460937500001,-8.1838828125,-9.03425,-2.2411875,6.23966015625,-9.60078515625,-12.216171875,-5.45674609375,-9.87660546875,-11.45374609375,-2.74915625,-13.16019921875,-4.844171875,-17.37352734375,-10.42298046875,-5.9846796875,-7.11947265625,-2.57808203125,-8.89406640625,-9.15415625,-9.92146875,-5.91578515625,-3.54416015625
6.3667265625,-7.90628125,-10.8031640625,-0.44510546875,-15.07744140625,-8.851375,-14.421515625,2.1385390625,-10.7248828125,-12.02225,-5.1421875,5.52166015625,-10.84378515625,-15.136171875,-8.49474609375,-9.33560546875,-12.17774609375,-5.34615625,-16.07619921875,-5.984171875,-16.43052734375,-11.67298046875,-8.1676796875,-8.52547265625,-2.76408203125,-8.46506640625,-10.04615625,-10.61046875,-6.37978515625,-2.84316015625
0.5687265625,-10.88628125,-10.8511640625,-2.85910546875,-16.45544140625,-11.037375,-18.280515625,2.2555390625,-12.6318828125,-14.11125,-7.8651875,4.32066015625,-11.87878515625,-17.442171875,-11.29774609375,-9.13560546875,-12.69574609375,-7.53515625,-18.63419921875,-7.457171875,-15.74652734375,-12.51498046875,-10.4086796875,-9.95547265625,-3.30908203125,-8.70706640625,-11.16215625,-11.48546875,-7.14978515625,-2.74316015625
-4.3982734375,-13.44628125,-11.2481640625,-7.35110546875,-15.85144140625,-12.083375,-19.480515625,-0.3164609375,-13.4978828125,-14.98125,-9.9531875,2.72566015625,-12.32678515625,-18.684171875,-13.48374609375,-9.59360546875,-12.77674609375,-8.76715625,-20.44219921875,-9.152171875,-15.74252734375,-12.50698046875,-12.1286796875,-11.27447265625,-4.27508203125,-9.65006640625,-12.28015625,-11.95946875,-7.86878515625,-3.11216015625
-7.2382734375,-15.09428125,-12.1861640625,-12.87710546875,-13.71044140625,-11.981375,-17.997515625,-5.0754609375,-13.2108828125,-14.65525,-11.2491875,0.847660156249999,-11.97178515625,-18.695171875,-14.94974609375,-10.83360546875,-12.34574609375,-8.77515625,-21.35619921875,-10.936171875,-16.61352734375,-11.44598046875,-12.8736796875,-12.41547265625,-5.62308203125,-11.14906640625,-13.20115625,-11.66746875,-8.25378515625,-3.78416015625
-7.6232734375,-15.65428125,-13.7461640625,-17.86810546875,-10.81344140625,-11.116375,-14.848515625,-10.8264609375,-11.9988828125,-13.52225,-11.9301875,-1.21833984375,-10.92178515625,-17.671171875,-15.84874609375,-12.72460546875,-11.64374609375,-7.66915625,-21.50719921875,-12.683171875,-18.27152734375,-9.48598046875,-12.5116796875,-13.37547265625,-7.23108203125,-12.96006640625,-13.83215625,-10.68146875,-8.24578515625,-4.66416015625
-6.4072734375,-15.58428125,-15.8851640625,-20.71710546875,-8.19044140625,-10.152375,-11.827515625,-16.1294609375,-10.4048828125,-12.26125,-12.4041875,-3.43533984375,-9.60978515625,-16.131171875,-16.50074609375,-14.94460546875,-11.19274609375,-5.90115625,-21.23619921875,-14.313171875,-20.39452734375,-7.11398046875,-11.2876796875,-14.18247265625,-8.91908203125,-14.81206640625,-14.22415625,-9.49846875,-8.05178515625,-5.79216015625
-5.2292734375,-16.01428125,-18.4501640625,-20.34410546875,-6.96444140625,-9.821375,-10.941515625,-19.8054609375,-9.1228828125,-11.65025,-13.1601875,-5.86433984375,-8.61678515625,-14.757171875,-17.27074609375,-17.13860546875,-11.57374609375,-4.08915625,-20.97019921875,-15.817171875,-22.60252734375,-4.96498046875,-9.7146796875,-14.88047265625,-10.51408203125,-16.48206640625,-14.54115625,-8.80746875,-8.05678515625,-7.30916015625
-5.6252734375,-18.22828125,-21.2101640625,-16.54610546875,-7.97344140625,-10.654375,-13.614515625,-21.3084609375,-8.7188828125,-12.27525,-14.5871875,-8.61733984375,-8.38578515625,-14.121171875,-18.44074609375,-19.07360546875,-13.14274609375,-2.77015625,-21.06219921875,-17.257171875,-24.62552734375,-3.55398046875,-8.3296796875,-15.52647265625,-11.92508203125,-17.86506640625,-14.96515625,-9.16046875,-8.62278515625,-9.36016015625
-8.1762734375,-22.80228125,-23.9651640625,-10.00210546875,-11.30344140625,-12.730375,-19.971515625,-20.8574609375,-9.3438828125,-14.23325,-16.7941875,-11.74433984375,-8.99778515625,-14.418171875,-20.09674609375,-20.70060546875,-15.86374609375,-2.15315625,-21.64919921875,-18.708171875,-26.38952734375,-3.02998046875,-7.4226796875,-16.16947265625,-13.16308203125,-18.99006640625,-15.59915625,-10.67946875,-9.88478515625,-11.96016015625
-12.2552734375,-29.04228125,-26.6441640625,-2.00710546875,-16.06744140625,-15.592375,-28.642515625,-19.3074609375,-10.6408828125,-17.03725,-19.5271875,-15.13933984375,-10.15378515625,-15.345171875,-22.07774609375,-22.13460546875,-19.29274609375,-2.02715625,-22.57519921875,-20.200171875,-27.98552734375,-3.09898046875,-6.9056796875,-16.82547265625,-14.31008203125,-19.98306640625,-16.39915625,-12.97546875,-11.63478515625,-14.93016015625
-12.2552734375,-29.04228125,-26.6441640625,-2.00710546875,-16.06744140625,-15.592375,-28.642515625,-19.3074609375,-10.6408828125,-17.03725,-19.5271875,-15.13933984375,-10.15378515625,-15.345171875,-22.07774609375,-22.13460546875,-19.29274609375,-2.02715625,-22.57519921875,-20.200171875,-27.98552734375,-3.09898046875,-6.9056796875,-16.82547265625,-14.31008203125,-19.98306640625,-16.39915625,-12.97546875,-11.63478515625,-14.93016015625
