"Fp1","Fpz","Fp2","F7","F3","Fz","F4","F8","FC5","FC1","FC2","FC6","T7","C3","Cz","C4","T8","CP5","CP1","CP2","CP6","P7","P3","Pz","P4","P8","POz","O1","Oz","O2"
0.104468750000001,0.43516015625,-0.457343750000001,-2.265734375,-6.61577734375,-7.743984375,-7.689234375,-5.303796875,-5.922234375,-11.6164140625,-11.46620703125,-10.39490625,-4.48630859375,-11.4311953125,-15.62594921875,-15.37108984375,-4.01840625,-9.11360546875,-16.9970078125,-20.5175,-16.25845703125,-10.132734375,-18.1795546875,-19.71807421875,-25.35990625,-15.50534765625,-25.34306640625,-18.9333125,-23.77990625,-24.8478359375
4.28946875,1.46716015625,1.13465625,-0.825734375,-4.39477734375,-6.707984375,-6.704234375,-6.034796875,-5.117234375,-9.7534140625,-10.92920703125,-10.36490625,-5.44530859375,-9.5881953125,-14.89994921875,-14.88008984375,-5.07740625,-6.99960546875,-15.7860078125,-19.9335,-15.83645703125,-7.637734375,-16.2075546875,-18.66507421875,-24.06590625,-15.21634765625,-23.95506640625,-16.4533125,-22.54190625,-23.0648359375
6.00646875,1.85916015625,1.83565625,0.0552656250000001,-2.97777734375,-5.368984375,-5.462234375,-5.946796875,-4.599234375,-8.0324140625,-9.62120703125,-9.57590625,-5.13530859375,-8.0131953125,-13.38794921875,-13.42808984375,-5.35740625,-5.24960546875,-13.9070078125,-18.2395,-14.55945703125,-5.587734375,-13.7415546875,-16.55507421875,-21.66890625,-14.29834765625,-21.54806640625,-13.8313125,-20.43790625,-20.4688359375
5.33046875,1.69416015625,1.76965625,0.256265625,-2.27977734375,-3.746984375,-3.991234375,-5.006796875,-4.346234375,-6.4204140625,-7.56420703125,-8.01090625,-3.58330859375,-6.6631953125,-11.07194921875,-11.01708984375,-4.79140625,-3.92260546875,-11.3040078125,-15.3875,-12.32245703125,-4.013734375,-10.7865546875,-13.33607421875,-18.01790625,-12.61834765625,-17.99706640625,-11.0523125,-17.33990625,-16.8878359375
3.10146875,1.23316015625,1.31065625,-0.211734375,-1.97977734375,-1.997984375,-2.430234375,-3.480796875,-4.286234375,-4.8564140625,-5.06220703125,-5.93090625,-1.35330859375,-5.4241953125,-8.19994921875,-7.99708984375,-3.54140625,-3.00260546875,-8.1670078125,-11.7025,-9.28845703125,-2.841734375,-7.5375546875,-9.29707421875,-13.31390625,-10.21434765625,-13.50506640625,-8.1383125,-13.38190625,-12.3928359375
0.40746875,0.713160156250001,0.805656249999999,-1.217734375,-1.74477734375,-0.358984375,-0.982234375,-1.821796875,-4.360234375,-3.3064140625,-2.56120703125,-3.76290625,0.67169140625,-4.1971953125,-5.17694921875,-4.90008984375,-1.91740625,-2.41560546875,-4.8620078125,-7.7275,-5.82845703125,-1.964734375,-4.3145546875,-4.93507421875,-8.03890625,-7.28334765625,-8.52706640625,-5.1383125,-8.90690625,-7.2948359375
-1.81553125,0.282160156250001,0.445656249999999,-2.495734375,-1.37277734375,0.961015625,0.186765625,-0.481796875,-4.492234375,-1.7814140625,-0.44820703125,-1.93290625,1.68069140625,-2.9251953125,-2.38994921875,-2.20708984375,-0.25340625,-2.03960546875,-1.7850078125,-4.0045,-2.39145703125,-1.298734375,-1.4335546875,-0.77807421875,-2.80690625,-4.13334765625,-3.61606640625,-2.1223125,-4.35990625,-2.0598359375
-2.90953125,0.0811601562500002,0.348656249999999,-3.653734375,-0.79277734375,1.904015625,1.048765625,0.284203125,-4.510234375,-0.2984140625,1.10379296875,-0.69290625,1.32169140625,-1.5791953125,-0.07094921875,-0.17008984375,1.18759375,-1.70560546875,0.7959921875,-0.8865,0.63254296875,-0.806734375,0.907445312499999,2.75992578125,1.80309375,-1.11534765625,0.73093359375,0.7926875,-0.17290625,2.8141640625
-2.47753125,0.35316015625,0.701656249999999,-4.261734375,0.00222265624999995,2.604015625,1.757765625,0.515203125,-4.143234375,1.1325859375,2.17079296875,-0.0429062499999996,-0.16630859375,-0.1391953125,1.75805078125,1.24091015625,2.27559375,-1.23960546875,2.8229921875,1.5385,3.01154296875,-0.486734375,2.6904453125,5.46492578125,5.37609375,1.46765234375,4.18493359375,3.4256875,3.31109375,6.8971640625
-0.435531249999999,1.38116015625,1.73965625,-4.034734375,0.98122265625,3.298015625,2.547765625,0.484203125,-3.149234375,2.4905859375,2.97179296875,0.23909375,-2.10430859375,1.3848046875,3.21205078125,2.24691015625,3.02259375,-0.53160546875,4.4089921875,3.3915,4.68754296875,-0.347734375,4.0404453125,7.32192578125,7.72309375,3.40965234375,6.60193359375,5.5386875,5.87009375,9.8891640625
2.79646875,3.22916015625,3.51465625,-3.010734375,2.01922265625,4.132015625,3.547765625,0.533203125,-1.520234375,3.6855859375,3.69179296875,0.45009375,-3.72430859375,2.8908046875,4.39805078125,3.07791015625,3.53259375,0.39039453125,5.6929921875,4.8475,5.71754296875,-0.391734375,5.1114453125,8.44592578125,8.86109375,4.62065234375,7.98393359375,6.8856875,7.40409375,11.6211640625
6.22746875,5.51016015625,5.66965625,-1.594734375,2.86222265625,5.000015625,4.643765625,0.892203125,0.387765625,4.5345859375,4.34379296875,0.80309375,-4.49130859375,4.1498046875,5.29105078125,3.84191015625,3.93359375,1.34139453125,6.7009921875,5.9885,6.19954296875,-0.595734375,5.9574453125,8.97692578125,8.95009375,5.09965234375,8.40193359375,7.3006875,7.91009375,12.0571640625
8.61146875,7.45216015625,7.50965625,-0.375734375,3.20322265625,5.566015625,5.530765625,1.586203125,1.961765625,4.8365859375,4.78579296875,1.35009375,-4.27430859375,4.8578046875,5.73005078125,4.51391015625,4.31759375,2.03639453125,7.2989921875,6.7635,6.22354296875,-0.912734375,6.4664453125,8.99392578125,8.22909375,4.92965234375,7.95193359375,6.7706875,7.47409375,11.2891640625
9.09046875,8.33716015625,8.41365625,0.201265625,2.87322265625,5.500015625,5.933765625,2.493203125,2.640765625,4.5115859375,4.87879296875,2.03609375,-3.30130859375,4.7758046875,5.55005078125,5.03891015625,4.72859375,2.20739453125,7.2749921875,7.0615,5.89354296875,-1.281734375,6.4234453125,8.50792578125,6.97009375,4.27665234375,6.74193359375,5.4596875,6.25309375,9.5341640625
7.74746875,7.99316015625,8.28665625,0.103265625,2.00222265625,4.747015625,5.824765625,3.467203125,2.227765625,3.6825859375,4.64079296875,2.78909375,-1.99130859375,3.8708046875,4.74505078125,5.42891015625,5.17959375,1.71539453125,6.4779921875,6.8375,5.35854296875,-1.660734375,5.6244453125,7.49892578125,5.44609375,3.37165234375,4.89793359375,3.6416875,4.44209375,7.1041640625
5.63046875,6.94416015625,7.67365625,-0.270734375,1.01422265625,3.607015625,5.444765625,4.432203125,1.011765625,2.6585859375,4.26279296875,3.56509375,-0.75230859375,2.3538046875,3.53005078125,5.76091015625,5.65659375,0.59839453125,4.9069921875,6.1605,4.78954296875,-2.059734375,3.9904453125,5.96692578125,3.86109375,2.43565234375,2.55893359375,1.5786875,2.22209375,4.3311640625
4.19346875,6.11416015625,7.44065625,-0.331734375,0.43022265625,2.583015625,5.147765625,5.384203125,-0.378234375,1.7885859375,3.98479296875,4.33109375,0.15069140625,0.6038046875,2.25805078125,6.08991015625,6.11959375,-0.95360546875,2.7379921875,5.1865,4.29854296875,-2.553734375,1.6204453125,3.97592578125,2.29309375,1.59265234375,-0.12806640625,-0.581312499999999,-0.27390625,1.4871640625
4.53746875,6.32016015625,8.27265625,0.372265625,0.61322265625,2.130015625,5.192765625,6.326203125,-1.262234375,1.3245859375,3.95779296875,5.02209375,0.61669140625,-0.9671953125,1.28305078125,6.35891015625,6.47459375,-2.64860546875,0.3039921875,4.0775,3.84754296875,-3.248734375,-1.1995546875,1.67292578125,0.685093749999999,0.80665234375,-3.00906640625,-2.8103125,-2.95390625,-1.2778359375
6.90346875,7.87716015625,10.31765625,1.946265625,1.60322265625,2.464015625,5.633765625,7.214203125,-1.199234375,1.3445859375,4.16879296875,5.53909375,0.67069140625,-2.0421953125,0.81505078125,6.39391015625,6.56459375,-4.15760546875,-1.9730078125,2.9445,3.22954296875,-4.200734375,-4.0395546875,-0.71007421875,-1.09190625,-0.0963476562499999,-5.90306640625,-5.1303125,-5.72590625,-3.9368359375
10.65346875,10.49316015625,13.12865625,4.123265625,3.11922265625,3.481015625,6.333765625,7.934203125,-0.136234375,1.7635859375,4.46279296875,5.77609375,0.40369140625,-2.4671953125,0.85405078125,5.96991015625,6.18759375,-5.18660546875,-3.6890078125,1.8175,2.14554296875,-5.343734375,-6.4285546875,-2.91107421875,-3.14990625,-1.32934765625,-8.61606640625,-7.5153125,-8.47990625,-6.5368359375
14.63746875,13.42116015625,15.88865625,6.383265625,4.70222265625,4.810015625,7.050765625,8.327203125,1.592765625,2.3975859375,4.61679296875,5.64009375,-0.0673085937500002,-2.2641953125,1.20105078125,4.90191015625,5.16259375,-5.54960546875,-4.5830078125,0.6485,0.35754296875,-6.476734375,-7.9985546875,-4.71707421875,-5.51990625,-3.01734765625,-10.96406640625,-9.8383125,-11.06990625,-9.1278359375
17.68946875,15.75316015625,17.73365625,8.142265625,5.90422265625,5.953015625,7.528765625,8.236203125,3.418765625,3.0255859375,4.42579296875,5.06809375,-0.61030859375,-1.6021953125,1.53805078125,3.13191015625,3.45159375,-5.21960546875,-4.6310078125,-0.6425,-2.16145703125,-7.325734375,-8.5975546875,-6.02207421875,-8.09890625,-5.09634765625,-12.80506640625,-11.8673125,-13.32390625,-11.6678359375
18.96646875,16.69216015625,18.00765625,8.923265625,6.41422265625,6.448015625,7.533765625,7.545203125,4.756765625,3.4415859375,3.77279296875,4.02409375,-1.06930859375,-0.7401953125,1.55505078125,0.76491015625,1.24159375,-4.33560546875,-4.0350078125,-2.0965,-5.13545703125,-7.653734375,-8.3125546875,-6.83207421875,-10.63690625,-7.26834765625,-14.03006640625,-13.3203125,-15.03190625,-13.9678359375
18.06246875,15.73916015625,16.37865625,8.473265625,6.08722265625,5.993015625,6.864765625,6.204203125,5.204765625,3.4665859375,2.62779296875,2.50809375,-1.27030859375,0.0408046874999999,1.04705078125,-1.94008984375,-1.06740625,-3.16060546875,-3.1460078125,-3.6525,-8.03845703125,-7.359734375,-7.4045546875,-7.22007421875,-12.76390625,-9.06434765625,-14.55406640625,-13.9323125,-15.95990625,-15.6718359375
14.99046875,12.79516015625,12.86565625,6.823265625,4.91522265625,4.500015625,5.365765625,4.255203125,4.646765625,2.9885859375,1.02879296875,0.58709375,-1.06230859375,0.5038046875,-0.0219492187500001,-4.63208984375,-3.01240625,-2.00060546875,-2.3170078125,-5.1315,-10.25245703125,-6.509734375,-6.1935546875,-7.25607421875,-14.06190625,-9.99134765625,-14.29806640625,-13.5133125,-15.87990625,-16.3228359375
10.16246875,8.24316015625,7.87165625,4.291265625,3.00622265625,2.128015625,3.002765625,1.860203125,3.262765625,2.0035859375,-0.90520703125,-1.56490625,-0.39730859375,0.5378046875,-1.49894921875,-6.92808984375,-4.25440625,-1.08960546875,-1.7720078125,-6.2635,-11.27345703125,-5.287734375,-4.9305546875,-6.94807421875,-14.17090625,-9.71034765625,-13.20706640625,-11.9883125,-14.63290625,-15.4918359375
4.37346875,2.93416015625,2.17565625,1.424265625,0.60522265625,-0.716984375,-0.0322343749999998,-0.679796875,1.446765625,0.6595859375,-2.94120703125,-3.63890625,0.60869140625,0.2058046875,-3.05494921875,-8.46308984375,-4.69740625,-0.51160546875,-1.5170078125,-6.7465,-10.84245703125,-3.910734375,-3.7265546875,-6.21507421875,-12.87290625,-8.14134765625,-11.26706640625,-9.4083125,-12.17890625,-12.9458359375
-1.31853125,-2.00583984375,-3.19734375,-1.130734375,-1.90577734375,-3.445984375,-3.270234375,-2.959796875,-0.323234375,-0.7524140625,-4.71720703125,-5.24190625,1.70169140625,-0.2651953125,-4.25894921875,-8.95508984375,-4.47140625,-0.17860546875,-1.3580078125,-6.3395,-8.99445703125,-2.558734375,-2.5545546875,-4.92407421875,-10.16890625,-5.47734765625,-8.54106640625,-5.9733125,-8.63990625,-8.7808359375
-5.82753125,-5.53283984375,-7.23334375,-2.813734375,-4.04777734375,-5.449984375,-6.046234375,-4.556796875,-1.636234375,-1.8734140625,-5.82020703125,-6.01190625,2.58369140625,-0.5741953125,-4.71194921875,-8.27408984375,-3.81340625,0.0993945312499998,-1.0260078125,-4.9395,-6.02245703125,-1.344734375,-1.3145546875,-2.98107421875,-6.30390625,-2.12034765625,-5.19706640625,-2.0333125,-4.32190625,-3.4758359375
-8.32653125,-7.01683984375,-9.20834375,-3.330734375,-5.36277734375,-6.290984375,-7.695234375,-5.148796875,-2.258234375,-2.3834140625,-5.92720703125,-5.74090625,3.01969140625,-0.4781953125,-4.19094921875,-6.50508984375,-2.93140625,0.49939453125,-0.318007812499999,-2.6405,-2.39745703125,-0.323734375,0.0734453124999992,-0.42107421875,-1.74690625,1.43965234375,-1.51406640625,1.9526875,0.304093750000001,2.2081640625
-8.42653125,-6.37183984375,-8.84834375,-2.739734375,-5.53877734375,-5.814984375,-7.768234375,-4.603796875,-2.177234375,-2.1024140625,-4.91720703125,-4.43890625,2.89269140625,0.1098046875,-2.71494921875,-3.92708984375,-1.92940625,1.10539453125,0.8299921875,0.2925,1.34154296875,0.494265625,1.6324453125,2.56192578125,2.90909375,4.73365234375,2.16393359375,5.5246875,4.70209375,7.4421640625
-6.25353125,-3.97083984375,-6.34934375,-1.395734375,-4.51777734375,-4.164984375,-6.200234375,-3.027796875,-1.582234375,-1.0554140625,-2.91320703125,-2.32990625,2.20469140625,1.1098046875,-0.52294921875,-0.93008984375,-0.81540625,1.88339453125,2.3529921875,3.4925,4.70454296875,1.146265625,3.3204453125,5.66892578125,7.08209375,7.40765234375,5.50193359375,8.3456875,8.39409375,11.5751640625
-2.45553125,-0.534839843749999,-2.37134375,0.160265625,-2.55877734375,-1.746984375,-3.368234375,-0.766796875,-0.803234375,0.5205859375,-0.26820703125,0.19109375,1.06369140625,2.3098046875,2.00905078125,2.06891015625,0.40359375,2.72039453125,4.0929921875,6.5665,7.32654296875,1.701265625,5.0254453125,8.56392578125,10.30709375,9.25165234375,8.22793359375,10.2816875,11.07709375,14.2861640625
1.79846875,2.93316015625,1.95865625,1.326265625,-0.23777734375,0.813015625,-0.042234375,1.633203125,-0.231234375,2.1995859375,2.47879296875,2.62809375,-0.33230859375,3.4278046875,4.44005078125,4.66891015625,1.62859375,3.45739453125,5.8169921875,9.1295,8.98854296875,2.215265625,6.5554453125,10.91792578125,12.28809375,10.18965234375,10.15293359375,11.3906875,12.65809375,15.5961640625
4.94146875,5.23616015625,5.17065625,1.551265625,1.62722265625,2.763015625,2.796765625,3.533203125,-0.232234375,3.4515859375,4.70079296875,4.48309375,-1.73530859375,4.1538046875,6.31305078125,6.50991015625,2.65259375,3.91239453125,7.2009921875,10.8315,9.61354296875,2.677265625,7.6404453125,12.43392578125,12.90409375,10.25965234375,11.15893359375,11.8366875,13.21909375,15.7561640625
5.42946875,5.29216015625,5.85465625,0.486265625,2.19822265625,3.415015625,4.250765625,4.379203125,-1.040234375,3.7805859375,5.84779296875,5.39109375,-2.91530859375,4.1918046875,7.22605078125,7.32791015625,3.23859375,3.89739453125,7.8649921875,11.3885,9.25654296875,2.961265625,7.9844453125,12.86592578125,12.21609375,9.59665234375,11.17893359375,11.7796875,12.95309375,15.1111640625
2.41446875,2.60916015625,3.28065625,-1.846734375,0.95122265625,2.389015625,3.827765625,3.907203125,-2.649234375,2.8985859375,5.61679296875,5.23409375,-3.72130859375,3.3408046875,6.91505078125,7.02391015625,3.24859375,3.24339453125,7.4669921875,10.6565,8.08754296875,2.867265625,7.3454453125,12.05992578125,10.45709375,8.40165234375,10.19693359375,11.2976875,12.05909375,13.9671640625
-3.65453125,-2.33083984375,-2.09334375,-4.962734375,-2.02277734375,-0.184984375,1.659765625,2.270203125,-4.777234375,0.8655859375,4.06979296875,4.17709375,-4.12130859375,1.5768046875,5.34305078125,5.72591015625,2.71559375,1.85639453125,5.8389921875,8.6975,6.36354296875,2.198265625,5.6184453125,10.00692578125,7.98209375,6.90565234375,8.25593359375,10.3546875,10.67209375,12.5151640625
-10.97753125,-8.07983984375,-8.60634375,-8.021734375,-5.94877734375,-3.646984375,-1.520234375,0.0162031249999997,-6.925234375,-1.8924140625,1.61379296875,2.60509375,-4.18630859375,-0.8761953125,2.75505078125,3.77291015625,1.83759375,-0.21360546875,3.0989921875,5.8075,4.37054296875,0.873265625,2.8884453125,6.88892578125,5.19109375,5.31065234375,5.48393359375,8.8466875,8.82509375,10.8051640625
-17.12553125,-12.78283984375,-14.06234375,-10.130734375,-9.65577734375,-7.013984375,-4.661234375,-2.120796875,-8.557234375,-4.7314140625,-1.13420703125,0.97509375,-4.02530859375,-3.5841953125,-0.37194921875,1.62291015625,0.87959375,-2.73760546875,-0.3510078125,2.4565,2.37154296875,-1.009734375,-0.564554687500001,3.07292578125,2.42909375,3.74565234375,2.09993359375,6.6866875,6.48609375,8.7751640625
-20.25553125,-15.07783984375,-16.79934375,-10.733734375,-12.11077734375,-9.401984375,-6.854234375,-3.529796875,-9.328234375,-7.0604140625,-3.59720703125,-0.35190625,-3.70930859375,-6.0571953125,-3.48294921875,-0.31808984375,0.05859375,-5.34660546875,-3.9610078125,-0.8575,0.54154296875,-3.187734375,-4.3255546875,-0.97707421875,-0.101906250000001,2.23765234375,-1.61106640625,3.8946875,3.63609375,6.3321640625
-20.07153125,-14.82883984375,-16.55334375,-9.865734375,-12.92477734375,-10.430984375,-7.736234375,-3.981796875,-9.263234375,-8.6054140625,-5.48220703125,-1.24390625,-3.27330859375,-7.9651953125,-6.17194921875,-1.85708984375,-0.55840625,-7.65360546875,-7.2570078125,-3.7965,-1.07245703125,-5.327734375,-7.9715546875,-4.84107421875,-2.38790625,0.72165234375,-5.36906640625,0.629687500000001,0.33509375,3.4331640625
-17.86353125,-13.15383984375,-14.52134375,-8.111734375,-12.48777734375,-10.378984375,-7.610234375,-3.704796875,-8.734234375,-9.4974140625,-6.86520703125,-1.82590625,-2.78130859375,-9.2621953125,-8.32294921875,-3.08808984375,-1.06940625,-9.36760546875,-10.0090078125,-6.2915,-2.55445703125,-7.130734375,-11.1775546875,-8.24607421875,-4.56490625,-0.89834765625,-8.94706640625,-2.8153125,-3.22990625,0.1501640625
-15.57053125,-11.67583984375,-12.52934375,-6.298734375,-11.65377734375,-9.953984375,-7.183234375,-3.205796875,-8.248234375,-10.1274140625,-8.07220703125,-2.37490625,-2.40130859375,-10.1401953125,-10.08894921875,-4.31208984375,-1.66440625,-10.34660546875,-12.2250078125,-8.4975,-4.05445703125,-8.380734375,-13.7325546875,-11.07407421875,-6.79490625,-2.65234765625,-12.15906640625,-6.0403125,-6.73090625,-3.2998359375
-14.55053125,-11.51683984375,-11.91234375,-5.085734375,-11.19477734375,-9.854984375,-7.119234375,-2.990796875,-8.152234375,-10.8654140625,-9.42520703125,-3.16390625,-2.35930859375,-10.8441953125,-11.71994921875,-5.85708984375,-2.50440625,-10.56160546875,-14.0150078125,-10.6285,-5.68945703125,-8.943734375,-15.4945546875,-13.29207421875,-9.13790625,-4.43734765625,-14.81206640625,-8.6003125,-9.73590625,-6.5698359375
-14.94653125,-12.75983984375,-12.88534375,-4.713734375,-11.41277734375,-10.438984375,-7.714234375,-3.354796875,-8.473234375,-11.8344140625,-11.05820703125,-4.35290625,-2.79430859375,-11.5031953125,-13.37694921875,-7.90608984375,-3.64440625,-10.05560546875,-15.4170078125,-12.7795,-7.47145703125,-8.743734375,-16.3345546875,-14.86307421875,-11.49090625,-6.03334765625,-16.67806640625,-10.0893125,-11.82090625,-9.2548359375
-15.97953125,-14.65783984375,-14.74434375,-5.014734375,-12.12777734375,-11.633984375,-8.851234375,-4.336796875,-8.964234375,-12.8814140625,-12.86720703125,-5.95290625,-3.59230859375,-12.0831953125,-15.02694921875,-10.41108984375,-5.02240625,-8.93260546875,-16.3190078125,-14.8365,-9.29945703125,-7.770734375,-16.1555546875,-15.70407421875,-13.61690625,-7.20034765625,-17.53206640625,-10.2553125,-12.71790625,-11.0058359375
-16.80253125,-16.33283984375,-16.61234375,-5.642734375,-12.96177734375,-13.099984375,-10.212234375,-5.799796875,-9.297234375,-13.7134140625,-14.58920703125,-7.83390625,-4.36730859375,-12.4461953125,-16.44694921875,-13.10108984375,-6.49540625,-7.37060546875,-16.4910078125,-16.5025,-10.99945703125,-6.120734375,-14.9415546875,-15.70307421875,-15.21890625,-7.78234765625,-17.23706640625,-9.0843125,-12.40490625,-11.6338359375
-17.21553125,-17.38683984375,-18.10034375,-6.322734375,-13.65877734375,-14.451984375,-11.519234375,-7.519796875,-9.261234375,-14.0984140625,-15.92020703125,-9.74390625,-4.63330859375,-12.4401953125,-17.32394921875,-15.55408984375,-7.89140625,-5.59960546875,-15.7190078125,-17.4095,-12.37545703125,-4.015734375,-12.8125546875,-14.78007421875,-16.01690625,-7.76634765625,-15.80806640625,-6.8133125,-11.10090625,-11.1698359375
-17.74253125,-18.05583984375,-19.45434375,-6.976734375,-14.20377734375,-15.436984375,-12.652234375,-9.250796875,-8.863234375,-13.9844140625,-16.62420703125,-11.33290625,-4.09030859375,-11.9751953125,-17.38794921875,-17.32308984375,-9.04740625,-3.85360546875,-13.9490078125,-17.2705,-13.23745703125,-1.775734375,-10.0335546875,-12.96007421875,-15.81390625,-7.26434765625,-13.43806640625,-3.8563125,-9.15190625,-9.8438359375
-19.05853125,-18.84583984375,-21.14234375,-7.678734375,-14.71077734375,-15.967984375,-13.585234375,-10.741796875,-8.285234375,-13.4744140625,-16.59220703125,-12.23290625,-2.84030859375,-11.0291953125,-16.53094921875,-18.04808984375,-9.83440625,-2.30460546875,-11.3650078125,-16.0045,-13.42345703125,0.263265625,-6.9655546875,-10.41307421875,-14.56190625,-6.45034765625,-10.45106640625,-0.697312499999999,-6.91390625,-7.9918359375
-21.26853125,-19.97783984375,-23.25134375,-8.481734375,-15.20177734375,-16.040984375,-14.240234375,-11.751796875,-7.753234375,-12.7064140625,-15.84420703125,-12.16190625,-1.39430859375,-9.6341953125,-14.84494921875,-17.53908984375,-10.15540625,-1.02860546875,-8.3510078125,-13.7725,-12.80745703125,1.835265625,-3.9785546875,-7.43407421875,-12.37590625,-5.47034765625,-7.22206640625,2.2356875,-4.65990625,-5.9398359375
-23.61153125,-21.10383984375,-25.21334375,-9.280734375,-15.48377734375,-15.632984375,-14.412234375,-12.075796875,-7.390234375,-11.7424140625,-14.49420703125,-11.03690625,-0.46430859375,-7.8551953125,-12.58294921875,-15.79108984375,-9.94240625,-0.0136054687500002,-5.3550078125,-10.9165,-11.31145703125,2.802265625,-1.3675546875,-4.37107421875,-9.50790625,-4.37734765625,-4.09206640625,4.6356875,-2.56090625,-3.9108359375
-24.87053125,-21.50783984375,-26.08634375,-9.803734375,-15.24477734375,-14.698984375,-13.848234375,-11.616796875,-7.167234375,-10.5634140625,-12.72520703125,-9.03990625,-0.62230859375,-5.8141953125,-10.08494921875,-12.99608984375,-9.15740625,0.78339453125,-2.7570078125,-7.8575,-8.96045703125,3.154265625,0.6854453125,-1.54907421875,-6.28790625,-3.12334765625,-1.32606640625,6.3356875,-0.70790625,-1.9888359375
-24.14053125,-20.63083984375,-25.17034375,-9.765734375,-14.28677734375,-13.274984375,-12.457234375,-10.450796875,-6.972234375,-9.1794140625,-10.78820703125,-6.58690625,-2.02130859375,-3.7301953125,-7.71594921875,-9.53408984375,-7.82340625,1.38239453125,-0.8030078125,-5.0035,-5.94045703125,2.974265625,2.0934453125,0.75892578125,-3.08190625,-1.62134765625,0.881933593749999,7.2916875,0.84509375,-0.1708359375
-21.41153125,-18.49083984375,-22.49134375,-9.060734375,-12.72177734375,-11.581984375,-10.459234375,-8.848796875,-6.733234375,-7.7444140625,-8.99820703125,-4.21490625,-4.30930859375,-1.9391953125,-5.82394921875,-5.93308984375,-6.08340625,1.74039453125,0.3769921875,-2.6865,-2.62845703125,2.395265625,2.8234453125,2.34592578125,-0.25690625,0.14465234375,2.39993359375,7.5616875,2.05409375,1.5561640625
-17.56153125,-15.70983984375,-18.82534375,-7.879734375,-10.98177734375,-10.011984375,-8.376234375,-7.209796875,-6.492234375,-6.5704140625,-7.67020703125,-2.40590625,-6.78630859375,-0.8291953125,-4.68894921875,-2.77508984375,-4.22040625,1.77339453125,0.721992187500001,-1.1235,0.46554296875,1.581265625,2.8714453125,3.07592578125,1.87009375,2.04965234375,3.15393359375,7.2926875,2.88209375,3.1521640625
-13.86253125,-13.17983984375,-15.30534375,-6.636734375,-9.62077734375,-8.988984375,-6.811234375,-5.921796875,-6.392234375,-6.0124140625,-7.02520703125,-1.43990625,-8.69230859375,-0.7051953125,-4.45694921875,-0.54608984375,-2.61740625,1.39639453125,0.2239921875,-0.4075,2.83254296875,0.711265624999999,2.2634453125,2.91192578125,3.08509375,3.83265234375,3.15193359375,6.7026875,3.31409375,4.5211640625
-11.34453125,-11.60683984375,-12.86734375,-5.755734375,-9.03377734375,-8.769984375,-6.170234375,-5.233796875,-6.575234375,-6.2734140625,-7.09320703125,-1.32690625,-9.48630859375,-1.6461953125,-5.07894921875,0.50391015625,-1.64640625,0.57639453125,-1.0430078125,-0.4965,4.12054296875,-0.0477343750000001,1.0834453125,1.94092578125,3.33609375,5.17865234375,2.50493359375,6.0406875,3.36609375,5.5531640625
-10.37753125,-11.19083984375,-11.85834375,-5.439734375,-9.24477734375,-9.298984375,-6.456234375,-5.177796875,-7.068234375,-7.2554140625,-7.68320703125,-1.83790625,-9.01130859375,-3.4221953125,-6.27394921875,0.43391015625,-1.52440625,-0.63060546875,-2.8710078125,-1.2185,4.25654296875,-0.561734375,-0.4905546875,0.41292578125,2.75209375,5.85165234375,1.43393359375,5.5196875,3.10809375,6.1911640625
-10.59553125,-11.55783984375,-11.94134375,-5.557734375,-9.88777734375,-10.178984375,-7.262234375,-5.585796875,-7.712234375,-8.5374140625,-8.41720703125,-2.61590625,-7.47930859375,-5.5161953125,-7.57394921875,-0.40808984375,-2.23340625,-2.04760546875,-4.8720078125,-2.2775,3.46454296875,-0.753734375,-2.1525546875,-1.27007421875,1.63109375,5.80465234375,0.25793359375,5.2736875,2.67309375,6.4641640625
-11.12953125,-11.95783984375,-12.32634375,-5.719734375,-10.37377734375,-10.823984375,-7.971234375,-6.171796875,-8.178234375,-9.5244140625,-8.87120703125,-3.32090625,-5.33430859375,-7.2681953125,-8.44994921875,-1.51608984375,-3.53140625,-3.37460546875,-6.5290078125,-3.3015,2.17854296875,-0.594734375,-3.4985546875,-2.62207421875,0.37509375,5.19665234375,-0.66306640625,5.3516875,2.25809375,6.4931640625
-11.03553125,-11.66483984375,-12.19934375,-5.487734375,-10.16477734375,-10.728984375,-8.069234375,-6.661796875,-8.097234375,-9.6844140625,-8.75820703125,-3.75890625,-3.06030859375,-8.0911953125,-8.50294921875,-2.43308984375,-5.07640625,-4.23560546875,-7.3440078125,-3.9425,0.85954296875,-0.092734375,-4.1295546875,-3.21307421875,-0.61890625,4.30665234375,-1.02606640625,5.7466875,2.07309375,6.4401640625
-9.76853125,-10.36983984375,-11.15934375,-4.623734375,-9.02177734375,-9.724984375,-7.407234375,-6.901796875,-7.231234375,-8.7764140625,-8.06620703125,-3.94090625,-1.03530859375,-7.6761953125,-7.61394921875,-2.91508984375,-6.56040625,-4.29360546875,-7.0230078125,-3.9865,-0.17145703125,0.704265625,-3.7875546875,-2.81307421875,-1.06190625,3.40965234375,-0.682066406250001,6.4376875,2.28009375,6.4531640625
-7.46953125,-8.36383984375,-9.42834375,-3.221734375,-7.09677734375,-8.048984375,-6.261234375,-6.898796875,-5.597234375,-6.9324140625,-7.02820703125,-4.02890625,0.50169140625,-6.0851953125,-5.97694921875,-2.98208984375,-7.79540625,-3.37860546875,-5.5870078125,-3.4095,-0.80245703125,1.708265625,-2.4535546875,-1.46007421875,-0.83190625,2.68365234375,0.33293359375,7.4166875,2.94209375,6.6251640625
-4.88353125,-6.34883984375,-7.67934375,-1.644734375,-4.83077734375,-6.188984375,-5.158234375,-6.771796875,-3.461234375,-4.5654140625,-5.95720703125,-4.20890625,1.44969140625,-3.6811953125,-3.97594921875,-2.80408984375,-8.69840625,-1.56260546875,-3.3430078125,-2.3455,-1.06545703125,2.798265625,-0.333554687500001,0.58692578125,0.0420937499999994,2.21265234375,1.84493359375,8.6916875,4.01209375,6.9971640625
-2.89753125,-5.00483984375,-6.58834375,-0.315734375,-2.72277734375,-4.608984375,-4.560234375,-6.635796875,-1.223234375,-2.1704140625,-5.06320703125,-4.58090625,1.84569140625,-0.9711953125,-2.02394921875,-2.55708984375,-9.25740625,0.84939453125,-0.763007812499999,-1.0115,-1.04245703125,3.843265625,2.2064453125,2.94392578125,1.39909375,2.02065234375,3.61293359375,10.2446875,5.35009375,7.5581640625
-2.04453125,-4.61683984375,-6.44034375,0.493265625,-1.13577734375,-3.567984375,-4.621234375,-6.543796875,0.723765625,-0.1634140625,-4.39220703125,-5.12390625,1.85669140625,1.5438046875,-0.44794921875,-2.34808984375,-9.50640625,3.39439453125,1.6549921875,0.3355,-0.81445703125,4.732265625,4.7314453125,5.19392578125,2.94109375,2.09265234375,5.37093359375,11.9546875,6.73209375,8.2271640625
-2.34653125,-5.03483984375,-7.08334375,0.716265625,-0.25077734375,-3.102984375,-5.170234375,-6.514796875,2.059765625,1.1775859375,-3.92120703125,-5.75090625,1.70369140625,3.4538046875,0.52705078125,-2.25708984375,-9.54440625,5.55839453125,3.4819921875,1.4035,-0.48745703125,5.360265625,6.8004453125,6.93792578125,4.23409375,2.35365234375,6.83393359375,13.5426875,7.87509375,8.8311640625
-3.58053125,-5.97683984375,-8.22834375,0.398265625,-0.14277734375,-3.150984375,-5.893234375,-6.631796875,2.547765625,1.6865859375,-3.67720703125,-6.38090625,1.52069140625,4.4888046875,0.74705078125,-2.42008984375,-9.53440625,6.90439453125,4.4229921875,1.8755,-0.23745703125,5.616265625,8.0304453125,7.83292578125,4.78909375,2.64465234375,7.69693359375,14.5916875,8.47609375,9.1181640625
-5.62753125,-7.34183984375,-9.79234375,-0.429734375,-0.86077734375,-3.686984375,-6.580234375,-7.071796875,2.054765625,1.2845859375,-3.80220703125,-7.00090625,1.27469140625,4.5548046875,0.12405078125,-3.05708984375,-9.65540625,7.18439453125,4.3519921875,1.4805,-0.31545703125,5.387265625,8.1784453125,7.65192578125,4.20109375,2.73365234375,7.68293359375,14.6666875,8.29309375,8.8391640625
-8.52953125,-9.26683984375,-11.94234375,-1.751734375,-2.39477734375,-4.750984375,-7.244234375,-8.029796875,0.634765625,0.00758593749999986,-4.47820703125,-7.67590625,0.83369140625,3.7628046875,-1.31294921875,-4.38008984375,-10.02740625,6.41539453125,3.3319921875,0.0994999999999999,-0.97545703125,4.597265625,7.2254453125,6.35692578125,2.33009375,2.38465234375,6.63993359375,13.4946875,7.23509375,7.8531640625
-12.19353125,-11.84883984375,-14.79434375,-3.439734375,-4.57077734375,-6.329984375,-8.056234375,-9.547796875,-1.394234375,-1.9294140625,-5.77920703125,-8.49390625,0.13969140625,2.4228046875,-3.35394921875,-6.43508984375,-10.63940625,4.90139453125,1.6269921875,-2.1135,-2.34845703125,3.283265625,5.4274453125,4.15892578125,-0.58690625,1.46065234375,4.64893359375,11.1256875,5.43409375,6.2141640625
-16.06353125,-14.80783984375,-18.05934375,-5.137734375,-6.97977734375,-8.208984375,-9.143234375,-11.385796875,-3.463234375,-4.1234140625,-7.53820703125,-9.47890625,-0.66730859375,0.9608046875,-5.57294921875,-8.95708984375,-11.32840625,3.15239453125,-0.3280078125,-4.6965,-4.32545703125,1.636265625,3.2864453125,1.52192578125,-3.93390625,0.0246523437499997,2.08393359375,7.9916875,3.26409375,4.1951640625
-19.13453125,-17.41483984375,-20.95834375,-6.314734375,-9.04677734375,-9.925984375,-10.412234375,-13.041796875,-4.933234375,-6.0434140625,-9.34020703125,-10.50790625,-1.28130859375,-0.2071953125,-7.41094921875,-11.38008984375,-11.84640625,1.71839453125,-2.0160078125,-6.9855,-6.51545703125,-0.00573437500000029,1.4114453125,-0.93407421875,-6.87790625,-1.63434765625,-0.44906640625,4.8066875,1.26609375,2.2351640625
-20.37053125,-18.78983984375,-22.54334375,-6.485734375,-10.23177734375,-10.916984375,-11.521234375,-13.945796875,-5.352234375,-7.1914140625,-10.65520703125,-11.31690625,-1.39830859375,-0.8031953125,-8.34394921875,-13.01308984375,-11.97440625,0.98539453125,-2.9970078125,-8.3245,-8.35545703125,-1.271734375,0.3154453125,-2.60907421875,-8.64990625,-3.08634765625,-2.29506640625,2.3216875,-0.0319062499999996,0.806164062500001
-19.23753125,-18.35183984375,-22.16934375,-5.476734375,-10.24477734375,-10.746984375,-12.008234375,-13.715796875,-4.639234375,-7.2614140625,-11.04720703125,-11.59190625,-0.93430859375,-0.7441953125,-8.07894921875,-13.32108984375,-11.62240625,1.04339453125,-3.0500078125,-8.3145,-9.31945703125,-1.907734375,0.226445312499999,-3.12507421875,-8.82590625,-3.93534765625,-2.99106640625,1.0416875,-0.32290625,0.2461640625
-15.96253125,-16.09483984375,-19.80234375,-3.537734375,-9.11977734375,-9.292984375,-11.500234375,-12.334796875,-3.077234375,-6.2354140625,-10.32020703125,-11.08590625,-0.13630859375,-0.1091953125,-6.65194921875,-12.13308984375,-10.85140625,1.69539453125,-2.2280078125,-6.9395,-9.12645703125,-1.898734375,1.0204453125,-2.43707421875,-7.46190625,-3.98134765625,-2.43706640625,1.0516875,0.344093750000001,0.6381640625
-11.39253125,-12.55183984375,-15.98634375,-1.237734375,-7.14877734375,-6.757984375,-9.884234375,-10.139796875,-1.139234375,-4.3694140625,-8.54820703125,-9.71790625,0.52569140625,0.9438046875,-4.38794921875,-9.68208984375,-9.82440625,2.59439453125,-0.7910078125,-4.5405,-7.83245703125,-1.459734375,2.3044453125,-0.80807421875,-5.01690625,-3.28634765625,-0.922066406250001,2.0336875,1.60809375,1.7961640625
-6.61553125,-8.55083984375,-11.57934375,0.797265625,-4.72077734375,-3.587984375,-7.370234375,-7.662796875,0.725765625,-2.0794140625,-6.00920703125,-7.59290625,0.64069140625,2.2338046875,-1.76094921875,-6.47108984375,-8.72640625,3.41339453125,0.9179921875,-1.6565,-5.77045703125,-0.916734375,3.5934453125,1.31992578125,-2.12490625,-2.11434765625,1.02493359375,3.4436875,2.97009375,3.3701640625
-2.61053125,-4.92283984375,-7.45834375,2.130265625,-2.21477734375,-0.322984375,-4.426234375,-5.423796875,2.223765625,0.2035859375,-3.08520703125,-4.97990625,0.12169140625,3.5798046875,0.77705078125,-3.06708984375,-7.69540625,3.96039453125,2.5899921875,1.1695,-3.39445703125,-0.546734375,4.4844453125,3.47592578125,0.635093749999999,-0.80434765625,2.84193359375,4.7416875,4.01409375,4.9831640625
-0.0785312500000002,-2.29783984375,-4.31934375,2.635265625,0.03422265625,2.523015625,-1.632234375,-3.776796875,3.218765625,2.1345859375,-0.18220703125,-2.26890625,-0.72830859375,4.7868046875,2.89205078125,0.0669101562499999,-6.79640625,4.17839453125,3.9839921875,3.5255,-1.12545703125,-0.472734375,4.7764453125,5.26592578125,2.87809375,0.36465234375,4.12093359375,5.5606875,4.54009375,6.3351640625
0.60046875,-1.01183984375,-2.58534375,2.448265625,1.71122265625,4.547015625,0.478765625,-2.853796875,3.662765625,3.4795859375,2.30179296875,0.0960937500000004,-1.42230859375,5.6308046875,4.37305078125,2.61591015625,-6.02240625,4.07639453125,4.9129921875,5.1635,0.72054296875,-0.681734375,4.4574453125,6.40592578125,4.41209375,1.22565234375,4.66593359375,5.7346875,4.55309375,7.2161640625
-0.56453125,-1.08183984375,-2.35534375,1.835265625,2.52822265625,5.501015625,1.562765625,-2.587796875,3.536765625,4.0965859375,4.00079296875,1.69209375,-1.59530859375,5.8688046875,5.08205078125,4.37591015625,-5.33740625,3.64239453125,5.1969921875,5.9715,1.93154296875,-1.104734375,3.6114453125,6.69592578125,5.15109375,1.71265234375,4.44493359375,5.2386875,4.14909375,7.4711640625
-3.09353125,-2.21483984375,-3.36134375,1.074265625,2.31822265625,5.328015625,1.559765625,-2.769796875,2.863765625,3.9175859375,4.62479296875,2.23809375,-1.23130859375,5.2998046875,4.90705078125,5.18691015625,-4.72140625,2.82439453125,4.6709921875,5.9105,2.36654296875,-1.699734375,2.3144453125,6.01192578125,5.04709375,1.80765234375,3.51093359375,4.1216875,3.40109375,6.9931640625
-6.05853125,-3.87783984375,-5.00634375,0.390265625,1.14422265625,4.186015625,0.693765625,-3.130796875,1.754765625,2.9725859375,4.05279296875,1.69309375,-0.68130859375,3.8598046875,3.79205078125,4.94391015625,-4.19740625,1.58739453125,3.2479921875,5.0005,1.97054296875,-2.470734375,0.607445312499999,4.35692578125,4.08709375,1.52665234375,1.96793359375,2.4906875,2.33109375,5.7591640625
-8.36553125,-5.45883984375,-6.55434375,-0.0767343749999999,-0.66777734375,2.418015625,-0.634234375,-3.455796875,0.416765625,1.4035859375,2.40779296875,0.28909375,-0.47330859375,1.6848046875,1.80105078125,3.64591015625,-3.82640625,-0.01560546875,1.0069921875,3.3365,0.80654296875,-3.419734375,-1.4565546875,1.91392578125,2.36509375,0.93065234375,-0.00906640625000055,0.543687500000001,0.96809375,3.9001640625
-9.21553125,-6.51683984375,-7.43834375,-0.285734375,-2.63977734375,0.450015625,-2.035234375,-3.665796875,-0.921234375,-0.5504140625,0.0297929687500002,-1.57290625,-1.01830859375,-0.9241953125,-0.83994921875,1.44791015625,-3.67640625,-1.83460546875,-1.7960078125,1.1045,-0.91745703125,-4.496734375,-3.7635546875,-0.95307421875,0.12309375,0.13865234375,-2.16506640625,-1.4223125,-0.57690625,1.7181640625
-8.49053125,-6.95683984375,-7.50634375,-0.303734375,-4.33277734375,-1.357984375,-3.285234375,-3.843796875,-2.112234375,-2.6254140625,-2.63420703125,-3.47890625,-2.36230859375,-3.6171953125,-3.79094921875,-1.35708984375,-3.77540625,-3.68760546875,-4.8080078125,-1.4475,-2.89845703125,-5.595734375,-6.1445546875,-3.81507421875,-2.30290625,-0.69134765625,-4.22506640625,-3.0863125,-2.10890625,-0.387835937499999
-6.78953125,-7.00483984375,-7.01534375,-0.285734375,-5.50677734375,-2.798984375,-4.363234375,-4.149796875,-3.137234375,-4.5914140625,-5.17620703125,-5.13990625,-4.11730859375,-6.1291953125,-6.69994921875,-4.40708984375,-4.07840625,-5.44360546875,-7.7140078125,-4.0845,-4.81845703125,-6.598734375,-8.4245546875,-6.33207421875,-4.59590625,-1.42434765625,-5.99406640625,-4.2323125,-3.42690625,-2.0608359375
-5.06953125,-6.97083984375,-6.38734375,-0.410734375,-6.15777734375,-3.817984375,-5.350234375,-4.687796875,-4.057234375,-6.2954140625,-7.31820703125,-6.43690625,-5.62630859375,-8.3261953125,-9.30494921875,-7.34908984375,-4.47040625,-7.04960546875,-10.3130078125,-6.6395,-6.43845703125,-7.428734375,-10.4755546875,-8.35807421875,-6.56190625,-1.98834765625,-7.43306640625,-4.8433125,-4.42290625,-3.1298359375
-4.12753125,-7.01483984375,-5.92934375,-0.803734375,-6.44477734375,-4.470984375,-6.310234375,-5.413796875,-4.933234375,-7.6784140625,-8.95120703125,-7.38190625,-6.29230859375,-10.1791953125,-11.47594921875,-9.92408984375,-4.81540625,-8.49560546875,-12.5300078125,-9.0325,-7.65045703125,-8.060734375,-12.2175546875,-9.94507421875,-8.16590625,-2.38034765625,-8.65806640625,-5.0863125,-5.13690625,-3.6718359375
-4.24553125,-7.09983984375,-5.71734375,-1.491734375,-6.57977734375,-4.890984375,-7.236234375,-6.163796875,-5.773234375,-8.7604140625,-10.12920703125,-8.06490625,-5.87930859375,-11.6841953125,-13.21794921875,-12.01008984375,-5.03840625,-9.74160546875,-14.3560078125,-11.2375,-8.49145703125,-8.496734375,-13.5875546875,-11.25007421875,-9.49490625,-2.65134765625,-9.83506640625,-5.2103125,-5.71590625,-3.9498359375
-5.18553125,-7.13283984375,-5.70534375,-2.406734375,-6.75377734375,-5.273984375,-8.089234375,-6.771796875,-6.542234375,-9.6254140625,-11.02220703125,-8.59590625,-4.62030859375,-12.8121953125,-14.60894921875,-13.62408984375,-5.17040625,-10.66760546875,-15.7800078125,-13.2235,-9.09945703125,-8.719734375,-14.4975546875,-12.40907421875,-10.65790625,-2.87034765625,-11.05706640625,-5.4013125,-6.31190625,-4.2758359375
-6.47553125,-7.13883984375,-5.90034375,-3.419734375,-7.09877734375,-5.812984375,-8.834234375,-7.188796875,-7.177234375,-10.3634140625,-11.81220703125,-9.04690625,-3.08630859375,-13.4811953125,-15.71794921875,-14.82608984375,-5.32140625,-11.08360546875,-16.7310078125,-14.8895,-9.62845703125,-8.689734375,-14.8195546875,-13.42407421875,-11.68190625,-3.09334765625,-12.24506640625,-5.6973125,-6.97590625,-4.8448359375
-7.75453125,-7.30183984375,-6.43034375,-4.385734375,-7.66277734375,-6.607984375,-9.448234375,-7.489796875,-7.613234375,-11.0034140625,-12.57320703125,-9.39890625,-1.89730859375,-13.5671953125,-16.52594921875,-15.61708984375,-5.57040625,-10.79660546875,-17.0720078125,-16.0425,-10.13745703125,-8.362734375,-14.4145546875,-14.13107421875,-12.44690625,-3.33434765625,-13.15506640625,-5.9913125,-7.61090625,-5.6428359375
-8.95053125,-7.85083984375,-7.46634375,-5.163734375,-8.38877734375,-7.585984375,-9.889234375,-7.781796875,-7.782234375,-11.4674140625,-13.21020703125,-9.53290625,-1.44830859375,-12.9551953125,-16.89594921875,-15.87808984375,-5.87540625,-9.71160546875,-16.6350078125,-16.4395,-10.52045703125,-7.726734375,-13.2055546875,-14.25607421875,-12.71890625,-3.54934765625,-13.45306640625,-6.1153125,-8.01690625,-6.4508359375
-10.21653125,-8.89183984375,-9.05634375,-5.630734375,-9.11777734375,-8.510984375,-10.084234375,-8.077796875,-7.618234375,-11.5794140625,-13.48220703125,-9.27090625,-1.77530859375,-11.5871953125,-16.60894921875,-15.42208984375,-6.05140625,-7.89360546875,-15.3000078125,-15.8675,-10.52645703125,-6.813734375,-11.2205546875,-13.52607421875,-12.24990625,-3.62634765625,-12.84906640625,-5.9083125,-7.96590625,-6.9318359375
-11.70053125,-10.29683984375,-11.02534375,-5.702734375,-9.63377734375,-9.063984375,-9.952234375,-8.247796875,-7.068234375,-11.1494140625,-13.11020703125,-8.46290625,-2.57930859375,-9.5101953125,-15.46094921875,-14.10408984375,-5.84940625,-5.55760546875,-13.0530078125,-14.2415,-9.86645703125,-5.685734375,-8.5995546875,-11.78807421875,-10.88890625,-3.40234765625,-11.19806640625,-5.2553125,-7.27490625,-6.7718359375
-13.38453125,-11.75883984375,-13.03034375,-5.385734375,-9.77277734375,-8.991984375,-9.442234375,-8.105796875,-6.166234375,-10.0874140625,-11.90820703125,-7.07490625,-3.38030859375,-6.9241953125,-13.39094921875,-11.93008984375,-5.09840625,-3.02660546875,-10.0510078125,-11.6685,-8.37745703125,-4.421734375,-5.5775546875,-9.10507421875,-8.66790625,-2.71134765625,-8.58706640625,-4.1013125,-5.87190625,-5.8148359375
-15.12653125,-13.01083984375,-14.76734375,-4.841734375,-9.54277734375,-8.270984375,-8.602234375,-7.560796875,-5.106234375,-8.5234140625,-9.92920703125,-5.26990625,-3.74330859375,-4.2031953125,-10.59994921875,-9.12908984375,-3.82140625,-0.68960546875,-6.6690078125,-8.4885,-6.15645703125,-3.135734375,-2.4895546875,-5.81907421875,-5.84390625,-1.48234765625,-5.36906640625,-2.4993125,-3.86290625,-4.1628359375
-16.86953125,-14.05683984375,-16.19834375,-4.399734375,-9.17377734375,-7.187984375,-7.624234375,-6.746796875,-4.257234375,-6.8394140625,-7.53620703125,-3.41490625,-3.50730859375,-1.8711953125,-7.58894921875,-6.14708984375,-2.26940625,1.02639453125,-3.4920078125,-5.2515,-3.58545703125,-2.014734375,0.2144453125,-2.52507421875,-2.88190625,0.17865234375,-2.13606640625,-0.669312499999999,-1.57090625,-2.1758359375
-18.77353125,-15.20383984375,-17.58634375,-4.451734375,-9.04277734375,-6.244984375,-6.811234375,-6.002796875,-4.037234375,-5.5724140625,-5.33120703125,-1.98690625,-2.91230859375,-0.4681953125,-5.03994921875,-3.54308984375,-0.81940625,1.72339453125,-1.1820078125,-2.5865,-1.21245703125,-1.315734375,2.0394453125,0.06792578125,-0.345906250000001,1.98865234375,0.42993359375,1.0086875,0.51809375,-0.3488359375
-21.07053125,-16.80383984375,-19.25634375,-5.264734375,-9.45877734375,-5.895984375,-6.468234375,-5.707796875,-4.691234375,-5.1774140625,-3.91420703125,-1.36890625,-2.50530859375,-0.3481953125,-3.54994921875,-1.80208984375,0.19759375,1.16239453125,-0.241007812499999,-0.9915,0.47654296875,-1.281734375,2.5964453125,1.39092578125,1.30309375,3.59565234375,1.78793359375,2.1256875,1.91609375,0.8901640625
-23.70253125,-18.86583984375,-21.21534375,-6.801734375,-10.42877734375,-6.270984375,-6.721234375,-6.049796875,-6.115234375,-5.7774140625,-3.59420703125,-1.64990625,-2.83430859375,-1.4941953125,-3.35694921875,-1.14308984375,0.65059375,-0.60160546875,-0.7800078125,-0.6195,1.25854296875,-2.014734375,1.7884453125,1.25292578125,1.88809375,4.72765234375,1.75393359375,2.4296875,2.34409375,1.3611640625
-26.03153125,-20.83983984375,-22.91734375,-8.673734375,-11.56077734375,-7.051984375,-7.389234375,-6.876796875,-7.848234375,-7.0404140625,-4.21220703125,-2.54690625,-4.10030859375,-3.4691953125,-4.20494921875,-1.42308984375,0.64159375,-3.18260546875,-2.4400078125,-1.2015,1.24654296875,-3.384734375,-0.108554687500001,-0.0720742187500001,1.58809375,5.29565234375,0.57893359375,1.9516875,1.85609375,1.1831640625
-26.94253125,-21.75983984375,-23.41634375,-10.267734375,-12.20177734375,-7.600984375,-7.992234375,-7.734796875,-9.258234375,-8.2814140625,-5.20320703125,-3.51490625,-6.00530859375,-5.5611953125,-5.44094921875,-2.19408984375,0.42959375,-5.95260546875,-4.5250078125,-2.1705,0.79754296875,-5.039734375,-2.5165546875,-1.95207421875,0.83809375,5.39665234375,-1.15906640625,0.9896875,0.81309375,0.6701640625
-25.36553125,-20.72083984375,-21.83534375,-10.992734375,-11.75477734375,-7.270984375,-7.947234375,-8.062796875,-9.799234375,-8.7744140625,-5.86520703125,-3.99690625,-7.89330859375,-7.0511953125,-6.30594921875,-2.89108984375,0.29459375,-8.24360546875,-6.2860078125,-2.9305,0.30954296875,-6.535734375,-4.7495546875,-3.66107421875,0.12009375,5.22465234375,-2.79706640625,-0.0403124999999989,-0.283906249999999,0.1431640625
-20.89453125,-17.37183984375,-17.87534375,-10.501734375,-9.97977734375,-5.743984375,-6.850234375,-7.439796875,-9.219234375,-8.0844140625,-5.68620703125,-3.65590625,-9.06930859375,-7.4691953125,-6.25994921875,-3.05808984375,0.42459375,-9.54660546875,-7.1890078125,-3.1085,0.04954296875,-7.494734375,-6.2385546875,-4.65507421875,-0.24190625,4.95965234375,-3.82806640625,-0.7793125,-0.99190625,-0.2158359375
-14.12853125,-12.17183984375,-12.06434375,-8.796734375,-7.11677734375,-3.224984375,-4.711234375,-5.765796875,-7.619234375,-6.2714140625,-4.57320703125,-2.51390625,-9.09430859375,-6.7381953125,-5.19694921875,-2.52708984375,0.86659375,-9.64160546875,-7.0640078125,-2.6835,0.0675429687499998,-7.729734375,-6.6915546875,-4.73907421875,-0.18090625,4.69465234375,-4.05306640625,-1.0443125,-1.08690625,-0.403835937499999
-6.55453125,-6.27683984375,-5.63434375,-6.193734375,-3.79577734375,-0.396984375,-2.008234375,-3.326796875,-5.377234375,-3.8584140625,-2.87720703125,-0.91990625,-7.92030859375,-5.1461953125,-3.45694921875,-1.47308984375,1.53359375,-8.62160546875,-6.1060078125,-1.9465,0.22254296875,-7.269734375,-6.1435546875,-4.08107421875,0.142093749999999,4.41665234375,-3.59406640625,-0.850312499999999,-0.61490625,-0.5308359375
-0.0605312499999995,-1.15983984375,-0.138343750000001,-3.205734375,-0.81577734375,1.850015625,0.466765625,-0.717796875,-3.007234375,-1.6124140625,-1.22020703125,0.59209375,-5.86430859375,-3.1951953125,-1.66294921875,-0.33808984375,2.26059375,-6.82960546875,-4.7250078125,-1.3215,0.27854296875,-6.301734375,-4.8845546875,-3.07907421875,0.45309375,4.05065234375,-2.78406640625,-0.358312499999999,0.17209375,-0.722835937499999
3.69046875,1.86216015625,3.03165625,-0.398734375,1.09722265625,2.775015625,1.902765625,1.338203125,-1.009234375,-0.2464140625,-0.23920703125,1.51009375,-3.45530859375,-1.4121953125,-0.46394921875,0.36491015625,2.86859375,-4.72260546875,-3.3730078125,-1.1715,0.0305429687499998,-5.069734375,-3.3245546875,-2.16907421875,0.51109375,3.53565234375,-2.00206640625,0.226687500000001,0.946093750000001,-1.0418359375
3.83146875,2.03816015625,3.08565625,1.714265625,1.48822265625,2.062015625,1.789765625,2.237203125,0.232765625,-0.1734140625,-0.34320703125,1.51909375,-1.22230859375,-0.2001953125,-0.30094921875,0.26591015625,3.23259375,-2.74560546875,-2.3930078125,-1.6555,-0.59145703125,-3.789734375,-1.8395546875,-1.64807421875,0.20509375,2.88565234375,-1.51606640625,0.7396875,1.44909375,-1.4488359375
0.59846875,-0.57883984375,0.104656249999999,2.781265625,0.29922265625,-0.0909843749999999,0.119765625,1.713203125,0.530765625,-1.3854140625,-1.59220703125,0.58609375,0.48269140625,0.2498046875,-1.26994921875,-0.71408984375,3.32459375,-1.21460546875,-1.9410078125,-2.6885,-1.47445703125,-2.626734375,-0.6755546875,-1.59207421875,-0.418906250000001,2.20965234375,-1.40206640625,1.0996875,1.57309375,-1.8338359375
-4.75053125,-5.12483984375,-4.94734375,2.706265625,-2.10677734375,-3.075984375,-2.604234375,-0.0567968750000003,-0.0572343749999999,-3.4884140625,-3.68420703125,-1.04490625,1.54469140625,-0.0281953125000001,-3.10994921875,-2.33608984375,3.20859375,-0.26260546875,-1.9900078125,-3.9905,-2.36645703125,-1.702734375,0.0994453124999994,-1.85807421875,-1.19090625,1.66765234375,-1.54606640625,1.2996875,1.37609375,-2.0628359375
-10.38053125,-10.16683984375,-10.49634375,1.716265625,-5.03777734375,-6.084984375,-5.561234375,-2.511796875,-1.222234375,-5.8644140625,-6.05120703125,-2.94390625,2.04569140625,-0.8071953125,-5.29894921875,-4.14308984375,2.99159375,0.16439453125,-2.3590078125,-5.1905,-2.97245703125,-1.103734375,0.563445312499999,-2.17407421875,-1.88390625,1.40365234375,-1.73106640625,1.3676875,1.02909375,-2.0498359375
-14.53753125,-14.15083984375,-14.85834375,0.322265625,-7.65377734375,-8.366984375,-7.893234375,-4.888796875,-2.488234375,-7.8664140625,-8.03620703125,-4.62990625,2.17169140625,-1.7401953125,-7.21594921875,-5.62308984375,2.75659375,0.24439453125,-2.7880078125,-5.9375,-3.08345703125,-0.853734375,0.8744453125,-2.26507421875,-2.29790625,1.46965234375,-1.73706640625,1.3426875,0.737093750000001,-1.7848359375
-16.18353125,-15.92083984375,-16.79534375,-0.849734375,-9.19177734375,-9.420984375,-8.983234375,-6.471796875,-3.358234375,-8.9794140625,-9.09020703125,-5.69190625,2.14269140625,-2.4541953125,-8.32994921875,-6.37008984375,2.52259375,0.20339453125,-3.0180078125,-5.9935,-2.65545703125,-0.891734375,1.1834453125,-1.96107421875,-2.32190625,1.80765234375,-1.42006640625,1.2556875,0.64909375,-1.3378359375
-15.31553125,-15.09883984375,-15.91134375,-1.304734375,-9.17877734375,-9.081984375,-8.600234375,-6.813796875,-3.471234375,-8.9124140625,-8.92020703125,-5.87390625,2.15569140625,-2.6481953125,-8.31894921875,-6.18008984375,2.27059375,0.24139453125,-2.8470078125,-5.2825,-1.80645703125,-1.058734375,1.5814453125,-1.23507421875,-1.95490625,2.27165234375,-0.741066406250001,1.1456875,0.81109375,-0.8328359375
-12.81953125,-12.13383984375,-12.71834375,-0.862734375,-7.55677734375,-7.476984375,-6.903234375,-5.847796875,-2.684234375,-7.6234140625,-7.52920703125,-5.09590625,2.34569140625,-2.1491953125,-7.11494921875,-5.06308984375,2.00559375,0.50339453125,-2.1560078125,-3.8845,-0.75045703125,-1.144734375,2.0934453125,-0.17207421875,-1.27190625,2.68165234375,0.23193359375,1.0596875,1.16009375,-0.3998359375
-9.92553125,-8.02283984375,-8.32034375,0.319265625,-4.66677734375,-4.928984375,-4.321234375,-3.856796875,-1.085234375,-5.2984140625,-5.16820703125,-3.44390625,2.76369140625,-0.9391953125,-4.88394921875,-3.20008984375,1.80759375,1.07539453125,-0.9230078125,-2.0025,0.28654296875,-0.965734375,2.6944453125,1.08792578125,-0.38190625,2.86865234375,1.35193359375,1.0396875,1.56109375,-0.140835937499999
-7.55453125,-3.84483984375,-3.91634375,1.876265625,-1.13377734375,-1.864984375,-1.399234375,-1.347796875,1.062765625,-2.3094140625,-2.25920703125,-1.15490625,3.38869140625,0.8488046875,-1.97294921875,-0.88908984375,1.81459375,1.96739453125,0.7649921875,0.0815000000000001,1.12354296875,-0.437734375,3.3354453125,2.38792578125,0.590093749999999,2.71365234375,2.42393359375,1.0946875,1.86009375,-0.1038359375
-5.92453125,-0.358839843749999,-0.346343750000001,3.426265625,2.32022265625,1.249015625,1.341765625,1.132203125,3.399765625,0.8525859375,0.70479296875,1.39609375,4.14269140625,2.9508046875,1.13705078125,1.49891015625,2.15459375,3.09439453125,2.6949921875,2.0515,1.63154296875,0.379265624999999,3.9504453125,3.56692578125,1.50209375,2.16765234375,3.24093359375,1.1776875,1.92909375,-0.2918359375
-4.57853125,2.18916015625,2.12665625,4.728265625,5.07322265625,3.971015625,3.512765625,3.143203125,5.553765625,3.6565859375,3.25079296875,3.75209375,4.90569140625,5.0188046875,3.91005078125,3.57791015625,2.86859375,4.27339453125,4.5509921875,3.6075,1.73154296875,1.300265625,4.4584453125,4.45692578125,2.20209375,1.27865234375,3.62993359375,1.2116875,1.71309375,-0.672835937499999
-2.75053125,4.00816015625,3.75965625,5.739265625,6.75122265625,5.959015625,4.913765625,4.451203125,7.217765625,5.6435859375,5.01679296875,5.48009375,5.55069140625,6.6908046875,5.86005078125,5.01091015625,3.87059375,5.26439453125,5.9769921875,4.5075,1.40254296875,2.097265625,4.7684453125,4.90092578125,2.55009375,0.19165234375,3.49693359375,1.1366875,1.24609375,-1.1908359375
0.15346875,5.51616015625,5.07965625,6.569265625,7.30222265625,7.042015625,5.545765625,5.061203125,8.180765625,6.5275859375,5.81379296875,6.28909375,5.98169140625,7.6628046875,6.65805078125,5.58391015625,4.96359375,5.83539453125,6.6649921875,4.6145,0.69054296875,2.590265625,4.7914453125,4.78392578125,2.45109375,-0.87934765625,2.84293359375,0.9386875,0.647093750000001,-1.7628359375
4.19346875,7.07316015625,6.57365625,7.360265625,6.96822265625,7.245015625,5.575765625,5.164203125,8.348765625,6.2735859375,5.64879296875,6.11809375,6.15269140625,7.7518046875,6.22905078125,5.26191015625,5.90659375,5.81739453125,6.4299921875,3.9205,-0.29445703125,2.696265625,4.4294453125,4.05392578125,1.88109375,-1.70834765625,1.75793359375,0.631687500000001,0.0540937500000007,-2.2918359375
8.85046875,8.81716015625,8.48465625,8.175265625,6.17422265625,6.786015625,5.271765625,5.038203125,7.775765625,5.0955859375,4.72579296875,5.15409375,6.01469140625,6.9368046875,4.77505078125,4.20891015625,6.48659375,5.14639453125,5.2529921875,2.5675,-1.39145703125,2.416265625,3.6034453125,2.74992578125,0.906093749999999,-2.12634765625,0.375933593749999,0.203687500000001,-0.445906249999999,-2.6978359375
13.26346875,10.66016015625,10.75265625,8.967265625,5.38122265625,6.023015625,4.926765625,4.944203125,6.688765625,3.4135859375,3.41679296875,3.77509375,5.45869140625,5.3808046875,2.74405078125,2.77091015625,6.59059375,3.87939453125,3.2949921875,0.8445,-2.41045703125,1.793265625,2.2744453125,1.01392578125,-0.306906250000001,-2.07434765625,-1.15406640625,-0.4013125,-0.855906249999999,-2.9428359375
16.60446875,12.34716015625,13.06465625,9.628265625,4.94922265625,5.360015625,4.787765625,5.046203125,5.458765625,1.7475859375,2.18079296875,2.43809375,4.37969140625,3.4048046875,0.71905078125,1.39591015625,6.24659375,2.18839453125,0.878992187500001,-0.8525,-3.16745703125,0.899265625,0.4854453125,-0.90207421875,-1.50590625,-1.60834765625,-2.67406640625,-1.2333125,-1.23990625,-3.0278359375
18.39546875,13.58216015625,15.00665625,10.088265625,5.05622265625,5.133015625,5.016765625,5.399203125,4.508765625,0.5955859375,1.45079296875,1.54309375,2.82669140625,1.4128046875,-0.73494921875,0.50691015625,5.63859375,0.33739453125,-1.5650078125,-2.1085,-3.50745703125,-0.150734375,-1.6165546875,-2.66907421875,-2.40590625,-0.86934765625,-4.00706640625,-2.2573125,-1.63790625,-2.9618359375
18.68346875,14.19816015625,16.28565625,10.378265625,5.70422265625,5.545015625,5.699765625,5.971203125,4.170765625,0.3185859375,1.51479296875,1.34009375,1.10969140625,-0.2151953125,-1.22294921875,0.37291015625,5.06359375,-1.36560546875,-3.5810078125,-2.5965,-3.32545703125,-1.184734375,-3.7685546875,-3.94107421875,-2.75790625,-0.00334765624999989,-4.95406640625,-3.3013125,-1.99890625,-2.7318359375
17.98746875,14.30616015625,16.91465625,10.621265625,6.77222265625,6.636015625,6.843765625,6.701203125,4.574765625,1.0505859375,2.44679296875,1.87709375,-0.26530859375,-1.2141953125,-0.62794921875,1.02491015625,4.84759375,-2.64360546875,-4.7770078125,-2.1815,-2.58745703125,-2.008734375,-5.6275546875,-4.44407421875,-2.42890625,0.90365234375,-5.32006640625,-4.1153125,-2.18190625,-2.3088359375
17.03546875,14.26716015625,17.19665625,10.936265625,8.06522265625,8.264015625,8.359765625,7.524203125,5.590765625,2.6605859375,4.06979296875,3.00709375,-0.84130859375,-1.4981953125,0.85405078125,2.24091015625,5.20659375,-3.31960546875,-4.9330078125,-0.9755,-1.35645703125,-2.471734375,-6.8425546875,-4.07007421875,-1.45590625,1.83665234375,-4.99006640625,-4.4883125,-2.03790625,-1.6788359375
16.38446875,14.45916015625,17.50565625,11.324265625,9.34722265625,10.094015625,10.023765625,8.376203125,6.854765625,4.7755859375,5.98979296875,4.42809375,-0.45030859375,-1.1461953125,2.78405078125,3.61791015625,6.13459375,-3.35560546875,-4.0600078125,0.6805,0.17554296875,-2.521734375,-7.1545546875,-2.93807421875,-0.0589062500000006,2.80165234375,-3.99006640625,-4.3473125,-1.50590625,-0.8778359375
16.17246875,15.01716015625,18.00265625,11.629265625,10.37322265625,11.675015625,11.510765625,9.183203125,7.910765625,6.8945859375,7.72079296875,5.79109375,0.68669140625,-0.3391953125,4.64705078125,4.71791015625,7.39359375,-2.83660546875,-2.3830078125,2.3485,1.71954296875,-2.197734375,-6.4555546875,-1.35607421875,1.43309375,3.75965234375,-2.49006640625,-3.7463125,-0.639906249999999,0.00816406250000057
16.13246875,15.72016015625,18.52565625,11.619265625,10.96222265625,12.620015625,12.500765625,9.858203125,8.417765625,8.5555859375,8.88479296875,6.83009375,2.09069140625,0.7428046875,6.05605078125,5.26391015625,8.61559375,-1.89160546875,-0.229007812499999,3.6885,2.98954296875,-1.569734375,-4.7965546875,0.32492578125,2.71309375,4.61765234375,-0.73406640625,-2.7723125,0.44809375,0.8871640625
15.85446875,16.13316015625,18.71065625,11.137265625,11.08022265625,12.783015625,12.821765625,10.323203125,8.330765625,9.5065859375,9.35979296875,7.45209375,3.27669140625,2.0128046875,6.89005078125,5.25291015625,9.46859375,-0.61360546875,2.1009921875,4.5845,3.81654296875,-0.690734375,-2.3475546875,1.85892578125,3.62609375,5.26365234375,1.05293359375,-1.4683125,1.66209375,1.7091640625
15.10046875,15.88716015625,18.25465625,10.227265625,10.86622265625,12.311015625,12.518765625,10.529203125,7.912765625,9.7755859375,9.30479296875,7.72409375,3.97469140625,3.4738046875,7.28005078125,4.93291015625,9.77659375,0.95439453125,4.3979921875,5.1295,4.21254296875,0.408265624999999,0.623445312499999,3.17092578125,4.18509375,5.62265234375,2.70393359375,0.136687500000001,2.94009375,2.4691640625
13.96946875,14.91616015625,17.14165625,9.140265625,10.57722265625,11.544015625,11.830765625,10.457203125,7.584765625,9.6045859375,9.01979296875,7.77709375,4.17169140625,5.1368046875,7.46905078125,4.64191015625,9.55059375,2.77139453125,6.5189921875,5.4925,4.32254296875,1.658265625,3.7574453125,4.28692578125,4.51209375,5.67965234375,4.09393359375,1.9206875,4.19809375,3.1661640625
12.80646875,13.52016015625,15.66665625,8.223265625,10.44222265625,10.820015625,11.057765625,10.098203125,7.681765625,9.2735859375,8.76079296875,7.68809375,3.99569140625,6.9028046875,7.63405078125,4.60691015625,8.91559375,4.71139453125,8.3119921875,5.7635,4.32754296875,2.892265625,6.6134453125,5.21592578125,4.71609375,5.47565234375,5.09593359375,3.5816875,5.27409375,3.7371640625
11.95746875,12.18516015625,14.25465625,7.745265625,10.51322265625,10.302015625,10.397765625,9.430203125,8.260765625,8.9325859375,8.59079296875,7.41209375,3.56969140625,8.5008046875,7.77605078125,4.82391015625,8.02059375,6.51439453125,9.5689921875,5.8915,4.31954296875,3.838265625,8.7234453125,5.85392578125,4.80709375,5.06765234375,5.55493359375,4.6716875,5.92409375,4.0391640625
11.56446875,11.30216015625,13.21165625,7.770265625,10.62722265625,9.919015625,9.848765625,8.424203125,9.060765625,8.5265859375,8.35779296875,6.80909375,2.94669140625,9.5458046875,7.72405078125,5.05491015625,6.96959375,7.83139453125,10.0479921875,5.7175,4.23654296875,4.204265625,9.7004453125,5.98992578125,4.67809375,4.48565234375,5.32893359375,4.7546875,5.89709375,3.8921640625
11.54246875,10.97216015625,12.60165625,8.128265625,10.52222265625,9.450015625,9.229765625,7.100203125,9.638765625,7.8845859375,7.81279296875,5.75809375,2.15469140625,9.7058046875,7.26605078125,4.96491015625,5.83759375,8.35639453125,9.5849921875,5.0865,3.88854296875,3.822265625,9.3754453125,5.43292578125,4.16709375,3.72265234375,4.36593359375,3.6446875,5.07209375,3.1841640625
11.69946875,11.01516015625,12.29765625,8.505265625,10.03222265625,8.724015625,8.360765625,5.605203125,9.620765625,6.8955859375,6.81179296875,4.28709375,1.25469140625,8.8948046875,6.31705078125,4.31691015625,4.74159375,7.99939453125,8.2359921875,3.9815,3.07854296875,2.791265625,7.9224453125,4.17892578125,3.19109375,2.77565234375,2.81293359375,1.5676875,3.58209375,1.9861640625
11.82146875,11.10816015625,12.09465625,8.598265625,9.20922265625,7.769015625,7.234765625,4.211203125,8.910765625,5.6385859375,5.46079296875,2.63209375,0.37369140625,7.3688046875,5.03005078125,3.12491015625,3.87359375,6.97039453125,6.3449921875,2.5865,1.75354296875,1.500265625,5.8544453125,2.50792578125,1.85709375,1.70365234375,1.03893359375,-0.8483125,1.84309375,0.5841640625
11.66946875,10.92916015625,11.77965625,8.254265625,8.28822265625,6.803015625,6.054765625,3.212203125,7.733765625,4.3885859375,4.09879296875,1.15009375,-0.32230859375,5.6448046875,3.75405078125,1.65791015625,3.45259375,5.69939453125,4.4689921875,1.2315,0.09354296875,0.487265625,3.8664453125,0.91892578125,0.462093749999999,0.65965234375,-0.46006640625,-2.8033125,0.426093750000001,-0.6118359375
11.00046875,10.27116015625,11.18765625,7.527265625,7.55522265625,6.102015625,5.132765625,2.802203125,6.512765625,3.5025859375,3.12879296875,0.17209375,-0.66330859375,4.2928046875,2.88705078125,0.32591015625,3.61059375,4.63939453125,3.1699921875,0.2705,-1.52345703125,0.186265625,2.5824453125,-0.07307421875,-0.60590625,-0.13834765625,-1.24206640625,-3.6603125,-0.16490625,-1.2278359375
9.75246875,9.18316015625,10.33465625,6.661265625,7.25922265625,5.894015625,4.745765625,3.018203125,5.677765625,3.2925859375,2.85679296875,-0.0939062499999996,-0.52530859375,3.7388046875,2.72905078125,-0.46508984375,4.32159375,4.08039453125,2.8249921875,-0.0484999999999998,-2.62845703125,0.710265625,2.3394453125,-0.13107421875,-1.00790625,-0.47134765625,-1.07906640625,-3.1993125,0.31009375,-1.0658359375
8.29146875,8.09616015625,9.58965625,6.015265625,7.59822265625,6.342015625,5.083765625,3.810203125,5.524765625,3.9395859375,3.42179296875,0.43409375,0.15369140625,4.1468046875,3.41405078125,-0.41608984375,5.42759375,4.07539453125,3.5129921875,0.3775,-2.81545703125,1.804265625,3.1154453125,0.79892578125,-0.55290625,-0.17734765625,-0.01806640625,-1.6683125,1.74509375,-0.1438359375
7.43246875,7.75016015625,9.65465625,5.947265625,8.72222265625,7.554015625,6.249765625,5.123203125,6.142765625,5.4405859375,4.80779296875,1.75109375,1.34969140625,5.3998046875,4.89305078125,0.60091015625,6.72259375,4.47039453125,5.0139921875,1.5115,-1.88645703125,2.972265625,4.5744453125,2.49292578125,0.747093749999999,0.78965234375,1.66093359375,0.354687500000001,3.74209375,1.3391640625
8.06046875,8.81616015625,11.20965625,6.661265625,10.64422265625,9.503015625,8.215765625,6.884203125,7.398765625,7.5645859375,6.84179296875,3.74009375,2.92869140625,7.1188046875,6.93105078125,2.48991015625,8.01559375,4.99039453125,6.8689921875,3.1915,0.0645429687500001,3.710265625,6.1984453125,4.51892578125,2.67809375,2.32465234375,3.53193359375,2.2026875,5.75709375,3.0671640625
10.52446875,11.41016015625,14.38565625,8.087265625,13.10422265625,11.914015625,10.724765625,8.906203125,8.962765625,9.8445859375,9.17479296875,6.12409375,4.63869140625,8.7508046875,9.11205078125,4.91591015625,9.16559375,5.33639453125,8.4979921875,5.1335,2.65654296875,3.723265625,7.4364453125,6.35692578125,4.85909375,4.17165234375,5.14593359375,3.3566875,7.28109375,4.6901640625
14.29646875,14.89116015625,18.50865625,9.887265625,15.54222265625,14.246015625,13.258765625,10.817203125,10.405765625,11.6685859375,11.30879296875,8.45909375,6.14869140625,9.7258046875,10.90405078125,7.35691015625,10.07659375,5.28039453125,9.3639921875,6.9625,5.32254296875,3.036265625,7.8704453125,7.53692578125,6.85109375,5.97665234375,6.14593359375,3.5926875,7.99909375,5.9011640625
18.17246875,18.11716015625,22.33965625,11.580265625,17.25522265625,15.827015625,15.137765625,12.138203125,11.332765625,12.4745859375,12.69879296875,10.23109375,7.15469140625,9.6438046875,11.79305078125,9.23991015625,10.69359375,4.73639453125,9.1379921875,8.2715,7.49154296875,1.948265625,7.3384453125,7.77492578125,8.27109375,7.38765234375,6.36993359375,2.9956875,7.86009375,6.5061640625
20.85846875,20.00016015625,24.65965625,12.738265625,17.68522265625,16.107015625,15.765765625,12.482203125,11.492765625,11.9615859375,12.92479296875,11.01609375,7.48769140625,8.4208046875,11.44905078125,10.11891015625,10.99859375,3.78839453125,7.8049921875,8.7235,8.76054296875,0.885265625,5.9744453125,7.04992578125,8.88809375,8.14965234375,5.88293359375,1.8756875,7.04509375,6.4651640625
21.54046875,19.98616015625,24.81565625,13.107265625,16.65522265625,14.870015625,14.875765625,11.752203125,10.847765625,10.2095859375,11.84779296875,10.64409375,7.14469140625,6.3258046875,9.85705078125,9.80891015625,11.00259375,2.66439453125,5.6759921875,8.1575,9.00954296875,0.218265625,4.1664453125,5.60792578125,8.66909375,8.17965234375,4.95293359375,0.642687500000001,5.88309375,5.8921640625
20.13946875,18.21416015625,22.91665625,12.651265625,14.42922265625,12.343015625,12.649765625,10.192203125,9.571765625,7.6435859375,9.68079296875,9.26109375,6.26369140625,3.9008046875,7.34105078125,8.42891015625,10.74159375,1.69539453125,3.3009921875,6.6665,8.40354296875,0.157265625,2.4634453125,3.89392578125,7.77609375,7.58865234375,3.96493359375,-0.304312499999999,4.75509375,5.0221640625
17.22446875,15.35916015625,19.66365625,11.522265625,11.59022265625,9.123015625,9.644765625,8.263203125,8.013765625,4.8685859375,6.92679296875,7.26009375,5.05969140625,1.7988046875,4.47205078125,6.33591015625,10.26759375,1.23239453125,1.3159921875,4.6005,7.30954296875,0.728265625,1.4224453125,2.42592578125,6.51809375,6.65065234375,3.30093359375,-0.6573125,4.00709375,4.1401640625
13.75146875,12.30916015625,16.01765625,10.009265625,8.82222265625,5.963015625,6.580765625,6.422203125,6.612765625,2.4755859375,4.20579296875,5.10809375,3.80669140625,0.5818046875,1.87505078125,3.98991015625,9.64659375,1.53439453125,0.2449921875,2.4605,6.12554296875,1.817265625,1.4384453125,1.62792578125,5.23709375,5.70565234375,3.20393359375,-0.2823125,3.85009375,3.4891640625
10.78046875,9.86216015625,12.87765625,8.490265625,6.71222265625,3.526015625,4.108765625,4.944203125,5.776765625,0.8905859375,2.06379296875,3.18409375,2.84169140625,0.5508046875,0.0330507812499998,1.81891015625,8.95759375,2.65439453125,0.3299921875,0.7415,5.13854296875,3.205265625,2.5974453125,1.68292578125,4.20209375,5.03465234375,3.68693359375,0.7396875,4.29109375,3.1881640625
9.13646875,8.50916015625,10.84565625,7.341265625,5.61422265625,2.208015625,2.633765625,3.872203125,5.744765625,0.2995859375,0.84979296875,1.69809375,2.53169140625,1.6628046875,-0.82294921875,0.15991015625,8.28359375,4.40339453125,1.4789921875,-0.2165,4.46154296875,4.624265625,4.6444453125,2.48892578125,3.54709375,4.77165234375,4.52593359375,2.1256875,5.12009375,3.1951640625
9.05746875,8.27916015625,10.04165625,6.785265625,5.55422265625,2.062015625,2.226765625,3.094203125,6.480765625,0.6445859375,0.66979296875,0.71009375,3.15169140625,3.5688046875,-0.71594921875,-0.75308984375,7.69859375,6.41139453125,3.3319921875,-0.2985,4.06854296875,5.812265625,7.0744453125,3.72892578125,3.26909375,4.87265234375,5.37293359375,3.4916875,5.99809375,3.3411640625
9.99746875,8.73216015625,10.05665625,6.779265625,6.23122265625,2.815015625,2.628765625,2.482203125,7.650765625,1.6515859375,1.39579296875,0.19409375,4.72469140625,5.7318046875,0.14505078125,-0.81708984375,7.25359375,8.26339453125,5.4049921875,0.3935,3.87154296875,6.582265625,9.3114453125,5.00692578125,3.26909375,5.17065234375,5.88493359375,4.4926875,6.58309375,3.4011640625
10.84346875,9.16416015625,10.14865625,7.014265625,7.12322265625,3.973015625,3.364765625,1.993203125,8.742765625,2.9155859375,2.70479296875,0.0880937500000004,6.94469140625,7.5978046875,1.45005078125,-0.0910898437500001,6.97159375,9.62639453125,7.2299921875,1.5845,3.78254296875,6.856265625,10.8744453125,5.98092578125,3.39209375,5.46065234375,5.84193359375,4.9226875,6.64609375,3.1831640625
10.56746875,9.02116015625,9.68965625,7.097265625,7.70622265625,5.027015625,3.970765625,1.707203125,9.290765625,4.0305859375,4.17579296875,0.32409375,9.25169140625,8.7548046875,2.86905078125,1.19691015625,6.86059375,10.32739453125,8.4769921875,2.9125,3.75354296875,6.672265625,11.5064453125,6.44092578125,3.48309375,5.58265234375,5.19893359375,4.7616875,6.13109375,2.6001640625
8.90746875,8.26316015625,8.58165625,6.798265625,7.69622265625,5.668015625,4.217765625,1.762203125,9.098765625,4.7235859375,5.42179296875,0.84009375,11.05069140625,9.0518046875,4.12305078125,2.72491015625,6.92559375,10.37539453125,9.0139921875,4.0335,3.79054296875,6.167265625,11.2144453125,6.34692578125,3.44109375,5.47965234375,4.08793359375,4.1526875,5.16909375,1.7061640625
6.59746875,7.40116015625,7.33665625,6.198265625,7.15722265625,5.901015625,4.189765625,2.243203125,8.315765625,4.9325859375,6.20379296875,1.56609375,11.92869140625,8.6198046875,5.03005078125,4.17391015625,7.15959375,9.92339453125,8.9069921875,4.7065,3.92954296875,5.533265625,10.2374453125,5.78592578125,3.25809375,5.18865234375,2.76693359375,3.3226875,4.01009375,0.676164062500001
4.91646875,7.12416015625,6.71665625,5.618265625,6.42222265625,5.946015625,4.157765625,3.072203125,7.326765625,4.7685859375,6.45579296875,2.38009375,11.75869140625,7.7688046875,5.50205078125,5.29491015625,7.51059375,9.17239453125,8.3259921875,4.8285,4.17854296875,4.960265625,8.9114453125,4.90192578125,2.98209375,4.78565234375,1.53493359375,2.4946875,2.91109375,-0.2778359375
4.86046875,7.78716015625,7.17065625,5.375265625,5.86522265625,6.020015625,4.338765625,3.983203125,6.532765625,4.3965859375,6.22779296875,3.06609375,10.66269140625,6.8188046875,5.51305078125,5.88791015625,7.84259375,8.28039453125,7.4399921875,4.4105,4.44754296875,4.562265625,7.5214453125,3.82292578125,2.64709375,4.30165234375,0.61093359375,1.8096875,2.01809375,-1.0108359375
6.50446875,9.12316015625,8.47765625,5.536265625,5.66022265625,6.151015625,4.715765625,4.586203125,6.148765625,3.9175859375,5.60379296875,3.31509375,8.90269140625,5.9558046875,5.08205078125,5.76691015625,7.93559375,7.29939453125,6.3459921875,3.5245,4.52254296875,4.331265625,6.2024453125,2.62892578125,2.20609375,3.69065234375,0.0539335937499992,1.3136875,1.32809375,-1.5098359375
8.95346875,10.37116015625,9.82365625,5.852265625,5.69422265625,6.154015625,5.013765625,4.523203125,6.127765625,3.3335859375,4.64879296875,2.81609375,6.81369140625,5.1768046875,4.26605078125,4.74591015625,7.55059375,6.19739453125,5.0779921875,2.2665,4.11154296875,4.144265625,4.9284453125,1.36592578125,1.53409375,2.83865234375,-0.25306640625,0.964687500000001,0.732093750000001,-1.8858359375
10.86746875,10.70516015625,10.26465625,5.911265625,5.67922265625,5.763015625,4.847765625,3.639203125,6.208765625,2.6245859375,3.40079296875,1.41309375,4.76869140625,4.3588046875,3.17005078125,2.70991015625,6.52759375,4.92139453125,3.6659921875,0.7405,2.97054296875,3.812265625,3.5834453125,0.0699257812499998,0.488093749999999,1.63365234375,-0.544066406250001,0.6566875,0.10309375,-2.2948359375
11.21246875,9.72116015625,9.28565625,5.404265625,5.38422265625,4.853015625,3.960765625,2.090203125,6.073765625,1.8495859375,1.93979296875,-0.74290625,3.13069140625,3.3978046875,1.98405078125,-0.23208984375,4.88959375,3.48039453125,2.2069921875,-0.9105,1.05054296875,3.170265625,2.0724453125,-1.20407421875,-0.96790625,0.0566523437499997,-1.04906640625,0.243687500000001,-0.62790625,-2.8288359375
9.84146875,7.70616015625,7.14865625,4.343265625,4.83422265625,3.619015625,2.449765625,0.332203125,5.540765625,1.2195859375,0.47279296875,-3.12390625,2.15069140625,2.3398046875,1.00405078125,-3.60908984375,2.89459375,1.98439453125,0.895992187500001,-2.4425,-1.37545703125,2.155265625,0.4244453125,-2.35507421875,-2.67090625,-1.74634765625,-1.85806640625,-0.410312499999999,-1.43390625,-3.4498359375
7.59646875,5.56916015625,4.83065625,3.088265625,4.34622265625,2.582015625,0.834765625,-1.018796875,4.693765625,1.0565859375,-0.62020703125,-4.94690625,1.86769140625,1.4208046875,0.60105078125,-6.59108984375,0.98759375,0.62839453125,-0.00100781249999971,-3.4945,-3.72245703125,0.856265625,-1.1785546875,-3.22207421875,-4.22790625,-3.45334765625,-2.85106640625,-1.3573125,-2.20790625,-3.9898359375
5.87146875,4.41316015625,3.57165625,2.168265625,4.36022265625,2.358015625,-0.119234375,-1.414796875,3.846765625,1.6535859375,-0.88520703125,-5.46990625,2.08869140625,0.9498046875,1.08505078125,-8.21208984375,-0.32740625,-0.38860546875,-0.2640078125,-3.6715,-5.24545703125,-0.497734375,-2.4675546875,-3.61207421875,-5.12790625,-4.64134765625,-3.73206640625,-2.4993125,-2.80590625,-4.2168359375
5.84746875,4.96316015625,4.23165625,1.983265625,5.15722265625,3.303015625,0.225765625,-0.601796875,3.335765625,3.0795859375,-0.0122070312499998,-4.32190625,2.46669140625,1.1178046875,2.53205078125,-7.76408984375,-0.65940625,-0.96760546875,0.1509921875,-2.7135,-5.32745703125,-1.629734375,-3.2205546875,-3.37807421875,-4.94490625,-4.93334765625,-4.16406640625,-3.5923125,-3.10090625,-3.9458359375
7.78046875,7.13416015625,6.79665625,2.550265625,6.62722265625,5.250015625,2.002765625,1.264203125,3.281765625,5.0595859375,1.96079296875,-1.67690625,2.62469140625,1.8218046875,4.67705078125,-5.12608984375,0.13459375,-1.17060546875,1.0409921875,-0.6545,-3.73545703125,-2.334734375,-3.3685546875,-2.49207421875,-3.52490625,-4.14134765625,-3.91306640625,-4.3253125,-3.01990625,-3.1168359375
10.72146875,9.96216015625,10.26065625,3.429265625,8.21722265625,7.499015625,4.684765625,3.656203125,3.468765625,6.9765859375,4.57279296875,1.81309375,2.27669140625,2.6468046875,6.96405078125,-0.86708984375,1.89459375,-1.21160546875,2.0129921875,2.1235,-0.71845703125,-2.552734375,-3.0205546875,-1.08707421875,-1.06190625,-2.33434765625,-2.94606640625,-4.4443125,-2.54490625,-1.8158359375
12.88646875,11.95116015625,12.98365625,3.880265625,9.10122265625,9.068015625,7.255765625,5.864203125,3.431765625,8.0595859375,7.06079296875,5.27009375,1.29969140625,3.0088046875,8.72905078125,3.95091015625,4.21059375,-1.35560546875,2.6379921875,5.0005,3.07554296875,-2.345734375,-2.3905546875,0.57192578125,1.96209375,0.18965234375,-1.42406640625,-3.8373125,-1.69090625,-0.2208359375
12.55546875,11.75716015625,13.42965625,3.212265625,8.53922265625,9.100015625,8.641765625,7.250203125,2.714765625,7.6795859375,8.63379296875,7.89609375,-0.23430859375,2.4268046875,9.43805078125,8.15191015625,6.53759375,-1.79360546875,2.6349921875,7.3215,6.84054296875,-1.816734375,-1.6885546875,2.16892578125,4.94609375,2.98865234375,0.373933593749999,-2.5603125,-0.50090625,1.4671640625
9.06246875,8.89316015625,10.95265625,1.156265625,6.24922265625,7.247015625,8.206765625,7.474203125,1.148765625,5.6395859375,8.78079296875,9.21609375,-2.08330859375,0.7708046875,8.88405078125,10.86191015625,8.36859375,-2.52860546875,2.0059921875,8.6405,9.88154296875,-1.021734375,-1.0095546875,3.45592578125,7.36909375,5.59365234375,2.16293359375,-0.801312499999999,0.962093750000001,3.0861640625
3.24046875,4.04916015625,6.17965625,-1.950734375,2.60622265625,3.837015625,6.029765625,6.606203125,-1.020234375,2.3055859375,7.47479296875,9.17509375,-3.91330859375,-1.6281953125,7.25305078125,11.76391015625,9.38159375,-3.33560546875,1.0539921875,8.8705,11.80954296875,0.040265625,-0.290554687500001,4.34892578125,8.96109375,7.62265234375,3.75493359375,1.1926875,2.61209375,4.5331640625
-2.98953125,-1.22783984375,0.696656249999999,-5.294734375,-1.48477734375,-0.272984375,2.817765625,5.042203125,-3.235234375,-1.5144140625,5.15179296875,8.08109375,-5.37230859375,-4.0761953125,5.04305078125,11.10791015625,9.50059375,-3.84560546875,0.2659921875,8.2785,12.60554296875,1.370265625,0.643445312499999,4.94492578125,9.75809375,8.86865234375,5.10193359375,3.1886875,4.34709375,5.7631640625
-7.64953125,-5.33283984375,-3.78834375,-7.983734375,-4.97477734375,-4.086984375,-0.485234375,3.288203125,-4.913234375,-4.8854140625,2.47379296875,6.41209375,-6.16130859375,-5.8001953125,2.85705078125,9.50691015625,8.87159375,-3.71460546875,0.0909921875000004,7.3235,12.52854296875,2.894265625,1.9414453125,5.42992578125,10.02609375,9.32965234375,6.26593359375,5.0096875,6.05509375,6.7701640625
-9.69953125,-7.39183984375,-6.28834375,-9.480734375,-7.12077734375,-6.878984375,-3.137234375,1.729203125,-5.732234375,-7.1004140625,0.0407929687500002,4.61909375,-6.11530859375,-6.2811953125,1.17605078125,7.63591015625,7.75459375,-2.81060546875,0.7359921875,6.4335,11.95054296875,4.424265625,3.5984453125,5.95692578125,10.07609375,9.17665234375,7.32793359375,6.5356875,7.60809375,7.5681640625
-9.41953125,-7.57783984375,-6.88934375,-9.825734375,-7.76677734375,-8.397984375,-4.835234375,0.509203125,-5.765234375,-7.9204140625,-1.79320703125,2.99509375,-5.29930859375,-5.4611953125,0.21005078125,5.98391015625,6.42259375,-1.29960546875,2.0749921875,5.8445,11.19354296875,5.681265625,5.4074453125,6.54392578125,10.09309375,8.67865234375,8.29193359375,7.6616875,8.84509375,8.1501640625
-8.04253125,-6.81583984375,-6.48734375,-9.521734375,-7.31077734375,-8.832984375,-5.692234375,-0.455796875,-5.394234375,-7.5794140625,-2.94520703125,1.65309375,-4.04530859375,-3.7491953125,-0.11694921875,4.74691015625,5.08759375,0.41139453125,3.7009921875,5.5565,10.42654296875,6.387265625,7.0164453125,7.06092578125,10.05109375,8.08765234375,9.02393359375,8.2646875,9.56209375,8.4691640625
-6.95953125,-6.15883984375,-6.15834375,-9.183734375,-6.43977734375,-8.621984375,-6.033234375,-1.360796875,-5.080234375,-6.6054140625,-3.51320703125,0.58709375,-2.85930859375,-1.8161953125,-0.0679492187500002,3.86491015625,3.85959375,1.84239453125,5.1019921875,5.3975,9.64154296875,6.363265625,8.0644453125,7.29092578125,9.75809375,7.54565234375,9.28793359375,8.2176875,9.55209375,8.4451640625
-7.00553125,-6.21983984375,-6.57234375,-9.187734375,-5.79177734375,-8.225984375,-6.184234375,-2.391796875,-5.126234375,-5.5514140625,-3.66620703125,-0.25990625,-2.20630859375,-0.3101953125,0.0590507812499999,3.14691015625,2.75659375,2.64339453125,5.8589921875,5.1605,8.70254296875,5.615265625,8.3284453125,7.04192578125,9.00709375,7.02965234375,8.86993359375,7.4536875,8.70209375,8.0041640625
-8.16353125,-6.95483984375,-7.75334375,-9.528734375,-5.70877734375,-7.949984375,-6.341234375,-3.610796875,-5.550234375,-4.7844140625,-3.54820703125,-0.92290625,-2.31230859375,0.3878046875,0.0730507812499999,2.42991015625,1.74159375,2.72239453125,5.8139921875,4.7225,7.46654296875,4.343265625,7.8184453125,6.25992578125,7.73109375,6.38765234375,7.72293359375,6.0566875,7.10309375,7.1301640625
-9.76753125,-7.85283984375,-9.21834375,-9.927734375,-6.17477734375,-7.862984375,-6.535234375,-4.907796875,-6.122234375,-4.3964140625,-3.23720703125,-1.39790625,-3.10730859375,0.2818046875,-0.04694921875,1.68591015625,0.77359375,2.25339453125,5.1119921875,4.1045,5.89954296875,2.874265625,6.7614453125,5.07792578125,6.09109375,5.44265234375,6.03993359375,4.2956875,5.07909375,5.9011640625
-10.99253125,-8.34583984375,-10.35134375,-10.079734375,-6.90177734375,-7.845984375,-6.670234375,-6.028796875,-6.524234375,-4.2694140625,-2.76020703125,-1.66090625,-4.32430859375,-0.3061953125,-0.18994921875,1.02191015625,-0.15440625,1.54939453125,4.1069921875,3.4325,4.14554296875,1.539265625,5.5014453125,3.76892578125,4.41509375,4.09765234375,4.20393359375,2.5486875,3.09509375,4.4851640625
-11.32453125,-8.18083984375,-10.75934375,-9.863734375,-7.50777734375,-7.721984375,-6.613234375,-6.681796875,-6.534234375,-4.2104140625,-2.15320703125,-1.71390625,-5.65430859375,-0.9411953125,-0.22294921875,0.58591015625,-1.01540625,0.87939453125,3.1599921875,2.8435,2.47554296875,0.542265625,4.3414453125,2.60892578125,3.03909375,2.38665234375,2.62193359375,1.1486875,1.55809375,3.0941640625
-10.74353125,-7.50383984375,-10.41134375,-9.396734375,-7.69877734375,-7.373984375,-6.279234375,-6.691796875,-6.144234375,-4.0784140625,-1.50120703125,-1.61690625,-6.85130859375,-1.3021953125,-0.0939492187500002,0.44491015625,-1.78540625,0.33939453125,2.4649921875,2.3925,1.15154296875,-0.0997343750000006,3.4184453125,1.74992578125,2.15009375,0.46265234375,1.54593359375,0.234687500000001,0.64909375,1.9021640625
-9.56253125,-6.65183984375,-9.52234375,-8.917734375,-7.36677734375,-6.783984375,-5.690234375,-6.094796875,-5.539234375,-3.8424140625,-0.94220703125,-1.48190625,-7.74330859375,-1.3241953125,0.12905078125,0.50091015625,-2.47340625,-0.16860546875,1.9859921875,2.0235,0.29754296875,-0.537734375,2.6704453125,1.15792578125,1.70809375,-1.46734765625,0.976933593749999,-0.299312499999999,0.264093750000001,0.9771640625
-8.10853125,-5.85883984375,-8.33234375,-8.619734375,-6.58777734375,-6.014984375,-4.966234375,-5.137796875,-4.983234375,-3.5504140625,-0.62420703125,-1.44290625,-8.18030859375,-1.1771953125,0.29805078125,0.50691015625,-3.13340625,-0.84160546875,1.5129921875,1.6055,-0.16245703125,-0.993734375,1.8784453125,0.64692578125,1.48309375,-3.21634765625,0.69393359375,-0.730312499999999,0.0940937500000008,0.2491640625
-6.51953125,-5.09683984375,-6.96534375,-8.524734375,-5.54477734375,-5.171984375,-4.285234375,-4.173796875,-4.668234375,-3.2664140625,-0.64920703125,-1.61090625,-8.02930859375,-1.1341953125,0.26505078125,0.15391015625,-3.85840625,-1.85160546875,0.794992187500001,0.9975,-0.45745703125,-1.649734375,0.7754453125,-0.02407421875,1.16809375,-4.66534765625,0.36893359375,-1.3683125,-0.219906249999999,-0.448835937499999
-4.75353125,-4.14083984375,-5.41934375,-8.489734375,-4.42777734375,-4.347984375,-3.800234375,-3.496796875,-4.620234375,-3.0224140625,-1.02020703125,-2.04290625,-7.24730859375,-1.4251953125,-0.02894921875,-0.77008984375,-4.74140625,-3.24660546875,-0.3320078125,0.1335,-0.83945703125,-2.574734375,-0.827554687500001,-1.02407421875,0.53809375,-5.77834765625,-0.270066406250001,-2.4113125,-0.93090625,-1.2868359375
-2.74053125,-2.75183984375,-3.64934375,-8.291734375,-3.35577734375,-3.569984375,-3.558234375,-3.214796875,-4.704234375,-2.7984140625,-1.60320703125,-2.70990625,-5.97230859375,-2.1151953125,-0.50494921875,-2.22708984375,-5.82140625,-4.91260546875,-1.8400078125,-0.9135,-1.44545703125,-3.722734375,-2.9345546875,-2.34807421875,-0.436906250000001,-6.58234765625,-1.30906640625,-3.8733125,-2.08990625,-2.3328359375
-0.50753125,-0.85183984375,-1.64734375,-7.746734375,-2.34777734375,-2.779984375,-3.455234375,-3.213796875,-4.702234375,-2.5374140625,-2.14120703125,-3.47690625,-4.50530859375,-3.0851953125,-0.94794921875,-3.88708984375,-7.02840625,-6.60060546875,-3.4960078125,-1.9165,-2.22245703125,-4.958734375,-5.3205546875,-3.78507421875,-1.55390625,-7.13734765625,-2.59806640625,-5.5813125,-3.53890625,-3.5088359375
1.77546875,1.38816015625,0.490656249999999,-6.802734375,-1.33877734375,-1.876984375,-3.280234375,-3.234796875,-4.433234375,-2.1594140625,-2.33720703125,-4.12190625,-3.16430859375,-4.0631953125,-1.09294921875,-5.21908984375,-8.17640625,-7.99660546875,-4.9170078125,-2.5525,-2.96045703125,-6.097734375,-7.5775546875,-4.98407421875,-2.45990625,-7.50834765625,-3.79706640625,-7.2333125,-4.97990625,-4.6078359375
3.80946875,3.57016015625,2.53165625,-5.558734375,-0.26677734375,-0.816984375,-2.828234375,-3.009796875,-3.836234375,-1.5964140625,-1.97820703125,-4.38790625,-2.12930859375,-4.7241953125,-0.72694921875,-5.71008984375,-9.02040625,-8.81560546875,-5.7060078125,-2.5145,-3.40445703125,-6.936734375,-9.2305546875,-5.57607421875,-2.79390625,-7.73934765625,-4.49206640625,-8.4773125,-6.06990625,-5.3868359375
5.18646875,5.17316015625,4.09965625,-4.235734375,0.83022265625,0.312015625,-2.015234375,-2.401796875,-2.979234375,-0.8354140625,-1.03720703125,-4.07290625,-1.39230859375,-4.8001953125,0.21705078125,-5.06708984375,-9.35240625,-8.87660546875,-5.5830078125,-1.6375,-3.36645703125,-7.278734375,-9.8765546875,-5.31107421875,-2.33390625,-7.83034765625,-4.33306640625,-8.9983125,-6.52490625,-5.6598359375
5.50446875,5.74716015625,4.78165625,-3.094734375,1.77722265625,1.292015625,-0.951234375,-1.462796875,-2.027234375,0.0505859374999998,0.30379296875,-3.11490625,-0.83530859375,-4.1801953125,1.61805078125,-3.33508984375,-9.08840625,-8.16760546875,-4.4980078125,0.0105,-2.80745703125,-6.984734375,-9.3145546875,-4.15307421875,-1.09690625,-7.73834765625,-3.17806640625,-8.6083125,-6.20190625,-5.3658359375
4.57346875,5.12016015625,4.33865625,-2.360734375,2.32322265625,1.855015625,0.101765625,-0.398796875,-1.190234375,0.9055859375,1.70379296875,-1.64890625,-0.37030859375,-2.9701953125,3.18405078125,-0.88408984375,-8.29940625,-6.85060546875,-2.6560078125,2.1055,-1.84245703125,-6.023734375,-7.6165546875,-2.30907421875,0.650093749999999,-7.41034765625,-1.16906640625,-7.3313125,-5.15590625,-4.5928359375
2.58546875,3.50116015625,2.87565625,-2.173734375,2.27122265625,1.807015625,0.854765625,0.532203125,-0.680234375,1.5415859375,2.79579296875,0.0250937500000004,-0.0303085937500001,-1.4611953125,4.53205078125,1.73391015625,-7.18440625,-5.21260546875,-0.4650078125,4.1585,-0.69345703125,-4.509734375,-5.1185546875,-0.17807421875,2.47309375,-6.83634765625,1.28493359375,-5.4133125,-3.63690625,-3.5368359375
0.0434687500000006,1.37816015625,0.802656249999999,-2.574734375,1.57922265625,1.111015625,1.113765625,1.116203125,-0.651234375,1.8095859375,3.32079296875,1.54309375,0.0706914062499999,-0.0221953125000001,5.32505078125,3.96991015625,-5.99140625,-3.54960546875,1.6129921875,5.6895,0.39754296875,-2.661734375,-2.2945546875,1.79392578125,3.94009375,-6.06834765625,3.65593359375,-3.2323125,-1.99390625,-2.4218359375
-2.54753125,-0.783839843749999,-1.43434375,-3.524734375,0.35422265625,-0.120984375,0.810765625,1.215203125,-1.147234375,1.6385859375,3.20779296875,2.58509375,-0.13630859375,1.0318046875,5.39905078125,5.44991015625,-4.93740625,-2.04260546875,3.2329921875,6.4235,1.24954296875,-0.719734375,0.415445312499999,3.27292578125,4.78809375,-5.20834765625,5.49793359375,-1.1483125,-0.522906249999999,-1.4108359375
-5.00653125,-2.83383984375,-3.67434375,-4.929734375,-1.23877734375,-1.726984375,-0.0492343750000002,0.747203125,-2.085234375,1.0435859375,2.54979296875,2.94309375,-0.55130859375,1.5378046875,4.80005078125,6.04691015625,-4.15440625,-0.72260546875,4.2669921875,6.3735,1.79254296875,1.150265625,2.7384453125,4.14292578125,5.00309375,-4.36234765625,6.60293359375,0.621687500000001,0.647093750000001,-0.5628359375
-7.50653125,-4.97983984375,-6.10134375,-6.629734375,-3.05077734375,-3.585984375,-1.452234375,-0.328796875,-3.262234375,0.0985859374999998,1.51279296875,2.54009375,-0.91930859375,1.5118046875,3.74005078125,5.85391015625,-3.68540625,0.48039453125,4.7989921875,5.7935,2.06354296875,2.887265625,4.5894453125,4.48892578125,4.77709375,-3.60134765625,7.03893359375,2.0226875,1.54809375,0.1511640625
-10.22853125,-7.47583984375,-8.94234375,-8.369734375,-4.91077734375,-5.576984375,-3.319234375,-1.965796875,-4.390234375,-1.0414140625,0.29279296875,1.45509375,-0.97730859375,1.1398046875,2.52005078125,5.12391015625,-3.48940625,1.65039453125,5.0389921875,5.0395,2.17054296875,4.488265625,6.0284453125,4.52592578125,4.40809375,-2.94234765625,7.07093359375,3.0966875,2.28709375,0.7891640625
-12.95053125,-10.19683984375,-12.03234375,-9.780734375,-6.52177734375,-7.442984375,-5.375234375,-3.934796875,-5.128234375,-2.1084140625,-0.86120703125,-0.0459062499999996,-0.61730859375,0.7678046875,1.48005078125,4.21291015625,-3.46940625,2.83139453125,5.2429921875,4.4455,2.25054296875,5.945265625,7.1874453125,4.51192578125,4.18109375,-2.36834765625,7.03793359375,3.9116875,2.95209375,1.3911640625
-14.93753125,-12.48883984375,-14.65234375,-10.433734375,-7.41677734375,-8.731984375,-7.091234375,-5.791796875,-5.154234375,-2.7174140625,-1.62520703125,-1.52590625,0.10569140625,0.8218046875,0.96305078125,3.50291015625,-3.51140625,4.03939453125,5.6489921875,4.2545,2.41854296875,7.210265625,8.2134453125,4.68892578125,4.28909375,-1.85134765625,7.22693359375,4.5246875,3.56809375,1.9561640625
-15.28453125,-13.44483984375,-15.80934375,-9.988734375,-7.09577734375,-8.911984375,-7.833234375,-6.984796875,-4.259234375,-2.4654140625,-1.67520703125,-2.47890625,1.07769140625,1.6738046875,1.24505078125,3.30491015625,-3.52940625,5.27339453125,6.4299921875,4.5715,2.73354296875,8.226265625,9.2224453125,5.22692578125,4.78009375,-1.39134765625,7.79393359375,4.9726875,4.10609375,2.4571640625
-13.45253125,-12.43183984375,-14.79534375,-8.359734375,-5.28477734375,-7.637984375,-7.166234375,-7.067796875,-2.448234375,-1.1024140625,-0.82820703125,-2.51690625,2.22169140625,3.4558046875,2.43205078125,3.74391015625,-3.48640625,6.51639453125,7.6369921875,5.3535,3.16854296875,8.966265625,10.2444453125,6.17192578125,5.53409375,-1.02734765625,8.71793359375,5.2806875,4.51309375,2.8611640625
-9.64453125,-9.49583984375,-11.62834375,-5.795734375,-2.16477734375,-4.984984375,-5.109234375,-5.914796875,0.019765625,1.3005859375,0.83479296875,-1.52490625,3.44569140625,5.9458046875,4.37705078125,4.70391015625,-3.38240625,7.70139453125,9.1499921875,6.4135,3.61354296875,9.448265625,11.1964453125,7.39792578125,6.30309375,-0.81834765625,9.81393359375,5.4356875,4.73409375,3.1381640625
-4.80953125,-5.41583984375,-7.13734375,-2.838734375,1.58722265625,-1.502984375,-2.173234375,-3.799796875,2.664765625,4.3015859375,2.95779296875,0.26609375,4.54169140625,8.5968046875,6.67505078125,5.86791015625,-3.22440625,8.67739453125,10.6759921875,7.4675,3.91254296875,9.690265625,11.8744453125,8.61392578125,6.78709375,-0.81534765625,10.79493359375,5.3646875,4.71109375,3.2491640625
-0.294531249999999,-1.41883984375,-2.65934375,-0.153734375,5.00122265625,1.957015625,0.853765625,-1.298796875,4.910765625,7.2095859375,5.02179296875,2.36209375,5.14569140625,10.7078046875,8.79005078125,6.84091015625,-3.01440625,9.22439453125,11.8019921875,8.2155,3.92554296875,9.652265625,12.0094453125,9.45092578125,6.75209375,-1.04434765625,11.35693359375,4.9346875,4.39109375,3.1361640625
2.66446875,1.31116015625,0.488656249999999,1.676265625,7.17022265625,4.563015625,3.238765625,0.939203125,6.249765625,9.3345859375,6.52679296875,4.17709375,4.87769140625,11.6738046875,10.23305078125,7.30491015625,-2.75040625,9.11239453125,12.1309921875,8.4345,3.58454296875,9.214265625,11.3654453125,9.58792578125,6.12109375,-1.48934765625,11.28693359375,4.0136875,3.74109375,2.7361640625
3.38046875,2.08716015625,1.51465625,2.327265625,7.58322265625,5.813015625,4.563765625,2.418203125,6.403765625,10.2385859375,7.16879296875,5.24209375,3.56769140625,11.1938046875,10.73205078125,7.12391015625,-2.43540625,8.19939453125,11.4209921875,8.0325,2.91454296875,8.234265625,9.8464453125,8.88492578125,5.00209375,-2.10334765625,10.52093359375,2.5596875,2.77609375,2.0061640625
1.92546875,0.96716015625,0.429656249999999,1.808265625,6.29922265625,5.685015625,4.805765625,2.937203125,5.399765625,9.8775859375,6.91979296875,5.34309375,1.43269140625,9.3618046875,10.27905078125,6.35391015625,-2.10240625,6.50339453125,9.6819921875,7.0465,2.00354296875,6.654265625,7.5504453125,7.41192578125,3.61709375,-2.82334765625,9.15793359375,0.6806875,1.58409375,0.9641640625
-0.91253125,-1.31283984375,-1.99734375,0.420265625,3.89322265625,4.558015625,4.236765625,2.602203125,3.553765625,8.5575859375,5.99179296875,4.54309375,-0.94830859375,6.6028046875,9.07305078125,5.17291015625,-1.82840625,4.22639453125,7.1639921875,5.6005,0.94754296875,4.591265625,4.7434453125,5.39892578125,2.17809375,-3.60534765625,7.40493359375,-1.3823125,0.31109375,-0.3048359375
-3.90953125,-3.65683984375,-4.55934375,-1.354734375,1.21522265625,3.004015625,3.254765625,1.746203125,1.362765625,6.7625859375,4.71979296875,3.12909375,-2.87230859375,3.5098046875,7.39305078125,3.79491015625,-1.71940625,1.69539453125,4.2609921875,3.8485,-0.18145703125,2.341265625,1.7734453125,3.11992578125,0.792093749999999,-4.41434765625,5.50493359375,-3.3463125,-0.88590625,-1.6588359375
-5.86353125,-5.06083984375,-6.09934375,-3.001734375,-0.92677734375,1.547015625,2.227765625,0.796203125,-0.638234375,4.9465859375,3.43479296875,1.51409375,-3.84130859375,0.6498046875,5.50405078125,2.42391015625,-1.84140625,-0.72460546875,1.3819921875,1.9565,-1.31945703125,0.288265624999999,-1.0215546875,0.80692578125,-0.53190625,-5.19634765625,3.66593359375,-4.9813125,-1.88790625,-2.9328359375
-6.09453125,-5.02383984375,-5.99134375,-4.123734375,-2.06677734375,0.510015625,1.392765625,0.145203125,-2.038234375,3.3855859375,2.37079296875,0.13209375,-3.77330859375,-1.5841953125,3.61505078125,1.24491015625,-2.13840625,-2.73060546875,-1.1500078125,0.1055,-2.35945703125,-1.230734375,-3.3695546875,-1.37207421875,-1.78990625,-5.83334765625,2.03793359375,-6.1613125,-2.64890625,-3.9748359375
-4.76153125,-3.75683984375,-4.41134375,-4.568734375,-2.22677734375,-0.0619843749999998,0.812765625,0.0232031249999998,-2.686234375,2.1405859375,1.62579296875,-0.67290625,-2.99930859375,-3.0601953125,1.86705078125,0.42591015625,-2.40640625,-4.15060546875,-3.1360078125,-1.5085,-3.13045703125,-2.028734375,-5.0955546875,-3.30007421875,-2.89690625,-6.16634765625,0.702933593749999,-6.8533125,-3.18290625,-4.6688359375
-2.80353125,-2.08883984375,-2.24934375,-4.484734375,-1.86477734375,-0.371984375,0.393765625,0.428203125,-2.745234375,1.1145859375,1.15179296875,-0.73690625,-2.04930859375,-3.8941953125,0.34905078125,0.08591015625,-2.37940625,-4.95460546875,-4.5050078125,-2.7035,-3.43345703125,-2.113734375,-6.1225546875,-4.87007421875,-3.66590625,-6.07534765625,-0.30106640625,-7.0823125,-3.53090625,-4.9568359375
-1.45153125,-1.04783984375,-0.669343750000001,-4.243734375,-1.61877734375,-0.720984375,-0.030234375,1.161203125,-2.589234375,0.1755859375,0.82779296875,-0.11890625,-1.39430859375,-4.3461953125,-0.88394921875,0.27191015625,-1.87940625,-5.21760546875,-5.2590078125,-3.3495,-3.13145703125,-1.622734375,-6.4475546875,-5.95707421875,-3.88990625,-5.55734765625,-0.946066406250001,-6.8853125,-3.70290625,-4.8418359375
-1.54453125,-1.29583984375,-0.472343750000001,-4.225734375,-1.95777734375,-1.295984375,-0.542234375,1.950203125,-2.585234375,-0.7084140625,0.57679296875,0.95609375,-1.23930859375,-4.6411953125,-1.75394921875,0.96391015625,-0.93640625,-5.02660546875,-5.4050078125,-3.3795,-2.21245703125,-0.734734375,-6.0925546875,-6.41107421875,-3.43190625,-4.73934765625,-1.17406640625,-6.2813125,-3.64790625,-4.3758359375
-3.00453125,-2.71183984375,-1.62834375,-4.563734375,-2.88777734375,-1.995984375,-1.018234375,2.617203125,-2.852234375,-1.3894140625,0.46879296875,2.21209375,-1.45330859375,-4.8181953125,-2.13294921875,2.09791015625,0.19759375,-4.41560546875,-4.9200078125,-2.7775,-0.81145703125,0.415265625,-5.0945546875,-6.10107421875,-2.30190625,-3.82934765625,-0.903066406250001,-5.2843125,-3.26990625,-3.6468359375
-4.81453125,-4.40783984375,-3.24334375,-5.011734375,-3.90277734375,-2.439984375,-1.117234375,3.159203125,-3.183234375,-1.5664140625,0.72079296875,3.43809375,-1.62630859375,-4.6981953125,-1.86294921875,3.59391015625,1.16459375,-3.37660546875,-3.7780078125,-1.5655,0.83554296875,1.739265625,-3.5215546875,-5.00107421875,-0.66390625,-3.02934765625,-0.0710664062500008,-3.9533125,-2.50490625,-2.7588359375
-5.55053125,-5.17383984375,-4.01434375,-5.045734375,-4.22377734375,-2.150984375,-0.428234375,3.719203125,-3.177234375,-0.9244140625,1.58979296875,4.54109375,-1.25030859375,-3.9971953125,-0.83294921875,5.35191015625,1.67759375,-1.91560546875,-2.0240078125,0.1865,2.47854296875,3.155265625,-1.5175546875,-3.24407421875,1.22309375,-2.45034765625,1.29193359375,-2.4353125,-1.39290625,-1.8178359375
-4.17453125,-4.11083984375,-2.92134375,-4.163734375,-3.21477734375,-0.813984375,1.297765625,4.461203125,-2.484234375,0.6765859375,3.21679296875,5.52709375,0.0306914062499999,-2.5241953125,0.93905078125,7.25291015625,1.66659375,-0.12660546875,0.1809921875,2.3555,3.95654296875,4.550265625,0.6954453125,-1.10907421875,3.09709375,-2.07134765625,3.03393359375,-0.955312499999999,-0.107906249999999,-0.9178359375
-0.60453125,-1.09183984375,0.224656249999999,-2.213734375,-0.74277734375,1.531015625,3.949765625,5.447203125,-1.026234375,3.0875859375,5.50079296875,6.42509375,2.20669140625,-0.3201953125,3.26305078125,9.15191015625,1.30059375,1.79039453125,2.5709921875,4.7495,5.23554296875,5.787265625,2.8594453125,1.06992578125,4.77109375,-1.74534765625,4.91393359375,0.258687500000001,1.10609375,-0.1288359375
4.25846875,3.16516015625,4.68565625,0.461265625,2.71322265625,4.442015625,7.020765625,6.574203125,0.937765625,5.8675859375,8.06279296875,7.20709375,4.85069140625,2.3008046875,5.77605078125,10.85991015625,0.87459375,3.56739453125,4.8239921875,7.0905,6.35454296875,6.750265625,4.7354453125,2.98892578125,6.12909375,-1.29234765625,6.66693359375,1.0506875,2.01709375,0.495164062500001
9.01246875,7.42816015625,9.14165625,3.144265625,6.25522265625,7.199015625,9.743765625,7.583203125,2.927765625,8.4215859375,10.32579296875,7.76009375,7.26969140625,4.8498046875,8.00405078125,12.13791015625,0.64759375,4.93939453125,6.6099921875,9.0105,7.31654296875,7.369265625,6.1334453125,4.40792578125,7.08409375,-0.61634765625,8.04193359375,1.3576875,2.46209375,0.8981640625
12.41446875,10.48816015625,12.29165625,5.082265625,8.95022265625,9.070015625,11.360765625,8.151203125,4.470765625,10.1915859375,11.71379296875,7.93609375,8.77669140625,6.8228046875,9.48605078125,12.73391015625,0.72059375,5.71239453125,7.6479921875,10.1125,8.00454296875,7.608265625,6.9174453125,5.14992578125,7.53309375,0.20365234375,8.81993359375,1.1816875,2.37109375,1.0031640625
13.91346875,11.68416015625,13.42765625,5.837265625,10.23222265625,9.609015625,11.436765625,8.054203125,5.329765625,10.8575859375,11.88979296875,7.66209375,8.95369140625,7.8728046875,9.92605078125,12.46091015625,1.02459375,5.82939453125,7.7719921875,10.0955,8.20554296875,7.465265625,7.0064453125,5.10192578125,7.36609375,0.93465234375,8.82993359375,0.548687500000001,1.75409375,0.7241640625
13.87046875,11.19516015625,12.76665625,5.508265625,10.14822265625,8.865015625,10.070765625,7.330203125,5.616765625,10.4735859375,10.91779296875,7.03109375,7.80869140625,7.9208046875,9.32905078125,11.30191015625,1.39059375,5.38239453125,6.9979921875,8.9075,7.73554296875,6.978265625,6.3824453125,4.24092578125,6.52809375,1.29265234375,7.99493359375,-0.488312499999999,0.697093750000001,0.00416406250000012
13.38046875,9.96916015625,11.37165625,4.694265625,9.32122265625,7.384015625,7.918765625,6.328203125,5.710765625,9.4695859375,9.27179296875,6.30209375,5.76969140625,7.1678046875,8.02305078125,9.45891015625,1.65559375,4.58339453125,5.5479921875,6.8035,6.56954296875,6.254265625,5.1044453125,2.68492578125,5.08409375,1.08165234375,6.40093359375,-1.8263125,-0.63690625,-1.1348359375
13.70146875,9.26816015625,10.63065625,4.180265625,8.62022265625,5.979015625,5.924765625,5.569203125,6.018765625,8.4615859375,7.63779296875,5.76709375,3.53269140625,5.9848046875,6.53305078125,7.30391015625,1.72859375,3.66839453125,3.7919921875,4.2795,4.88054296875,5.457265625,3.3174453125,0.69292578125,3.22909375,0.27865234375,4.32393359375,-3.2983125,-2.02590625,-2.5698359375
15.51746875,9.98516015625,11.49365625,4.515265625,8.68322265625,5.342015625,4.891765625,5.458203125,6.694765625,7.9435859375,6.59979296875,5.58809375,1.79669140625,4.7268046875,5.34405078125,5.23291015625,1.59059375,2.77739453125,2.0979921875,1.8825,2.96754296875,4.749265625,1.2144453125,-1.39607421875,1.24309375,-0.97334765625,2.16593359375,-4.7013125,-3.24490625,-4.0958359375
18.47446875,12.10716015625,13.90865625,5.709265625,9.57722265625,5.711015625,5.090765625,6.041203125,7.506765625,8.0335859375,6.36479296875,5.68409375,1.00069140625,3.5638046875,4.68605078125,3.50991015625,1.25559375,1.88439453125,0.6729921875,0.0155000000000003,1.12054296875,4.207265625,-1.0105546875,-3.27807421875,-0.60290625,-2.44434765625,0.311933593749999,-5.8743125,-4.13390625,-5.4928359375
21.36146875,14.72016015625,16.85765625,7.260265625,10.81322265625,6.794015625,6.179765625,6.972203125,7.958765625,8.4595859375,6.71479296875,5.78809375,1.20469140625,2.4578046875,4.48605078125,2.21291015625,0.74359375,0.83239453125,-0.4940078125,-1.1645,-0.47845703125,3.787265625,-3.1995546875,-4.77807421875,-2.12790625,-3.91234765625,-1.00006640625,-6.7573125,-4.65890625,-6.5828359375
22.89846875,16.61016015625,19.03065625,8.496265625,11.72422265625,8.022015625,7.477765625,7.758203125,7.620765625,8.8085859375,7.21979296875,5.62909375,2.12869140625,1.2978046875,4.50305078125,1.31191015625,0.10159375,-0.51560546875,-1.5290078125,-1.6925,-1.75745703125,3.374265625,-5.2085546875,-5.84907421875,-3.24790625,-5.21334765625,-1.73206640625,-7.3853125,-4.90090625,-7.2798359375
22.65346875,17.11616015625,19.73465625,9.009265625,11.94322265625,8.958015625,8.430765625,8.101203125,6.461765625,8.8525859375,7.56679296875,5.15609375,3.33969140625,0.1018046875,4.56005078125,0.81991015625,-0.56340625,-2.09660546875,-2.4780078125,-1.6655,-2.67645703125,2.875265625,-6.8625546875,-6.49507421875,-3.92990625,-6.23734765625,-1.97906640625,-7.8283125,-4.99090625,-7.5868359375
21.48746875,16.66416015625,19.44565625,8.922265625,11.68622265625,9.597015625,8.978765625,8.152203125,4.970765625,8.7465859375,7.78479296875,4.63609375,4.47269140625,-0.8761953125,4.70705078125,0.87491015625,-1.07340625,-3.57760546875,-3.1710078125,-1.1335,-3.14845703125,2.303265625,-7.9315546875,-6.67407421875,-4.13690625,-6.90734765625,-1.86606640625,-8.1183125,-5.03190625,-7.5728359375
21.26046875,16.62516015625,19.65165625,8.840265625,11.67522265625,10.345015625,9.592765625,8.489203125,3.969765625,8.9815859375,8.21279296875,4.56209375,5.38569140625,-1.2191953125,5.20305078125,1.70291015625,-1.21840625,-4.45060546875,-3.2410078125,-0.0764999999999998,-3.02245703125,1.781265625,-8.1865546875,-6.28207421875,-3.81690625,-7.16034765625,-1.47706640625,-8.2373125,-5.05290625,-7.3288359375
23.97046875,18.61716015625,22.11565625,9.549265625,12.77122265625,11.750015625,11.004765625,9.841203125,4.265765625,10.1285859375,9.28279296875,5.43109375,6.18369140625,-0.5361953125,6.35905078125,3.49591015625,-0.82340625,-4.23560546875,-2.2970078125,1.5375,-2.15145703125,1.479265625,-7.4835546875,-5.20307421875,-2.93990625,-6.95434765625,-0.84606640625,-8.1493125,-5.01890625,-6.9408359375
30.81646875,23.68716015625,27.98765625,11.612265625,15.54122265625,14.187015625,13.777765625,12.713203125,6.299765625,12.5525859375,11.26579296875,7.50809375,7.09369140625,1.3518046875,8.35505078125,6.29291015625,0.18559375,-2.69560546875,-0.1260078125,3.6915,-0.49145703125,1.514265625,-5.8315546875,-3.39607421875,-1.52790625,-6.28934765625,0.0199335937499994,-7.8393125,-4.87190625,-6.4658359375
41.62346875,31.79316015625,37.23265625,15.089265625,19.97722265625,17.662015625,17.985765625,17.103203125,9.961765625,16.2185859375,14.13579296875,10.69809375,8.28369140625,4.3098046875,11.13205078125,9.92791015625,1.73159375,0.0413945312499999,3.1649921875,6.2895,1.84554296875,1.891265625,-3.4145546875,-0.95907421875,0.32009375,-5.23934765625,1.09893359375,-7.3383125,-4.58190625,-5.9328359375
54.86646875,41.80816015625,48.59965625,19.485265625,25.47122265625,21.810015625,23.143765625,22.457203125,14.607765625,20.6655859375,17.57179296875,14.56009375,9.73169140625,7.9078046875,14.39705078125,14.05591015625,3.59259375,3.49439453125,7.1409921875,9.1605,4.58554296875,2.489265625,-0.564554687500001,1.85992578125,2.42509375,-3.96334765625,2.32593359375,-6.7153125,-4.17890625,-5.3628359375
54.86646875,41.80816015625,48.59965625,19.485265625,25.47122265625,21.810015625,23.143765625,22.457203125,14.607765625,20.6655859375,17.57179296875,14.56009375,9.73169140625,7.9078046875,14.39705078125,14.05591015625,3.59259375,3.49439453125,7.1409921875,9.1605,4.58554296875,2.489265625,-0.564554687500001,1.85992578125,2.42509375,-3.96334765625,2.32593359375,-6.7153125,-4.17890625,-5.3628359375
