"Fp1","Fpz","Fp2","F7","F3","Fz","F4","F8","FC5","FC1","FC2","FC6","T7","C3","Cz","C4","T8","CP5","CP1","CP2","CP6","P7","P3","Pz","P4","P8","POz","O1","Oz","O2"
11.38228125,5.0021640625,6.57491015625,8.51488671875,11.64074609375,6.67030078125,7.028640625,11.64,15.93069140625,-1.4456953125,1.76384765625,8.5505703125,8.5046640625,1.198609375,-2.466375,4.92665234375,9.44810546875,-1.60563671875,-3.050828125,0.2569921875,3.77964453125,-5.549765625,-4.145359375,-8.3998203125,-4.84896484375,1.33420703125,-8.11269140625,-4.55134765625,-2.813625,1.4774375
8.53728125,1.1611640625,2.86491015625,6.19088671875,9.89474609375,4.52830078125,6.299640625,7.535,9.70569140625,-4.2906953125,-1.48415234375,6.7585703125,9.3126640625,-0.597390625,-3.746375,1.30365234375,6.99710546875,-2.65163671875,-4.240828125,-2.9310078125,0.72064453125,-3.950765625,-5.162359375,-9.9158203125,-8.59196484375,-0.17979296875,-10.90269140625,-5.08534765625,-3.289625,-0.0225624999999998
7.08828125,-1.3818359375,0.07691015625,5.30288671875,9.51374609375,3.66530078125,6.412640625,4.472,6.18069140625,-5.6726953125,-3.56315234375,5.6455703125,9.7576640625,-1.369390625,-3.957375,-0.402347656249999,5.37910546875,-2.83563671875,-4.708828125,-4.9940078125,-1.34535546875,-1.893765625,-5.136359375,-10.9178203125,-11.25796484375,-1.09279296875,-12.85369140625,-4.98234765625,-3.532625,-0.9355625
7.30828125,-2.3908359375,-1.50008984375,5.89788671875,10.55674609375,4.14730078125,7.237640625,2.751,5.54469140625,-5.4886953125,-4.22515234375,5.2905703125,9.8776640625,-0.967390625,-3.046375,-0.0523476562499994,4.71610546875,-1.98263671875,-4.334828125,-5.6820078125,-2.28935546875,0.589234375,-3.973359375,-11.2518203125,-12.64496484375,-1.33979296875,-13.83669140625,-4.30034765625,-3.536625,-1.2775625
8.99628125,-1.9888359375,-1.73708984375,7.49788671875,12.59474609375,5.57030078125,8.285640625,2.417,7.14469140625,-4.1606953125,-3.57015234375,5.5055703125,9.8196640625,0.408609375,-1.365375,1.88565234375,4.86710546875,-0.19563671875,-3.234828125,-5.0720078125,-2.25335546875,3.252234375,-1.956359375,-10.9048203125,-12.84296484375,-1.01479296875,-13.96669140625,-3.33934765625,-3.394625,-1.2465625
11.50428125,-0.5838359375,-0.68508984375,9.32588671875,14.88374609375,7.24030078125,8.937640625,3.23,9.84769140625,-2.4556953125,-2.02815234375,5.8935703125,9.7236640625,2.276609375,0.464625,4.57565234375,5.49110546875,2.15736328125,-1.721828125,-3.5440078125,-1.54735546875,5.717234375,0.369640625,-10.0068203125,-12.16096484375,-0.30779296875,-13.53269140625,-2.46734765625,-3.259625,-1.0905625
13.95828125,1.2791640625,1.40691015625,10.67388671875,16.67974609375,8.46630078125,8.762640625,4.682,12.51169140625,-1.1756953125,-0.21315234375,6.0135703125,9.6266640625,4.062609375,1.821625,7.18165234375,6.18110546875,4.56736328125,-0.174828125,-1.6340078125,-0.52035546875,7.623234375,2.416640625,-8.7798203125,-10.98796484375,0.57420703125,-12.85069140625,-1.93934765625,-3.252625,-0.9625625
15.58628125,3.0611640625,4.06891015625,11.21288671875,17.50474609375,8.83130078125,7.736640625,6.106,14.28569140625,-0.862695312500001,1.30684765625,5.5645703125,9.4446640625,5.311609375,2.341625,9.13765234375,6.63710546875,6.54936328125,1.102171875,0.1609921875,0.53564453125,8.736234375,3.776640625,-7.4488203125,-9.63396484375,1.47820703125,-12.11569140625,-1.78934765625,-3.381625,-0.8495625
15.98328125,4.3231640625,6.63291015625,11.06188671875,17.26774609375,8.31830078125,6.250640625,6.872,14.73269140625,-1.6296953125,2.20784765625,4.5075703125,9.0356640625,5.810609375,2.047625,10.26465234375,6.76410546875,7.76336328125,1.963171875,1.5519921875,1.44864453125,8.995234375,4.337640625,-6.1708203125,-8.23796484375,2.32820703125,-11.33469140625,-1.84634765625,-3.515625,-0.5965625
15.21028125,4.7791640625,8.37191015625,10.61888671875,16.21974609375,7.24430078125,4.913640625,6.623,13.85369140625,-3.1816953125,2.51584765625,3.0675703125,8.3076640625,5.608609375,1.301625,10.72665234375,6.67110546875,8.05436328125,2.425171875,2.5089921875,2.15964453125,8.473234375,4.244640625,-5.0048203125,-6.76996484375,3.10420703125,-10.37469140625,-1.85634765625,-3.446625,0.0064375000000001
13.70528125,4.3151640625,8.72391015625,10.27188671875,14.79374609375,6.09830078125,4.274640625,5.402,12.06369140625,-4.9636953125,2.52084765625,1.6305703125,7.2916640625,4.942609375,0.617625,10.87765234375,6.54710546875,7.42336328125,2.604171875,3.2079921875,2.70364453125,7.310234375,3.763640625,-3.9258203125,-5.11196484375,3.78620703125,-9.06369140625,-1.61734765625,-2.985625,1.0924375
12.06028125,2.9911640625,7.47691015625,10.16788671875,13.43874609375,5.34630078125,4.597640625,3.619,9.99269140625,-6.3806953125,2.58884765625,0.6085703125,6.1276640625,4.108609375,0.445625,11.09365234375,6.53510546875,6.00536328125,2.632171875,3.9139921875,3.16364453125,5.675234375,3.154640625,-2.8498203125,-3.16396484375,4.32720703125,-7.30669140625,-1.07034765625,-2.053625,2.6304375
10.76528125,1.0521640625,4.83691015625,10.18888671875,12.50574609375,5.30030078125,5.786640625,1.88,8.22169140625,-6.9906953125,2.96184765625,0.3165703125,5.0076640625,3.363609375,1.020625,11.64565234375,6.66010546875,4.05036328125,2.599171875,4.8489921875,3.62964453125,3.758234375,2.619640625,-1.6758203125,-0.91396484375,4.66720703125,-5.13569140625,-0.27734765625,-0.700625,4.4124375
10.04728125,-1.0728359375,1.38591015625,10.08988671875,12.19674609375,6.04430078125,7.472640625,0.751,7.11969140625,-6.6086953125,3.68084765625,0.8845703125,4.0976640625,2.869609375,2.327625,12.66265234375,6.86310546875,1.89536328125,2.555171875,6.1079921875,4.17164453125,1.756234375,2.301640625,-0.3228203125,1.54203515625,4.78020703125,-2.70869140625,0.64565234375,0.941375,6.1454375
9.82328125,-2.8228359375,-2.02408984375,9.69088671875,12.54274609375,7.42130078125,9.159640625,0.573,6.81169140625,-5.3366953125,4.63084765625,2.1965703125,3.4906640625,2.705609375,4.148625,14.13565234375,7.08010546875,-0.10063671875,2.530171875,7.6199921875,4.82164453125,-0.156765625,2.286640625,1.2111796875,4.00703515625,4.71220703125,-0.27569140625,1.57665234375,2.691375,7.5924375
9.76328125,-3.6908359375,-4.47508984375,8.94988671875,13.38074609375,9.04530078125,10.365640625,1.33,7.19169140625,-3.5586953125,5.60584765625,3.8935703125,3.1616640625,2.872609375,6.127625,15.89565234375,7.28310546875,-1.66663671875,2.527171875,9.1499921875,5.54664453125,-1.883765625,2.569640625,2.7901796875,6.19003515625,4.56620703125,1.85830859375,2.37865234375,4.337375,8.6494375
9.43728125,-3.4998359375,-5.30708984375,7.89988671875,14.34174609375,10.37430078125,10.705640625,2.615,7.91569140625,-1.8786953125,6.35884765625,5.4515703125,2.9616640625,3.270609375,7.821625,17.58465234375,7.43410546875,-2.70463671875,2.480171875,10.3349921875,6.21064453125,-3.407765625,3.001640625,4.1131796875,7.73203515625,4.42020703125,3.36730859375,2.85965234375,5.621375,9.3084375
8.48228125,-2.5938359375,-4.47708984375,6.54588671875,14.92874609375,10.85730078125,9.965640625,3.688,8.49869140625,-0.9926953125,6.62384765625,6.3215703125,2.6906640625,3.684609375,8.747625,18.69065234375,7.37910546875,-3.30263671875,2.225171875,10.7579921875,6.54964453125,-4.736765625,3.284640625,4.7381796875,8.25703515625,4.22120703125,3.92930859375,2.79665234375,6.250375,9.5484375
6.74828125,-1.7878359375,-2.75808984375,4.82688671875,14.65874609375,10.12330078125,8.130640625,3.674,8.49469140625,-1.4756953125,6.16084765625,6.0575703125,2.2316640625,3.810609375,8.479625,18.67165234375,6.77010546875,-3.65963671875,1.543171875,10.0429921875,6.19064453125,-5.795765625,3.052640625,4.2121796875,7.46203515625,3.73120703125,3.29630859375,2.03365234375,5.987375,9.2584375
4.33928125,-2.0408359375,-1.54808984375,2.68988671875,13.24674609375,8.11030078125,5.365640625,1.857,7.64769140625,-3.5716953125,4.80384765625,4.3935703125,1.6626640625,3.338609375,6.760625,17.13165234375,5.12610546875,-3.95363671875,0.250171875,7.9519921875,4.74464453125,-6.357765625,2.029640625,2.2571796875,5.20103515625,2.59820703125,1.37130859375,0.62465234375,4.772375,8.2534375
1.58628125,-3.9828359375,-2.22708984375,0.201886718749999,10.73474609375,5.10630078125,1.964640625,-1.992,5.96769140625,-7.0686953125,2.52684765625,1.3025703125,1.2426640625,2.075609375,3.634625,13.96665234375,2.08410546875,-4.23463671875,-1.691828125,4.4989921875,1.99964453125,-6.060765625,0.181640625,-1.0558203125,1.57603515625,0.54520703125,-1.71069140625,-1.12234765625,2.796375,6.3804375
-1.02971875,-7.5348359375,-5.33708984375,-2.34911328125,7.54874609375,1.70430078125,-1.676359375,-7.408,3.76969140625,-11.2886953125,-0.46515234375,-2.9244296875,1.2636640625,0.085609375,-0.473375,9.48765234375,-2.30189453125,-4.39563671875,-4.085828125,0.0319921875,-1.88435546875,-4.570765625,-2.212359375,-5.2368203125,-3.01196484375,-2.40979296875,-5.56269140625,-2.73734765625,0.454375,3.6574375
-2.97971875,-11.8378359375,-10.09208984375,-4.48611328125,4.41474609375,-1.31469921875,-5.034359375,-13.255,1.67969140625,-15.2366953125,-3.66515234375,-7.6134296875,1.8556640625,-2.244390625,-4.782375,4.45065234375,-7.36889453125,-4.24763671875,-6.499828125,-4.7570078125,-6.27035546875,-1.802765625,-4.646359375,-9.4758203125,-7.87396484375,-5.83979296875,-9.62369140625,-3.81334765625,-1.811625,0.3494375
-3.86071875,-15.5738359375,-14.62808984375,-5.73011328125,2.13274609375,-3.19069921875,-7.498359375,-18.051,0.43369140625,-17.8806953125,-6.33215234375,-11.7744296875,2.8476640625,-4.315390625,-8.335375,-0.0873476562499995,-11.95989453125,-3.68563671875,-8.400828125,-8.9750078125,-10.18235546875,1.889234375,-6.613359375,-12.9198203125,-12.17896484375,-8.98479296875,-13.31769140625,-4.22234765625,-3.709625,-3.0745625
-3.57471875,-17.5688359375,-16.93008984375,-5.86211328125,1.24674609375,-3.44169921875,-8.531359375,-20.487,0.47969140625,-18.5356953125,-7.75215234375,-14.3684296875,3.7686640625,-5.584390625,-10.313375,-3.12134765625,-14.80989453125,-2.83363671875,-9.394828125,-11.8150078125,-12.66235546875,5.710234375,-7.843359375,-14.9898203125,-15.18896484375,-11.04179296875,-16.24069140625,-4.20934765625,-5.207625,-6.1075625
-2.40471875,-17.3498359375,-15.89908984375,-5.08311328125,1.81374609375,-2.07369921875,-7.913359375,-19.929,1.68169140625,-17.1396953125,-7.55015234375,-14.6944296875,4.0246640625,-5.827390625,-10.344375,-4.09434765625,-15.05889453125,-2.04563671875,-9.411828125,-12.8530078125,-13.16935546875,8.672234375,-8.405359375,-15.5788203125,-16.50496484375,-11.50279296875,-18.24669140625,-4.26234765625,-6.482625,-8.3835625
-0.88871875,-15.3248359375,-11.91108984375,-3.93311328125,3.38174609375,0.39030078125,-5.903359375,-16.643,3.43569140625,-14.2876953125,-5.87415234375,-12.7094296875,3.2026640625,-5.217390625,-8.647375,-3.10734765625,-12.61889453125,-1.73563671875,-8.705828125,-12.1820078125,-11.80735546875,10.029234375,-8.590359375,-15.0108203125,-16.17496484375,-10.38979296875,-19.39569140625,-4.79534765625,-7.719625,-9.7395625
0.44328125,-12.5148359375,-6.57708984375,-3.01011328125,5.21574609375,3.10430078125,-3.192359375,-11.689,5.08269140625,-10.9526953125,-3.34415234375,-9.1034296875,1.3526640625,-4.165390625,-5.912375,-0.84934765625,-8.23789453125,-2.11163671875,-7.659828125,-10.3170078125,-9.24435546875,9.665234375,-8.653359375,-13.7998203125,-14.62196484375,-8.22079296875,-19.78669140625,-5.83734765625,-8.898625,-10.1675625
1.31228125,-10.0148359375,-1.89808984375,-2.67211328125,6.62974609375,5.22330078125,-0.632359375,-6.525,6.25869140625,-8.0606953125,-0.80215234375,-5.0544296875,-0.9403359375,-3.060390625,-3.005375,1.70065234375,-3.20089453125,-2.98863671875,-6.535828125,-7.9410078125,-6.39735546875,8.185234375,-8.603359375,-12.3508203125,-12.42696484375,-5.76579296875,-19.42169140625,-6.93434765625,-9.708625,-9.7325625
1.79928125,-8.4988359375,0.69191015625,-2.87211328125,7.26874609375,6.24730078125,1.129640625,-2.475,6.96569140625,-6.1126953125,1.02384765625,-1.7644296875,-2.7583359375,-2.055390625,-0.615375,3.66365234375,1.17710546875,-3.83663671875,-5.333828125,-5.6070078125,-4.04335546875,6.625234375,-8.168359375,-10.7828203125,-10.09396484375,-3.70179296875,-18.17569140625,-7.35934765625,-9.693625,-8.5365625
2.28828125,-7.9968359375,0.90391015625,-3.19611328125,7.21674609375,6.20130078125,1.930640625,-0.259,7.44969140625,-5.0436953125,1.80284765625,0.0185703124999996,-3.2543359375,-1.035390625,0.972625,4.59465234375,4.04410546875,-4.03163671875,-3.836828125,-3.5680078125,-2.55135546875,5.918234375,-6.976359375,-8.9368203125,-7.87596484375,-2.35879296875,-15.90669140625,-6.49034765625,-8.497625,-6.7095625
3.21928125,-8.0398359375,-0.45708984375,-3.09711328125,6.87374609375,5.56330078125,2.090640625,0.193,7.99269140625,-4.3676953125,1.70384765625,0.2415703125,-2.0683359375,0.233609375,1.895625,4.60165234375,5.25010546875,-3.17363671875,-1.800828125,-1.7700078125,-1.82135546875,6.452234375,-4.804359375,-6.5658203125,-5.76296484375,-1.65679296875,-12.60069140625,-4.13234765625,-6.083625,-4.3975625
4.77728125,-8.0598359375,-2.07408984375,-2.23911328125,6.65874609375,4.94830078125,2.136640625,-0.452,8.68469140625,-3.5386953125,1.24184765625,-0.5484296875,0.4606640625,1.850609375,2.526625,4.20065234375,5.25610546875,-1.29863671875,0.817171875,-0.00600781250000004,-1.44735546875,7.940234375,-1.773359375,-3.5638203125,-3.61296484375,-1.22379296875,-8.46969140625,-0.59634765625,-2.777625,-1.7415625
6.67528125,-7.7628359375,-2.84708984375,-0.737113281250001,6.73174609375,4.74730078125,2.458640625,-1.358,9.31469140625,-2.2926953125,0.97084765625,-1.5624296875,3.4106640625,3.618609375,3.217625,3.99865234375,4.80610546875,1.12936328125,3.743171875,1.8919921875,-0.97035546875,9.634234375,1.630640625,-0.1168203125,-1.31896484375,-0.61679296875,-3.93869140625,3.44565234375,0.841375,1.1314375
8.24928125,-7.2558359375,-2.36208984375,0.857886718749999,6.92074609375,4.96030078125,3.119640625,-1.92,9.52069140625,-0.778695312500001,1.23884765625,-2.1684296875,5.6806640625,5.095609375,4.138625,4.39865234375,4.56010546875,3.42636328125,6.452171875,3.9419921875,-0.0723554687499999,10.716234375,4.727640625,3.3251796875,1.10003515625,0.48820703125,0.473308593750001,7.22865234375,4.174375,4.1214375
8.81028125,-6.8918359375,-0.91208984375,1.84988671875,6.88074609375,5.30130078125,3.912640625,-1.925,9.10469140625,0.5683046875,2.10484765625,-2.1304296875,6.4796640625,5.844609375,5.261625,5.49365234375,4.86310546875,4.98436328125,8.406171875,6.0279921875,1.34864453125,10.668234375,6.910640625,6.2391796875,3.53303515625,2.18220703125,4.30630859375,10.16165234375,6.804375,7.1344375
8.03628125,-7.0208359375,0.78891015625,1.75188671875,6.34474609375,5.45130078125,4.545640625,-1.478,8.20169140625,1.2923046875,3.40784765625,-1.6004296875,5.6396640625,5.680609375,6.444625,7.09265234375,5.71710546875,5.50936328125,9.281171875,7.9809921875,3.21264453125,9.457234375,7.864640625,8.2631796875,5.85603515625,4.32220703125,7.27230859375,11.97165234375,8.605375,10.0574375
6.14728125,-7.8108359375,1.96591015625,0.487886718749999,5.29074609375,5.25930078125,4.810640625,-0.822,7.14569140625,1.1523046875,4.87584765625,-0.9314296875,3.6076640625,4.752609375,7.502625,8.82865234375,6.89210546875,5.08136328125,9.058171875,9.6329921875,5.30664453125,7.470234375,7.646640625,9.3001796875,7.98403515625,6.59720703125,9.25730859375,12.68765234375,9.683375,12.6974375
3.77128125,-9.1858359375,2.07791015625,-1.62211328125,3.92774609375,4.78530078125,4.646640625,-0.192,6.22069140625,0.203304687499999,6.20984765625,-0.4634296875,1.1616640625,3.435609375,8.237625,10.27465234375,8.06710546875,4.04536328125,7.964171875,10.8249921875,7.32164453125,5.289234375,6.574640625,9.4751796875,9.83903515625,8.62520703125,10.25330859375,12.50465234375,10.224375,14.7614375
1.62628125,-10.8658359375,0.99391015625,-4.01911328125,2.57174609375,4.21730078125,4.132640625,0.264,5.54569140625,-1.2616953125,7.14184765625,-0.3664296875,-0.9233359375,2.137609375,8.464625,11.07065234375,8.93910546875,2.81136328125,6.329171875,11.3879921875,8.89764453125,3.424234375,5.058640625,8.9921796875,11.28703515625,10.04320703125,10.27830859375,11.63365234375,10.353375,15.9024375
0.24428125,-12.4348359375,-0.96708984375,-6.09211328125,1.50774609375,3.75530078125,3.431640625,0.499,5.12069140625,-2.8436953125,7.48084765625,-0.6064296875,-2.1263359375,1.138609375,8.071625,11.00865234375,9.28310546875,1.68936328125,4.479171875,11.1779921875,9.69064453125,2.150234375,3.440640625,8.0121796875,12.12003515625,10.58720703125,9.35130859375,10.23865234375,10.085375,15.8504375
-0.13171875,-13.4508359375,-3.15508984375,-7.31911328125,0.932746093750001,3.55130078125,2.752640625,0.576,4.92069140625,-4.1656953125,7.16284765625,-0.9924296875,-2.2513359375,0.524609375,7.112625,10.07465234375,9.02110546875,0.83036328125,2.681171875,10.1579921875,9.47864453125,1.488234375,1.936640625,6.6341796875,12.10903515625,10.15420703125,7.54430859375,8.44265234375,9.366375,14.5354375
0.52228125,-13.5368359375,-4.83108984375,-7.34011328125,0.980746093750001,3.71330078125,2.317640625,0.667,4.99369140625,-4.9336953125,6.32084765625,-1.2704296875,-1.3863359375,0.262609375,5.872625,8.45165234375,8.27210546875,0.27636328125,1.152171875,8.4749921875,8.25764453125,1.297234375,0.648640625,4.9481796875,11.13303515625,8.80620703125,5.04730859375,6.37765234375,8.152375,12.1404375
2.12228125,-12.4468359375,-5.41908984375,-6.01311328125,1.75374609375,4.33430078125,2.343640625,1.032,5.53369140625,-4.9406953125,5.31384765625,-1.2134296875,0.1786640625,0.311609375,4.831625,6.50165234375,7.34410546875,0.0353632812500001,0.0901718749999998,6.4769921875,6.26264453125,1.398234375,-0.377359375,3.1021796875,9.28303515625,6.72820703125,2.18330859375,4.20365234375,6.464375,9.0504375
4.50728125,-10.1478359375,-4.67608984375,-3.47711328125,3.27774609375,5.46330078125,2.973640625,1.909,6.80969140625,-4.0926953125,4.64184765625,-0.7094296875,2.0456640625,0.691609375,4.476625,4.68465234375,6.61310546875,0.10936328125,-0.338828125,4.6059921875,3.87364453125,1.640234375,-1.132359375,1.3001796875,6.84503515625,4.13220703125,-0.67169140625,2.07865234375,4.384375,5.6964375
7.38828125,-6.9028359375,-2.73008984375,-0.190113281250001,5.37874609375,7.00430078125,4.168640625,3.334,8.89569140625,-2.4866953125,4.69284765625,0.1665703125,3.8036640625,1.428609375,5.024625,3.38465234375,6.32910546875,0.46036328125,-0.0768281250000002,3.2089921875,1.45564453125,1.895234375,-1.650359375,-0.2738203125,4.17003515625,1.20020703125,-3.21769140625,0.0966523437499998,2.025375,2.4054375
10.31528125,-3.3088359375,0.00191015625000002,3.12888671875,7.62074609375,8.64330078125,5.627640625,4.987,11.41669140625,-0.4786953125,5.46184765625,1.1245703125,5.1276640625,2.430609375,6.228625,2.73165234375,6.45510546875,0.96636328125,0.743171875,2.3739921875,-0.80035546875,2.030234375,-2.036359375,-1.5658203125,1.51703515625,-1.92279296875,-5.33669140625,-1.74134765625,-0.512625,-0.6765625
12.77028125,-0.1728359375,2.96091015625,5.73488671875,9.39674609375,9.90630078125,6.853640625,6.246,13.63169140625,1.3653046875,6.47884765625,1.7635703125,5.8656640625,3.452609375,7.444625,2.54665234375,6.67210546875,1.43336328125,1.803171875,1.9199921875,-2.89535546875,1.936234375,-2.439359375,-2.6868203125,-1.00496484375,-5.07079296875,-7.07569140625,-3.46734765625,-3.117625,-3.5255625
14.34028125,1.7861640625,5.60491015625,7.14088671875,10.18074609375,10.35030078125,7.361640625,6.464,14.83569140625,2.4723046875,7.03884765625,1.7655703125,6.0656640625,4.195609375,7.945625,2.48465234375,6.58210546875,1.68736328125,2.728171875,1.5369921875,-4.90635546875,1.618234375,-2.965359375,-3.8138203125,-3.34696484375,-7.98179296875,-8.51669140625,-5.00734765625,-5.599625,-6.0855625
14.85028125,2.2461640625,7.51591015625,7.29888671875,9.75974609375,9.76530078125,6.894640625,5.332,14.73769140625,2.5093046875,6.58084765625,1.0845703125,5.9366640625,4.468609375,7.301625,2.24665234375,5.98310546875,1.68536328125,3.262171875,0.9989921875,-6.80835546875,1.257234375,-3.588359375,-5.0368203125,-5.38096484375,-10.26879296875,-9.63969140625,-6.09534765625,-7.633625,-8.1585625
14.39028125,1.4091640625,8.43591015625,6.55588671875,8.31374609375,8.26630078125,5.524640625,3.076,13.54869140625,1.5123046875,4.96384765625,-0.00742968750000039,5.7556640625,4.278609375,5.578625,1.72465234375,5.03510546875,1.53836328125,3.346171875,0.2679921875,-8.39235546875,1.157234375,-4.138359375,-6.2798203125,-6.85196484375,-11.49779296875,-10.28869140625,-6.35034765625,-8.833625,-9.4565625
13.26028125,-0.1348359375,8.29091015625,5.43688671875,6.30574609375,6.23030078125,3.603640625,0.381,11.81969140625,-0.1626953125,2.50684765625,-1.0474296875,5.7656640625,3.783609375,3.246625,1.00465234375,4.18710546875,1.43836328125,3.066171875,-0.5450078125,-9.33735546875,1.554234375,-4.399359375,-7.3568203125,-7.47796484375,-11.36879296875,-10.28769140625,-5.53634765625,-8.939625,-9.7715625
11.88828125,-1.7148359375,7.20391015625,4.41588671875,4.28674609375,4.14330078125,1.625640625,-1.908,10.20069140625,-2.0226953125,-0.16815234375,-1.6134296875,6.1096640625,3.159609375,0.893625,0.261652343750001,3.92710546875,1.51136328125,2.520171875,-1.3170078125,-9.39535546875,2.407234375,-4.253359375,-8.1208203125,-7.11196484375,-9.88979296875,-9.60169140625,-3.80334765625,-8.017625,-9.1265625
10.69328125,-2.8898359375,5.47491015625,3.76688671875,2.68574609375,2.41330078125,0.032640625,-3.136,9.17069140625,-3.6436953125,-2.41815234375,-1.5124296875,6.7866640625,2.471609375,-1.071375,-0.38834765625,4.49710546875,1.72636328125,1.735171875,-2.0090078125,-8.56435546875,3.365234375,-3.765359375,-8.5658203125,-5.86896484375,-7.41879296875,-8.40869140625,-1.70434765625,-6.480625,-7.7935625
9.93628125,-3.6058359375,3.48991015625,3.53188671875,1.67474609375,1.23930078125,-0.940359375,-3.095,8.83969140625,-4.7966953125,-3.82115234375,-0.8724296875,7.6456640625,1.651609375,-2.539375,-0.985347656249999,5.76910546875,1.90536328125,0.678171875,-2.6680078125,-7.12235546875,3.967234375,-3.140359375,-8.8008203125,-4.09896484375,-4.52779296875,-7.00169140625,0.0896523437499999,-4.872625,-6.1365625
9.61328125,-4.1338359375,1.60391015625,3.56688671875,1.16074609375,0.583300781249999,-1.347359375,-2.059,8.95769140625,-5.4546953125,-4.31615234375,-0.0594296875000002,8.4246640625,0.597609375,-3.632375,-1.69634765625,7.31910546875,1.83536328125,-0.641828125,-3.3340078125,-5.51535546875,3.949234375,-2.585359375,-8.9238203125,-2.24096484375,-1.77279296875,-5.60469140625,1.17965234375,-3.562625,-4.4065625
9.49028125,-4.8268359375,0.0449101562499999,3.64588671875,0.894746093750001,0.251300781249999,-1.472359375,-0.648,9.16869140625,-5.6986953125,-4.15915234375,0.4775703125,8.8416640625,-0.676390625,-4.506375,-2.67834765625,8.63410546875,1.40436328125,-2.069828125,-3.9580078125,-4.15335546875,3.432234375,-2.200359375,-8.9368203125,-0.65396484375,0.49020703125,-4.26569140625,1.62865234375,-2.589625,-2.6405625
9.24228125,-5.8758359375,-1.09408984375,3.55688671875,0.620746093750002,0.00130078124999944,-1.724359375,0.413,9.25869140625,-5.6666953125,-3.80115234375,0.3745703125,8.7116640625,-1.983390625,-5.238375,-3.96034765625,9.31910546875,0.64936328125,-3.330828125,-4.4210078125,-3.28635546875,2.840234375,-1.979359375,-8.7678203125,0.48003515625,2.15620703125,-2.90769140625,1.83465234375,-1.745625,-0.7585625
8.61128125,-7.2108359375,-1.81208984375,3.15688671875,0.160746093750001,-0.40269921875,-2.513359375,0.507,9.19069140625,-5.5656953125,-3.74615234375,-0.5584296875,8.0076640625,-3.080390625,-5.844375,-5.44734765625,9.17610546875,-0.29063671875,-4.189828125,-4.6350078125,-2.99435546875,2.603234375,-1.913359375,-8.4008203125,1.12203515625,3.28020703125,-1.49969140625,2.16365234375,-0.853625,1.2284375
7.51228125,-8.5938359375,-2.13808984375,2.39188671875,-0.572253906249998,-1.17369921875,-4.143359375,-0.693,8.97169140625,-5.7006953125,-4.42915234375,-2.3204296875,6.8456640625,-3.861390625,-6.385375,-7.02534765625,8.17610546875,-1.29963671875,-4.627828125,-4.6620078125,-3.29035546875,2.856234375,-2.098359375,-7.9988203125,1.26003515625,3.92420703125,-0.207691406249999,2.64165234375,0.000375000000000125,3.0384375
6.06328125,-9.7778359375,-2.09708984375,1.30288671875,-1.58325390625,-2.44869921875,-6.674359375,-3.125,8.60769140625,-6.3936953125,-6.04815234375,-4.7134296875,5.4056640625,-4.458390625,-7.012375,-8.63334765625,6.40610546875,-2.37063671875,-4.875828125,-4.7120078125,-4.18335546875,3.341234375,-2.736359375,-7.8798203125,0.84303515625,4.05220703125,0.597308593749999,2.90865234375,0.429375,4.1474375
4.54128125,-10.6188359375,-1.72808984375,0.0338867187499989,-2.77725390625,-4.18069921875,-9.800359375,-6.337,8.15369140625,-7.7946953125,-8.41315234375,-7.3384296875,3.8746640625,-5.145390625,-7.871375,-10.22434765625,4.06510546875,-3.57363671875,-5.247828125,-5.0110078125,-5.63935546875,3.574234375,-3.993359375,-8.3368203125,-0.17796484375,3.56520703125,0.52830859375,2.46865234375,-0.0336249999999999,4.0334375
3.28028125,-11.0778359375,-1.15308984375,-1.18511328125,-3.93125390625,-6.07369921875,-12.847359375,-9.608,7.72869140625,-9.7026953125,-10.91615234375,-9.6444296875,2.4436640625,-6.125390625,-8.951375,-11.67434765625,1.50110546875,-4.94063671875,-5.893828125,-5.6200078125,-7.47135546875,3.190234375,-5.811359375,-9.4228203125,-1.71096484375,2.44620703125,-0.56069140625,1.07265234375,-1.601625,2.5134375
2.53828125,-11.1648359375,-0.64008984375,-2.08911328125,-4.72025390625,-7.64669921875,-14.984359375,-12.166,7.43369140625,-11.5736953125,-12.72715234375,-11.0624296875,1.3386640625,-7.353390625,-10.014375,-12.76134765625,-0.80589453125,-6.33663671875,-6.670828125,-6.3570078125,-9.30635546875,2.217234375,-7.799359375,-10.8418203125,-3.45096484375,0.90020703125,-2.41269140625,-1.04434765625,-4.002625,-0.0775625
2.45428125,-10.8788359375,-0.53608984375,-2.42811328125,-4.81225390625,-8.40669921875,-15.550359375,-13.409,7.30269140625,-12.7276953125,-13.13015234375,-11.2274296875,0.8046640625,-8.509390625,-10.676375,-13.25434765625,-2.37289453125,-7.44963671875,-7.218828125,-6.9030078125,-10.70835546875,1.105234375,-9.333359375,-12.0668203125,-4.94396484375,-0.65979296875,-4.44369140625,-3.22134765625,-6.529625,-2.9855625
3.08028125,-10.1938359375,-1.07408984375,-2.00211328125,-3.99025390625,-8.05469921875,-14.345359375,-13.065,7.36669140625,-12.6456953125,-11.82315234375,-10.1474296875,1.0236640625,-9.129390625,-10.608375,-13.07434765625,-2.92189453125,-7.91863671875,-7.190828125,-7.0150078125,-11.40535546875,0.477234375,-9.832359375,-12.6038203125,-5.83196484375,-1.82379296875,-6.02869140625,-4.73034765625,-8.381625,-5.3955625
4.41728125,-9.1078359375,-2.18008984375,-0.707113281250001,-2.27225390625,-6.60969921875,-11.731359375,-11.276,7.67769140625,-11.2216953125,-9.05115234375,-8.2464296875,1.9896640625,-8.849390625,-9.741375,-12.42634765625,-2.52689453125,-7.54163671875,-6.503828125,-6.7340078125,-11.46335546875,0.735234375,-9.076359375,-12.2858203125,-6.08596484375,-2.42479296875,-6.83269140625,-5.19834765625,-9.085625,-6.8295625
6.37528125,-7.7168359375,-3.42408984375,1.39188671875,0.0407460937500019,-4.42369921875,-8.528359375,-8.595,8.23969140625,-8.8446953125,-5.53915234375,-6.2304296875,3.4416640625,-7.609390625,-8.360375,-11.80334765625,-1.62189453125,-6.43363671875,-5.445828125,-6.4300078125,-11.29235546875,1.792234375,-7.375359375,-11.4088203125,-6.09096484375,-2.67179296875,-6.99869140625,-4.83034765625,-8.743625,-7.3645625
8.68628125,-6.2428359375,-4.17608984375,4.00288671875,2.41974609375,-2.09469921875,-5.743359375,-5.846,8.94669140625,-6.2836953125,-2.26415234375,-4.8404296875,4.9226640625,-5.717390625,-7.038375,-11.81434765625,-0.82089453125,-5.02463671875,-4.569828125,-6.6630078125,-11.44635546875,3.083234375,-5.470359375,-10.6238203125,-6.47896484375,-3.05679296875,-7.07069140625,-4.28034765625,-7.962625,-7.5245625
10.88328125,-4.9638359375,-3.88808984375,6.62288671875,4.26274609375,-0.28769921875,-4.231359375,-3.846,9.63369140625,-4.3956953125,-0.14015234375,-4.5784296875,5.9586640625,-3.724390625,-6.396375,-12.88434765625,-0.64289453125,-3.87863671875,-4.415828125,-7.8970078125,-12.34535546875,3.865234375,-4.193359375,-10.6248203125,-7.79996484375,-4.09179296875,-7.69469140625,-4.24634765625,-7.498625,-7.9365625
12.39228125,-4.0828359375,-2.37308984375,8.66688671875,5.09374609375,0.46830078125,-4.420359375,-3.096,10.14169140625,-3.7876953125,0.28084765625,-5.5284296875,6.2716640625,-2.194390625,-6.816375,-15.00434765625,-1.25989453125,-3.42963671875,-5.240828125,-10.2270078125,-14.04735546875,3.633234375,-4.085359375,-11.7928203125,-10.20296484375,-6.00779296875,-9.25669140625,-5.05534765625,-7.852625,-8.9585625
12.72328125,-3.6598359375,0.0469101562499999,9.66188671875,4.71074609375,-0.0646992187500004,-6.177359375,-3.615,10.29669140625,-4.5846953125,-1.02615234375,-7.3344296875,5.8826640625,-1.493390625,-8.249375,-17.69534765625,-2.40989453125,-3.79263671875,-6.884828125,-13.2710078125,-16.20235546875,2.401234375,-5.159359375,-13.9798203125,-13.32096484375,-8.59079296875,-11.65069140625,-6.48234765625,-9.023625,-10.4895625
11.69428125,-3.6068359375,2.64091015625,9.44688671875,3.24674609375,-1.75369921875,-8.872359375,-4.985,9.91169140625,-6.3996953125,-3.55215234375,-9.3444296875,5.0976640625,-1.692390625,-10.223375,-20.20734765625,-3.53089453125,-4.72363671875,-8.850828125,-16.2820078125,-18.20135546875,0.698234375,-6.925359375,-16.5638203125,-16.38996484375,-11.23679296875,-14.30769140625,-7.88434765625,-10.523625,-12.0615625
9.59228125,-3.7388359375,4.60591015625,8.26988671875,1.13274609375,-4.13269921875,-11.599359375,-6.536,8.91969140625,-8.5056953125,-6.43715234375,-10.8714296875,4.3866640625,-2.567390625,-12.036375,-21.83634765625,-4.05089453125,-5.75263671875,-10.508828125,-18.4310078125,-19.42935546875,-0.704765625,-8.633359375,-18.7048203125,-18.55796484375,-13.21879296875,-16.47469140625,-8.55534765625,-11.628625,-13.1015625
7.15828125,-3.8118359375,5.48191015625,6.74088671875,-1.01425390625,-6.52769921875,-13.503359375,-7.585,7.53469140625,-10.1116953125,-8.77015234375,-11.4474296875,4.2106640625,-3.696390625,-13.035375,-22.20234765625,-3.67589453125,-6.39263671875,-11.336828125,-19.1140078125,-19.50935546875,-1.187765625,-9.606359375,-19.6868203125,-19.21996484375,-14.00979296875,-17.56369140625,-8.08734765625,-11.724625,-13.2175625
5.32928125,-3.5788359375,5.38891015625,5.59288671875,-2.57625390625,-8.27169921875,-14.103359375,-7.636,6.22169140625,-10.6516953125,-9.92615234375,-10.9844296875,4.8366640625,-4.617390625,-12.866375,-21.38534765625,-2.51589453125,-6.32263671875,-11.110828125,-18.1640078125,-18.43235546875,-0.562765625,-9.501359375,-19.1778203125,-18.23396484375,-13.49279296875,-17.38169140625,-6.55634765625,-10.570625,-12.3645625
4.83528125,-2.8748359375,4.91991015625,5.35888671875,-3.14225390625,-8.93369921875,-13.465359375,-6.521,5.44969140625,-9.9746953125,-9.78615234375,-9.7544296875,6.2006640625,-4.999390625,-11.572375,-19.83734765625,-1.00589453125,-5.49063671875,-9.965828125,-15.8810078125,-16.52335546875,0.883234375,-8.397359375,-17.3178203125,-15.93796484375,-11.96479296875,-16.12869140625,-4.43834765625,-8.371625,-10.8275625
5.86428125,-1.7068359375,4.74991015625,6.13588671875,-2.62125390625,-8.44169921875,-12.116359375,-4.425,5.48069140625,-8.3506953125,-8.71215234375,-8.2064296875,7.8976640625,-4.724390625,-9.515375,-18.10434765625,0.33810546875,-4.08963671875,-8.304828125,-12.8850078125,-14.26935546875,2.611234375,-6.686359375,-14.6118203125,-12.95496484375,-9.95679296875,-14.20969140625,-2.31534765625,-5.626625,-9.0445625
7.98328125,-0.2938359375,5.22091015625,7.55588671875,-1.24125390625,-7.05469921875,-10.721359375,-1.806,6.30069140625,-6.3126953125,-7.30915234375,-6.7274296875,9.3536640625,-3.885390625,-7.175375,-16.51934765625,1.15910546875,-2.44363671875,-6.595828125,-9.8450078125,-12.09935546875,4.132234375,-4.839359375,-11.6878203125,-9.91496484375,-7.97779296875,-11.99369140625,-0.56734765625,-2.865625,-7.3675625
10.34028125,0.9711640625,6.15591015625,8.97788671875,0.560746093750002,-5.21769921875,-9.740359375,0.748,7.63569140625,-4.4296953125,-6.12915234375,-5.5054296875,10.0926640625,-2.723390625,-4.949375,-15.07234765625,1.39710546875,-0.87463671875,-5.178828125,-7.2360078125,-10.23635546875,5.224234375,-3.207359375,-9.0388203125,-7.23396484375,-6.29479296875,-9.68969140625,0.77365234375,-0.424625,-5.8865625
12.01228125,1.6241640625,6.99391015625,9.76988671875,2.27174609375,-3.40469921875,-9.243359375,2.681,8.98769140625,-3.1316953125,-5.47815234375,-4.5474296875,9.9326640625,-1.572390625,-3.069375,-13.54834765625,1.22710546875,0.37036328125,-4.195828125,-5.2430078125,-8.68935546875,5.925234375,-1.951359375,-6.9008203125,-5.03296484375,-4.89279296875,-7.38869140625,1.93065234375,1.614375,-4.4395625
12.35228125,1.2991640625,7.13291015625,9.57088671875,3.42574609375,-1.99169921875,-8.976359375,3.615,9.77969140625,-2.6336953125,-5.38415234375,-3.8074296875,9.0216640625,-0.779390625,-1.632375,-11.77834765625,0.90310546875,1.10836328125,-3.640828125,-3.8260078125,-7.34935546875,6.366234375,-1.116359375,-5.2928203125,-3.22696484375,-3.58779296875,-5.21169140625,3.11665234375,3.317375,-2.7785625
11.20128125,-0.1078359375,6.26391015625,8.40488671875,3.72974609375,-1.18669921875,-8.570359375,3.445,9.61069140625,-2.9286953125,-5.64815234375,-3.2684296875,7.7126640625,-0.609390625,-0.674375,-9.81434765625,0.61310546875,1.19436328125,-3.450828125,-2.8590078125,-6.10435546875,6.586234375,-0.737359375,-4.1588203125,-1.65696484375,-2.22079296875,-3.39769140625,4.31265234375,4.729375,-0.7975625
8.89628125,-2.3308359375,4.50491015625,6.63888671875,3.15974609375,-1.00169921875,-7.751359375,2.393,8.45569140625,-3.8176953125,-5.95015234375,-2.9224296875,6.3796640625,-1.147390625,-0.204375,-7.90334765625,0.45410546875,0.52736328125,-3.566828125,-2.2290078125,-4.88335546875,6.471234375,-0.883359375,-3.4708203125,-0.20296484375,-0.76579296875,-2.23769140625,5.22865234375,5.802375,1.3594375
6.09428125,-4.7778359375,2.33091015625,4.81588671875,1.98374609375,-1.26969921875,-6.464359375,0.975,6.68169140625,-4.9556953125,-5.97215234375,-2.6924296875,5.2876640625,-2.249390625,-0.185375,-6.31934765625,0.50010546875,-0.85863671875,-3.928828125,-1.8500078125,-3.63435546875,5.863234375,-1.573359375,-3.2358203125,1.19903515625,0.72120703125,-1.88469140625,5.49365234375,6.453375,3.3844375
3.49528125,-6.7008359375,0.37191015625,3.43988671875,0.684746093750002,-1.72369921875,-4.857359375,-0.114,4.89669140625,-5.9366953125,-5.52815234375,-2.4034296875,4.5406640625,-3.577390625,-0.504375,-5.17734765625,0.86610546875,-2.71663671875,-4.442828125,-1.6270078125,-2.30035546875,4.748234375,-2.669359375,-3.4098203125,2.58703515625,2.22220703125,-2.19369140625,4.94065234375,6.703375,5.0174375
1.59528125,-7.4598359375,-0.83408984375,2.81188671875,-0.242253906249998,-2.10569921875,-3.220359375,-0.225,3.73469140625,-6.4096953125,-4.66915234375,-1.8584296875,4.1066640625,-4.712390625,-0.989375,-4.39434765625,1.66410546875,-4.59763671875,-4.973828125,-1.4530078125,-0.84435546875,3.365234375,-3.854359375,-3.8568203125,3.97003515625,3.79920703125,-2.75769140625,3.77465234375,6.724375,6.1984375
0.54928125,-6.7928359375,-1.07008984375,2.94488671875,-0.522253906249999,-2.29169921875,-1.908359375,0.933,3.57669140625,-6.2266953125,-3.70715234375,-0.9874296875,3.8686640625,-5.337390625,-1.496375,-3.82034765625,2.88910546875,-5.99063671875,-5.397828125,-1.2810078125,0.65964453125,2.137234375,-4.762359375,-4.4068203125,5.25803515625,5.49820703125,-3.13269140625,2.48765234375,6.736375,7.0264375
0.189281250000001,-4.9628359375,-0.57008984375,3.57388671875,-0.257253906249998,-2.36369921875,-1.260359375,3.052,4.32969140625,-5.5206953125,-3.11815234375,0.0365703124999996,3.6686640625,-5.380390625,-2.003375,-3.44634765625,4.31710546875,-6.52863671875,-5.675828125,-1.2090078125,1.94864453125,1.456234375,-5.168359375,-4.9708203125,6.19203515625,7.18920703125,-3.12069140625,1.57565234375,6.823375,7.5574375
0.13828125,-2.6618359375,0.0779101562500001,4.26888671875,0.110746093750002,-2.56169921875,-1.498359375,5.261,5.44269140625,-4.6626953125,-3.32415234375,0.8165703125,3.3736640625,-5.038390625,-2.625375,-3.48234765625,5.52510546875,-6.12363671875,-5.876828125,-1.4660078125,2.61764453125,1.493234375,-5.094359375,-5.5838203125,6.39303515625,8.51320703125,-2.88469140625,1.27265234375,6.842375,7.6764375
0.0012812499999999,-0.6818359375,0.24791015625,4.61988671875,0.0467460937500022,-3.14269921875,-2.617359375,6.497,6.23969140625,-4.0626953125,-4.45315234375,0.9095703125,2.9566640625,-4.626390625,-3.501375,-4.20534765625,6.04510546875,-4.95263671875,-6.096828125,-2.2770078125,2.29164453125,2.148234375,-4.735359375,-6.3358203125,5.56203515625,9.01820703125,-2.82569140625,1.49065234375,6.522375,7.1454375
-0.46171875,0.4781640625,-0.32608984375,4.42188671875,-0.762253906249999,-4.18869921875,-4.343359375,6.023,6.34269140625,-3.9526953125,-6.20915234375,0.0695703124999998,2.5266640625,-4.380390625,-4.631375,-5.69934765625,5.60410546875,-3.34663671875,-6.345828125,-3.6750078125,0.86364453125,3.162234375,-4.287359375,-7.2368203125,3.69703515625,8.40020703125,-3.28969140625,1.95765234375,5.689375,5.8044375
-1.23071875,0.8041640625,-1.35408984375,3.76088671875,-2.20325390625,-5.50969921875,-6.194359375,3.808,5.84169140625,-4.2596953125,-7.96015234375,-1.5714296875,2.2766640625,-4.336390625,-5.796375,-7.68134765625,4.29110546875,-1.65763671875,-6.509828125,-5.3970078125,-1.37135546875,4.248234375,-3.818359375,-8.1378203125,1.18603515625,6.72220703125,-4.33469140625,2.40165234375,4.411375,3.7324375
-2.02371875,0.6931640625,-2.13008984375,2.96688671875,-3.74325390625,-6.67069921875,-7.628359375,0.58,5.18869140625,-4.6566953125,-8.99815234375,-3.4984296875,2.3726640625,-4.344390625,-6.610375,-9.55634765625,2.56710546875,-0.17963671875,-6.418828125,-6.9640078125,-3.77635546875,5.179234375,-3.272359375,-8.7848203125,-1.31396484375,4.45220703125,-5.68369140625,2.65165234375,2.983375,1.2714375
-2.40971875,0.6821640625,-1.96008984375,2.46588671875,-4.66325390625,-7.17369921875,-8.215359375,-2.466,4.94969140625,-4.7446953125,-8.84215234375,-5.0054296875,2.8576640625,-4.179390625,-6.701375,-10.67334765625,1.05610546875,0.86736328125,-5.968828125,-7.8820078125,-5.63035546875,5.801234375,-2.564359375,-8.9628203125,-3.13996484375,2.28920703125,-6.88869140625,2.66265234375,1.774375,-1.0815625
-2.02771875,1.1661640625,-0.57808984375,2.59088671875,-4.39725390625,-6.71469921875,-7.799359375,-4.15,5.57469140625,-4.2546953125,-7.46215234375,-5.5194296875,3.6036640625,-3.676390625,-5.922375,-10.64634765625,0.23210546875,1.34936328125,-5.198828125,-7.8980078125,-6.46235546875,6.016234375,-1.690359375,-8.6418203125,-3.90796484375,0.84320703125,-7.57869140625,2.47865234375,1.052375,-2.8565625
-0.812718749999999,2.2241640625,1.68891015625,3.42788671875,-2.84425390625,-5.40669921875,-6.581359375,-3.813,7.15769140625,-3.2196953125,-5.33915234375,-4.8854296875,4.3506640625,-2.845390625,-4.488375,-9.58934765625,0.170105468750001,1.21836328125,-4.311828125,-7.1510078125,-6.26235546875,5.763234375,-0.787359375,-8.0278203125,-3.66896484375,0.34020703125,-7.64869140625,2.17165234375,0.865375,-3.7825625
0.90428125,3.5971640625,4.10291015625,4.75888671875,-0.477253906249999,-3.83469921875,-5.079359375,-1.631,9.31069140625,-1.9956953125,-3.32115234375,-3.4774296875,4.7946640625,-1.897390625,-2.944375,-8.11034765625,0.52310546875,0.52436328125,-3.628828125,-6.1360078125,-5.47835546875,5.023234375,-0.109359375,-7.4818203125,-2.87196484375,0.53120703125,-7.29469140625,1.78765234375,1.050375,-3.8925625
2.49928125,4.8191640625,5.86591015625,6.13788671875,1.84074609375,-2.83169921875,-3.936359375,1.442,11.29569140625,-1.1286953125,-2.30115234375,-2.0454296875,4.7066640625,-1.153390625,-1.950375,-7.03334765625,0.73710546875,-0.57663671875,-3.461828125,-5.4780078125,-4.75735546875,3.861234375,0.0856406249999999,-7.3358203125,-2.13096484375,0.86820703125,-6.85169140625,1.33165234375,1.351375,-3.4595625
3.34328125,5.4181640625,6.42591015625,7.07888671875,3.23874609375,-3.08469921875,-3.663359375,4.072,12.40469140625,-1.0956953125,-2.84415234375,-1.4004296875,4.0226640625,-0.875390625,-1.978375,-6.97334765625,0.35110546875,-1.83263671875,-3.957828125,-5.6020078125,-4.60135546875,2.467234375,-0.307359375,-7.7038203125,-1.91496484375,0.81920703125,-6.55769140625,0.83665234375,1.600375,-2.8155625
3.10128125,5.1001640625,5.60091015625,7.24788671875,3.21474609375,-4.78069921875,-4.442359375,5.106,12.28469140625,-2.0716953125,-4.95615234375,-2.0624296875,2.9026640625,-1.144390625,-3.083375,-8.04734765625,-0.790894531249999,-2.93263671875,-4.990828125,-6.5090078125,-5.12635546875,1.148234375,-1.138359375,-8.3968203125,-2.33696484375,0.14820703125,-6.39769140625,0.42365234375,1.831375,-2.1735625
1.88728125,3.8541640625,3.56991015625,6.58688671875,1.81274609375,-7.49569921875,-6.072359375,4.022,11.01869140625,-3.8376953125,-8.08315234375,-4.0624296875,1.7206640625,-1.848390625,-4.868375,-9.84734765625,-2.50789453125,-3.58663671875,-6.179828125,-7.7580078125,-6.05835546875,0.244234375,-2.030359375,-8.9938203125,-3.13396484375,-0.99679296875,-6.10969140625,0.30265234375,2.243375,-1.5665625
0.21228125,1.9811640625,0.81291015625,5.34688671875,-0.431253906249998,-10.36969921875,-8.052359375,1.084,9.01469140625,-5.8556953125,-11.32315234375,-6.9374296875,0.9666640625,-2.752390625,-6.645375,-11.66034765625,-4.38189453125,-3.61263671875,-7.035828125,-8.6750078125,-6.90235546875,0.0012343749999999,-2.529359375,-9.0408203125,-3.82096484375,-2.18779296875,-5.35869140625,0.67865234375,3.064375,-0.9065625
-1.22871875,0.0261640624999999,-1.95808984375,4.01488671875,-2.72125390625,-12.44869921875,-9.745359375,-2.797,6.86869140625,-7.4596953125,-13.70815234375,-9.8924296875,1.0746640625,-3.587390625,-7.692375,-12.76634765625,-5.94089453125,-3.01063671875,-7.150828125,-8.6470078125,-7.18935546875,0.475234375,-2.303359375,-8.2608203125,-3.91496484375,-2.92979296875,-3.95469140625,1.61565234375,4.388375,-0.0925625000000001
-1.81971875,-1.4058359375,-3.96108984375,3.13388671875,-4.29725390625,-13.03169921875,-10.583359375,-6.391,5.16969140625,-8.0806953125,-14.50115234375,-12.0664296875,2.2146640625,-4.131390625,-7.528375,-12.70934765625,-6.80489453125,-1.97463671875,-6.361828125,-7.4000078125,-6.66635546875,1.489234375,-1.315359375,-6.6798203125,-3.14296484375,-2.88279296875,-1.99269140625,2.92765234375,6.074375,0.8954375
-1.24871875,-1.8908359375,-4.60508984375,3.07388671875,-4.69325390625,-11.89869921875,-10.246359375,-8.552,4.26169140625,-7.4456953125,-13.42415234375,-12.7964296875,4.1686640625,-4.273390625,-6.095375,-11.45134765625,-6.79789453125,-0.83063671875,-4.816828125,-5.1190078125,-5.38235546875,2.670234375,0.140640625,-4.6168203125,-1.55296484375,-2.01679296875,0.14830859375,4.16765234375,7.751375,1.9434375
0.370281250000001,-1.3378359375,-3.72008984375,3.84688671875,-3.87225390625,-9.36869921875,-8.756359375,-8.596,4.10369140625,-5.6716953125,-10.74615234375,-11.8164296875,6.3656640625,-4.037390625,-3.776375,-9.37234765625,-5.97789453125,0.0823632812500001,-2.918828125,-2.3790078125,-3.65035546875,3.555234375,1.555640625,-2.5448203125,0.51103515625,-0.63479296875,1.96230859375,4.78365234375,8.941375,2.8224375
2.53028125,0.0191640624999998,-1.60008984375,5.10488671875,-2.20025390625,-6.16269921875,-6.465359375,-6.527,4.37069140625,-3.2126953125,-7.18315234375,-9.3454296875,8.1196640625,-3.535390625,-1.233375,-7.09434765625,-4.60889453125,0.55436328125,-1.163828125,0.0929921875,-1.89735546875,3.751234375,2.455640625,-0.8768203125,2.55403515625,0.76520703125,3.06430859375,4.38565234375,9.274375,3.3004375
4.51028125,1.7901640625,1.14691015625,6.31488671875,-0.285253906249999,-3.15269921875,-3.945359375,-3.022,4.69569140625,-0.7076953125,-3.64215234375,-6.0144296875,8.9306640625,-2.894390625,0.870625,-5.22334765625,-3.06389453125,0.59136328125,0.0691718749999999,1.7129921875,-0.48535546875,3.122234375,2.645640625,0.2011796875,4.15103515625,1.73220703125,3.39930859375,3.01565234375,8.699375,3.3034375
5.62528125,3.6141640625,3.82691015625,7.00688671875,1.25374609375,-1.07969921875,-1.816359375,0.852,4.81969140625,1.2213046875,-0.93715234375,-2.6434296875,8.7096640625,-2.215390625,2.115625,-4.14634765625,-1.69089453125,0.40636328125,0.638171875,2.2459921875,0.44564453125,1.866234375,2.301640625,0.7911796875,5.10703515625,2.09320703125,3.27830859375,1.18865234375,7.552375,2.9944375
5.49028125,5.2591640625,5.86091015625,6.97588671875,1.97874609375,-0.34369921875,-0.557359375,4.066,4.59469140625,2.1213046875,0.42884765625,0.0675703124999998,7.7816640625,-1.596390625,2.431625,-3.94734765625,-0.67789453125,0.27736328125,0.629171875,1.8329921875,1.00964453125,0.435234375,1.836640625,1.1651796875,5.48203515625,2.05820703125,3.17930859375,-0.35734765625,6.395375,2.6984375
4.16028125,6.6211640625,6.89491015625,6.33388671875,1.75374609375,-0.91069921875,-0.338359375,6,3.97969140625,1.8203046875,0.38584765625,1.7785703125,6.6776640625,-1.159390625,2.030625,-4.44634765625,0.00210546875000039,0.37836328125,0.252171875,0.8569921875,1.49164453125,-0.697765625,1.625640625,1.5731796875,5.49603515625,2.09620703125,3.44930859375,-1.05734765625,5.705375,2.7084375
2.09528125,7.6401640625,6.86091015625,5.40288671875,0.757746093750002,-2.36869921875,-0.960359375,6.558,3.08169140625,0.461304687499999,-0.71315234375,2.5715703125,5.8596640625,-1.048390625,1.271625,-5.29534765625,0.53810546875,0.67136328125,-0.271828125,-0.2350078125,2.19364453125,-1.242765625,1.788640625,2.0861796875,5.38103515625,2.69620703125,4.10130859375,-0.79034765625,5.628375,3.1184375
-0.0717187499999996,8.2291640625,5.94091015625,4.51788671875,-0.616253906249998,-4.11069921875,-1.946359375,6.025,2.10769140625,-1.5526953125,-2.24515234375,2.7915703125,5.5096640625,-1.384390625,0.505625,-6.11934765625,1.15910546875,0.94836328125,-0.774828125,-1.0780078125,3.27764453125,-1.192765625,2.146640625,2.5791796875,5.27103515625,4.10420703125,4.84230859375,0.14465234375,5.953375,3.7744375
-1.82471875,8.2681640625,4.46591015625,3.85088671875,-1.93125390625,-5.57569921875,-2.761359375,4.821,1.21669140625,-3.6976953125,-3.58015234375,2.8035703125,5.4986640625,-2.215390625,-0.024375,-6.64434765625,2.00010546875,0.94936328125,-1.175828125,-1.4670078125,4.68764453125,-0.768765625,2.355640625,2.8251796875,5.16303515625,6.19820703125,5.26830859375,1.27265234375,6.291375,4.3514375
-2.93771875,7.6781640625,2.80891015625,3.36288671875,-2.86025390625,-6.44069921875,-3.037359375,3.333,0.425691406250001,-5.4946953125,-4.32115234375,2.8005703125,5.5086640625,-3.462390625,-0.231375,-6.76234765625,3.02110546875,0.49436328125,-1.482828125,-1.3860078125,6.15664453125,-0.318765625,2.092640625,2.6251796875,4.95403515625,8.50220703125,5.07230859375,2.17565234375,6.285375,4.4844375
-3.45471875,6.5461640625,1.30291015625,2.88788671875,-3.26125390625,-6.66269921875,-2.691359375,1.891,-0.31530859375,-6.6256953125,-4.39615234375,2.7715703125,5.2426640625,-4.904390625,-0.159375,-6.51134765625,4.01510546875,-0.45363671875,-1.766828125,-0.9820078125,7.30364453125,-0.188765625,1.199640625,1.9001796875,4.51603515625,10.35620703125,4.13930859375,2.58865234375,5.734375,3.8924375
-3.53371875,5.1821640625,0.23791015625,2.28388671875,-3.15025390625,-6.38369921875,-1.898359375,0.797,-1.00630859375,-6.9966953125,-4.00115234375,2.5985703125,4.6086640625,-6.221390625,0.0736249999999999,-6.01334765625,4.71010546875,-1.77663671875,-2.121828125,-0.4930078125,7.77264453125,-0.600765625,-0.268359375,0.7201796875,3.77003515625,11.17720703125,2.53330859375,2.38065234375,4.597375,2.4584375
-3.30371875,4.0381640625,-0.14808984375,1.55188671875,-2.62625390625,-5.79469921875,-0.964359375,0.317,-1.57330859375,-6.7206953125,-3.44915234375,2.2175703125,3.7966640625,-7.113390625,0.330625,-5.42334765625,4.90510546875,-3.23163671875,-2.605828125,-0.1590078125,7.37964453125,-1.536765625,-2.080359375,-0.716820312499999,2.73903515625,10.70820703125,0.457308593750001,1.52565234375,2.961375,0.2814375
-2.80971875,3.5151640625,0.31891015625,0.848886718749999,-1.82125390625,-5.05869921875,-0.176359375000001,0.605,-1.91830859375,-6.0696953125,-3.02915234375,1.7045703125,3.1886640625,-7.423390625,0.495625,-4.91534765625,4.55910546875,-4.51763671875,-3.211828125,-0.1390078125,6.19564453125,-2.730765625,-3.913359375,-2.1358203125,1.55603515625,9.12720703125,-1.79669140625,0.12065234375,1.026375,-2.3225625
-2.06371875,3.7571640625,1.66791015625,0.401886718749999,-0.881253906249999,-4.30569921875,0.291640624999999,1.59,-1.95530859375,-5.3776953125,-2.92315234375,1.2485703125,3.1436640625,-7.203390625,0.487625,-4.65134765625,3.78110546875,-5.38563671875,-3.877828125,-0.4830078125,4.52664453125,-3.804765625,-5.470359375,-3.2698203125,0.41203515625,6.95720703125,-3.90469140625,-1.60034765625,-0.919625,-4.8665625
-1.12971875,4.5711640625,3.68891015625,0.379886718749999,0.00774609375000246,-3.68569921875,0.389640625,2.926,-1.65930859375,-4.9546953125,-3.21215234375,1.0195703125,3.7746640625,-6.694390625,0.260625,-4.76334765625,2.74210546875,-5.73563671875,-4.523828125,-1.1440078125,2.78764453125,-4.469765625,-6.575359375,-3.9508203125,-0.53396484375,4.82220703125,-5.57869140625,-3.31534765625,-2.566625,-6.8375625
-0.17271875,5.5221640625,5.90991015625,0.792886718749999,0.645746093750002,-3.37669921875,0.122640625,4.082,-1.17230859375,-4.9936953125,-3.92315234375,1.0515703125,4.8636640625,-6.207390625,-0.188375,-5.32034765625,1.60110546875,-5.64363671875,-5.094828125,-2.0030078125,1.33864453125,-4.666765625,-7.189359375,-4.1508203125,-1.21596484375,3.20620703125,-6.62769140625,-4.69134765625,-3.665625,-7.8625625
0.60628125,6.1971640625,7.72091015625,1.51588671875,0.892746093750002,-3.52569921875,-0.491359375,4.573,-0.810308593749999,-5.4966953125,-5.05415234375,1.2265703125,5.9946640625,-5.960390625,-0.787375,-6.28434765625,0.48310546875,-5.27763671875,-5.549828125,-2.8820078125,0.38764453125,-4.514765625,-7.362359375,-3.9488203125,-1.65496484375,2.31520703125,-6.96569140625,-5.46134765625,-4.083625,-7.8275625
1.12328125,6.4681640625,8.63091015625,2.41688671875,0.777746093750002,-4.12469921875,-1.395359375,4.202,-0.83230859375,-6.2336953125,-6.53115234375,1.3575703125,6.8016640625,-5.934390625,-1.355375,-7.46134765625,-0.52189453125,-4.76063671875,-5.807828125,-3.5410078125,-0.0263554687499999,-4.165765625,-7.154359375,-3.4548203125,-1.88296484375,2.09620703125,-6.59569140625,-5.48834765625,-3.814625,-6.8855625
1.52228125,6.5761640625,8.50891015625,3.47188671875,0.537746093750002,-4.94369921875,-2.427359375,3.147,-1.15830859375,-6.8046953125,-8.15615234375,1.2985703125,7.1556640625,-5.856390625,-1.620375,-8.50934765625,-1.35289453125,-4.10063671875,-5.720828125,-3.7340078125,0.0186445312500001,-3.709765625,-6.610359375,-2.7298203125,-1.88496484375,2.34020703125,-5.59569140625,-4.81734765625,-2.980625,-5.3675625
2.13228125,6.9631640625,7.64091015625,4.76388671875,0.526746093750003,-5.59169921875,-3.309359375,1.829,-1.33630859375,-6.7936953125,-9.61815234375,1.0025703125,7.1696640625,-5.351390625,-1.323375,-9.05034765625,-1.99489453125,-3.23563671875,-5.118828125,-3.3040078125,0.38964453125,-3.203765625,-5.792359375,-1.7968203125,-1.60196484375,2.79220703125,-4.12169140625,-3.71734765625,-1.822625,-3.6745625
3.23928125,7.9501640625,6.57391015625,6.36088671875,1.03074609375,-5.69869921875,-3.727359375,0.654,-0.846308593749999,-5.9816953125,-10.58315234375,0.5165703125,7.0486640625,-4.182390625,-0.361375,-8.83634765625,-2.47589453125,-2.14563671875,-3.950828125,-2.2990078125,0.93864453125,-2.753765625,-4.821359375,-0.7038203125,-0.99396484375,3.22620703125,-2.40469140625,-2.61534765625,-0.658625,-2.1825625
4.81228125,9.4901640625,5.83391015625,8.14288671875,2.08974609375,-5.11069921875,-3.464359375,-0.172,0.519691406250001,-4.4966953125,-10.82015234375,-0.0684296875000003,6.8946640625,-2.418390625,1.107625,-7.86534765625,-2.84589453125,-0.94063671875,-2.382828125,-1.0010078125,1.53864453125,-2.524765625,-3.875359375,0.4281796875,-0.10596484375,3.45920703125,-0.71369140625,-1.92334765625,0.201375,-1.1525625
6.38228125,11.1301640625,5.68891015625,9.72588671875,3.42674609375,-3.98869921875,-2.522359375,-0.673,2.48869140625,-2.7986953125,-10.28415234375,-0.6704296875,6.6416640625,-0.444390625,2.686625,-6.36634765625,-3.14889453125,0.14236328125,-0.799828125,0.1679921875,2.11164453125,-2.629765625,-3.131359375,1.4041796875,0.90903515625,3.35320703125,0.72730859375,-1.82734765625,0.583375,-0.6705625
7.18428125,12.2021640625,6.07091015625,10.54088671875,4.53374609375,-2.72869921875,-1.152359375,-0.976,4.37669140625,-1.5056953125,-9.12515234375,-1.2334296875,6.1206640625,1.187609375,3.884625,-4.69934765625,-3.39389453125,0.83036328125,0.340171875,0.8379921875,2.63064453125,-3.000765625,-2.688359375,2.0471796875,1.82303515625,2.83920703125,1.82130859375,-2.18934765625,0.527375,-0.6195625
6.51128125,12.1211640625,6.66091015625,10.06188671875,4.89474609375,-1.76369921875,0.228640625,-1.18,5.34269140625,-1.1266953125,-7.63415234375,-1.7134296875,5.2136640625,1.977609375,4.310625,-3.21334765625,-3.54989453125,0.93536328125,0.687171875,0.8619921875,3.10664453125,-3.372765625,-2.531359375,2.2801796875,2.42403515625,1.98320703125,2.62230859375,-2.63534765625,0.268375,-0.7405625
4.09728125,10.6551640625,7.01691015625,8.07388671875,4.21674609375,-1.35369921875,1.192640625,-1.286,4.75769140625,-1.8366953125,-6.11815234375,-2.0714296875,3.9806640625,1.676609375,3.834625,-2.12334765625,-3.55589453125,0.43436328125,0.147171875,0.3749921875,3.55364453125,-3.416765625,-2.555359375,2.1711796875,2.59803515625,1.01320703125,3.28730859375,-2.76534765625,0.132375,-0.7325625
0.27928125,8.0551640625,6.68891015625,4.82688671875,2.56374609375,-1.48469921875,1.471640625,-1.241,2.56169140625,-3.4046953125,-4.79715234375,-2.2844296875,2.6556640625,0.387609375,2.633625,-1.43534765625,-3.36589453125,-0.51863671875,-1.080828125,-0.2930078125,3.97664453125,-2.928765625,-2.639359375,1.8921796875,2.37903515625,0.27420703125,3.98130859375,-2.36434765625,0.373375,-0.3575625
-4.13671875,4.9791640625,5.33491015625,0.969886718749999,0.314746093750001,-1.94569921875,1.035640625,-1.025,-0.673308593749999,-5.3096953125,-3.76615234375,-2.4034296875,1.5336640625,-1.483390625,1.094625,-0.993347656249998,-2.99189453125,-1.65663671875,-2.598828125,-0.8010078125,4.35464453125,-1.966765625,-2.729359375,1.6211796875,1.90303515625,0.08720703125,4.77030859375,-1.51334765625,1.032375,0.4644375
-8.22771875,2.2381640625,2.87191015625,-2.70511328125,-2.02525390625,-2.49569921875,0.0506406249999998,-0.726,-4.06030859375,-6.9846953125,-3.04715234375,-2.5744296875,0.8006640625,-3.407390625,-0.367375,-0.61934765625,-2.53889453125,-2.70363671875,-3.986828125,-0.9850078125,4.63464453125,-0.856765625,-2.892359375,1.4251796875,1.30303515625,0.56820703125,5.55230859375,-0.57834765625,1.863375,1.5924375
-11.28471875,0.4541640625,-0.41108984375,-5.55911328125,-4.03525390625,-3.00469921875,-1.221359375,-0.577,-6.85830859375,-8.0506953125,-2.64715234375,-3.0034296875,0.4466640625,-4.942390625,-1.479375,-0.273347656249999,-2.20789453125,-3.45963671875,-4.987828125,-0.9470078125,4.70164453125,-0.053765625,-3.279359375,1.1961796875,0.60903515625,1.50120703125,6.05830859375,-0.0703476562500003,2.387375,2.6524375
-12.98971875,-0.2148359375,-3.90608984375,-7.30811328125,-5.51725390625,-3.48569921875,-2.520359375,-0.914,-8.73530859375,-8.4166953125,-2.57415234375,-3.8584296875,0.2966640625,-5.859390625,-2.203375,-0.0923476562499985,-2.26889453125,-3.83963671875,-5.574828125,-1.0000078125,4.37264453125,0.085234375,-4.028359375,0.6861796875,-0.28596484375,2.36520703125,5.93530859375,-0.40734765625,2.087375,3.1324375
-13.40571875,-0.1208359375,-6.89108984375,-8.05711328125,-6.49225390625,-4.01569921875,-3.642359375,-2.069,-9.73830859375,-8.2456953125,-2.81215234375,-5.1774296875,0.1456640625,-6.155390625,-2.702375,-0.294347656249998,-2.96689453125,-3.86563671875,-5.917828125,-1.5060078125,3.44764453125,-0.532765625,-5.152359375,-0.3718203125,-1.55696484375,2.54320703125,4.88730859375,-1.71734765625,0.638375,2.5644375
-12.84671875,0.0971640625000001,-8.79908984375,-8.18511328125,-7.10825390625,-4.64269921875,-4.460359375,-4.171,-10.14530859375,-7.8296953125,-3.30115234375,-6.8184296875,-0.1123359375,-5.985390625,-3.227375,-1.00534765625,-4.39689453125,-3.62963671875,-6.247828125,-2.6820078125,1.81564453125,-1.711765625,-6.489359375,-2.0998203125,-3.31896484375,1.62820703125,2.83230859375,-3.78734765625,-1.941625,0.7354375
-11.70071875,-0.1018359375,-9.36008984375,-8.13411328125,-7.50025390625,-5.30269921875,-4.927359375,-6.951,-10.27930859375,-7.4336953125,-3.90615234375,-8.4934296875,-0.4193359375,-5.549390625,-3.956375,-2.10534765625,-6.38489453125,-3.23063671875,-6.712828125,-4.4380078125,-0.40635546875,-3.093765625,-7.727359375,-4.3448203125,-5.47496484375,-0.31179296875,0.02230859375,-6.16834765625,-5.267625,-2.1525625
-10.28271875,-0.8138359375,-8.58208984375,-8.17711328125,-7.68925390625,-5.79269921875,-5.042359375,-9.683,-10.32530859375,-7.1546953125,-4.38415234375,-9.8524296875,-0.5783359375,-4.960390625,-4.836375,-3.16734765625,-8.46889453125,-2.71263671875,-7.253828125,-6.3370078125,-2.78935546875,-4.293765625,-8.472359375,-6.6348203125,-7.62996484375,-2.68379296875,-2.93269140625,-8.31034765625,-8.666625,-5.4515625
-8.78371875,-1.6168359375,-6.66408984375,-8.31311328125,-7.58425390625,-5.82369921875,-4.821359375,-11.391,-10.25930859375,-6.8706953125,-4.40315234375,-10.6054296875,-0.3473359375,-4.183390625,-5.550375,-3.57934765625,-10.03689453125,-2.03163671875,-7.585828125,-7.7090078125,-4.67135546875,-5.002765625,-8.361359375,-8.2828203125,-9.16096484375,-4.58079296875,-5.21069140625,-9.69034765625,-11.342625,-8.2205625
-7.34171875,-1.8518359375,-3.99608984375,-8.35311328125,-7.09625390625,-5.16469921875,-4.306359375,-11.298,-9.99630859375,-6.3366953125,-3.68215234375,-10.6314296875,0.3966640625,-3.121390625,-5.646375,-2.83934765625,-10.58389453125,-1.11263671875,-7.344828125,-7.9340078125,-5.39135546875,-5.051765625,-7.223359375,-8.6498203125,-9.44996484375,-5.18479296875,-6.07669140625,-9.95434765625,-12.638625,-9.5675625
-6.14371875,-1.0808359375,-1.21908984375,-8.12911328125,-6.28325390625,-3.79769921875,-3.566359375,-9.267,-9.63730859375,-5.3676953125,-2.15915234375,-10.0094296875,1.5176640625,-1.784390625,-4.791375,-0.854347656249999,-9.94789453125,0.0123632812500001,-6.327828125,-6.7460078125,-4.59435546875,-4.484765625,-5.231359375,-7.4618203125,-8.19996484375,-4.13179296875,-5.21569140625,-9.06934765625,-12.301625,-9.0405625
-5.43571875,0.5821640625,0.81791015625,-7.64711328125,-5.37625390625,-1.97369921875,-2.670359375,-5.929,-9.51730859375,-3.9966953125,-0.06215234375,-8.9494296875,2.6086640625,-0.399390625,-2.983375,1.98365234375,-8.37189453125,1.11236328125,-4.658828125,-4.4020078125,-2.41535546875,-3.607765625,-2.925359375,-4.9948203125,-5.61196484375,-1.66479296875,-2.91569140625,-7.40734765625,-10.620625,-6.8425625
-5.41671875,2.4971640625,1.34191015625,-7.07311328125,-4.68025390625,-0.11369921875,-1.637359375,-2.396,-9.97130859375,-2.4906953125,2.20584765625,-7.6874296875,3.1246640625,0.634609375,-0.588375,4.99365234375,-6.37089453125,1.77036328125,-2.779828125,-1.5810078125,0.55564453125,-2.944765625,-1.051359375,-2.0088203125,-2.33696484375,1.49620703125,0.0463085937500001,-5.64034765625,-8.320625,-3.7375625
-6.12371875,3.8551640625,0.0779101562500001,-6.59811328125,-4.41925390625,1.36330078125,-0.457359375,0.264,-11.08530859375,-1.2316953125,4.25284765625,-6.3974296875,2.6126640625,0.912609375,1.800625,7.52065234375,-4.47989453125,1.55136328125,-1.258828125,0.9029921875,3.50164453125,-3.076765625,-0.278359375,0.5541796875,0.793035156249999,4.46920703125,2.73030859375,-4.48134765625,-6.257625,-0.7145625
-7.37871875,4.1351640625,-2.46208984375,-6.29411328125,-4.62825390625,2.20430078125,0.826640625,1.488,-12.62330859375,-0.5406953125,5.81584765625,-5.1644296875,0.9266640625,0.224609375,3.614625,9.19465234375,-3.02589453125,0.23036328125,-0.542828125,2.4579921875,5.69064453125,-4.391765625,-0.923359375,1.9621796875,3.09703515625,6.55020703125,4.43230859375,-4.38534765625,-5.065625,1.4064375
-8.81471875,3.3891640625,-5.09008984375,-6.06011328125,-5.11725390625,2.40930078125,2.080640625,1.398,-14.10230859375,-0.5156953125,6.80084765625,-3.9894296875,-1.6613359375,-1.300390625,4.548625,10.02865234375,-2.03489453125,-2.03663671875,-0.755828125,2.9379921875,6.74264453125,-6.865765625,-2.800359375,1.9971796875,4.29303515625,7.45020703125,4.94730859375,-5.34734765625,-4.921625,2.2704375
-9.94271875,2.2061640625,-6.46108984375,-5.67111328125,-5.53125390625,2.22930078125,3.137640625,0.635,-14.94130859375,-0.9576953125,7.26084765625,-2.8184296875,-4.5043359375,-3.182390625,4.687625,10.36765234375,-1.29989453125,-4.68963671875,-1.632828125,2.6569921875,6.72964453125,-9.983765625,-5.281359375,1.0301796875,4.53003515625,7.33520703125,4.59930859375,-6.90834765625,-5.528625,2.0544375
-10.30571875,1.3621640625,-5.76208984375,-4.90811328125,-5.49025390625,2.04630078125,3.915640625,-0.039,-14.67530859375,-1.4326953125,7.33884765625,-1.6034296875,-6.8083359375,-4.724390625,4.441625,10.68865234375,-0.55889453125,-6.94163671875,-2.629828125,2.1859921875,6.07964453125,-12.883765625,-7.527359375,-0.1668203125,4.23203515625,6.67820703125,4.02330859375,-8.35434765625,-6.298625,1.3044375
-9.66271875,1.3701640625,-3.14608984375,-3.72111328125,-4.77925390625,2.18130078125,4.494640625,-0.148,-13.21230859375,-1.4646953125,7.18284765625,-0.3864296875,-7.9593359375,-5.281390625,4.318625,11.32565234375,0.343105468750001,-8.06963671875,-3.169828125,2.0369921875,5.31964453125,-14.668765625,-8.799359375,-0.7938203125,3.82903515625,6.00320703125,3.82630859375,-9.02234765625,-6.634625,0.6284375
-8.11071875,2.2101640625,0.34891015625,-2.30411328125,-3.46925390625,2.73430078125,5.094640625,0.348,-10.92730859375,-0.7496953125,6.90484765625,0.6845703125,-7.7853359375,-4.506390625,4.671625,12.30565234375,1.36910546875,-7.67063671875,-2.887828125,2.4289921875,4.81364453125,-14.759765625,-8.707359375,-0.3758203125,3.56303515625,5.65220703125,4.30930859375,-8.55634765625,-6.180625,0.4224375
-6.03371875,3.4051640625,3.38391015625,-1.01711328125,-1.87925390625,3.58730078125,5.968640625,1.207,-8.45530859375,0.732304687499999,6.59284765625,1.4255703125,-6.5753359375,-2.467390625,5.560625,13.38465234375,2.33410546875,-5.76863671875,-1.743828125,3.2539921875,4.64664453125,-13.094765625,-7.276359375,1.0811796875,3.45903515625,5.68220703125,5.39230859375,-7.00034765625,-4.910625,0.7784375
-3.92071875,4.3631640625,5.00591015625,-0.194113281250001,-0.397253906249999,4.52330078125,7.252640625,2.197,-6.33930859375,2.7543046875,6.36784765625,1.7375703125,-4.8613359375,0.422609375,6.795625,14.26765234375,3.01510546875,-2.74063671875,0.0341718749999997,4.2409921875,4.69164453125,-10.100765625,-4.828359375,3.1921796875,3.45003515625,5.92520703125,6.76530859375,-4.67234765625,-3.041625,1.5824375
-2.18271875,4.7331640625,5.03491015625,0.0178867187499989,0.707746093750002,5.37230078125,8.857640625,3.222,-4.82430859375,4.9643046875,6.38984765625,1.6735703125,-3.1243359375,3.581609375,8.096625,14.79265234375,3.27510546875,0.84736328125,2.096171875,5.1599921875,4.75464453125,-6.479765625,-1.793359375,5.4461796875,3.51803515625,6.14620703125,8.12530859375,-1.95634765625,-0.880625,2.6664375
-1.07671875,4.5661640625,3.95991015625,-0.293113281250001,1.35374609375,6.06530078125,10.505640625,4.241,-3.86830859375,7.0233046875,6.79184765625,1.4175703125,-1.6153359375,6.457609375,9.253625,15.01265234375,3.13810546875,4.40736328125,4.111171875,5.9399921875,4.70164453125,-2.934765625,1.427640625,7.4361796875,3.74503515625,6.17820703125,9.34530859375,0.83565234375,1.291375,3.8884375
-0.684718749999999,4.2431640625,2.53991015625,-0.861113281250001,1.62574609375,6.62530078125,11.887640625,5.109,-3.22330859375,8.7083046875,7.61084765625,1.2105703125,-0.3693359375,8.698609375,10.229625,15.14265234375,2.78910546875,7.44536328125,5.870171875,6.6659921875,4.52164453125,0.0122343749999999,4.513640625,8.9661796875,4.26803515625,5.98420703125,10.47130859375,3.48465234375,3.251375,5.1294375
-0.921718749999999,4.2451640625,1.43191015625,-1.35011328125,1.67974609375,7.12230078125,12.868640625,5.566,-2.53730859375,9.9443046875,8.76784765625,1.2925703125,0.6596640625,10.210609375,11.127625,15.46965234375,2.50010546875,9.63236328125,7.314171875,7.4939921875,4.30864453125,2.107234375,7.202640625,10.0401796875,5.18003515625,5.62320703125,11.60430859375,5.79365234375,4.814375,6.2484375
-1.56771875,4.8791640625,1.01091015625,-1.48911328125,1.65874609375,7.60930078125,13.538640625,5.39,-1.53530859375,10.7503046875,10.06484765625,1.8265703125,1.4546640625,11.098609375,12.070625,16.18865234375,2.48810546875,10.81936328125,8.471171875,8.5209921875,4.19264453125,3.319234375,9.250640625,10.7461796875,6.43103515625,5.17720703125,12.74130859375,7.51865234375,5.807375,7.0514375
-2.34171875,6.0761640625,1.34691015625,-1.20611328125,1.60374609375,8.07130078125,14.081640625,4.574,-0.23630859375,11.1253046875,11.20084765625,2.8025703125,1.8986640625,11.496609375,13.020625,17.25165234375,2.76510546875,10.99936328125,9.324171875,9.6689921875,4.22064453125,3.733234375,10.402640625,11.1171796875,7.76003515625,4.66520703125,13.67330859375,8.36665234375,6.055375,7.2794375
-3.00071875,7.4031640625,2.26991015625,-0.670113281250001,1.42674609375,8.39830078125,14.568640625,3.388,1.01669140625,10.9723046875,11.81984765625,3.9815703125,1.8436640625,11.430609375,13.696625,18.30565234375,3.07610546875,10.23436328125,9.711171875,10.6419921875,4.27264453125,3.429234375,10.417640625,11.0471796875,8.73903515625,4.02320703125,14.00430859375,8.06865234375,5.392375,6.6914375
-3.40671875,8.2851640625,3.47091015625,-0.196113281250001,0.970746093750002,8.44230078125,14.836640625,2.281,1.77469140625,10.1613046875,11.63384765625,4.9575703125,1.2276640625,10.820609375,13.679625,18.82065234375,3.02910546875,8.63336328125,9.373171875,11.0319921875,4.11664453125,2.428234375,9.160640625,10.3441796875,8.94903515625,3.17820703125,13.33030859375,6.52565234375,3.750375,5.2084375
-3.53771875,8.3271640625,4.64991015625,-0.067113281250001,0.145746093750002,8.12030078125,14.556640625,1.699,1.77969140625,8.6763046875,10.54584765625,5.3515703125,0.1466640625,9.599609375,12.644625,18.35165234375,2.35910546875,6.36136328125,8.123171875,10.5239921875,3.57464453125,0.740234375,6.730640625,8.8871796875,8.19803515625,2.19120703125,11.47530859375,3.93465234375,1.265375,3.0604375
-3.47271875,7.5221640625,5.63091015625,-0.385113281250001,-0.972253906249998,7.46630078125,13.432640625,1.892,1.07769140625,6.7073046875,8.68984765625,5.0055703125,-1.1683359375,7.823609375,10.557625,16.76765234375,1.16410546875,3.66336328125,5.999171875,9.0629921875,2.68264453125,-1.558765625,3.502640625,6.7501796875,6.64103515625,1.31920703125,8.64330859375,0.79265234375,-1.675625,0.7624375
-3.37071875,6.1961640625,6.33891015625,-1.06011328125,-2.15925390625,6.60130078125,11.409640625,2.807,-0.0513085937499991,4.6023046875,6.35984765625,4.0565703125,-2.4483359375,5.685609375,7.710625,14.30765234375,-0.0998945312499995,0.84336328125,3.293171875,6.8799921875,1.69964453125,-4.259765625,0.0386406249999999,4.2041796875,4.69703515625,0.91420703125,5.35430859375,-2.23334765625,-4.529625,-1.0975625
-3.43571875,4.7751640625,6.64491015625,-1.90411328125,-3.16125390625,5.63230078125,8.766640625,4.096,-1.24330859375,2.6893046875,3.89084765625,2.8385703125,-3.4783359375,3.449609375,4.571625,11.46365234375,-0.859894531249999,-1.79563671875,0.438171875,4.3649921875,0.94764453125,-7.014765625,-3.105359375,1.5871796875,2.82603515625,1.20720703125,2.21130859375,-4.51434765625,-6.784625,-2.1265625
-3.86671875,3.5361640625,6.25991015625,-2.74811328125,-3.83725390625,4.57130078125,6.023640625,5.256,-2.21330859375,1.1153046875,1.55284765625,1.6865703125,-4.1393359375,1.351609375,1.577625,8.74665234375,-0.77089453125,-4.01963671875,-2.148828125,1.8809921875,0.62264453125,-9.382765625,-5.550359375,-0.8328203125,1.30803515625,2.14020703125,-0.34169140625,-5.63534765625,-8.133625,-2.2835625
-4.79871875,2.4981640625,4.82791015625,-3.51911328125,-4.23825390625,3.33230078125,3.704640625,5.815,-2.91230859375,-0.205695312500001,-0.50015234375,0.7625703125,-4.4233359375,-0.462390625,-1.013375,6.46465234375,0.10110546875,-5.68363671875,-4.205828125,-0.3460078125,0.68264453125,-10.940765625,-7.166359375,-2.9118203125,0.15803515625,3.36520703125,-2.12569140625,-5.48034765625,-8.533625,-1.8525625
-6.26471875,1.5161640625,2.21291015625,-4.23311328125,-4.57125390625,1.81530078125,2.088640625,5.525,-3.54330859375,-1.4786953125,-2.21215234375,0.0185703124999996,-4.4443359375,-1.947390625,-3.143375,4.65565234375,1.34210546875,-6.73663671875,-5.661828125,-2.2500078125,0.89764453125,-11.440765625,-8.019359375,-4.5878203125,-0.79696484375,4.41720703125,-3.17269140625,-4.22434765625,-8.161625,-1.2535625
-8.17371875,0.4521640625,-1.23508984375,-4.96011328125,-5.06425390625,0.0193007812500001,1.138640625,4.477,-4.37030859375,-2.8386953125,-3.53815234375,-0.7014296875,-4.4273359375,-3.114390625,-4.864375,3.19365234375,2.44710546875,-7.20963671875,-6.569828125,-3.8440078125,0.99264453125,-10.938765625,-8.262359375,-5.8048203125,-1.73696484375,4.93920703125,-3.58469140625,-2.26734765625,-7.300625,-0.8035625
-10.31771875,-0.6888359375,-4.69208984375,-5.76411328125,-5.83225390625,-1.87369921875,0.623640625,3.068,-5.48730859375,-4.1876953125,-4.37515234375,-1.4914296875,-4.6273359375,-3.967390625,-6.209375,1.97965234375,3.08310546875,-7.19463671875,-6.999828125,-5.1220078125,0.80564453125,-9.799765625,-8.034359375,-6.4748203125,-2.69996484375,4.84620703125,-3.42269140625,-0.11634765625,-6.231625,-0.5795625
-12.43071875,-1.7768359375,-7.20808984375,-6.69611328125,-6.82825390625,-3.55369921875,0.306640625,1.796,-6.77630859375,-5.2016953125,-4.59715234375,-2.3054296875,-5.2243359375,-4.491390625,-7.119375,1.03265234375,3.19210546875,-6.82063671875,-6.979828125,-6.0220078125,0.33764453125,-8.542765625,-7.423359375,-6.5148203125,-3.55196484375,4.33320703125,-2.68669140625,1.74965234375,-5.164625,-0.4405625
-14.28971875,-2.6818359375,-8.20408984375,-7.78911328125,-7.90825390625,-4.73069921875,0.0306406250000002,0.98,-8.06730859375,-5.5246953125,-4.16615234375,-3.0114296875,-6.2563359375,-4.688390625,-7.489375,0.443652343750001,2.90910546875,-6.22963671875,-6.530828125,-6.4740078125,-0.30435546875,-7.611765625,-6.495359375,-5.9228203125,-4.08996484375,3.71320703125,-1.37369140625,3.01865234375,-4.214625,-0.1975625
-15.78371875,-3.3888359375,-7.78808984375,-9.02711328125,-8.94225390625,-5.29069921875,-0.293359375000001,0.577,-9.26730859375,-5.0016953125,-3.22215234375,-3.5154296875,-7.6403359375,-4.614390625,-7.271375,0.263652343750001,2.40010546875,-5.55463671875,-5.737828125,-6.4730078125,-1.01135546875,-7.186765625,-5.330359375,-4.8138203125,-4.18896484375,3.21820703125,0.43530859375,3.64365234375,-3.404625,0.2294375
-16.88471875,-4.0018359375,-6.70908984375,-10.26811328125,-9.85425390625,-5.32669921875,-0.700359375000001,0.25,-10.34230859375,-3.8006953125,-2.04215234375,-3.8104296875,-9.2433359375,-4.367390625,-6.553375,0.45765234375,1.75110546875,-4.89063671875,-4.768828125,-6.0990078125,-1.72035546875,-7.120765625,-4.028359375,-3.3768203125,-3.86996484375,2.88220703125,2.54530859375,3.85465234375,-2.681625,0.7694375
-17.57471875,-4.6508359375,-5.93308984375,-11.22011328125,-10.59225390625,-5.04069921875,-1.133359375,-0.351,-11.24830859375,-2.3346953125,-0.89515234375,-3.9284296875,-10.9083359375,-4.029390625,-5.532375,0.933652343750001,0.98210546875,-4.25063671875,-3.805828125,-5.4520078125,-2.38335546875,-7.020765625,-2.672359375,-1.7678203125,-3.26096484375,2.58520703125,4.69330859375,4.05965234375,-1.935625,1.2914375
-17.77471875,-5.3388359375,-6.10708984375,-11.51911328125,-11.03625390625,-4.58969921875,-1.391359375,-1.263,-11.89430859375,-1.0376953125,0.08884765625,-3.8484296875,-12.4363359375,-3.609390625,-4.410375,1.61465234375,0.130105468750001,-3.54163671875,-2.942828125,-4.5560078125,-2.90535546875,-6.450765625,-1.274359375,-0.0238203124999998,-2.48396484375,2.18420703125,6.64530859375,4.65465234375,-1.044625,1.7234375
-17.35271875,-5.8408359375,-7.16608984375,-10.90311328125,-10.96325390625,-3.97969921875,-1.162359375,-2.088,-12.10830859375,-0.1276953125,0.97984765625,-3.4684296875,-13.5643359375,-3.005390625,-3.278375,2.48765234375,-0.686894531249999,-2.59163671875,-2.100828125,-3.3180078125,-3.12935546875,-5.143765625,0.234640625,1.9231796875,-1.55896484375,1.62520703125,8.27330859375,5.83765234375,0.0663750000000001,2.1144375
-16.19171875,-5.7218359375,-8.33208984375,-9.35511328125,-10.09625390625,-3.06269921875,-0.166359375,-2.15,-11.61830859375,0.520304687499999,1.98584765625,-2.6624296875,-14.0003359375,-2.039390625,-2.078375,3.60965234375,-1.27689453125,-1.22863671875,-1.063828125,-1.5820078125,-2.89735546875,-3.147765625,1.957640625,4.1501796875,-0.405964843750001,0.94320703125,9.55930859375,7.50865234375,1.363375,2.5834375
-14.27971875,-4.5438359375,-8.53908984375,-7.16711328125,-8.26025390625,-1.64469921875,1.647640625,-0.877,-10.16230859375,1.2813046875,3.31784765625,-1.3634296875,-13.5503359375,-0.561390625,-0.681375,5.03565234375,-1.45889453125,0.60636328125,0.390171875,0.7269921875,-2.16335546875,-0.835765625,3.918640625,6.6081796875,1.03303515625,0.19520703125,10.51030859375,9.27165234375,2.655375,3.1844375
-11.78371875,-2.1718359375,-7.10408984375,-4.88311328125,-5.55425390625,0.35430078125,3.996640625,1.811,-7.74930859375,2.5233046875,5.02484765625,0.3725703125,-12.2493359375,1.394609375,0.953625,6.70065234375,-1.17689453125,2.77436328125,2.300171875,3.4509921875,-1.08135546875,1.208234375,5.962640625,9.0181796875,2.63703515625,-0.62479296875,11.03830859375,10.52165234375,3.598375,3.7754375
-9.02971875,1.0261640625,-4.21708984375,-3.09811328125,-2.42425390625,2.79330078125,6.347640625,5.353,-4.82330859375,4.3423046875,6.90184765625,2.3575703125,-10.4143359375,3.533609375,2.679625,8.36865234375,-0.56889453125,4.93336328125,4.417171875,6.1469921875,0.00564453125000008,2.406234375,7.724640625,10.9031796875,4.03903515625,-1.59679296875,10.91330859375,10.64365234375,3.772375,4.0074375
-6.39971875,4.2841640625,-0.89308984375,-2.18111328125,0.470746093750002,5.32430078125,8.163640625,8.765,-2.09530859375,6.4773046875,8.54684765625,4.3195703125,-8.5273359375,5.393609375,4.185625,9.71365234375,0.0731054687500006,6.64736328125,6.267171875,8.2109921875,0.71264453125,2.433234375,8.762640625,11.7591796875,4.74903515625,-2.79379296875,9.85130859375,9.27465234375,2.870375,3.4924375
-4.20371875,6.8191640625,1.66191015625,-2.07511328125,2.52074609375,7.53130078125,9.145640625,11.114,-0.173308593749999,8.4523046875,9.53884765625,5.9965703125,-7.0163359375,6.570609375,5.158625,10.49465234375,0.45410546875,7.57336328125,7.378171875,9.1259921875,0.82164453125,1.401234375,8.785640625,11.3051796875,4.40903515625,-4.15979296875,7.73530859375,6.55465234375,0.903375,2.0724375
-2.62371875,8.2071640625,2.80091015625,-2.33111328125,3.40974609375,9.08330078125,9.326640625,11.953,0.70669140625,9.8233046875,9.63084765625,7.2265703125,-6.0813359375,6.915609375,5.438625,10.67765234375,0.44310546875,7.61236328125,7.491171875,8.6959921875,0.41464453125,-0.161765625,7.838640625,9.6631796875,3.01503515625,-5.43979296875,4.78730859375,3.15965234375,-1.703625,-0.00856250000000003
-1.75571875,8.5061640625,2.75291015625,-2.42011328125,3.18374609375,9.81730078125,8.967640625,11.462,0.67469140625,10.3673046875,8.86184765625,7.9745703125,-5.7073359375,6.553609375,5.062625,10.42765234375,0.13910546875,6.91536328125,6.649171875,7.1259921875,-0.16635546875,-1.556765625,6.294640625,7.3331796875,0.94403515625,-6.27479296875,1.56830859375,0.0376523437499998,-4.248625,-2.2055625
-1.68171875,8.0691640625,2.27791015625,-2.11511328125,2.13374609375,9.72430078125,8.373640625,10.24,0.0506914062500012,10.1073046875,7.52884765625,8.2805703125,-5.8093359375,5.758609375,4.195625,9.97065234375,-0.20589453125,5.76336328125,5.125171875,4.9019921875,-0.53035546875,-2.275765625,4.655640625,4.9661796875,-1.23296484375,-6.41079296875,-1.23469140625,-2.04834765625,-6.081625,-3.9565625
-2.47671875,7.2411640625,1.97791015625,-1.68111328125,0.612746093750001,8.88530078125,7.743640625,8.924,-0.86730859375,9.2283046875,6.07884765625,8.1965703125,-6.3683359375,4.782609375,3.017625,9.46065234375,-0.35889453125,4.41936328125,3.281171875,2.5739921875,-0.45035546875,-2.246765625,3.300640625,3.1001796875,-3.02196484375,-5.87979296875,-3.09169140625,-2.86634765625,-6.908625,-4.9845625
-4.14071875,6.1601640625,1.81691015625,-1.70411328125,-1.10425390625,7.43530078125,7.144640625,7.87,-1.96930859375,7.9573046875,4.94184765625,7.7555703125,-7.4283359375,3.768609375,1.670625,8.92965234375,-0.24389453125,3.05236328125,1.451171875,0.5639921875,0.0416445312500001,-1.817765625,2.360640625,1.9961796875,-4.17496484375,-4.99079296875,-3.79369140625,-2.72234765625,-6.860625,-5.3625625
-6.51171875,4.7661640625,1.20791015625,-2.68711328125,-2.84325390625,5.56130078125,6.557640625,7.059,-3.37630859375,6.4993046875,4.39984765625,7.0105703125,-8.9573359375,2.753609375,0.279625,8.33965234375,0.0401054687500002,1.75336328125,-0.106828125,-0.8940078125,0.73464453125,-1.504765625,1.760640625,1.6581796875,-4.67896484375,-4.12679296875,-3.42869140625,-2.15634765625,-6.302625,-5.3445625
-9.21771875,2.9701640625,-0.45508984375,-4.68211328125,-4.48125390625,3.53430078125,5.968640625,6.217,-5.26830859375,5.0323046875,4.51684765625,6.0635703125,-10.7203359375,1.745609375,-0.992375,7.67965234375,0.27610546875,0.57236328125,-1.210828125,-1.7270078125,1.39564453125,-1.706765625,1.364640625,1.9411796875,-4.62396484375,-3.52279296875,-2.24669140625,-1.57434765625,-5.552625,-5.1175625
-11.73871875,0.8311640625,-3.24108984375,-7.20311328125,-5.87825390625,1.68330078125,5.402640625,5.049,-7.62030859375,3.7343046875,5.17184765625,5.0615703125,-12.3053359375,0.786609375,-1.931375,7.01965234375,0.23610546875,-0.47263671875,-1.743828125,-1.9690078125,1.88964453125,-2.548765625,1.066640625,2.6491796875,-4.09396484375,-3.16679296875,-0.55169140625,-1.10534765625,-4.744625,-4.6865625
-13.55071875,-1.3838359375,-6.51308984375,-9.46711328125,-6.87125390625,0.33130078125,4.920640625,3.443,-10.09230859375,2.7933046875,6.12484765625,4.1635703125,-13.3013359375,-0.039390625,-2.318375,6.45365234375,-0.20789453125,-1.40963671875,-1.676828125,-1.7190078125,2.21164453125,-3.890765625,0.819640625,3.5771796875,-3.13796484375,-2.87079296875,1.34430859375,-0.70534765625,-3.866625,-3.9605625
-14.30671875,-3.2658359375,-9.23008984375,-10.77911328125,-7.30925390625,-0.315699218750001,4.574640625,1.587,-12.16530859375,2.3763046875,7.10484765625,3.4955703125,-13.5073359375,-0.640390625,-2.025375,6.01565234375,-1.00989453125,-2.30263671875,-1.086828125,-1.1160078125,2.44564453125,-5.432765625,0.601640625,4.5471796875,-1.80796484375,-2.42579296875,3.13230859375,-0.33234765625,-2.899625,-2.9155625
-13.94671875,-4.4058359375,-10.48808984375,-10.81911328125,-7.12125390625,-0.22669921875,4.382640625,-0.079,-13.38530859375,2.5843046875,7.89984765625,3.1355703125,-13.0043359375,-0.950390625,-1.086375,5.65365234375,-1.92289453125,-3.19563671875,-0.146828125,-0.2960078125,2.72264453125,-6.823765625,0.414640625,5.4441796875,-0.17796484375,-1.73679296875,4.56130859375,-0.0203476562500002,-1.886625,-1.6505625
-12.70471875,-4.5518359375,-9.96808984375,-9.70411328125,-6.35825390625,0.442300781249999,4.317640625,-1.034,-13.52630859375,3.4083046875,8.42484765625,3.1035703125,-12.0823359375,-0.948390625,0.291625,5.30065234375,-2.57689453125,-4.06563671875,0.924171875,0.6299921875,3.18464453125,-7.755765625,0.296640625,6.2641796875,1.65703515625,-0.84679296875,5.51530859375,0.18665234375,-0.904625,-0.3165625
-11.01571875,-3.7228359375,-8.05708984375,-7.87111328125,-5.20425390625,1.38630078125,4.317640625,-0.945,-12.67130859375,4.6993046875,8.70884765625,3.3655703125,-11.0943359375,-0.679390625,1.778625,4.93665234375,-2.62889453125,-4.81663671875,1.917171875,1.5879921875,3.94164453125,-8.048765625,0.306640625,7.0891796875,3.58303515625,0.11420703125,6.06130859375,0.32665234375,0.00437500000000013,1.0014375
-9.37871875,-2.2618359375,-5.64208984375,-5.89111328125,-3.94325390625,2.21330078125,4.285640625,0.123,-11.19730859375,6.1713046875,8.80684765625,3.8305703125,-10.3573359375,-0.269390625,3.008625,4.57565234375,-1.93689453125,-5.33363671875,2.671171875,2.5069921875,5.01264453125,-7.704765625,0.492640625,7.9961796875,5.42603515625,1.01720703125,6.39530859375,0.52565234375,0.860375,2.3144375
-8.19971875,-0.7198359375,-3.67808984375,-4.28611328125,-2.88025390625,2.54830078125,4.106640625,1.679,-9.62530859375,7.4693046875,8.68984765625,4.3685703125,-10.1273359375,0.106609375,3.684625,4.21065234375,-0.64689453125,-5.55163671875,3.088171875,3.2949921875,6.26564453125,-6.923765625,0.841640625,8.9511796875,6.93203515625,1.78220703125,6.71330859375,0.87565234375,1.666375,3.6234375
-7.64971875,0.3991640625,-2.72108984375,-3.37811328125,-2.22225390625,2.17730078125,3.702640625,3.037,-8.34330859375,8.3013046875,8.23184765625,4.8405703125,-10.5603359375,0.318609375,3.680625,3.79565234375,0.84410546875,-5.49563671875,3.164171875,3.8469921875,7.42264453125,-6.041765625,1.270640625,9.7861796875,7.79903515625,2.36720703125,7.08130859375,1.31265234375,2.314375,4.8084375
-7.56971875,0.9071640625,-2.64608984375,-3.17511328125,-1.98325390625,1.17730078125,3.093640625,3.668,-7.40430859375,8.5853046875,7.31484765625,5.1455703125,-11.6403359375,0.374609375,3.102625,3.29765234375,2.07510546875,-5.24063671875,3.026171875,4.0989921875,8.15164453125,-5.398765625,1.683640625,10.2861796875,7.80603515625,2.74220703125,7.39730859375,1.60065234375,2.584375,5.6064375
-7.50171875,1.0341640625,-2.72808984375,-3.35011328125,-1.96325390625,-0.0616992187500003,2.424640625,3.485,-6.56630859375,8.5153046875,5.99384765625,5.2525703125,-13.0773359375,0.451609375,2.277625,2.74165234375,2.72810546875,-4.81463671875,2.925171875,4.0869921875,8.21264453125,-5.178765625,2.058640625,10.3471796875,6.95903515625,2.89420703125,7.49230859375,1.46365234375,2.279375,5.7324375
-6.85671875,1.2721640625,-2.07208984375,-3.36511328125,-1.84825390625,-0.982699218750001,1.930640625,2.855,-5.52530859375,8.4893046875,4.57884765625,5.1975703125,-14.3073359375,0.821609375,1.630625,2.21465234375,2.74610546875,-4.14063671875,3.156171875,3.9539921875,7.55764453125,-5.308765625,2.495640625,10.0701796875,5.55003515625,2.85420703125,7.27130859375,0.79265234375,1.403375,5.0714375
-5.16671875,2.0641640625,-0.18308984375,-2.71411328125,-1.38325390625,-1.12269921875,1.805640625,2.346,-4.09730859375,8.9173046875,3.56884765625,5.0355703125,-14.6493359375,1.705609375,1.504625,1.81165234375,2.26710546875,-3.05763671875,3.916171875,3.8709921875,6.31764453125,-5.482765625,3.171640625,9.7041796875,4.04903515625,2.67820703125,6.78630859375,-0.26634765625,0.215375,3.7754375
-2.31971875,3.5081640625,2.68591015625,-1.18511328125,-0.516253906249998,-0.352699218750001,2.069640625,2.338,-2.27930859375,10.0143046875,3.42384765625,4.7735703125,-13.5893359375,3.130609375,1.987625,1.53565234375,1.44110546875,-1.45163671875,5.174171875,3.9149921875,4.68164453125,-5.326765625,4.207640625,9.4691796875,2.86303515625,2.37720703125,6.17530859375,-1.39134765625,-0.917625,2.2084375
1.33528125,5.2711640625,5.64191015625,0.979886718749999,0.562746093750002,1.02330078125,2.487640625,2.745,-0.26430859375,11.6773046875,4.29584765625,4.3345703125,-11.0473359375,4.865609375,2.849625,1.24265234375,0.28510546875,0.62036328125,6.621171875,3.9879921875,2.77764453125,-4.605765625,5.539640625,9.3801796875,2.11003515625,1.85920703125,5.54530859375,-2.29734765625,-1.746625,0.7514375
5.04728125,6.7441640625,7.60691015625,3.15288671875,1.50974609375,2.38730078125,2.657640625,3.041,1.55969140625,13.5063046875,5.90184765625,3.5845703125,-7.4573359375,6.477609375,3.645625,0.672652343750001,-1.30589453125,2.87536328125,7.780171875,3.8619921875,0.65164453125,-3.353765625,6.896640625,9.2411796875,1.59703515625,0.98920703125,4.89630859375,-2.87534765625,-2.256625,-0.3545625
7.89128125,7.3441640625,7.83091015625,4.58888671875,1.98774609375,3.07430078125,2.236640625,2.568,2.72969140625,14.9753046875,7.64284765625,2.4335703125,-3.6183359375,7.510609375,3.930625,-0.380347656249999,-3.40289453125,4.88936328125,8.227171875,3.3349921875,-1.62835546875,-1.835765625,7.931640625,8.8121796875,1.01003515625,-0.27479296875,4.16830859375,-3.16734765625,-2.571625,-1.0245625
9.11628125,6.8201640625,6.18391015625,4.79288671875,1.82174609375,2.68430078125,1.163640625,0.949,2.92469140625,15.6763046875,8.90384765625,0.9445703125,-0.3973359375,7.715609375,3.505625,-1.86934765625,-5.87289453125,6.27536328125,7.816171875,2.4069921875,-3.84035546875,-0.385765625,8.420640625,8.0321796875,0.20503515625,-1.74879296875,3.36830859375,-3.20834765625,-2.750625,-1.2275625
8.45028125,5.3781640625,3.15391015625,3.77088671875,1.09374609375,1.27130078125,-0.275359375,-1.65,2.12469140625,15.4923046875,9.32284765625,-0.6214296875,1.5826640625,7.182609375,2.525625,-3.44134765625,-8.33089453125,6.85236328125,6.755171875,1.3309921875,-5.59235546875,0.745234375,8.383640625,7.1211796875,-0.64896484375,-3.04879296875,2.64730859375,-2.91434765625,-2.674625,-0.9205625
6.27328125,3.6071640625,-0.34408984375,2.04188671875,0.137746093750001,-0.65369921875,-1.575359375,-4.541,0.61069140625,14.6533046875,8.88984765625,-1.8724296875,2.1286640625,6.312609375,1.435625,-4.58534765625,-10.26289453125,6.72236328125,5.501171875,0.5189921875,-6.45835546875,1.446234375,8.076640625,6.4891796875,-1.14896484375,-3.76079296875,2.25530859375,-2.14234765625,-2.135625,-0.0885625000000001
3.54228125,2.2501640625,-3.23208984375,0.418886718749999,-0.551253906249999,-2.30969921875,-2.238359375,-6.773,-1.10830859375,13.6453046875,7.88284765625,-2.4044296875,1.5216640625,5.643609375,0.780625,-4.88034765625,-11.23689453125,6.21436328125,4.557171875,0.3659921875,-6.19635546875,1.706234375,7.845640625,6.5231796875,-0.90296484375,-3.66879296875,2.40230859375,-0.85234765625,-1.036625,1.1534375
1.46328125,1.9491640625,-4.54608984375,-0.348113281250001,-0.478253906249998,-2.92669921875,-1.951359375,-7.499,-2.37830859375,13.0603046875,6.72484765625,-1.9304296875,0.4136640625,5.650609375,0.993625,-4.16534765625,-11.07089453125,5.75236328125,4.307171875,1.0999921875,-4.87235546875,1.589234375,7.989640625,7.3971796875,0.25303515625,-2.88879296875,3.13930859375,0.79565234375,0.491375,2.5344375
0.99728125,3.0261640625,-3.71208984375,0.118886718749999,0.649746093750002,-2.03769921875,-0.669359375,-6.309,-2.59930859375,13.3843046875,5.82884765625,-0.3664296875,-0.4113359375,6.577609375,2.244625,-2.55934765625,-9.86789453125,5.70636328125,4.921171875,2.7029921875,-2.83135546875,1.245234375,8.664640625,9.0091796875,2.17003515625,-1.81579296875,4.34430859375,2.49365234375,2.140375,3.7074375
2.40328125,5.3421640625,-0.77208984375,1.66988671875,2.75174609375,0.32330078125,1.391640625,-3.413,-1.55230859375,14.7883046875,5.45984765625,2.1575703125,-0.3513359375,8.322609375,4.367625,-0.374347656249999,-7.92689453125,6.26936328125,6.316171875,4.9139921875,-0.52135546875,0.938234375,9.860640625,11.0311796875,4.47103515625,-0.91879296875,5.79530859375,3.95165234375,3.597375,4.4104375
5.06528125,8.2831640625,3.52791015625,3.69088671875,5.33374609375,3.59830078125,3.821640625,0.419,0.35169140625,16.9913046875,5.64184765625,5.3395703125,0.7156640625,10.429609375,6.889625,2.00765234375,-5.60389453125,7.38936328125,8.152171875,7.2809921875,1.68664453125,0.985234375,11.401640625,13.0081796875,6.70703515625,-0.51979296875,7.25930859375,5.02965234375,4.697375,4.5774375
7.72328125,10.9041640625,7.87791015625,5.33688671875,7.62074609375,6.87730078125,6.110640625,4.135,2.18469140625,19.2893046875,6.15884765625,8.7725703125,2.3246640625,12.199609375,9.141625,4.24065234375,-3.21289453125,8.76936328125,9.905171875,9.2689921875,3.60564453125,1.596234375,12.970640625,14.4631796875,8.49603515625,-0.66179296875,8.53430859375,5.74265234375,5.444375,4.3514375
9.01828125,12.2361640625,10.80691015625,5.83288671875,8.81374609375,9.17930078125,7.764640625,6.786,2.91069140625,20.7703046875,6.62684765625,12.0125703125,3.6016640625,12.910609375,10.448625,6.04665234375,-0.99489453125,9.95436328125,10.998171875,10.3919921875,5.20264453125,2.709234375,14.159640625,14.9951796875,9.58103515625,-1.14479296875,9.44030859375,6.14565234375,5.921375,3.9744375
8.06928125,11.6291640625,11.23191015625,4.72088671875,8.36274609375,9.76130078125,8.387640625,7.828,1.80069140625,20.6493046875,6.61284765625,14.6155703125,3.6626640625,12.051609375,10.331625,7.18765234375,0.85510546875,10.46936328125,10.985171875,10.3399921875,6.48364453125,3.935234375,14.562640625,14.3671796875,9.81003515625,-1.67779296875,9.80630859375,6.19265234375,6.147375,3.5984375
4.83428125,9.0121640625,8.90091015625,2.01088671875,6.14774609375,8.33530078125,7.766640625,7.25,-1.29030859375,18.5883046875,5.77184765625,16.1945703125,2.0276640625,9.514609375,8.659625,7.43365234375,2.14710546875,9.98336328125,9.699171875,9.0659921875,7.38264453125,4.695234375,13.891640625,12.5761796875,9.11703515625,-2.04079296875,9.48930859375,5.68365234375,6.026375,3.1844375
0.10828125,4.9511640625,4.50591015625,-1.80411328125,2.53474609375,5.16330078125,5.948640625,5.502,-5.82830859375,14.8623046875,4.02484765625,16.5165703125,-1.1513359375,5.691609375,5.728625,6.61465234375,2.70710546875,8.44336328125,7.351171875,6.8259921875,7.76364453125,4.501234375,12.099640625,9.8991796875,7.55503515625,-2.15879296875,8.47230859375,4.40165234375,5.443375,2.5624375
-4.80471875,0.4561640625,-0.61008984375,-5.87611328125,-1.71525390625,1.00130078125,3.280640625,3.27,-10.69530859375,10.3073046875,1.68284765625,15.6165703125,-5.1533359375,1.423609375,2.219625,4.75965234375,2.45410546875,6.12436328125,4.506171875,4.1519921875,7.54064453125,3.229234375,9.461640625,6.8811796875,5.37903515625,-2.06779296875,6.95530859375,2.34565234375,4.428375,1.6404375
-8.60971875,-3.4008359375,-5.03508984375,-9.28311328125,-5.66625390625,-3.12669921875,0.341640625,1.187,-14.58330859375,6.0373046875,-0.61415234375,13.8415703125,-9.0003359375,-2.250390625,-0.981375,2.16565234375,1.50010546875,3.54636328125,1.910171875,1.7329921875,6.80964453125,1.210234375,6.530640625,4.2191796875,3.06603515625,-1.82079296875,5.37030859375,-0.10734765625,3.252375,0.5474375
-10.50571875,-5.8618359375,-7.85708984375,-11.36411328125,-8.50425390625,-6.27769921875,-2.263359375,-0.408,-16.53530859375,3.0273046875,-2.17315234375,11.7375703125,-11.8673359375,-4.472390625,-3.078375,-0.67034765625,0.154105468750001,1.28536328125,0.214171875,0.1989921875,5.86764453125,-0.932765625,3.956640625,2.5591796875,1.20003515625,-1.44079296875,4.23330859375,-2.29234765625,2.330375,-0.4065625
-10.43471875,-6.6778359375,-8.92808984375,-11.94811328125,-9.80425390625,-7.91769921875,-4.147359375,-1.55,-16.32330859375,1.7673046875,-2.59815234375,9.8425703125,-13.3753359375,-4.901390625,-3.665375,-3.22834765625,-1.19689453125,-0.24263671875,-0.268828125,-0.1000078125,5.09864453125,-2.610765625,2.239640625,2.2551796875,0.28103515625,-0.94779296875,3.90030859375,-3.57334765625,1.984375,-0.9235625
-8.99971875,-6.0898359375,-8.73308984375,-11.37511328125,-9.65225390625,-8.08369921875,-5.279359375,-2.535,-14.44830859375,2.1113046875,-1.99115234375,8.4765703125,-13.6543359375,-3.828390625,-2.865375,-5.13734765625,-2.26489453125,-0.92663671875,0.347171875,0.7739921875,4.77764453125,-3.560765625,1.537640625,3.2251796875,0.52403515625,-0.40779296875,4.38030859375,-3.67934765625,2.231375,-0.9055625
-7.12771875,-4.6698359375,-8.01708984375,-10.29611328125,-8.58725390625,-7.30069921875,-5.934359375,-3.707,-11.86430859375,3.3923046875,-0.90215234375,7.6425703125,-13.1653359375,-2.038390625,-1.271375,-6.28334765625,-2.99589453125,-0.95863671875,1.624171875,2.3739921875,4.93564453125,-3.933765625,1.638640625,4.9901796875,1.77403515625,0.04720703125,5.31630859375,-2.85934765625,2.758375,-0.5175625
-5.64971875,-3.0958359375,-7.39708984375,-9.36311328125,-7.37125390625,-6.30369921875,-6.489359375,-5.222,-9.59230859375,4.7173046875,-0.07215234375,7.0905703125,-12.4263359375,-0.461390625,0.323625,-6.80734765625,-3.55289453125,-0.72063671875,3.008171875,4.0579921875,5.33864453125,-4.145765625,2.093640625,6.8791796875,3.55403515625,0.27420703125,6.17530859375,-1.74034765625,3.108375,-0.0825624999999999
-4.97071875,-1.9108359375,-7.11708984375,-8.93611328125,-6.66225390625,-5.69169921875,-7.166359375,-6.913,-8.32730859375,5.3613046875,-0.07915234375,6.4995703125,-11.7773359375,0.235609375,1.255625,-6.97734765625,-4.19089453125,-0.57663671875,4.067171875,5.2579921875,5.63064453125,-4.584765625,2.459640625,8.3331796875,5.25903515625,0.20620703125,6.53730859375,-0.98334765625,2.952375,0.1024375
-4.98771875,-1.3098359375,-6.98308984375,-8.94511328125,-6.73225390625,-5.69369921875,-7.885359375,-8.332,-8.15930859375,5.0793046875,-1.06415234375,5.6865703125,-11.2943359375,-0.0503906249999999,1.258625,-7.01534765625,-5.08189453125,-0.67963671875,4.659171875,5.7169921875,5.53764453125,-5.339765625,2.538640625,9.1391796875,6.41003515625,-0.09179296875,6.32530859375,-0.92734765625,2.300375,-0.0575625
-5.26071875,-1.0858359375,-6.51208984375,-9.00511328125,-7.38325390625,-6.15369921875,-8.332359375,-9.002,-8.59230859375,4.1693046875,-2.67515234375,4.7215703125,-10.8293359375,-0.838390625,0.520625,-6.98134765625,-6.21289453125,-0.87663671875,4.949171875,5.5739921875,5.01564453125,-6.101765625,2.477640625,9.4771796875,6.83103515625,-0.45779296875,5.84530859375,-1.41934765625,1.521375,-0.4025625
-5.34471875,-0.7958359375,-5.24208984375,-8.70011328125,-8.12425390625,-6.71669921875,-8.176359375,-8.725,-8.93230859375,3.2553046875,-4.26315234375,3.8615703125,-10.1333359375,-1.345390625,-0.488375,-6.82634765625,-7.39289453125,-0.79763671875,5.279171875,5.2349921875,4.25964453125,-6.313765625,2.660640625,9.7501796875,6.66703515625,-0.73379296875,5.60030859375,-1.92434765625,1.152375,-0.6425625
-5.03271875,-0.0428359375,-3.04508984375,-7.85411328125,-8.47625390625,-7.06169921875,-7.302359375,-7.699,-8.72930859375,2.9243046875,-5.21315234375,3.3815703125,-8.9863359375,-0.932390625,-1.289375,-6.52234765625,-8.35589453125,-0.0646367187499998,5.949171875,5.1119921875,3.56164453125,-5.487765625,3.457640625,10.2921796875,6.23403515625,-0.87479296875,5.99130859375,-1.85834765625,1.609375,-0.5585625
-4.42171875,1.2921640625,-0.27908984375,-6.62911328125,-8.23925390625,-7.04469921875,-5.894359375,-6.36,-7.96130859375,3.4363046875,-5.21115234375,3.3935703125,-7.3063359375,0.560609375,-1.628375,-6.15034765625,-8.89189453125,1.46536328125,7.041171875,5.3769921875,3.14964453125,-3.521765625,4.961640625,11.1511796875,5.80503515625,-0.99479296875,7.08130859375,-0.91434765625,2.958375,-0.1335625
-3.80671875,3.0001640625,2.31591015625,-5.41311328125,-7.58125390625,-6.71069921875,-4.378359375,-5.09,-6.94330859375,4.6363046875,-4.34815234375,3.7865703125,-5.2303359375,2.737609375,-1.557375,-5.87834765625,-8.93389453125,3.58736328125,8.373171875,5.8639921875,3.07164453125,-0.810765625,6.895640625,12.0501796875,5.47003515625,-1.30279296875,8.55430859375,0.77965234375,4.885375,0.4524375
-3.53971875,4.6331640625,3.91191015625,-4.61411328125,-6.93325390625,-6.22969921875,-3.253359375,-4.038,-6.15230859375,6.0653046875,-3.02815234375,4.2935703125,-3.1233359375,4.844609375,-1.356375,-5.88234765625,-8.56589453125,5.81736328125,9.573171875,6.1539921875,3.20064453125,1.921234375,8.715640625,12.5561796875,5.12703515625,-1.97779296875,9.88630859375,2.76365234375,6.852375,0.9424375
-3.87571875,5.6911640625,3.97291015625,-4.46111328125,-6.74425390625,-5.77569921875,-2.863359375,-3.149,-6.06530859375,7.1973046875,-1.75915234375,4.6395703125,-1.4803359375,6.135609375,-1.355375,-6.23434765625,-7.97189453125,7.61136328125,10.257171875,5.8189921875,3.32864453125,3.963234375,9.887640625,12.3321796875,4.60303515625,-3.04879296875,10.61930859375,4.50765234375,8.365375,1.1424375
-4.83971875,5.8111640625,2.53791015625,-4.89711328125,-7.20125390625,-5.40369921875,-3.213359375,-2.317,-6.94330859375,7.7073046875,-0.88715234375,4.6775703125,-0.7363359375,6.232609375,-1.733375,-6.81334765625,-7.35989453125,8.60036328125,10.217171875,4.6869921875,3.29864453125,4.940234375,10.144640625,11.3441796875,3.82303515625,-4.36479296875,10.59430859375,5.67565234375,9.186375,1.0154375
-6.16371875,4.9271640625,0.24791015625,-5.59111328125,-8.11125390625,-5.00369921875,-3.920359375,-1.49,-8.65130859375,7.6193046875,-0.45115234375,4.4405703125,-1.0803359375,5.286609375,-2.416375,-7.28334765625,-6.88389453125,8.72336328125,9.523171875,2.9779921875,3.08964453125,4.939234375,9.590640625,9.8861796875,2.90403515625,-5.65679296875,10.00230859375,6.22765234375,9.375375,0.6764375
-7.37071875,3.3281640625,-1.90508984375,-6.08311328125,-9.00025390625,-4.36469921875,-4.397359375,-0.685,-10.69530859375,7.2603046875,-0.24015234375,4.1015703125,-2.3583359375,3.849609375,-3.129375,-7.22334765625,-6.59289453125,8.17236328125,8.485171875,1.2249921875,2.81764453125,4.371234375,8.574640625,8.4311796875,2.12103515625,-6.66779296875,9.25130859375,6.30665234375,9.152375,0.2824375
-7.98671875,1.5911640625,-3.00308984375,-5.98711328125,-9.38325390625,-3.34269921875,-4.152359375,0.052,-12.49330859375,7.0713046875,0.02084765625,3.8835703125,-4.0983359375,2.539609375,-3.558375,-6.34734765625,-6.41589453125,7.24836328125,7.487171875,0.0239921875,2.67264453125,3.710234375,7.470640625,7.4111796875,1.77903515625,-7.23879296875,8.73430859375,6.06365234375,8.731375,-0.0725625000000001
-7.76571875,0.3791640625,-2.61208984375,-5.16411328125,-9.02325390625,-1.97469921875,-3.045359375,0.67,-13.63730859375,7.3843046875,0.48984765625,3.9525703125,-5.6563359375,1.734609375,-3.498375,-4.68634765625,-6.20489453125,6.20936328125,6.829171875,-0.2260078125,2.81664453125,3.275234375,6.511640625,7.0611796875,2.05903515625,-7.35679296875,8.65430859375,5.55665234375,8.228375,-0.3875625
-6.77971875,0.1801640625,-0.97508984375,-3.76911328125,-8.02425390625,-0.469699218750001,-1.344359375,1.123,-13.96730859375,8.3033046875,1.15784765625,4.3225703125,-6.4243359375,1.466609375,-2.924375,-2.60034765625,-5.83389453125,5.22636328125,6.656171875,0.5199921875,3.30964453125,3.166234375,5.781640625,7.3851796875,2.92603515625,-7.13579296875,8.95830859375,4.80465234375,7.690375,-0.6975625
-5.32871875,1.0921640625,1.08691015625,-2.15711328125,-6.72425390625,0.92030078125,0.436640625,1.395,-13.50730859375,9.7053046875,1.91484765625,4.8235703125,-6.0603359375,1.516609375,-1.951375,-0.630347656249999,-5.27989453125,4.40136328125,6.963171875,1.9749921875,4.07064453125,3.324234375,5.296640625,8.2071796875,4.12303515625,-6.77679296875,9.39830859375,3.89065234375,7.160375,-1.0125625
-3.74771875,2.7981640625,2.56691015625,-0.700113281250001,-5.48125390625,2.04230078125,1.796640625,1.55,-12.40230859375,11.3433046875,2.65884765625,5.1525703125,-4.6383359375,1.626609375,-0.748375,0.730652343750001,-4.62689453125,3.81836328125,7.653171875,3.6639921875,4.91364453125,3.629234375,5.080640625,9.2701796875,5.26503515625,-6.48679296875,9.66330859375,3.01165234375,6.703375,-1.2885625
-2.25071875,4.7311640625,2.75091015625,0.379886718749999,-4.49225390625,2.90530078125,2.473640625,1.754,-10.88430859375,12.9643046875,3.37684765625,5.0015703125,-2.6453359375,1.669609375,0.543625,1.25165234375,-3.96889453125,3.55736328125,8.588171875,5.1369921875,5.65764453125,3.978234375,5.176640625,10.3261796875,6.02103515625,-6.39279296875,9.53130859375,2.41565234375,6.378375,-1.4515625
-0.91371875,6.3421640625,1.53591015625,1.05388671875,-3.75225390625,3.59930078125,2.517640625,2.207,-9.24230859375,14.3813046875,4.13384765625,4.2225703125,-0.7963359375,1.688609375,1.833625,1.04165234375,-3.31389453125,3.65236328125,9.622171875,6.1319921875,6.22964453125,4.307234375,5.576640625,11.1961796875,6.25803515625,-6.46779296875,8.95630859375,2.25965234375,6.186375,-1.4415625
0.21228125,7.2551640625,-0.56108984375,1.37188671875,-3.18925390625,4.12430078125,2.161640625,2.978,-7.89130859375,15.4323046875,4.93884765625,2.9195703125,0.2476640625,1.752609375,3.005625,0.415652343750001,-2.58789453125,4.01636328125,10.590171875,6.5899921875,6.68764453125,4.560234375,6.141640625,11.7771796875,6.07603515625,-6.53079296875,8.04530859375,2.47465234375,6.041375,-1.2535625
0.95228125,7.2281640625,-2.66208984375,1.26088671875,-2.86525390625,4.23830078125,1.566640625,3.867,-7.54730859375,15.8753046875,5.55984765625,1.4435703125,0.112664062499999,1.751609375,3.812625,-0.384347656249998,-1.73689453125,4.39436328125,11.262171875,6.5469921875,7.13064453125,4.652234375,6.565640625,11.9951796875,5.68803515625,-6.31679296875,6.95930859375,2.72365234375,5.769375,-0.9835625
0.987281250000001,6.0471640625,-3.87508984375,0.447886718749999,-3.05425390625,3.48230078125,0.660640625,4.453,-9.24130859375,15.3533046875,5.48984765625,0.2445703125,-1.2123359375,1.323609375,3.861625,-1.39934765625,-0.81589453125,4.43136328125,11.341171875,6.0119921875,7.59964453125,4.480234375,6.447640625,11.7691796875,5.28003515625,-5.57379296875,5.81830859375,2.52965234375,5.173375,-0.8115625
0.02828125,3.5571640625,-3.62208984375,-1.39011328125,-4.09425390625,1.42830078125,-0.793359375000001,4.319,-13.89730859375,13.5513046875,4.19584765625,-0.3224296875,-3.4463359375,0.0396093749999999,2.791625,-2.88334765625,0.0351054687500003,3.83536328125,10.580171875,4.9549921875,8.05164453125,3.982234375,5.478640625,11.0391796875,4.93203515625,-4.16679296875,4.67230859375,1.51965234375,4.126375,-0.9075625
-1.94971875,-0.1548359375,-1.86508984375,-4.32811328125,-6.09525390625,-1.98669921875,-2.930359375,3.335,-21.63630859375,10.4653046875,1.52084765625,-0.1744296875,-6.1973359375,-2.258390625,0.549625,-5.00934765625,0.70710546875,2.54936328125,8.966171875,3.4069921875,8.43564453125,3.189234375,3.630640625,9.8481796875,4.64403515625,-2.14279296875,3.52430859375,-0.36634765625,2.647375,-1.3285625
-4.57671875,-4.6008359375,0.84091015625,-7.99411328125,-8.74625390625,-6.29269921875,-5.562359375,1.779,-31.36030859375,6.5643046875,-2.07915234375,0.4485703125,-9.1253359375,-5.248390625,-2.448375,-7.61934765625,1.23510546875,0.82136328125,6.815171875,1.5559921875,8.75864453125,2.227234375,1.227640625,8.3781796875,4.38703515625,0.25220703125,2.37330859375,-2.81334765625,0.909375,-1.9685625
-4.57671875,-4.6008359375,0.84091015625,-7.99411328125,-8.74625390625,-6.29269921875,-5.562359375,1.779,-31.36030859375,6.5643046875,-2.07915234375,0.4485703125,-9.1253359375,-5.248390625,-2.448375,-7.61934765625,1.23510546875,0.82136328125,6.815171875,1.5559921875,8.75864453125,2.227234375,1.227640625,8.3781796875,4.38703515625,0.25220703125,2.37330859375,-2.81334765625,0.909375,-1.9685625
