"Fp1","Fpz","Fp2","F7","F3","Fz","F4","F8","FC5","FC1","FC2","FC6","T7","C3","Cz","C4","T8","CP5","CP1","CP2","CP6","P7","P3","Pz","P4","P8","POz","O1","Oz","O2"
-21.87516796875,-14.05144140625,-14.4981328125,-14.68901171875,-22.78423046875,-13.31548046875,-13.4041640625,-10.68714453125,-19.1744453125,-12.62764453125,-12.75065234375,-13.743703125,-14.05855859375,-16.64171484375,-10.071859375,1.95661328125,-1.391671875,-13.6648515625,-8.078078125,1.208234375,-2.09188671875,-6.62065625,-2.07186328125,2.11299609375,-1.942515625,-14.780671875,9.671703125,1.84262890625,6.74824609375,0.0162421875000005
-15.76216796875,-15.42944140625,-13.5131328125,-14.49601171875,-24.25323046875,-13.27748046875,-16.0051640625,-8.43914453125,-22.0994453125,-11.38364453125,-13.61065234375,-13.697703125,-13.23055859375,-15.88571484375,-8.195859375,0.566613281250001,0.505328125,-14.3838515625,-9.165078125,2.207234375,-2.41088671875,-6.00565625,-3.15786328125,3.12699609375,0.0244843749999998,-13.407671875,10.042703125,2.81362890625,8.54624609375,1.6752421875
-12.56516796875,-15.87044140625,-13.2571328125,-13.11201171875,-23.78023046875,-13.44348046875,-17.8971640625,-7.52314453125,-22.2524453125,-10.09364453125,-15.82765234375,-14.727703125,-11.37955859375,-14.25071484375,-7.315859375,-3.56838671875,0.882328125,-13.6828515625,-9.237078125,1.251234375,-4.54388671875,-5.27765625,-3.13286328125,3.13499609375,-0.500515625,-13.812671875,9.666703125,3.12762890625,8.98224609375,1.8592421875
-12.01116796875,-15.29644140625,-13.5341328125,-10.78001171875,-21.38023046875,-13.38848046875,-18.7191640625,-7.79814453125,-19.4884453125,-8.66864453125,-18.99865234375,-16.483703125,-8.36755859375,-11.40371484375,-7.353859375,-10.26338671875,-0.133671875,-11.2888515625,-8.064078125,-1.644765625,-8.27888671875,-4.17565625,-1.74786328125,2.33899609375,-3.345515625,-15.890671875,8.711703125,3.07762890625,8.28424609375,0.735242187500001
-12.84816796875,-13.85444140625,-13.8371328125,-8.22501171875,-17.67223046875,-12.52948046875,-18.1881640625,-8.63114453125,-14.5874453125,-6.99964453125,-22.06965234375,-18.162703125,-4.51755859375,-7.32571484375,-7.840859375,-18.11938671875,-1.840671875,-7.4388515625,-5.731078125,-5.664765625,-12.61188671875,-2.54265625,0.861136718750001,1.34299609375,-7.334515625,-18.859671875,7.633703125,3.17662890625,7.15124609375,-0.989757812499999
-13.56816796875,-11.79944140625,-13.6011328125,-6.28001171875,-13.53623046875,-10.50248046875,-16.2381640625,-9.25414453125,-8.9014453125,-5.00664453125,-23.83165234375,-18.929703125,-0.63355859375,-2.43371484375,-8.120859375,-24.98738671875,-3.297671875,-2.8918515625,-2.629078125,-9.465765625,-16.14788671875,-0.57365625,4.13713671875,0.83399609375,-10.788515625,-21.589671875,6.936703125,3.79862890625,6.31424609375,-2.4567578125
-13.12616796875,-9.45544140625,-12.4961328125,-5.48201171875,-9.83323046875,-7.47348046875,-13.1711640625,-9.15914453125,-3.8804453125,-2.74164453125,-23.49865234375,-18.300703125,2.22844140625,2.44628515625,-7.642859375,-28.71938671875,-3.709671875,1.2631484375,0.643921875000001,-11.661765625,-17.62388671875,1.14834375,7.24213671875,1.27499609375,-12.196515625,-23.029671875,6.941703125,4.92762890625,6.17124609375,-3.0587578125
-11.29816796875,-7.21844140625,-10.5891328125,-5.85101171875,-7.26023046875,-4.17148046875,-9.6661640625,-8.27214453125,-0.6254453125,-0.46764453125,-21.07065234375,-16.272703125,3.19344140625,6.32728515625,-6.211859375,-27.92438671875,-2.644671875,3.9861484375,3.464921875,-11.322765625,-16.33488671875,1.93934375,9.35913671875,2.73399609375,-10.754515625,-22.509671875,7.698703125,6.20562890625,6.70124609375,-2.6057578125
-8.60316796875,-5.51144140625,-8.2961328125,-6.92901171875,-6.25323046875,-1.58348046875,-6.5501640625,-6.85314453125,0.3615546875,1.34335546875,-17.31365234375,-13.221703125,1.97844140625,8.35028515625,-4.098859375,-22.43938671875,-0.0976718749999996,4.6731484375,5.352921875,-8.323765625,-12.33588671875,1.43834375,10.01013671875,4.90199609375,-6.624515625,-19.887671875,9.005703125,7.20262890625,7.64724609375,-1.2487578125
-5.94616796875,-4.65544140625,-6.1741328125,-8.03801171875,-6.88023046875,-0.500480468749999,-4.4441640625,-5.25014453125,-0.8364453125,2.14535546875,-13.39365234375,-9.735703125,-0.95755859375,7.99528515625,-1.948859375,-13.41638671875,3.511328125,3.3471484375,6.037921875,-3.425765625,-6.45088671875,-0.11565625,9.20213671875,7.19299609375,-0.875515625,-15.591671875,10.460703125,7.69262890625,8.74924609375,0.721242187500001
-4.15116796875,-4.72844140625,-4.6471328125,-8.62401171875,-8.79023046875,-1.12648046875,-3.4961640625,-3.68914453125,-3.7534453125,1.58035546875,-10.36965234375,-6.443703125,-4.60455859375,5.22028515625,-0.505859375,-2.95438671875,7.421328125,0.6181484375,5.476921875,1.955234375,-0.0698867187499999,-1.93965625,7.36613671875,8.93399609375,4.879484375,-10.518671875,11.550703125,7.77662890625,9.87824609375,3.0472421875
-3.54716796875,-5.48444140625,-3.7721328125,-8.46101171875,-11.30823046875,-2.91048046875,-3.3511640625,-2.20114453125,-7.7214453125,-0.24064453125,-8.72765234375,-3.825703125,-7.77055859375,0.57628515625,-0.236859375,6.58661328125,10.722328125,-2.5208515625,3.880921875,6.263234375,5.25711328125,-3.02165625,5.18113671875,9.61999609375,9.051484375,-5.780671875,11.838703125,7.84762890625,11.04924609375,5.5672421875
-3.83216796875,-6.39044140625,-3.2081328125,-7.66201171875,-13.63223046875,-4.73148046875,-3.3481640625,-0.70714453125,-11.9454453125,-2.62464453125,-8.21165234375,-2.077703125,-9.49055859375,-4.78871484375,-1.048859375,13.33361328125,12.638328125,-4.9878515625,1.743921875,8.402234375,8.32111328125,-2.57065625,3.33713671875,9.14799609375,10.649484375,-2.319671875,11.169703125,8.38862890625,12.35324609375,8.1632421875
-4.32216796875,-6.82744140625,-2.4631328125,-6.53701171875,-15.06423046875,-5.41648046875,-2.8601640625,0.79185546875,-15.5504453125,-4.52964453125,-8.06065234375,-1.136703125,-9.37355859375,-9.39571484375,-2.340859375,16.37961328125,12.745328125,-5.9788515625,-0.248078124999999,8.111234375,8.61311328125,-0.41765625,2.30713671875,7.84399609375,9.579484375,-0.609671875000002,9.755703125,9.68362890625,13.82524609375,10.6392421875
-4.44216796875,-6.40044140625,-1.2961328125,-5.43301171875,-15.24623046875,-4.37748046875,-1.6511640625,2.05485546875,-17.7414453125,-5.08864453125,-7.53965234375,-0.838703125000002,-7.72455859375,-11.95971484375,-3.364859375,15.85061328125,11.067328125,-5.2868515625,-1.444078125,5.939234375,6.40711328125,2.83534375,2.17813671875,6.27599609375,6.558484375,-0.558671875000002,8.063703125,11.58262890625,15.32624609375,12.6422421875
-4.08116796875,-5.19344140625,0.0438671874999983,-4.60401171875,-14.33323046875,-1.95148046875,-0.0521640624999993,2.65585546875,-18.0584453125,-4.08364453125,-6.41365234375,-1.061703125,-5.36655859375,-11.88671484375,-3.669859375,12.65361328125,8.079328125,-3.3618515625,-1.489078125,2.892234375,2.59111328125,6.04834375,2.66513671875,4.98199609375,2.762484375,-1.630671875,6.625703125,13.52462890625,16.54624609375,13.7492421875
-3.59316796875,-3.74244140625,0.928867187499998,-4.12801171875,-12.95223046875,0.782519531250001,1.1918359375,2.25985546875,-16.5504453125,-2.07864453125,-5.06665234375,-1.717703125,-3.22655859375,-9.49471484375,-3.328859375,8.08661328125,4.635328125,-1.0618515625,-0.450078124999999,0.00223437500000001,-1.63688671875,8.06134375,3.30013671875,4.26499609375,-0.596515625,-3.088671875,5.845703125,14.80862890625,17.13724609375,13.6612421875
-3.50016796875,-2.72744140625,0.770867187499999,-3.90901171875,-11.88123046875,2.59251953125,1.3668359375,0.91185546875,-13.7874453125,-0.12464453125,-4.21965234375,-2.673703125,-1.94755859375,-5.85371484375,-2.818859375,3.47861328125,1.762328125,0.7601484375,1.238921875,-2.000765625,-5.10788671875,8.19834375,3.68213671875,4.12999609375,-2.627515625,-4.299671875,5.861703125,14.93662890625,16.85224609375,12.3352421875
-4.14416796875,-2.58144140625,-0.556132812500001,-3.75901171875,-11.65623046875,2.71951953125,0.231835937500001,-0.90714453125,-10.6744453125,0.78035546875,-4.44465234375,-3.712703125,-1.72055859375,-2.34671484375,-2.696859375,-0.107386718749999,0.342328125,1.5821484375,2.973921875,-2.837765625,-7.00688671875,6.50534375,3.60613671875,4.31699609375,-2.989515625,-4.965671875,6.480703125,13.82262890625,15.61124609375,9.9762421875
-5.46116796875,-3.26944140625,-2.5641328125,-3.53801171875,-12.33923046875,1.21751953125,-1.8411640625,-2.50314453125,-8.1304453125,0.18035546875,-5.78565234375,-4.559703125,-2.33355859375,-0.0987148437499998,-3.260859375,-2.05038671875,0.815328125,1.3651484375,4.211921875,-2.653765625,-7.06688671875,3.65934375,3.08313671875,4.45499609375,-1.911515625,-5.162671875,7.258703125,11.79862890625,13.51424609375,6.9352421875
-6.99216796875,-4.33644140625,-4.3621328125,-3.23901171875,-13.57023046875,-1.13248046875,-4.0631640625,-3.32614453125,-6.7464453125,-1.63864453125,-7.70165234375,-4.970703125,-3.32855859375,0.469285156250001,-4.380859375,-2.24638671875,3.057328125,0.4861484375,4.667921875,-1.858765625,-5.55788671875,0.65234375,2.27313671875,4.25099609375,-0.0235156250000002,-5.176671875,7.722703125,9.46262890625,10.86324609375,3.6262421875
-8.13216796875,-5.17944140625,-5.1281328125,-2.98701171875,-14.78423046875,-3.27048046875,-5.6511640625,-3.26714453125,-6.5994453125,-3.85364453125,-9.35265234375,-4.856703125,-4.21755859375,-0.28671484375,-5.594859375,-1.05138671875,6.429328125,-0.4838515625,4.374921875,-0.928765625,-3.12888671875,-1.62165625,1.40213671875,3.62799609375,1.921484375,-5.301671875,7.613703125,7.43762890625,8.11324609375,0.461242187500001
-8.47216796875,-5.39144140625,-4.5871328125,-2.96801171875,-15.46623046875,-4.43448046875,-6.2021640625,-2.74114453125,-7.3404453125,-5.58664453125,-10.06865234375,-4.388703125,-4.69455859375,-1.57771484375,-6.389859375,0.865613281250001,9.963328125,-1.0928515625,3.598921875,-0.247765625,-0.58588671875,-2.73865625,0.647136718750001,2.71199609375,3.264484375,-5.716671875,6.979703125,6.10762890625,5.73824609375,-2.2117578125
-8.02116796875,-5.00044140625,-3.1891328125,-3.33601171875,-15.39523046875,-4.51648046875,-5.8571640625,-2.50714453125,-8.4904453125,-6.36264453125,-9.69965234375,-3.944703125,-4.76055859375,-2.68071484375,-6.489859375,2.76661328125,12.652328125,-1.2348515625,2.664921875,-0.026765625,1.33111328125,-2.86465625,0.0681367187500008,1.70399609375,3.580484375,-6.467671875,6.102703125,5.50262890625,4.05624609375,-4.1647578125
-7.18816796875,-4.44944140625,-1.8761328125,-4.12801171875,-14.80123046875,-4.01448046875,-5.1691640625,-3.26014453125,-9.7214453125,-6.29664453125,-8.63265234375,-3.887703125,-4.66855859375,-3.29371484375,-5.999859375,4.08861328125,13.773328125,-1.1618515625,1.781921875,-0.304765625,2.14811328125,-2.56265625,-0.404863281249999,0.73899609375,2.727484375,-7.466671875,5.315703125,5.38262890625,3.15424609375,-5.3087578125
-6.62116796875,-4.35644140625,-1.5941328125,-5.23601171875,-14.33023046875,-3.68848046875,-4.7651640625,-5.22714453125,-10.9824453125,-5.96264453125,-7.54565234375,-4.355703125,-4.75955859375,-3.61871484375,-5.366859375,4.56861328125,13.091328125,-1.3378515625,0.924921875000001,-1.038765625,1.73011328125,-2.44065625,-0.951863281249999,-0.228003906250001,0.801484375,-8.542671875,4.813703125,5.43462890625,2.90624609375,-5.7267578125
-7.01316796875,-5.21544140625,-2.8711328125,-6.49301171875,-14.77223046875,-4.19348046875,-5.0471640625,-8.01714453125,-12.4434453125,-6.10364453125,-7.10865234375,-5.236703125,-5.32555859375,-4.22471484375,-5.229859375,4.18161328125,10.846328125,-2.2368515625,-0.209078124999999,-2.224765625,0.19411328125,-2.87365625,-1.84986328125,-1.44500390625,-1.964515625,-9.563671875,4.528703125,5.41762890625,3.03524609375,-5.7097578125
-8.90016796875,-7.21544140625,-5.6481328125,-7.80101171875,-16.71023046875,-5.85748046875,-6.0891640625,-10.83114453125,-14.3544453125,-7.30664453125,-7.76965234375,-6.323703125,-6.49455859375,-5.74571484375,-6.173859375,3.00361328125,7.586328125,-4.1458515625,-2.087078125,-3.927765625,-2.23388671875,-3.91065625,-3.38586328125,-3.23600390625,-5.267515625,-10.523671875,4.188703125,5.20462890625,3.20624609375,-5.7407578125
-12.41416796875,-10.19544140625,-9.3751328125,-9.16401171875,-20.22523046875,-8.61348046875,-7.7371640625,-12.86014453125,-16.8454453125,-9.76264453125,-9.64665234375,-7.451703125,-8.14755859375,-8.50371484375,-8.466859375,1.14661328125,4.005328125,-6.9898515625,-5.046078125,-6.149765625,-5.27088671875,-5.30965625,-5.67986328125,-5.72300390625,-8.683515625,-11.493671875,3.538703125,4.78962890625,3.15224609375,-6.3077578125
-17.10016796875,-13.68944140625,-13.2431328125,-10.57201171875,-24.80223046875,-12.02448046875,-9.7531640625,-13.63814453125,-19.7474453125,-13.17464453125,-12.51665234375,-8.548703125,-9.89655859375,-12.25071484375,-11.877859375,-1.21238671875,0.800328125000001,-10.2558515625,-8.985078125,-8.671765625,-8.51588671875,-6.67365625,-8.48786328125,-8.60900390625,-11.615515625,-12.465671875,2.571703125,4.25062890625,2.77924609375,-7.6407578125
-21.97716796875,-17.02944140625,-16.4841328125,-11.84201171875,-29.43423046875,-15.44948046875,-11.9041640625,-13.19014453125,-22.5674453125,-16.87764453125,-15.92965234375,-9.638703125,-11.24555859375,-16.21771484375,-15.731859375,-3.82238671875,-1.481671875,-13.1628515625,-13.278078125,-11.061765625,-11.43488671875,-7.67465625,-11.22386328125,-11.23700390625,-13.403515625,-13.266671875,1.539703125,3.66062890625,2.17324609375,-9.5477578125
-25.86316796875,-19.53744140625,-18.6121328125,-12.60701171875,-32.96123046875,-18.27648046875,-13.9871640625,-11.97114453125,-24.6694453125,-20.11964453125,-19.39965234375,-10.809703125,-11.85655859375,-19.46771484375,-19.192859375,-6.40538671875,-2.579671875,-15.0208515625,-17.022078125,-12.897765625,-13.46588671875,-8.25365625,-13.21086328125,-12.93600390625,-13.616515625,-13.635671875,0.750703124999999,2.97562890625,1.48124609375,-11.4967578125
-27.80016796875,-20.75944140625,-19.5041328125,-12.49901171875,-34.53723046875,-20.10948046875,-15.8221640625,-10.63814453125,-25.5654453125,-22.32764453125,-22.55065234375,-12.109703125,-11.72155859375,-21.29271484375,-21.600859375,-8.74538671875,-2.541671875,-15.5398515625,-19.450078125,-14.018765625,-14.21088671875,-8.62865625,-14.01686328125,-13.38000390625,-12.314515625,-13.370671875,0.356703124999999,2.04862890625,0.81124609375,-12.8547578125
-27.41716796875,-20.62444140625,-19.3181328125,-11.40601171875,-33.99123046875,-20.82548046875,-17.2311640625,-9.74814453125,-25.1494453125,-23.24964453125,-25.15765234375,-13.417703125,-11.10855859375,-21.47071484375,-22.689859375,-10.71238671875,-1.610671875,-14.9118515625,-20.261078125,-14.588765625,-13.58888671875,-9.07165625,-13.63686328125,-12.74200390625,-10.075515625,-12.448671875,0.279703124999999,0.785628906249999,0.21824609375,-13.1487578125
-25.11716796875,-19.45844140625,-18.3751328125,-9.63801171875,-31.85723046875,-20.54548046875,-18.0481640625,-9.53414453125,-23.7464453125,-22.96864453125,-27.11065234375,-14.428703125,-10.37655859375,-20.31971484375,-22.631859375,-12.24138671875,-0.102671875,-13.6668515625,-19.718078125,-14.963765625,-11.89788671875,-9.63865625,-12.46386328125,-11.58900390625,-7.785515625,-11.065671875,0.289703124999999,-0.686371093750001,-0.28075390625,-12.2687578125
-21.99516796875,-17.87344140625,-17.0881328125,-7.87801171875,-29.09423046875,-19.60148046875,-18.1911640625,-9.85414453125,-22.0064453125,-21.86664453125,-28.39265234375,-14.800703125,-9.80655859375,-18.59471484375,-21.922859375,-13.28538671875,1.614328125,-12.4468515625,-18.516078125,-15.470765625,-9.75888671875,-10.09265625,-11.11786328125,-10.63500390625,-6.311515625,-9.609671875,0.102703125,-2.00637109375,-0.698753906249999,-10.5477578125
-19.43816796875,-16.56444140625,-15.9001328125,-6.92501171875,-26.69323046875,-18.45848046875,-17.7451640625,-10.29914453125,-20.6634453125,-20.52364453125,-29.05665234375,-14.352703125,-9.52655859375,-17.20071484375,-21.173859375,-13.78938671875,3.135328125,-11.7788515625,-17.490078125,-16.237765625,-7.91088671875,-10.04665625,-10.19686328125,-10.44400390625,-6.182515625,-8.539671875,-0.505296875000001,-2.72537109375,-1.07875390625,-8.6287578125
-18.53016796875,-16.06144140625,-15.1751328125,-7.30001171875,-25.34723046875,-17.56348046875,-16.9631640625,-10.37814453125,-20.2364453125,-19.52664453125,-29.17965234375,-13.163703125,-9.48455859375,-16.82271484375,-20.845859375,-13.70138671875,4.079328125,-11.8788515625,-17.257078125,-17.126765625,-6.93088671875,-9.18665625,-10.02986328125,-11.20100390625,-7.403515625,-8.200671875,-1.580296875,-2.49337109375,-1.44675390625,-7.1527578125
-19.56716796875,-16.49744140625,-15.0621328125,-8.93801171875,-25.24423046875,-17.18448046875,-16.1501640625,-9.75214453125,-20.8024453125,-19.23864453125,-28.81465234375,-11.579703125,-9.50955859375,-17.62271484375,-21.064859375,-13.02438671875,4.180328125,-12.5798515625,-17.957078125,-17.799765625,-7.05288671875,-7.46565625,-10.54586328125,-12.64500390625,-9.506515625,-8.698671875,-2.936296875,-1.23637109375,-1.77575390625,-6.4437578125
-21.95116796875,-17.55244140625,-15.4561328125,-11.16401171875,-26.02723046875,-17.32548046875,-15.5121640625,-8.43814453125,-21.9814453125,-19.64464453125,-27.98665234375,-10.157703125,-9.41455859375,-19.22171484375,-21.619859375,-11.90238671875,3.327328125,-13.4308515625,-19.224078125,-17.896765625,-8.18388671875,-5.15965625,-11.33786328125,-14.21100390625,-11.792515625,-9.906671875,-4.214296875,0.76462890625,-2.01975390625,-6.4167578125
-24.48316796875,-18.61844140625,-16.0651328125,-13.01401171875,-26.95823046875,-17.76648046875,-15.1071640625,-6.87414453125,-23.1544453125,-20.37164453125,-26.72865234375,-9.503703125,-9.08355859375,-20.90271484375,-22.116859375,-10.65238671875,1.567328125,-13.9258515625,-20.403078125,-17.232765625,-10.05688671875,-2.79565625,-11.89386328125,-15.28900390625,-13.623515625,-11.545671875,-5.044296875,2.92562890625,-2.18175390625,-6.7157578125
-25.90116796875,-19.13644140625,-16.5661328125,-13.72501171875,-27.26923046875,-18.17748046875,-14.8961640625,-5.74014453125,-23.7654453125,-20.89264453125,-25.15265234375,-10.026703125,-8.50755859375,-21.95271484375,-22.224859375,-9.69638671875,-0.890671875,-13.7558515625,-20.909078125,-15.921765625,-12.35788671875,-0.95765625,-11.87186328125,-15.48400390625,-14.628515625,-13.250671875,-5.213296875,4.55062890625,-2.34375390625,-6.9627578125
-25.47316796875,-18.90744140625,-16.7981328125,-13.12201171875,-26.53723046875,-18.30548046875,-14.8771640625,-5.66414453125,-23.5884453125,-20.86164453125,-23.53965234375,-11.760703125,-7.80155859375,-22.01771484375,-21.913859375,-9.45638671875,-3.699671875,-13.0038515625,-20.593078125,-14.416765625,-14.78988671875,-0.14365625,-11.32686328125,-14.82400390625,-14.803515625,-14.662671875,-4.817296875,5.02662890625,-2.68375390625,-6.9867578125
-23.40716796875,-18.24244140625,-16.9511328125,-11.73101171875,-24.90623046875,-18.18648046875,-15.2201640625,-6.96714453125,-22.8754453125,-20.41364453125,-22.43365234375,-14.407703125,-7.25855859375,-21.35971484375,-21.604859375,-10.29338671875,-6.489671875,-12.2348515625,-19.934078125,-13.466765625,-17.14288671875,-0.73465625,-10.80986328125,-13.86900390625,-14.541515625,-15.580671875,-4.341296875,3.92362890625,-3.48375390625,-6.9477578125
-20.85216796875,-17.87944140625,-17.5881328125,-10.56001171875,-23.08123046875,-18.25248046875,-16.3231640625,-9.58614453125,-22.3044453125,-20.21264453125,-22.60765234375,-17.543703125,-7.33955859375,-20.82971484375,-22.105859375,-12.48538671875,-8.981671875,-12.3388515625,-19.909078125,-13.950765625,-19.33288671875,-2.97865625,-11.19886328125,-13.58700390625,-14.528515625,-16.071671875,-4.548296875,1.04562890625,-5.07575390625,-7.2797578125
-19.35116796875,-18.62544140625,-19.3671328125,-10.63601171875,-22.04623046875,-19.12448046875,-18.6641640625,-13.12214453125,-22.6524453125,-21.09264453125,-24.75465234375,-20.762703125,-8.46855859375,-21.41571484375,-24.228859375,-16.12238671875,-10.989671875,-14.0818515625,-21.489078125,-16.513765625,-21.36688671875,-6.85065625,-13.23986328125,-14.92000390625,-15.435515625,-16.409671875,-6.119296875,-3.44137109375,-7.66075390625,-8.4067578125
-20.00316796875,-20.87244140625,-22.5341328125,-12.47401171875,-22.58723046875,-21.17348046875,-22.4451640625,-16.92514453125,-24.3254453125,-23.46164453125,-29.00765234375,-23.678703125,-10.71855859375,-23.61071484375,-28.219859375,-20.94138671875,-12.334671875,-17.5608515625,-25.000078125,-21.137765625,-23.20788671875,-11.85365625,-17.00086328125,-18.22300390625,-17.528515625,-16.860671875,-9.200296875,-8.87737109375,-11.06975390625,-10.4247578125
-22.83616796875,-24.24944140625,-26.5481328125,-15.78601171875,-24.81323046875,-24.15548046875,-27.2351640625,-20.23114453125,-27.0304453125,-26.88464453125,-34.62565234375,-25.892703125,-13.64455859375,-27.03271484375,-33.391859375,-26.21938671875,-12.815671875,-21.9788515625,-29.777078125,-26.943765625,-24.68788671875,-17.01865625,-21.64386328125,-22.94300390625,-20.472515625,-17.526671875,-13.207296875,-14.19437109375,-14.71175390625,-12.9827578125
-26.77716796875,-27.71344140625,-30.1471328125,-19.59801171875,-28.00923046875,-27.21848046875,-31.9431640625,-22.35314453125,-29.8644453125,-30.15864453125,-40.12165234375,-27.035703125,-16.43555859375,-30.56271484375,-38.245859375,-30.87838671875,-12.291671875,-25.9408515625,-34.368078125,-32.408765625,-25.56788671875,-21.22365625,-25.71986328125,-27.80200390625,-23.476515625,-18.361671875,-17.050296875,-18.27137109375,-17.80975390625,-15.4977578125
-30.16516796875,-30.05144140625,-31.8941328125,-22.73101171875,-30.96423046875,-29.28148046875,-35.2171640625,-22.86414453125,-31.7714453125,-31.88364453125,-43.83365234375,-26.871703125,-18.27655859375,-32.89071484375,-41.082859375,-33.79838671875,-10.796671875,-28.1058515625,-37.209078125,-35.950765625,-25.68588671875,-23.64565625,-27.84886328125,-31.35100390625,-25.681515625,-19.300671875,-19.653296875,-20.38937109375,-19.75775390625,-17.4977578125
-31.54016796875,-30.49344140625,-30.9041328125,-24.34601171875,-32.57623046875,-29.55148046875,-36.0521640625,-21.71614453125,-32.0864453125,-31.16964453125,-44.62065234375,-25.397703125,-18.73355859375,-33.13371484375,-40.774859375,-34.20838671875,-8.575671875,-27.8338515625,-37.371078125,-36.566765625,-25.06788671875,-24.09265625,-27.37286328125,-32.61300390625,-26.535515625,-20.348671875,-20.462296875,-20.50237109375,-20.39675390625,-18.8617578125
-30.31216796875,-29.06144140625,-27.3571328125,-24.28001171875,-32.37923046875,-27.92148046875,-34.2551640625,-19.24014453125,-30.8414453125,-28.11464453125,-42.33965234375,-22.920703125,-17.95655859375,-31.23771484375,-37.293859375,-31.98838671875,-6.064671875,-25.4678515625,-34.994078125,-34.218765625,-23.94688671875,-23.03465625,-24.66386328125,-31.47700390625,-25.962515625,-21.553671875,-19.678296875,-19.19237109375,-20.04375390625,-19.8007578125
-27.03216796875,-26.50644140625,-22.5221328125,-23.05401171875,-30.71823046875,-25.06848046875,-30.5511640625,-16.08914453125,-28.7214453125,-23.78864453125,-37.89165234375,-20.060703125,-16.61755859375,-27.98371484375,-31.745859375,-27.73438671875,-3.812671875,-22.1668515625,-31.193078125,-29.814765625,-22.67588671875,-21.35565625,-20.92686328125,-28.68300390625,-24.304515625,-22.898671875,-18.122296875,-17.36837109375,-19.31475390625,-20.6687578125
-23.11716796875,-23.93044140625,-18.2401328125,-21.58801171875,-28.55823046875,-22.18848046875,-26.2931640625,-13.10914453125,-26.7034453125,-19.75364453125,-32.82965234375,-17.599703125,-15.59955859375,-24.59471484375,-25.891859375,-22.55138671875,-2.349671875,-19.3378515625,-27.512078125,-24.793765625,-21.57988671875,-19.93665625,-17.63286328125,-25.42800390625,-22.089515625,-24.163671875,-16.794296875,-15.85237109375,-18.83175390625,-21.6997578125
-20.15416796875,-22.28544140625,-16.0881328125,-20.78601171875,-27.01723046875,-20.46548046875,-22.9241640625,-11.13514453125,-25.5624453125,-17.34664453125,-28.71665234375,-16.189703125,-15.55255859375,-22.12371484375,-21.399859375,-17.64338671875,-1.985671875,-17.9658515625,-25.221078125,-20.529765625,-20.79288671875,-19.27865625,-15.83586328125,-22.79300390625,-19.783515625,-24.861671875,-16.360296875,-15.06037109375,-18.95275390625,-22.8267578125
-19.16116796875,-21.97244140625,-16.6611328125,-21.14101171875,-26.79623046875,-20.53648046875,-21.3911640625,-10.73514453125,-25.5104453125,-17.10564453125,-26.53665234375,-16.081703125,-16.60955859375,-20.99171484375,-19.194859375,-13.90938671875,-2.687671875,-18.1908515625,-24.803078125,-17.841765625,-20.19688671875,-19.36065625,-15.73786328125,-21.31600390625,-17.649515625,-24.385671875,-16.865296875,-14.92037109375,-19.67175390625,-23.6717578125
-20.21616796875,-22.73144140625,-19.3421328125,-22.56101171875,-27.80823046875,-22.24148046875,-21.8061640625,-11.99514453125,-26.1734453125,-18.61464453125,-26.42465234375,-17.047703125,-18.40255859375,-20.92971484375,-19.193859375,-11.72938671875,-4.103671875,-19.3538515625,-25.858078125,-16.830765625,-19.52388671875,-19.78065625,-16.70086328125,-20.89500390625,-15.780515625,-22.353671875,-17.808296875,-15.06137109375,-20.72275390625,-23.7427578125
-22.56016796875,-23.86544140625,-22.6981328125,-24.46201171875,-29.25623046875,-24.77748046875,-23.5211640625,-14.46914453125,-26.8934453125,-20.83064453125,-27.77665234375,-18.519703125,-20.31355859375,-21.27871484375,-20.509859375,-11.00238671875,-5.738671875,-20.4288515625,-27.403078125,-17.038765625,-18.54988671875,-20.02665625,-17.64886328125,-20.99900390625,-14.191515625,-18.910671875,-18.485296875,-15.10537109375,-21.77675390625,-22.7237578125
-25.04516796875,-24.65544140625,-25.2031328125,-26.06001171875,-30.15323046875,-27.10948046875,-25.5351640625,-17.30014453125,-27.1184453125,-22.63364453125,-29.61365234375,-19.812703125,-21.74055859375,-21.40471484375,-21.961859375,-11.33038671875,-7.122671875,-20.5578515625,-28.370078125,-17.773765625,-17.23088671875,-19.69265625,-17.62586328125,-20.98700390625,-12.872515625,-14.757671875,-18.366296875,-14.84937109375,-22.57875390625,-20.6707578125
-26.65916796875,-24.69344140625,-25.9211328125,-26.68401171875,-29.92723046875,-28.43448046875,-26.9801640625,-19.51214453125,-26.6514453125,-23.34364453125,-31.02565234375,-20.385703125,-22.28655859375,-21.02271484375,-22.649859375,-12.26238671875,-7.938671875,-19.4358515625,-28.072078125,-18.452765625,-15.73188671875,-18.59465625,-16.24086328125,-20.42600390625,-11.805515625,-10.872671875,-17.364296875,-14.29537109375,-22.98675390625,-18.0047578125
-26.92716796875,-24.01844140625,-24.8271328125,-26.01901171875,-28.72723046875,-28.51048046875,-27.4591640625,-20.37714453125,-25.6854453125,-22.97664453125,-31.55565234375,-20.072703125,-21.87955859375,-20.33871484375,-22.343859375,-13.51338671875,-8.102671875,-17.4558515625,-26.509078125,-18.862765625,-14.39288671875,-16.83465625,-13.87086328125,-19.34500390625,-11.045515625,-8.144671875,-15.917296875,-13.62137109375,-23.00875390625,-15.3507578125
-26.03116796875,-23.05144140625,-22.7181328125,-24.21901171875,-27.28723046875,-27.72948046875,-27.1541640625,-19.70514453125,-24.6704453125,-22.15664453125,-31.36665234375,-19.172703125,-20.80455859375,-19.94671484375,-21.562859375,-15.08138671875,-7.788671875,-15.5508515625,-24.389078125,-19.265765625,-13.67388671875,-14.80765625,-11.54186328125,-18.29600390625,-10.804515625,-7.122671875,-14.850296875,-13.13537109375,-22.82075390625,-13.3457578125
-24.62216796875,-22.39844140625,-20.7831328125,-21.85001171875,-26.50023046875,-26.87348046875,-26.6711640625,-17.91314453125,-24.0914453125,-21.73564453125,-31.09865234375,-18.299703125,-19.56755859375,-20.48071484375,-21.264859375,-17.19138671875,-7.342671875,-14.7838515625,-22.837078125,-20.270765625,-14.03488671875,-13.08965625,-10.49786328125,-18.14300390625,-11.437515625,-7.936671875,-15.007296875,-13.19137109375,-22.72075390625,-12.4557578125
-23.44616796875,-22.58144140625,-20.0601328125,-19.66801171875,-26.92223046875,-26.68148046875,-26.6791640625,-15.80114453125,-24.2034453125,-22.31864453125,-31.48665234375,-18.053703125,-18.65155859375,-22.20571484375,-22.327859375,-20.07138671875,-7.134671875,-15.8328515625,-22.886078125,-22.504765625,-15.76788671875,-12.22165625,-11.63886328125,-19.62900390625,-13.279515625,-10.353671875,-16.825296875,-14.04737109375,-22.99075390625,-12.8797578125
-23.01016796875,-23.77844140625,-21.0021328125,-18.28601171875,-28.45323046875,-27.45348046875,-27.5051640625,-14.18814453125,-24.8904453125,-23.94764453125,-32.92665234375,-18.723703125,-18.29755859375,-24.81271484375,-25.067859375,-23.69138671875,-7.430671875,-18.6588515625,-25.003078125,-26.231765625,-18.85788671875,-12.51865625,-15.08786328125,-22.95300390625,-16.440515625,-13.931671875,-20.106296875,-15.73737109375,-23.76275390625,-14.5317578125
-23.42316796875,-25.71144140625,-23.3201328125,-17.90801171875,-30.37223046875,-28.91548046875,-28.9071640625,-13.57314453125,-25.7084453125,-26.09264453125,-35.22365234375,-20.162703125,-18.43355859375,-27.53371484375,-29.021859375,-27.59238671875,-8.343671875,-22.4958515625,-28.840078125,-31.092765625,-22.91088671875,-13.97465625,-20.10286328125,-27.58600390625,-20.650515625,-18.165671875,-24.089296875,-18.02737109375,-24.94775390625,-17.0827578125
-24.39516796875,-27.72744140625,-26.1121328125,-18.24101171875,-31.69423046875,-30.33448046875,-30.1681640625,-13.92814453125,-26.0874453125,-27.87764453125,-37.60865234375,-21.808703125,-18.71555859375,-29.42371484375,-33.044859375,-30.90438671875,-9.800671875,-26.1478515625,-33.299078125,-36.079765625,-27.17188671875,-16.24265625,-25.32786328125,-32.36300390625,-25.216515625,-22.546671875,-27.723296875,-20.44237109375,-26.23875390625,-20.0077578125
-25.36116796875,-29.03644140625,-28.1901328125,-18.61901171875,-31.62223046875,-30.81948046875,-30.4251640625,-14.70214453125,-25.5424453125,-28.40164453125,-38.99165234375,-22.827703125,-18.65855859375,-29.66671484375,-35.673859375,-32.55938671875,-11.509671875,-28.4308515625,-36.885078125,-39.775765625,-30.63788671875,-18.69865625,-29.26986328125,-35.84400390625,-29.120515625,-26.525671875,-29.999296875,-22.37837109375,-27.17175390625,-22.6487578125
-25.68816796875,-28.99344140625,-28.5211328125,-18.30901171875,-29.82423046875,-29.67448046875,-29.0561640625,-15.05214453125,-23.8494453125,-27.04364453125,-38.38565234375,-22.411703125,-17.85455859375,-27.84771484375,-35.659859375,-31.67638671875,-13.007671875,-28.6238515625,-38.246078125,-40.851765625,-32.31688671875,-20.64265625,-30.83786328125,-36.82500390625,-31.304515625,-29.507671875,-30.243296875,-23.28037109375,-27.26775390625,-24.3477578125
-24.93616796875,-27.33344140625,-26.6491328125,-16.90001171875,-26.44723046875,-26.70848046875,-25.9591640625,-14.26214453125,-21.1614453125,-23.67964453125,-35.32865234375,-20.146703125,-16.23655859375,-24.15071484375,-32.466859375,-27.99138671875,-13.828671875,-26.7598515625,-36.699078125,-38.608765625,-31.59188671875,-21.58265625,-29.72786328125,-34.82600390625,-31.069515625,-30.980671875,-28.308296875,-22.84837109375,-26.20675390625,-24.6207578125
-22.99816796875,-24.28344140625,-22.8791328125,-14.54801171875,-21.98023046875,-22.31348046875,-21.6001640625,-12.13614453125,-18.0084453125,-18.73764453125,-30.09065234375,-16.255703125,-14.17855859375,-19.35071484375,-26.518859375,-22.06838671875,-13.697671875,-23.5828515625,-32.525078125,-33.314765625,-28.49488671875,-21.41165625,-26.46486328125,-30.27700390625,-28.371515625,-30.682671875,-24.560296875,-21.11537109375,-23.91475390625,-23.2807578125
-20.05116796875,-20.45344140625,-18.0881328125,-11.93101171875,-17.05223046875,-17.25948046875,-16.7971640625,-9.09814453125,-15.1294453125,-13.02864453125,-23.55465234375,-11.529703125,-12.33555859375,-14.53671484375,-19.042859375,-15.15238671875,-12.602671875,-20.1668515625,-26.845078125,-26.116765625,-23.70688671875,-20.34965625,-22.08686328125,-24.30200390625,-23.816515625,-28.686671875,-19.658296875,-18.35637109375,-20.51375390625,-20.4317578125
-16.40916796875,-16.54744140625,-13.2821328125,-9.89401171875,-12.22023046875,-12.33648046875,-12.3391640625,-5.93114453125,-13.1714453125,-7.47364453125,-16.87665234375,-7.004703125,-11.33155859375,-10.71471484375,-11.613859375,-8.71238671875,-10.773671875,-17.4218515625,-21.178078125,-18.597765625,-18.27988671875,-18.75265625,-17.68886328125,-18.23300390625,-18.377515625,-25.345671875,-14.288296875,-14.94437109375,-16.24675390625,-16.4097578125
-12.43316796875,-13.08044140625,-9.1871328125,-9.03101171875,-7.82623046875,-8.09548046875,-8.6701640625,-3.35014453125,-12.4554453125,-2.86264453125,-11.12565234375,-3.597703125,-11.51755859375,-8.51571484375,-5.655859375,-3.93338671875,-8.617671875,-15.7798515625,-16.890078125,-12.247765625,-13.26188671875,-16.97265625,-14.08486328125,-13.18100390625,-13.033515625,-21.183671875,-9.008296875,-11.27337109375,-11.46875390625,-11.7677578125
-8.52116796875,-10.26444140625,-6.1141328125,-9.42901171875,-4.01723046875,-4.81348046875,-5.8431640625,-1.67514453125,-12.9224453125,0.27635546875,-7.06265234375,-1.841703125,-12.87355859375,-8.05871484375,-2.082859375,-1.38438671875,-6.619671875,-15.1628515625,-14.757078125,-8.044765625,-9.38088671875,-15.30065625,-11.68886328125,-9.79000390625,-8.487515625,-16.783671875,-4.236296875,-7.76037109375,-6.67975390625,-7.2547578125
-5.13916796875,-8.12444140625,-4.1001328125,-10.68901171875,-0.910230468750001,-2.60348046875,-3.7331640625,-0.80514453125,-14.1994453125,1.73235546875,-5.03665234375,-1.747703125,-15.00655859375,-8.93871484375,-1.136859375,-0.950386718749999,-5.182671875,-15.1148515625,-14.756078125,-6.253765625,-6.89888671875,-13.90365625,-10.50786328125,-8.17300390625,-5.061515625,-12.712671875,-0.274296875000001,-4.78937109375,-2.46275390625,-3.6967578125
-2.79916796875,-6.67244140625,-3.1321328125,-12.15901171875,1.30076953125,-1.52848046875,-2.2881640625,-0.42114453125,-15.7234453125,1.63535546875,-4.97465234375,-2.845703125,-17.23455859375,-10.34171484375,-2.406859375,-1.99938671875,-4.473671875,-15.0158515625,-16.156078125,-6.448765625,-5.66188671875,-12.74765625,-10.19886328125,-7.97300390625,-2.765515625,-9.484671875,2.688703125,-2.59637109375,0.68624609375,-1.7407578125
-1.97216796875,-5.99644140625,-3.2641328125,-13.24201171875,2.40176953125,-1.63448046875,-1.6281640625,-0.291144531250001,-16.8864453125,0.41235546875,-6.43865234375,-4.413703125,-18.81255859375,-11.31671484375,-4.993859375,-3.67038671875,-4.387671875,-14.3048515625,-17.853078125,-7.726765625,-5.30288671875,-11.61265625,-10.17286328125,-8.53400390625,-1.470515625,-7.525671875,4.590703125,-1.17937109375,2.54624609375,-1.5897578125
-2.89016796875,-6.20344140625,-4.5151328125,-13.63601171875,2.34276953125,-2.87848046875,-1.9381640625,-0.44314453125,-17.2214453125,-1.30764453125,-8.72765234375,-5.787703125,-19.20455859375,-11.12171484375,-7.763859375,-5.14538671875,-4.651671875,-12.6608515625,-18.793078125,-9.020765625,-5.45988671875,-10.19165625,-9.75886328125,-9.09400390625,-1.021515625,-7.093671875,5.532703125,-0.28037109375,3.28524609375,-2.8407578125
-5.31216796875,-7.25244140625,-6.6601328125,-13.38501171875,1.33976953125,-4.97548046875,-3.2441640625,-1.10314453125,-16.5554453125,-2.84164453125,-11.00165234375,-6.575703125,-18.25755859375,-9.46071484375,-9.619859375,-5.79938671875,-4.975671875,-10.0568515625,-18.289078125,-9.397765625,-5.83288671875,-8.23665625,-8.38886328125,-8.94600390625,-1.201515625,-8.132671875,5.829703125,0.539628906249999,3.44624609375,-4.5567578125
-8.43216796875,-8.79844140625,-9.0801328125,-12.76101171875,-0.186230468750001,-7.30948046875,-5.2251640625,-2.45014453125,-15.0604453125,-3.61964453125,-12.42665234375,-6.688703125,-16.19655859375,-6.54471484375,-9.771859375,-5.25238671875,-5.161671875,-6.7288515625,-16.154078125,-8.266765625,-6.11088671875,-5.67565625,-5.79486328125,-7.56900390625,-1.612515625,-10.172671875,5.989703125,1.73262890625,3.75624609375,-5.6247578125
-11.09016796875,-10.20244140625,-10.8631328125,-12.07401171875,-1.75123046875,-9.05648046875,-7.1851640625,-4.38414453125,-13.1864453125,-3.35064453125,-12.39365234375,-6.267703125,-13.53955859375,-3.03171484375,-7.956859375,-3.40838671875,-5.139671875,-3.1398515625,-12.699078125,-5.517765625,-5.92788671875,-2.72565625,-2.17686328125,-4.81000390625,-1.700515625,-12.410671875,6.519703125,3.50562890625,4.78024609375,-5.2897578125
-12.23916796875,-10.76544140625,-11.1591328125,-11.56501171875,-2.95023046875,-9.51448046875,-8.2861640625,-6.45914453125,-11.5224453125,-2.14864453125,-10.75965234375,-5.579703125,-10.99855859375,0.12028515625,-4.580859375,-0.503386718749999,-4.954671875,0.0431484374999997,-8.649078125,-1.591765625,-4.96988671875,0.0473437499999998,1.74813671875,-1.03700390625,-0.977515625,-13.980671875,7.638703125,5.60262890625,6.58424609375,-3.5677578125
-11.37816796875,-10.09144140625,-9.5801328125,-11.37201171875,-3.56723046875,-8.42248046875,-7.9301640625,-8.05814453125,-10.5964453125,-0.49264453125,-7.96765234375,-4.892703125,-9.29155859375,1.95428515625,-0.635859375,2.87461328125,-4.668671875,2.0641484375,-4.957078125,2.595234375,-3.16588671875,1.85234375,4.94613671875,2.87799609375,0.674484375,-14.289671875,9.115703125,7.33962890625,8.64924609375,-1.2347578125
-8.72316796875,-8.30244140625,-6.4181328125,-11.51701171875,-3.58223046875,-6.05648046875,-6.0531640625,-8.64014453125,-10.6584453125,0.995355468750001,-4.91465234375,-4.363703125,-8.86455859375,1.90528515625,2.650140625,5.90861328125,-4.281671875,2.3501484375,-2.506078125,5.931234375,-0.82488671875,2.00334375,6.48413671875,5.84699609375,2.865484375,-13.245671875,10.367703125,7.91062890625,10.11524609375,0.591242187500001
-5.05216796875,-5.95944140625,-2.5351328125,-11.88201171875,-3.07223046875,-3.05448046875,-3.1161640625,-7.93314453125,-11.5384453125,1.85335546875,-2.59165234375,-4.004703125,-9.67755859375,0.0742851562500002,4.304140625,7.77961328125,-3.737671875,0.7741484375,-1.802078125,7.508234375,1.41511328125,0.28534375,5.95213671875,6.98399609375,4.819484375,-11.281671875,10.741703125,6.79962890625,10.21224609375,1.0102421875
-1.37216796875,-3.74544140625,0.980867187499999,-12.22801171875,-2.10723046875,-0.13148046875,0.150835937500001,-5.98414453125,-12.7214453125,1.97435546875,-1.68665234375,-3.732703125,-11.20755859375,-2.81371484375,4.014140625,7.94761328125,-3.039671875,-2.2438515625,-2.780078125,6.977234375,2.81311328125,-2.87065625,3.62913671875,5.97399609375,5.721484375,-9.170671875,9.841703125,4.04662890625,8.61924609375,-0.271757812499999
1.45483203125,-2.16244140625,3.2418671875,-12.30401171875,-0.760230468750001,2.16751953125,3.0808359375,-3.09314453125,-13.6154453125,1.60635546875,-2.32565234375,-3.434703125,-12.68655859375,-5.72471484375,2.237140625,6.36061328125,-2.311671875,-5.8548515625,-4.835078125,4.682234375,2.86911328125,-6.50865625,0.361136718750001,3.22499609375,5.143484375,-7.671671875,7.746703125,0.271628906249999,5.64524609375,-2.8417578125
2.98583203125,-1.37144140625,3.8748671875,-11.97301171875,0.771769531249999,3.61051953125,5.2688359375,0.29685546875,-13.8154453125,1.18435546875,-4.05965234375,-2.965703125,-13.41155859375,-7.69971484375,-0.0178593750000005,3.51761328125,-1.722671875,-9.0188515625,-7.029078125,1.547234375,1.61311328125,-9.48365625,-2.76386328125,-0.234003906250001,3.333484375,-7.166671875,5.061703125,-3.52837109375,2.15424609375,-5.7437578125
3.25883203125,-1.20344140625,3.1118671875,-11.25101171875,2.14176953125,4.26351953125,6.6188359375,3.71585546875,-13.2224453125,1.09235546875,-6.09565234375,-2.170703125,-12.99555859375,-8.16271484375,-1.643859375,0.305613281250001,-1.342671875,-10.8038515625,-8.428078125,-1.268765625,-0.35388671875,-10.88765625,-4.78186328125,-3.12900390625,1.147484375,-7.501671875,2.703703125,-6.32637109375,-0.757753906249999,-7.8607578125
2.66083203125,-1.31144140625,1.5948671875,-10.26101171875,2.99876953125,4.33651953125,7.2408359375,6.71585546875,-11.9974453125,1.45735546875,-7.67965234375,-0.988703125000002,-11.49855859375,-7.07471484375,-1.921859375,-2.34838671875,-1.108671875,-10.6728515625,-8.465078125,-2.814765625,-2.15288671875,-10.40065625,-5.16886328125,-4.48400390625,-0.397515625,-8.133671875,1.463703125,-7.46437109375,-2.25075390625,-8.3937578125
1.70283203125,-1.38844140625,0.0288671874999986,-9.14101171875,3.18676953125,3.99051953125,7.2718359375,8.89685546875,-10.4264453125,2.06735546875,-8.44165234375,0.412296874999999,-9.36555859375,-4.89071484375,-0.816859375,-3.85838671875,-0.914671875,-8.6678515625,-7.173078125,-2.720765625,-3.09288671875,-8.38465625,-3.98886328125,-4.05500390625,-0.687515625,-8.481671875,1.576703125,-6.89237109375,-2.12675390625,-7.2387578125
0.859832031250001,-1.32844140625,-1.1151328125,-7.96601171875,2.82276953125,3.25551953125,6.7548359375,9.95885546875,-8.7624453125,2.48435546875,-8.50165234375,1.654296875,-7.17355859375,-2.31671484375,1.052140625,-4.19538671875,-0.725671875,-5.3728515625,-5.159078125,-1.324765625,-3.01188671875,-5.64565625,-1.81186328125,-2.40100390625,0.169484375,-8.252671875,2.587703125,-5.11837109375,-0.87475390625,-5.0267578125
0.483832031250001,-1.23844140625,-1.7081328125,-6.71501171875,2.22976953125,2.11151953125,5.6628359375,9.79785546875,-7.1184453125,2.28735546875,-8.31965234375,2.307296875,-5.34555859375,-0.0117148437499992,2.729140625,-3.82638671875,-0.613671875,-1.6758515625,-3.342078125,0.491234375,-2.29388671875,-3.02565625,0.53913671875,-0.58400390625,1.457484375,-7.560671875,3.600703125,-2.93137109375,0.637246093750001,-2.8067578125
0.736832031250001,-1.30844140625,-1.8881328125,-5.33201171875,1.78776953125,0.609519531250001,4.0478359375,8.57985546875,-5.4904453125,1.26435546875,-8.42665234375,2.093296875,-4.02755859375,1.56828515625,3.323140625,-3.42538671875,-0.717671875,1.5081484375,-2.603078125,1.653234375,-1.60688671875,-1.07865625,2.25713671875,0.32599609375,2.261484375,-6.804671875,3.713703125,-1.09337109375,1.58824609375,-1.5607578125
1.53883203125,-1.67444140625,-1.9111328125,-3.85201171875,1.76776953125,-1.08348046875,2.1448359375,6.70485546875,-3.9174453125,-0.52564453125,-9.17965234375,1.014296875,-3.19755859375,2.15328515625,2.334140625,-3.52038671875,-1.133671875,3.4461484375,-3.482078125,1.317234375,-1.52488671875,-0.0096562500000002,2.73713671875,-0.33000390625,1.959484375,-6.399671875,2.418703125,-0.156371093750001,1.52024609375,-1.7857578125
2.60183203125,-2.35544140625,-2.0071328125,-2.48701171875,2.17976953125,-2.71748046875,0.3318359375,4.69485546875,-2.6214453125,-2.80664453125,-10.62465234375,-0.604703125000002,-2.81755859375,1.62128515625,-0.179859375,-4.22238671875,-1.797671875,3.7391484375,-6.002078125,-0.769765625,-2.21388671875,0.20834375,1.69913671875,-2.55400390625,0.534484375,-6.482671875,-0.201296875000001,-0.387371093750001,0.441246093750001,-3.3157578125
3.53883203125,-3.25344140625,-2.3011328125,-1.56801171875,2.73676953125,-4.04348046875,-1.0321640625,3.03885546875,-1.9684453125,-5.16464453125,-12.47765234375,-2.189703125,-2.89755859375,0.0292851562500003,-3.612859375,-5.17638671875,-2.444671875,2.4291484375,-9.623078125,-4.114765625,-3.34488671875,-0.28465625,-0.717863281249999,-5.69600390625,-1.407515625,-6.793671875,-3.522296875,-1.73537109375,-1.24975390625,-5.4207578125
3.97583203125,-4.19944140625,-2.8171328125,-1.36001171875,3.01176953125,-4.91948046875,-1.7681640625,2.04985546875,-2.2574453125,-7.14064453125,-14.26065234375,-3.140703125,-3.45555859375,-2.34071484375,-7.020859375,-5.78038671875,-2.728671875,-0.00685156250000007,-13.394078125,-7.645765625,-4.30288671875,-1.29665625,-3.96886328125,-8.72500390625,-2.967515625,-6.840671875,-6.672296875,-3.87237109375,-2.99075390625,-7.1767578125
3.63583203125,-5.02244140625,-3.5721328125,-1.91601171875,2.69876953125,-5.40548046875,-1.9701640625,1.75985546875,-3.5214453125,-8.35664453125,-15.53065234375,-3.138703125,-4.45555859375,-4.99871484375,-9.480859375,-5.54638671875,-2.438671875,-2.8018515625,-16.300078125,-10.177765625,-4.57388671875,-2.57665625,-7.24786328125,-10.68500390625,-3.441515625,-6.237671875,-8.934296875,-6.29437109375,-4.32775390625,-7.9197578125
2.42683203125,-5.64144140625,-4.6111328125,-3.04801171875,1.77676953125,-5.76448046875,-1.9791640625,1.94285546875,-5.4374453125,-8.63664453125,-16.09165234375,-2.306703125,-5.74455859375,-7.34571484375,-10.446859375,-4.40038671875,-1.626671875,-5.1448515625,-17.650078125,-10.946765625,-4.05588671875,-3.79665625,-9.73986328125,-11.09300390625,-2.685515625,-4.970671875,-10.046296875,-8.45937109375,-5.09575390625,-7.5377578125
0.535832031250001,-6.09744140625,-5.9491328125,-4.41901171875,0.483769531249999,-6.31448046875,-2.2181640625,2.28485546875,-7.4074453125,-8.06564453125,-16.02965234375,-1.104703125,-7.03255859375,-8.82871484375,-9.922859375,-2.72038671875,-0.565671875,-6.4178515625,-17.342078125,-9.928765625,-3.09088671875,-4.58165625,-10.88786328125,-10.09900390625,-1.161515625,-3.404671875,-10.241296875,-9.90937109375,-5.41675390625,-6.4547578125
-1.58116796875,-6.50444140625,-7.4681328125,-5.67801171875,-0.83223046875,-7.23548046875,-2.9381640625,2.57685546875,-8.7724453125,-6.98464453125,-15.61065234375,-0.0657031250000024,-7.97655859375,-9.15871484375,-8.419859375,-1.15138671875,0.374328125,-6.3978515625,-15.865078125,-7.818765625,-2.25788671875,-4.64165625,-10.59886328125,-8.37500390625,0.305484375,-2.100671875,-10.103296875,-10.41037109375,-5.59375390625,-5.3787578125
-3.41416796875,-6.98344140625,-8.9441328125,-6.60301171875,-1.91123046875,-8.49748046875,-4.0661640625,2.77385546875,-9.1244453125,-5.93464453125,-15.14465234375,0.417296874999998,-8.38855859375,-8.52671484375,-6.752859375,-0.335386718749999,0.829328125,-5.3828515625,-14.104078125,-5.728765625,-2.10388671875,-3.99465625,-9.33486328125,-6.83400390625,0.874484375,-1.605671875,-10.323296875,-10.06937109375,-5.98875390625,-4.9837578125
-4.69216796875,-7.66744140625,-10.2191328125,-7.19501171875,-2.73423046875,-9.94148046875,-5.2751640625,2.86185546875,-8.5414453125,-5.53364453125,-14.90565234375,0.186296874999998,-8.38955859375,-7.61571484375,-5.785859375,-0.694386718749999,0.525328125,-4.1438515625,-13.014078125,-4.744765625,-2.95288671875,-3.08465625,-7.99686328125,-6.29500390625,-0.00751562500000019,-2.279671875,-11.458296875,-9.33737109375,-6.91075390625,-5.6547578125
-5.53816796875,-8.70644140625,-11.3431328125,-7.67101171875,-3.57423046875,-11.40748046875,-6.2211640625,2.72885546875,-7.5764453125,-6.26964453125,-15.09265234375,-0.686703125000002,-8.36155859375,-7.31571484375,-6.147859375,-2.30638671875,-0.611671875,-3.6198515625,-13.292078125,-5.535765625,-4.81188671875,-2.63265625,-7.57486328125,-7.18400390625,-2.424515625,-4.175671875,-13.700296875,-8.80837109375,-8.49675390625,-7.3697578125
-6.36716796875,-10.23244140625,-12.5401328125,-8.31701171875,-4.83723046875,-12.81548046875,-6.7561640625,2.16985546875,-6.9734453125,-8.29164453125,-15.80865234375,-1.958703125,-8.72855859375,-8.27671484375,-8.035859375,-4.89638671875,-2.388671875,-4.4798515625,-15.150078125,-8.138765625,-7.39788671875,-3.29165625,-8.71086328125,-9.40100390625,-5.982515625,-6.997671875,-16.788296875,-8.93737109375,-10.62675390625,-9.7387578125
-7.62616796875,-12.25044140625,-14.0171328125,-9.31501171875,-6.78423046875,-14.18948046875,-6.9891640625,1.03285546875,-7.2874453125,-11.31664453125,-17.05765234375,-3.358703125,-9.73255859375,-10.60171484375,-11.150859375,-7.94938671875,-4.405671875,-6.8218515625,-18.275078125,-12.001765625,-10.25688671875,-5.30965625,-11.42186328125,-12.42100390625,-9.969515625,-10.173671875,-20.111296875,-9.86237109375,-12.96175390625,-12.2037578125
-9.53216796875,-14.58044140625,-15.8001328125,-10.64701171875,-9.34923046875,-15.63848046875,-7.2351640625,-0.63414453125,-8.6524453125,-14.73964453125,-18.78765234375,-4.734703125,-11.31755859375,-13.82571484375,-14.831859375,-10.91938671875,-6.231671875,-10.1508515625,-21.982078125,-16.232765625,-12.93288671875,-8.38565625,-15.12186328125,-15.54200390625,-13.602515625,-13.038671875,-22.988296875,-11.39937109375,-15.05375390625,-14.2587578125
-11.95316796875,-16.90844140625,-17.7001328125,-12.12501171875,-12.19023046875,-17.28648046875,-7.9011640625,-2.57014453125,-10.7724453125,-17.87264453125,-20.92365234375,-6.106703125,-13.11855859375,-17.14071484375,-18.306859375,-13.44138671875,-7.565671875,-13.6138515625,-25.476078125,-19.922765625,-15.09888671875,-11.76165625,-18.88986328125,-18.14500390625,-16.239515625,-15.044671875,-24.924296875,-13.14537109375,-16.47375390625,-15.5867578125
-14.49116796875,-18.90344140625,-19.4291328125,-13.49001171875,-14.87223046875,-19.17548046875,-9.3341640625,-4.40314453125,-13.0784453125,-20.19364453125,-23.38565234375,-7.586703125,-14.57955859375,-19.73171484375,-20.964859375,-15.43438671875,-8.305671875,-16.3518515625,-28.109078125,-22.424765625,-16.59088671875,-14.50565625,-21.83886328125,-19.84400390625,-17.510515625,-15.909671875,-25.765296875,-14.62037109375,-16.92775390625,-16.0617578125
-16.70616796875,-20.31644140625,-20.7681328125,-14.50501171875,-17.01223046875,-21.19348046875,-11.6431640625,-5.81214453125,-14.9324453125,-21.49364453125,-26.06065234375,-9.238703125,-15.17855859375,-21.07471484375,-22.538859375,-17.02738671875,-8.540671875,-17.8068515625,-29.549078125,-23.519765625,-17.39288671875,-15.89165625,-23.42386328125,-20.54000390625,-17.375515625,-15.667671875,-25.682296875,-15.44137109375,-16.35975390625,-15.6987578125
-18.28916796875,-21.01444140625,-21.6501328125,-14.98301171875,-18.30423046875,-23.05948046875,-14.5711640625,-6.62914453125,-15.8274453125,-21.84164453125,-28.74365234375,-10.970703125,-14.68955859375,-21.07671484375,-23.104859375,-18.36638671875,-8.499671875,-17.8798515625,-29.795078125,-23.406765625,-17.57788671875,-15.69865625,-23.55986328125,-20.37800390625,-16.108515625,-14.613671875,-25.042296875,-15.45337109375,-14.99975390625,-14.5847578125
-19.04616796875,-20.94344140625,-22.0911328125,-14.74701171875,-18.51923046875,-24.35248046875,-17.4911640625,-6.85514453125,-15.4924453125,-21.42364453125,-31.07165234375,-12.478703125,-13.26355859375,-19.96971484375,-22.901859375,-19.40838671875,-8.437671875,-16.8488515625,-29.067078125,-22.515765625,-17.22988671875,-14.23765625,-22.52286328125,-19.60800390625,-14.167515625,-13.141671875,-24.180296875,-14.73637109375,-13.26975390625,-12.8107578125
-18.75516796875,-20.08344140625,-22.0561328125,-13.59601171875,-17.51223046875,-24.59548046875,-19.5681640625,-6.58614453125,-13.8974453125,-20.36664453125,-32.52565234375,-13.312703125,-11.29355859375,-18.07971484375,-22.108859375,-19.85538671875,-8.519671875,-15.1468515625,-27.656078125,-21.249765625,-16.37088671875,-12.12765625,-20.72586328125,-18.44600390625,-12.019515625,-11.587671875,-23.238296875,-13.50237109375,-11.58875390625,-10.4487578125
-17.14716796875,-18.44044140625,-21.4251328125,-11.35201171875,-15.24523046875,-23.44048046875,-20.0541640625,-5.96614453125,-11.2214453125,-18.71264453125,-32.59165234375,-13.083703125,-9.20955859375,-15.69271484375,-20.762859375,-19.30738671875,-8.778671875,-13.1838515625,-25.821078125,-19.812765625,-14.97288671875,-10.00465625,-18.53786328125,-17.01300390625,-10.018515625,-10.142671875,-22.165296875,-12.00537109375,-10.24375390625,-7.6547578125
-14.11816796875,-16.12444140625,-20.1431328125,-8.04601171875,-11.84023046875,-20.91348046875,-18.6231640625,-5.19314453125,-7.8504453125,-16.55364453125,-31.01265234375,-11.727703125,-7.36155859375,-13.09171484375,-18.863859375,-17.52338671875,-9.183671875,-11.2988515625,-23.796078125,-18.229765625,-13.05188671875,-8.34965625,-16.26086328125,-15.41000390625,-8.383515625,-8.896671875,-20.897296875,-10.52037109375,-9.38875390625,-4.8037578125
-9.99216796875,-13.45344140625,-18.4171328125,-4.08901171875,-7.65823046875,-17.53548046875,-15.5841640625,-4.52314453125,-4.3624453125,-14.17364453125,-27.97565234375,-9.600703125,-6.01555859375,-10.62771484375,-16.538859375,-14.62738671875,-9.690671875,-9.7828515625,-21.819078125,-16.471765625,-10.73888671875,-7.43665625,-14.15886328125,-13.77600390625,-7.223515625,-7.879671875,-19.521296875,-9.34337109375,-9.10575390625,-2.4977578125
-5.58316796875,-10.94044140625,-16.7191328125,-0.263011718750001,-3.32423046875,-14.18148046875,-11.8091640625,-4.21014453125,-1.4244453125,-12.01864453125,-24.06465234375,-7.304703125,-5.35855859375,-8.67171484375,-14.079859375,-11.09438671875,-10.204671875,-8.8298515625,-20.113078125,-14.564765625,-8.25888671875,-7.32965625,-12.43486328125,-12.26000390625,-6.538515625,-7.047671875,-18.261296875,-8.69437109375,-9.38675390625,-1.3327578125
-1.96116796875,-9.11244140625,-15.5741328125,2.53498828125,0.40776953125,-11.71148046875,-8.3621640625,-4.36514453125,0.4095546875,-10.50164453125,-20.03065234375,-5.402703125,-5.45955859375,-7.46571484375,-11.827859375,-7.56738671875,-10.522671875,-8.4598515625,-18.797078125,-12.622765625,-5.83588671875,-7.92265625,-11.14786328125,-10.92700390625,-6.211515625,-6.253671875,-17.340296875,-8.61037109375,-10.08075390625,-1.5887578125
-0.0611679687499986,-8.29044140625,-15.2371328125,3.64198828125,2.93676953125,-10.62448046875,-6.0641640625,-4.87314453125,0.8735546875,-9.78764453125,-16.53165234375,-4.210703125,-6.25755859375,-7.02371484375,-10.018859375,-4.64338671875,-10.379671875,-8.4998515625,-17.825078125,-10.822765625,-3.64888671875,-9.02265625,-10.17986328125,-9.70900390625,-6.042515625,-5.284671875,-16.840296875,-8.93337109375,-10.89975390625,-3.0727578125
-0.297167968749999,-8.46344140625,-15.4971328125,2.89998828125,4.04576953125,-10.89448046875,-5.2151640625,-5.41014453125,0.0715546875000008,-9.70164453125,-13.98665234375,-3.753703125,-7.54955859375,-7.13371484375,-8.684859375,-2.71438671875,-9.576671875,-8.6638515625,-16.999078125,-9.374765625,-1.85988671875,-10.40365625,-9.29086328125,-8.44500390625,-5.823515625,-3.990671875,-16.650296875,-9.40837109375,-11.51475390625,-5.1867578125
-2.36416796875,-9.30044140625,-15.7281328125,0.74198828125,3.98776953125,-11.98548046875,-5.5851640625,-5.57114453125,-1.5274453125,-9.79364453125,-12.51265234375,-3.810703125,-8.97355859375,-7.42371484375,-7.661859375,-1.91438671875,-8.091671875,-8.6488515625,-16.051078125,-8.452765625,-0.64788671875,-11.75065625,-8.24886328125,-6.96200390625,-5.412515625,-2.385671875,-16.493296875,-9.77437109375,-11.64175390625,-7.1487578125
-5.33816796875,-10.25744140625,-15.1871328125,-1.92101171875,3.41876953125,-13.05148046875,-6.5751640625,-5.05814453125,-3.1714453125,-9.50764453125,-11.93965234375,-4.032703125,-10.02555859375,-7.46871484375,-6.684859375,-2.13838671875,-6.100671875,-8.2308515625,-14.778078125,-8.127765625,-0.19788671875,-12.57865625,-6.95586328125,-5.17400390625,-4.797515625,-0.692671875000002,-16.033296875,-9.82037109375,-11.11075390625,-8.2607578125
-8.03916796875,-10.72744140625,-13.4001328125,-3.99501171875,3.20176953125,-13.25048046875,-7.4521640625,-3.83214453125,-4.0414453125,-8.40864453125,-11.86765234375,-4.117703125,-10.20055859375,-6.94371484375,-5.544859375,-3.13538671875,-3.966671875,-7.3488515625,-13.151078125,-8.336765625,-0.64688671875,-12.30865625,-5.51886328125,-3.18300390625,-4.138515625,0.715328124999997,-15.039296875,-9.41437109375,-9.90875390625,-8.1457578125
-9.45916796875,-10.23144140625,-10.4071328125,-4.59201171875,4.08776953125,-12.06448046875,-7.5971640625,-2.16314453125,-3.5554453125,-6.36164453125,-11.79665234375,-3.957703125,-9.24055859375,-5.75371484375,-4.197859375,-4.58338671875,-2.147671875,-6.1468515625,-11.340078125,-8.892765625,-1.99988671875,-10.54465625,-4.20986328125,-1.28800390625,-3.724515625,1.483328125,-13.517296875,-8.54637109375,-8.20875390625,-6.8767578125
-9.03016796875,-8.57744140625,-6.7081328125,-3.34301171875,6.35676953125,-9.46948046875,-6.6891640625,-0.49214453125,-1.6084453125,-3.56764453125,-11.24665234375,-3.626703125,-7.28655859375,-4.02671484375,-2.743859375,-6.10138671875,-1.028671875,-4.9058515625,-9.611078125,-9.487765625,-4.00188671875,-7.36765625,-3.29386328125,0.14499609375,-3.808515625,1.489328125,-11.690296875,-7.32537109375,-6.31075390625,-4.8907578125
-6.65816796875,-5.89644140625,-2.9791328125,-0.46201171875,9.66876953125,-5.86148046875,-4.7331640625,0.82485546875,1.4185546875,-0.43264453125,-9.84565234375,-3.217703125,-4.83555859375,-1.99371484375,-1.277859375,-7.22038671875,-0.743671875,-3.8658515625,-8.155078125,-9.711765625,-6.08188671875,-3.38565625,-2.83186328125,0.91599609375,-4.379515625,0.972328124999999,-9.854296875,-5.92537109375,-4.51075390625,-2.7457578125
-2.64016796875,-2.52944140625,0.251867187499998,3.44198828125,13.28176953125,-1.83548046875,-1.9491640625,1.74485546875,4.8825546875,2.62435546875,-7.40165234375,-2.701703125,-2.52955859375,0.121285156250001,0.242140624999999,-7.43338671875,-1.130671875,-3.1088515625,-6.987078125,-9.143765625,-7.46388671875,0.47734375,-2.62586328125,1.11899609375,-5.082515625,0.409328124999998,-8.223296875,-4.53837109375,-2.98775390625,-0.889757812499999
2.46683203125,1.13855859375,2.7888671875,7.66498828125,16.49076953125,2.06851953125,1.3998359375,2.55485546875,8.1555546875,5.33035546875,-3.94565234375,-1.919703125,-0.903558593750001,2.13728515625,2.007140625,-6.34038671875,-1.861671875,-2.5568515625,-5.956078125,-7.513765625,-7.47288671875,3.33934375,-2.35486328125,1.09799609375,-5.337515625,0.251328124999999,-6.889296875,-3.34437109375,-1.76575390625,0.447242187500001
8.02983203125,4.81355859375,4.7788671875,11.65898828125,18.97976953125,5.55951953125,5.1078359375,3.70885546875,10.8445546875,7.63035546875,0.27834765625,-0.663703125000001,-0.153558593750001,3.94528515625,4.255140625,-3.82438671875,-2.612671875,-2.0358515625,-4.841078125,-4.836765625,-5.82988671875,4.69934375,-1.75786328125,1.26699609375,-4.586515625,0.727328124999998,-5.836296875,-2.47837109375,-0.75575390625,1.2242421875
13.50283203125,8.34755859375,6.6008671875,15.15498828125,20.89376953125,8.68851953125,9.0338359375,5.58585546875,12.9045546875,9.68935546875,4.90334765625,1.229296875,-0.02155859375,5.57628515625,7.129140625,-0.145386718749999,-3.152671875,-1.3108515625,-3.443078125,-1.438765625,-2.79688671875,4.60134375,-0.743863281249999,1.94499609375,-2.553515625,1.820328125,-4.984296875,-1.97437109375,0.178246093750001,1.5012421875
18.46083203125,11.70955859375,8.6658671875,18.12298828125,22.64476953125,11.74451953125,13.0558359375,8.32085546875,14.5975546875,11.78535546875,9.53434765625,3.783296875,0.09544140625,7.21228515625,10.558140625,4.08361328125,-3.367671875,-0.1328515625,-1.665078125,2.123234375,0.89511328125,3.56234375,0.625136718750001,3.22699609375,0.561484375,3.306328125,-4.263296875,-1.76737109375,1.10224609375,1.3162421875
22.49883203125,14.86755859375,11.2108671875,20.59798828125,24.59676953125,14.99651953125,16.9878359375,11.72985546875,16.2995546875,14.12635546875,13.80234765625,6.816296875,0.84144140625,9.07228515625,14.214140625,8.05961328125,-3.243671875,1.6751484375,0.444921875000001,5.215234375,4.28611328125,2.31834375,2.19113671875,4.93699609375,4.057484375,4.776328125,-3.698296875,-1.74437109375,1.92324609375,0.6132421875
25.17083203125,17.66855859375,14.1908671875,22.50598828125,26.77576953125,18.43751953125,20.5218359375,15.35685546875,18.2325546875,16.69035546875,17.40034765625,9.973296875,2.58044140625,11.27428515625,17.592140625,11.06161328125,-2.800671875,4.1401484375,2.707921875,7.336234375,6.54111328125,1.57634375,3.79813671875,6.70499609375,6.962484375,5.723328125,-3.398296875,-1.76737109375,2.44224609375,-0.694757812499999
26.11083203125,19.80855859375,17.3318671875,23.60798828125,28.76876953125,21.72651953125,23.2768359375,18.61385546875,20.3025546875,19.18635546875,20.13534765625,12.885296875,5.26044140625,13.74628515625,20.191140625,12.75461328125,-1.985671875,7.1011484375,4.888921875,8.326234375,7.30711328125,1.85234375,5.36913671875,8.16299609375,8.478484375,5.761328125,-3.436296875,-1.64037109375,2.54324609375,-2.5077578125
25.22283203125,20.94955859375,20.2628671875,23.60998828125,29.91876953125,24.33551953125,24.9448359375,20.95085546875,22.1115546875,21.13035546875,21.97134765625,15.290296875,8.46544140625,16.20828515625,21.692140625,13.32161328125,-0.633671875,10.2091484375,6.766921875,8.431234375,6.84811328125,3.36034375,6.88613671875,9.12099609375,8.377484375,4.874328125,-3.730296875,-1.13437109375,2.35124609375,-4.3747578125
22.79383203125,20.90455859375,22.6048671875,22.33798828125,29.68876953125,25.79051953125,25.4498359375,21.97485546875,23.1185546875,22.01735546875,23.00134765625,17.017296875,11.55644140625,18.18128515625,22.018140625,13.31261328125,1.405328125,12.9301484375,8.132921875,8.126234375,5.84311328125,5.89434375,8.27513671875,9.58399609375,7.062484375,3.463328125,-4.083296875,-0.129371093750001,2.16524609375,-5.5857578125
19.46883203125,19.77655859375,24.0258671875,19.87198828125,27.95276953125,25.88251953125,24.9828359375,21.50685546875,22.8525546875,21.52935546875,23.37634765625,17.887296875,13.85544140625,19.08428515625,21.308140625,13.27361328125,4.042328125,14.6201484375,8.770921875,7.826234375,4.96611328125,8.80034375,9.28913671875,9.65599609375,5.299484375,2.176328125,-4.324296875,1.20862890625,2.23324609375,-5.5167578125
16.12283203125,17.98255859375,24.3188671875,16.59598828125,25.06176953125,24.81351953125,23.9088359375,19.62385546875,21.1355546875,19.72835546875,23.24034765625,17.699296875,14.86544140625,18.46528515625,19.847140625,13.42961328125,6.832328125,14.7441484375,8.500921875,7.687234375,4.55011328125,11.17234375,9.56813671875,9.45499609375,3.846484375,1.635328125,-4.405296875,2.43162890625,2.57024609375,-3.9827578125
13.65683203125,16.16055859375,23.4948671875,13.15598828125,21.71376953125,23.15951953125,22.6198359375,16.68685546875,18.2315546875,17.12735546875,22.70134765625,16.329296875,14.44544140625,16.25628515625,18.017140625,13.57961328125,9.065328125,13.1461484375,7.297921875,7.625234375,4.51111328125,12.23434375,8.85013671875,9.09299609375,3.193484375,2.220328125,-4.359296875,3.02462890625,2.98224609375,-1.3607578125
12.69083203125,14.94155859375,21.7958671875,10.30198828125,18.73176953125,21.62451953125,21.4038359375,13.29685546875,14.8105546875,14.51735546875,21.80334765625,13.849296875,12.84144140625,12.86128515625,16.202140625,13.24961328125,10.022328125,10.1851484375,5.378921875,7.467234375,4.48211328125,11.68534375,7.17413671875,8.69299609375,3.448484375,3.942328125,-4.219296875,2.69362890625,3.22824609375,1.5802421875
13.31083203125,14.66155859375,19.6018671875,8.62798828125,16.78576953125,20.68751953125,20.3608359375,10.15685546875,11.6925546875,12.63135546875,20.53034765625,10.590296875,10.55244140625,9.04928515625,14.687140625,12.00361328125,9.294328125,6.6431484375,3.201921875,7.111234375,4.07711328125,9.80334375,4.94113671875,8.38499609375,4.391484375,6.433328125,-3.972296875,1.53962890625,3.18324609375,4.0382421875
15.05583203125,15.18055859375,17.3008671875,8.33898828125,16.12476953125,20.37451953125,19.3848359375,7.89485546875,9.5275546875,11.82935546875,18.86734765625,7.135296875,8.15844140625,5.74028515625,13.595140625,9.76461328125,7.052328125,3.4751484375,1.381921875,6.637234375,3.16711328125,7.29534375,2.81813671875,8.31199609375,5.659484375,9.117328125,-3.547296875,0.0306289062499996,2.92924609375,5.5252421875
17.14283203125,15.94955859375,15.2008671875,9.18698828125,16.46776953125,20.30351953125,18.2358359375,6.90985546875,8.6025546875,11.98635546875,16.88734765625,4.227296875,6.18944140625,3.77328515625,12.890140625,6.97061328125,4.102328125,1.5381484375,0.554921875000001,6.315234375,2.06711328125,5.00634375,1.53113671875,8.64499609375,6.990484375,11.506328125,-2.814296875,-1.17737109375,2.73624609375,6.0502421875
18.76383203125,16.32455859375,13.4908671875,10.61598828125,17.17076953125,19.92251953125,16.6738359375,7.27085546875,8.8415546875,12.59735546875,14.76734765625,2.518296875,5.03544140625,3.64828515625,12.429140625,4.45661328125,1.614328125,1.3531484375,1.186921875,6.500234375,1.48911328125,3.61134375,1.62713671875,9.55199609375,8.373484375,13.435328125,-1.617296875,-1.51937109375,2.94724609375,6.0672421875
19.29283203125,15.89555859375,12.2478671875,11.98898828125,17.56176953125,18.76851953125,14.5728359375,8.69185546875,9.8995546875,13.00935546875,12.69934765625,2.277296875,4.88444140625,5.33728515625,12.016140625,3.08561328125,0.605328125,2.9571484375,3.392921875,7.444234375,2.24211328125,3.40834375,3.28013671875,11.09599609375,9.990484375,15.069328125,0.140703124999999,-0.72937109375,3.81924609375,6.2392421875
18.39483203125,14.64955859375,11.4608671875,12.76898828125,17.21376953125,16.66451953125,11.9748359375,10.60485546875,11.2845546875,12.69735546875,10.79734765625,3.248296875,5.71744140625,8.27828515625,11.485140625,3.35461328125,1.481328125,5.9361484375,6.858921875,9.143234375,4.81111328125,4.29334375,6.24513671875,13.16499609375,12.006484375,16.700328125,2.422703125,1.09862890625,5.40124609375,7.1332421875
16.08883203125,12.92255859375,11.0988671875,12.62798828125,16.05076953125,13.81451953125,9.1088359375,12.34985546875,12.4735546875,11.46735546875,9.09034765625,4.794296875,7.34844140625,11.60128515625,10.791140625,5.18861328125,3.883328125,9.6061484375,10.914921875,11.325234375,9.05911328125,5.89634375,9.95813671875,15.46599609375,14.352484375,18.490328125,5.017703125,3.60462890625,7.50724609375,8.9602421875
12.75183203125,11.22455859375,11.1248671875,11.50898828125,14.33176953125,10.76251953125,6.3898359375,13.40785546875,13.0585546875,9.52835546875,7.61834765625,6.211296875,9.46144140625,14.41528515625,10.071140625,7.98761328125,6.862328125,13.2251484375,14.724921875,13.548234375,14.16811328125,7.73334375,13.70013671875,17.57099609375,16.596484375,20.293328125,7.543703125,6.26362890625,9.72224609375,11.4302421875
9.05883203125,10.03655859375,11.4828671875,9.67298828125,12.60176953125,8.22451953125,4.3928359375,13.58785546875,12.8625546875,7.39635546875,6.54534765625,7.042296875,11.61244140625,16.02728515625,9.608140625,10.88861328125,9.268328125,16.1151484375,17.502921875,15.353234375,18.85611328125,9.32034375,16.72713671875,19.00699609375,18.020484375,21.642328125,9.481703125,8.45962890625,11.47624609375,13.7912421875
5.89483203125,9.68955859375,12.0998671875,7.69998828125,11.56876953125,6.89351953125,3.7448359375,13.10885546875,12.0255546875,5.74535546875,6.21834765625,7.293296875,13.30144140625,16.10128515625,9.751140625,13.13661328125,10.214328125,17.7611484375,18.729921875,16.433234375,21.84411328125,10.28034375,18.42413671875,19.41399609375,17.931484375,21.948328125,10.339703125,9.60462890625,12.21924609375,15.1352421875
4.20483203125,10.34155859375,12.9558671875,6.41698828125,11.91476953125,7.29251953125,4.9528359375,12.55085546875,11.0335546875,5.25435546875,7.12734765625,7.458296875,14.14644140625,14.80328515625,10.836140625,14.42361328125,9.444328125,17.9481484375,18.350921875,16.795234375,22.41211328125,10.49134375,18.50413671875,18.75599609375,16.114484375,20.856328125,9.917703125,9.36862890625,11.70424609375,14.8782421875
4.72683203125,12.01855859375,14.1178671875,6.66498828125,14.07276953125,9.63951953125,8.1958359375,12.63385546875,10.6035546875,6.44135546875,9.69334765625,8.297296875,14.04944140625,12.81428515625,13.057140625,14.99061328125,7.425328125,16.8741484375,16.814921875,16.791234375,20.75011328125,10.13534375,17.14213671875,17.40199609375,13.092484375,18.550328125,8.492703125,7.87162890625,10.16324609375,13.1252421875
7.64083203125,14.60155859375,15.6298671875,8.93698828125,18.04376953125,13.67051953125,13.1078359375,13.85285546875,11.3805546875,9.43135546875,13.93334765625,10.371296875,13.20644140625,11.07328515625,16.278140625,15.39461328125,5.065328125,15.0861484375,14.891921875,16.924234375,17.86011328125,9.53834375,14.90013671875,15.94499609375,9.939484375,15.758328125,6.714703125,5.62862890625,8.20624609375,10.6472421875
12.34183203125,17.72655859375,17.2998671875,13.02698828125,23.28776953125,18.51551953125,18.6668359375,16.13185546875,13.5745546875,13.74935546875,19.17334765625,13.591296875,11.97144140625,10.37028515625,19.899140625,16.07161328125,3.238328125,13.2461484375,13.299921875,17.514234375,15.02411328125,8.91834375,12.47213671875,14.84099609375,7.735484375,13.424328125,5.261703125,3.28762890625,6.50024609375,8.4672421875
17.56283203125,20.71655859375,18.6138671875,17.94198828125,28.76776953125,22.83451953125,23.3428359375,18.72985546875,16.7765546875,18.33935546875,24.08834765625,17.115296875,10.69944140625,11.01628515625,22.938140625,17.01861328125,2.406328125,11.8821484375,12.408921875,18.454234375,13.19211328125,8.27334375,10.41913671875,14.16299609375,7.019484375,12.256328125,4.509703125,1.35162890625,5.46124609375,7.3532421875
21.83383203125,22.72155859375,18.8948671875,22.18998828125,33.23376953125,25.25451953125,25.5668359375,20.52685546875,20.1075546875,21.88835546875,27.14134765625,19.662296875,9.65144140625,12.77828515625,24.399140625,17.77861328125,2.514328125,11.2421484375,12.176921875,19.264234375,12.62311328125,7.48134375,9.06913671875,13.63899609375,7.602484375,12.411328125,4.434703125,0.0596289062499995,5.15024609375,7.4862421875
24.00483203125,23.03255859375,17.6418671875,24.33798828125,35.67776953125,24.88651953125,24.3658359375,20.52585546875,22.5795546875,23.31435546875,27.22434765625,20.061296875,8.94344140625,15.02028515625,23.725140625,17.72961328125,3.126328125,11.2821484375,12.335921875,19.384234375,12.90411328125,6.47234375,8.54213671875,12.91299609375,8.765484375,13.475328125,4.741703125,-0.59637109375,5.33924609375,8.4452421875
23.60783203125,21.39655859375,14.8248671875,23.52698828125,35.69576953125,21.68251953125,19.8268359375,18.31485546875,23.4385546875,22.17335546875,24.17434765625,17.759296875,8.53144140625,16.96828515625,21.087140625,16.45961328125,3.683328125,11.7421484375,12.631921875,18.533234375,13.29811328125,5.32034375,8.82213671875,11.82999609375,9.716484375,14.733328125,5.088703125,-0.773371093750001,5.66324609375,9.4612421875
20.93983203125,18.14655859375,10.9838671875,19.75298828125,33.54076953125,16.47051953125,13.1338359375,14.26485546875,22.3525546875,18.81135546875,18.92034765625,13.110296875,8.27644140625,18.00028515625,17.351140625,14.03961328125,3.798328125,12.3031484375,12.979921875,16.900234375,13.17911328125,4.22934375,9.81313671875,10.58499609375,10.017484375,15.540328125,5.287703125,-0.649371093750001,5.79524609375,9.8392421875
16.87783203125,14.08555859375,7.0758671875,13.83598828125,29.90176953125,10.68551953125,6.1788359375,9.39685546875,19.4665546875,14.20135546875,13.17134765625,7.333296875,8.03344140625,17.84128515625,13.726140625,11.04161328125,3.437328125,12.7221484375,13.430921875,15.061234375,12.35411328125,3.45634375,11.33313671875,9.62099609375,9.770484375,15.593328125,5.367703125,-0.34437109375,5.59424609375,9.3142421875
12.51783203125,10.23055859375,4.1028671875,7.14998828125,25.63176953125,5.88851953125,0.923835937500001,4.98085546875,15.3345546875,9.57735546875,8.75834765625,2.092296875,7.68644140625,16.55428515625,11.253140625,8.30161328125,2.882328125,12.8501484375,13.990921875,13.642234375,11.07811328125,3.16234375,13.02713671875,9.32699609375,9.434484375,14.930328125,5.443703125,0.0636289062499991,5.12824609375,8.1312421875
8.80183203125,7.50455859375,2.7478671875,1.21998828125,21.58776953125,3.26151953125,-1.2291640625,2.05785546875,10.7775546875,6.01235546875,6.95034765625,-1.139703125,7.11644140625,14.38328515625,10.388140625,6.55661328125,2.492328125,12.5461484375,14.461921875,12.956234375,9.81611328125,3.26034375,14.31913671875,9.71999609375,9.453484375,13.750328125,5.532703125,0.44562890625,4.56724609375,6.8112421875
6.36283203125,6.49255859375,3.1958671875,-2.67401171875,18.56876953125,3.31151953125,0.1648359375,1.09985546875,6.7085546875,4.16835546875,8.06334765625,-1.602703125,6.21444140625,11.65028515625,10.926140625,6.17261328125,2.461328125,11.6561484375,14.474921875,12.876234375,8.95811328125,3.39334375,14.53613671875,10.39599609375,9.972484375,12.261328125,5.489703125,0.59462890625,4.05224609375,5.7942421875
5.57383203125,7.34855859375,5.1988671875,-3.77701171875,17.26476953125,5.86351953125,4.5398359375,1.94685546875,3.9915546875,4.26635546875,11.52634765625,0.563296874999999,5.00644140625,8.78928515625,12.263140625,7.07861328125,2.736328125,10.1211484375,13.719921875,12.997234375,8.66011328125,3.11034375,13.23613671875,10.77899609375,10.811484375,10.663328125,5.124703125,0.321628906249999,3.61124609375,5.2172421875
6.59583203125,9.79955859375,8.2198671875,-2.01401171875,18.12876953125,10.21851953125,10.5628359375,3.95985546875,3.2705546875,6.13835546875,16.22434765625,4.451296875,3.75244140625,6.35628515625,13.762140625,8.84461328125,3.075328125,8.1221484375,12.184921875,12.915234375,8.84011328125,2.09334375,10.50113671875,10.45699609375,11.605484375,9.176328125,4.335703125,-0.45337109375,3.13224609375,4.8922421875
9.26783203125,13.19055859375,11.4958671875,1.96698828125,21.15176953125,15.30651953125,16.5308359375,6.25385546875,4.7355546875,9.26135546875,20.87134765625,8.688296875,2.87744140625,4.88128515625,14.950140625,10.80661328125,3.152328125,6.0581484375,10.193921875,12.379234375,9.21311328125,0.29334375,6.96813671875,9.35199609375,11.930484375,8.014328125,3.121703125,-1.68337109375,2.37724609375,4.4552421875
12.95883203125,16.55855859375,14.1038671875,6.90998828125,25.62476953125,19.84551953125,20.7878359375,7.95285546875,7.9465546875,12.79435546875,24.30834765625,11.861296875,2.78044140625,4.63328515625,15.526140625,12.20261328125,2.676328125,4.4061484375,8.243921875,11.295234375,9.36411328125,-2.04465625,3.58413671875,7.68799609375,11.404484375,7.285328125,1.523703125,-3.21537109375,1.10924609375,3.5862421875
16.60883203125,18.82155859375,15.1448671875,11.28298828125,30.13576953125,22.62751953125,22.1348359375,8.44185546875,11.9205546875,15.74235546875,25.75134765625,12.992296875,3.67244140625,5.52228515625,15.318140625,12.38561328125,1.527328125,3.5621484375,6.813921875,9.681234375,8.88311328125,-4.40465625,1.25013671875,5.87599609375,9.811484375,6.926328125,-0.375296875,-4.75237109375,-0.674753906249999,2.2212421875
19.01883203125,19.11655859375,14.0718671875,13.76998828125,32.97876953125,22.90151953125,20.1738359375,7.57085546875,15.5035546875,17.26635546875,24.99434765625,11.882296875,5.50844140625,7.18628515625,14.289140625,11.08061328125,-0.152671874999999,3.7491484375,6.242921875,7.674234375,7.54511328125,-6.08365625,0.549136718750001,4.38799609375,7.242484375,6.729328125,-2.367296875,-5.82337109375,-2.58775390625,0.622242187500001
19.24183203125,17.15255859375,10.9608671875,13.72098828125,32.86576953125,20.64451953125,15.4598359375,5.70085546875,17.7915546875,16.99035546875,22.46234765625,9.131296875,7.95344140625,9.15528515625,12.579140625,8.54161328125,-2.023671875,4.9581484375,6.675921875,5.542234375,5.42411328125,-6.41765625,1.58513671875,3.62499609375,4.132484375,6.444328125,-4.077296875,-5.89937109375,-3.95175390625,-0.7497578125
16.93883203125,13.37655859375,6.5778671875,11.33898828125,29.53476953125,16.58551953125,9.3658359375,3.57785546875,18.3805546875,15.14535546875,19.07034765625,5.843296875,10.42144140625,10.99928515625,10.515140625,5.53761328125,-3.712671875,6.9231484375,8.042921875,3.667234375,2.89411328125,-5.08765625,3.97213671875,3.79299609375,1.144484375,5.937328125,-5.046296875,-4.66737109375,-4.14075390625,-1.4567578125
12.57883203125,8.86355859375,2.1968671875,7.55498828125,23.91076953125,11.97551953125,3.6728359375,2.07185546875,17.3835546875,12.49735546875,15.96134765625,3.217296875,12.24144140625,12.43928515625,8.579140625,3.11561328125,-4.953671875,9.2061484375,10.091921875,2.506234375,0.53211328125,-2.30065625,6.98913671875,4.86299609375,-1.027515625,5.324328125,-4.901296875,-2.23637109375,-2.92275390625,-1.2447578125
7.37783203125,4.96855859375,-0.772132812500002,3.66398828125,17.75776953125,8.22851953125,0.0728359375000007,1.87485546875,15.3145546875,10.08935546875,14.20234765625,2.180296875,12.93244140625,13.41328515625,7.315140625,2.26561328125,-5.638671875,11.3451484375,12.473921875,2.513234375,-1.04288671875,1.26634375,9.83713671875,6.62199609375,-1.862515625,4.957328125,-3.528296875,0.859628906249999,-0.57675390625,-0.101757812499999
2.92783203125,2.90055859375,-1.2501328125,0.86598828125,13.02476953125,6.50951953125,-0.2931640625,3.21485546875,12.9075546875,8.87135546875,14.51634765625,3.112296875,12.39944140625,14.02428515625,7.179140625,3.54561328125,-5.827671875,12.9991484375,14.863921875,4.006234375,-1.39188671875,4.72834375,11.90713671875,8.76099609375,-1.162515625,5.231328125,-1.149296875,3.89962890625,2.25724609375,1.7592421875
0.615832031250001,3.31255859375,1.1008671875,-0.14901171875,11.11376953125,7.36151953125,2.8278359375,5.71485546875,10.8985546875,9.37535546875,17.06434765625,5.717296875,10.93944140625,14.41528515625,8.358140625,6.85061328125,-5.715671875,13.9911484375,17.040921875,6.998234375,-0.44588671875,7.33934375,12.95013671875,10.95499609375,0.878484375,6.314328125,1.749703125,6.30262890625,4.88624609375,3.9612421875
1.12683203125,6.06755859375,5.7288671875,0.60198828125,12.32676953125,10.54051953125,8.6708359375,8.50385546875,9.8165546875,11.54935546875,21.38834765625,9.152296875,9.09444140625,14.69628515625,10.696140625,11.41861328125,-5.528671875,14.3481484375,18.948921875,11.120234375,1.46311328125,8.80234375,13.14813671875,12.98099609375,3.779484375,8.040328125,4.666703125,7.89862890625,6.88224609375,6.1012421875
4.27283203125,10.33155859375,11.3968671875,2.51498828125,15.76476953125,15.13951953125,15.6538359375,10.60385546875,9.8925546875,14.84735546875,26.55434765625,12.368296875,7.46844140625,14.97628515625,13.767140625,16.13861328125,-5.379671875,14.3281484375,20.707921875,15.734234375,3.79011328125,9.39334375,13.06813671875,14.82799609375,6.995484375,10.053328125,7.365703125,8.99962890625,8.25524609375,7.9162421875
9.16383203125,14.94755859375,16.6778671875,4.76398828125,19.77876953125,19.94151953125,21.9098359375,11.40885546875,11.0655546875,18.47235546875,31.46034765625,14.508296875,6.57644140625,15.40528515625,17.057140625,19.99561328125,-5.205671875,14.3861484375,22.555921875,20.178234375,6.04911328125,9.80434375,13.43313671875,16.70399609375,10.139484375,12.043328125,9.964703125,10.17762890625,9.36724609375,9.3772421875
14.57083203125,18.89155859375,20.4498671875,6.69298828125,22.73676953125,23.81551953125,25.9228359375,10.95585546875,13.0285546875,21.63235546875,35.16934765625,15.162296875,6.71644140625,16.12628515625,20.101140625,22.42361328125,-4.859671875,15.0021484375,24.683921875,23.965234375,8.00211328125,10.73034375,14.77113671875,18.83399609375,13.043484375,13.855328125,12.722703125,11.87762890625,10.62824609375,10.6152421875
19.33083203125,21.52655859375,22.1778671875,8.00198828125,23.63576953125,25.99051953125,26.9568359375,9.83085546875,15.2555546875,23.70835546875,37.12634765625,14.424296875,7.88244140625,17.16428515625,22.506140625,23.39661328125,-4.263671875,16.4151484375,27.019921875,26.809234375,9.65311328125,12.45634375,17.08513671875,21.17899609375,15.626484375,15.424328125,15.678703125,14.07862890625,12.15024609375,11.7482421875
22.60683203125,22.59455859375,21.8978671875,8.68598828125,22.29076953125,26.15051953125,25.1158359375,8.77585546875,17.0885546875,24.31135546875,37.18034765625,12.772296875,9.77344140625,18.32228515625,23.876140625,23.23061328125,-3.492671875,18.4141484375,29.067921875,28.479234375,11.08811328125,14.65034375,19.73213671875,23.24099609375,17.679484375,16.647328125,18.390703125,16.21762890625,13.57524609375,12.6912421875
23.94783203125,22.05655859375,19.9948671875,8.86198828125,19.16376953125,24.36851953125,21.1008359375,8.24885546875,17.9105546875,23.25535546875,35.45134765625,10.827296875,11.85944140625,19.14028515625,23.746140625,22.24261328125,-2.725671875,20.2941484375,29.952921875,28.645234375,12.26611328125,16.46534375,21.58513671875,24.11899609375,18.723484375,17.327328125,19.967703125,17.37262890625,14.14124609375,13.0762421875
23.20383203125,19.97355859375,16.9508671875,8.62098828125,15.07876953125,20.94951953125,15.8768359375,8.21085546875,17.3685546875,20.53735546875,32.15834765625,9.094296875,13.50544140625,18.97828515625,21.656140625,20.52761328125,-2.129671875,21.0131484375,28.723921875,26.884234375,12.94211328125,16.87634375,21.43013671875,22.83399609375,18.111484375,17.252328125,19.409703125,16.62162890625,12.98824609375,12.3532421875
20.49083203125,16.50655859375,13.2378671875,8.00498828125,10.93776953125,16.33151953125,10.3988359375,8.24585546875,15.5245546875,16.37435546875,27.57634765625,7.835296875,14.15544140625,17.28328515625,17.396140625,17.99561328125,-1.715671875,19.5771484375,24.835921875,22.953234375,12.81111328125,15.15634375,18.49213671875,18.83999609375,15.415484375,16.390328125,16.160703125,13.46862890625,9.63824609375,10.1322421875
16.27883203125,12.03555859375,9.3558671875,7.07198828125,7.47176953125,11.09951953125,5.4958359375,7.90685546875,12.8695546875,11.29035546875,22.13634765625,7.130296875,13.54444140625,13.93828515625,11.316140625,14.64761328125,-1.267671875,15.5361484375,18.595921875,17.174234375,11.80311328125,11.30734375,12.87813671875,12.47899609375,10.889484375,15.052328125,10.587703125,8.21762890625,4.44024609375,6.5702421875
11.42783203125,7.25955859375,5.8898671875,5.97598828125,5.09076953125,6.00651953125,1.8458359375,7.02385546875,10.1655546875,6.13335546875,16.54034765625,6.976296875,11.80744140625,9.46428515625,4.467140625,10.80261328125,-0.420671875,9.3141484375,11.265921875,10.612234375,10.26711328125,6.18334375,5.68013671875,5.05499609375,5.626484375,13.833328125,4.058703125,2.02862890625,-1.33675390625,2.5232421875
7.02583203125,3.14555859375,3.4388671875,4.94098828125,3.86876953125,1.90551953125,-0.0361640624999993,5.77585546875,8.1465546875,1.90435546875,11.71534765625,7.295296875,9.37044140625,4.88528515625,-1.600859375,7.09661328125,1.080328125,2.1511484375,4.690921875,4.825234375,8.83811328125,1.16834375,-1.35986328125,-1.58700390625,1.187484375,13.300328125,-1.544296875,-3.47537109375,-5.94275390625,-0.740757812499999
4.04383203125,0.659558593749999,2.4408671875,4.15598828125,3.64876953125,-0.447480468749999,0.142835937500001,4.52885546875,7.2115546875,-0.53564453125,8.59034765625,7.907296875,6.73544140625,1.32528515625,-5.341859375,4.24461328125,3.143328125,-4.3238515625,0.627921875000001,1.290234375,8.08111328125,-2.42365625,-6.48186328125,-5.77400390625,-1.114515625,13.636328125,-4.618296875,-6.88037109375,-7.92675390625,-2.1207578125
3.01183203125,0.39255859375,3.0178671875,3.66798828125,4.16576953125,-0.580480468749999,2.3718359375,3.64985546875,7.2935546875,-0.74064453125,7.83434765625,8.626296875,4.32344140625,-0.36971484375,-5.758859375,2.78461328125,5.319328125,-8.6218515625,0.118921875000001,0.828234375,8.20011328125,-3.84065625,-8.46386328125,-6.59300390625,-0.803515625,14.559328125,-4.457296875,-7.52337109375,-6.76275390625,-1.1497578125
3.88983203125,2.31455859375,4.9328671875,3.38598828125,5.16876953125,1.58751953125,6.3268359375,3.44585546875,7.9775546875,1.20035546875,9.67534765625,9.441296875,2.47144140625,0.15228515625,-2.737859375,2.95761328125,7.058328125,-9.7938515625,3.210921875,3.366234375,9.02711328125,-3.06065625,-6.90986328125,-4.08500390625,1.661484375,15.568328125,-1.385296875,-5.62137109375,-2.98775390625,1.9052421875
6.13683203125,5.80555859375,7.6748671875,3.17498828125,6.53776953125,5.72251953125,11.4378359375,4.15585546875,8.7925546875,4.72835546875,13.82734765625,10.590296875,1.44944140625,2.70328515625,2.929140625,4.71561328125,8.009328125,-7.6258515625,9.046921875,8.049234375,10.21411328125,-0.66665625,-2.25586328125,0.91399609375,5.225484375,16.270328125,3.527703125,-2.02137109375,2.14524609375,6.2402421875
8.92983203125,9.92355859375,10.5998671875,2.95398828125,8.31976953125,11.11851953125,16.9998359375,5.87885546875,9.4625546875,9.02135546875,19.53434765625,12.401296875,1.42244140625,6.63828515625,9.825140625,7.76561328125,8.148328125,-2.6598515625,16.226921875,13.591234375,11.44911328125,2.40834375,4.39113671875,7.10399609375,8.750484375,16.541328125,8.900703125,2.15762890625,7.18924609375,10.8042421875
11.49683203125,13.79255859375,13.1688671875,2.76898828125,10.64476953125,16.86051953125,22.2898359375,8.46485546875,10.0455546875,13.28135546875,25.74534765625,15.039296875,2.39744140625,11.09128515625,16.389140625,11.62361328125,7.736328125,3.9911484375,23.261921875,18.694234375,12.57211328125,5.23034375,11.56513671875,13.10299609375,11.435484375,16.486328125,13.457703125,5.88162890625,10.97824609375,14.5952421875
13.46183203125,16.93355859375,15.2068671875,2.82398828125,13.59576953125,22.11051953125,26.7538359375,11.49185546875,10.9145546875,17.01835546875,31.41234765625,18.364296875,4.24744140625,15.30828515625,21.433140625,15.73261328125,7.176328125,10.9961484375,28.984921875,22.434234375,13.60911328125,7.22334375,17.84613671875,17.80799609375,13.000484375,16.340328125,16.354703125,8.46562890625,12.92824609375,16.9462421875
14.96383203125,19.39455859375,17.0118671875,3.47698828125,17.13876953125,26.35851953125,30.1618359375,14.38185546875,12.5835546875,20.16735546875,35.79234765625,21.963296875,6.79044140625,18.88628515625,24.486140625,19.60561328125,6.827328125,17.1851484375,32.798921875,24.490234375,14.70811328125,8.39934375,22.25113671875,20.63999609375,13.638484375,16.384328125,17.351703125,9.71162890625,13.11224609375,17.7162421875
16.46583203125,21.56555859375,19.1168671875,5.09898828125,21.08376953125,29.46551953125,32.6228359375,16.55585546875,15.3815546875,22.93635546875,38.58734765625,25.267296875,9.81844140625,21.76328515625,25.773140625,22.92261328125,6.803328125,21.7861484375,34.699921875,25.122234375,16.00511328125,9.29134375,24.44713671875,21.60099609375,13.790484375,16.826328125,16.785703125,9.88562890625,12.09724609375,17.2692421875
18.34083203125,23.74555859375,21.8178671875,7.80698828125,24.97276953125,31.46751953125,34.3418359375,17.53585546875,19.1275546875,25.46835546875,39.85434765625,27.702296875,13.08344140625,24.02928515625,25.897140625,25.52161328125,6.896328125,24.4991484375,35.098921875,24.928234375,17.49011328125,10.61134375,24.73713671875,21.15099609375,13.895484375,17.694328125,15.387703125,9.55162890625,10.66524609375,16.2422421875
20.51883203125,25.76655859375,24.7698671875,11.22798828125,27.98076953125,32.33451953125,35.2978359375,17.00485546875,23.0225546875,27.56235546875,39.79734765625,28.839296875,16.28444140625,25.71528515625,25.420140625,27.31761328125,6.725328125,25.4441484375,34.576921875,24.518234375,18.97811328125,12.82134375,23.85813671875,19.99099609375,14.245484375,18.801328125,14.025703125,9.35562890625,9.52624609375,15.2612421875
22.41583203125,26.96455859375,26.9868671875,14.47998828125,29.00576953125,31.84951953125,35.1128359375,14.85785546875,25.8855546875,28.63735546875,38.58534765625,28.462296875,19.05744140625,26.68628515625,24.596140625,28.19761328125,6.006328125,25.0211484375,33.644921875,24.254234375,20.18011328125,15.84534375,22.65113671875,18.80099609375,14.937484375,19.807328125,13.417703125,9.78562890625,9.13924609375,14.7232421875
23.17083203125,26.53355859375,27.2828671875,16.45398828125,27.08376953125,29.70551953125,33.2418359375,11.26385546875,26.6265546875,27.99235546875,36.28934765625,26.547296875,20.98744140625,26.65328515625,23.356140625,27.96761328125,4.743328125,23.7011484375,32.583921875,24.130234375,20.80111328125,19.04834375,21.72813671875,18.01399609375,15.870484375,20.356328125,13.894703125,10.96462890625,9.62124609375,14.7262421875
22.13583203125,24.06655859375,24.9608671875,16.29498828125,21.92176953125,25.80551953125,29.3778359375,6.69985546875,24.7485546875,25.25535546875,33.01234765625,23.218296875,21.68644140625,25.36128515625,21.538140625,26.40261328125,3.227328125,21.8721484375,31.442921875,23.855234375,20.62011328125,21.52234375,21.28013671875,17.71799609375,16.776484375,20.194328125,15.317703125,12.60862890625,10.80324609375,15.1362421875
19.36383203125,19.95555859375,20.3798671875,13.87598828125,14.27376953125,20.63251953125,23.8708359375,1.95685546875,20.6745546875,20.80435546875,29.12734765625,18.825296875,20.97644140625,22.88528515625,19.229140625,23.40661328125,1.894328125,19.8351484375,30.180921875,23.090234375,19.55811328125,22.53734375,21.16113671875,17.74599609375,17.311484375,19.266328125,17.200703125,14.20262890625,12.36524609375,15.7212421875
15.79283203125,15.43355859375,15.0388671875,10.00098828125,5.93676953125,15.41051953125,17.8688359375,-1.94714453125,15.7365546875,15.87435546875,25.41734765625,14.052296875,19.07544140625,19.82328515625,16.956140625,19.18961328125,1.137328125,17.8911484375,28.851921875,21.706234375,17.72611328125,21.90034375,21.10913671875,17.85699609375,17.181484375,17.728328125,18.958703125,15.28062890625,13.96524609375,16.2572421875
12.90583203125,12.16055859375,11.0248671875,6.16998828125,-0.71623046875,11.80751953125,13.0458359375,-3.99214453125,11.7555546875,12.17835546875,22.92234765625,9.872296875,16.59844140625,17.14428515625,15.525140625,14.31461328125,1.135328125,16.3491484375,27.643921875,19.896234375,15.41311328125,20.01234375,20.89413671875,17.83599609375,16.230484375,15.872328125,20.084703125,15.60162890625,15.27124609375,16.5192421875
12.04683203125,11.51155859375,10.0888671875,3.93998828125,-3.57523046875,11.21751953125,10.9418359375,-3.49014453125,10.3125546875,11.14735546875,22.48534765625,7.276296875,14.34644140625,15.74628515625,15.580140625,9.57661328125,1.801328125,15.4211484375,26.767921875,18.061234375,13.01811328125,17.62934375,20.33713671875,17.49499609375,14.498484375,14.016328125,20.236703125,15.15162890625,15.95824609375,16.2632421875
13.74683203125,13.90555859375,12.8178671875,4.21498828125,-1.71223046875,14.01351953125,12.1988359375,-0.38114453125,12.0745546875,13.21635546875,24.28034765625,6.885296875,13.03044140625,16.02728515625,17.170140625,5.76861328125,2.885328125,15.1381484375,26.307921875,16.594234375,10.98411328125,15.55034375,19.29113671875,16.68199609375,12.247484375,12.482328125,19.294703125,14.07362890625,15.78224609375,15.2842421875
17.42883203125,18.55955859375,18.3688671875,6.82398828125,4.08476953125,19.19851953125,16.1408359375,4.64385546875,16.4925546875,17.54035546875,27.59734765625,8.658296875,13.05644140625,17.71528515625,19.623140625,3.43861328125,4.160328125,15.3781484375,26.161921875,15.691234375,9.73711328125,14.38234375,17.68313671875,15.32199609375,9.946484375,11.603328125,17.385703125,12.59462890625,14.70124609375,13.5272421875
21.60483203125,23.79255859375,24.8188671875,10.60498828125,11.51676953125,24.68151953125,20.9468359375,10.25885546875,22.0155546875,22.28435546875,31.02834765625,11.794296875,14.40344140625,19.98228515625,21.796140625,2.68361328125,5.490328125,15.9351484375,26.070921875,15.271234375,9.53911328125,14.37234375,15.56213671875,13.44699609375,8.100484375,11.657328125,14.831703125,10.94262890625,12.90724609375,11.1322421875
24.46383203125,27.69155859375,29.9388671875,13.92098828125,17.65776953125,28.06551953125,24.3608359375,14.83185546875,26.6845546875,25.37035546875,32.99434765625,14.937296875,16.60344140625,21.75628515625,22.573140625,3.08861328125,6.748328125,16.5511484375,25.702921875,14.991234375,10.31511328125,15.30634375,13.06713671875,11.16999609375,7.013484375,12.695328125,12.010703125,9.24162890625,10.71524609375,8.3702421875
24.65283203125,28.84855859375,32.0438671875,15.36898828125,20.11776953125,27.64051953125,24.6338359375,16.92585546875,28.8565546875,25.34735546875,32.41134765625,16.701296875,18.91044140625,22.15128515625,21.362140625,3.89461328125,7.729328125,16.9361484375,24.770921875,14.428234375,11.61911328125,16.54634375,10.38213671875,8.67199609375,6.643484375,14.422328125,9.260703125,7.49162890625,8.43924609375,5.5972421875
21.91383203125,26.87855859375,30.6048671875,14.40898828125,17.97876953125,23.15851953125,21.2708359375,15.83485546875,27.8225546875,22.01835546875,29.21834765625,16.306296875,20.60744140625,20.84528515625,18.403140625,4.38561328125,8.191328125,16.8551484375,23.186921875,13.354234375,12.83011328125,17.28234375,7.72713671875,6.23299609375,6.716484375,16.281328125,6.913703125,5.66562890625,6.37524609375,3.2802421875
17.25683203125,22.56055859375,26.3748671875,11.63698828125,12.15376953125,15.99551953125,15.2658359375,11.92485546875,24.0685546875,16.52035546875,24.48234765625,13.961296875,21.27344140625,18.21328515625,14.702140625,4.27661328125,7.984328125,16.2391484375,21.148921875,11.962234375,13.48111328125,16.87534375,5.39313671875,4.24099609375,6.969484375,17.690328125,5.334703125,3.84962890625,4.81624609375,1.9602421875
12.54883203125,17.51955859375,21.0008671875,8.53998828125,4.98876953125,8.59151953125,8.6818359375,6.53885546875,19.0515546875,10.82535546875,19.95034765625,10.741296875,20.87044140625,15.12828515625,11.619140625,3.85161328125,7.127328125,15.2221484375,19.117921875,10.854234375,13.45811328125,15.15334375,3.73213671875,3.08999609375,7.323484375,18.255328125,4.848703125,2.27862890625,3.99224609375,2.0502421875
9.71783203125,13.56255859375,16.3108671875,6.83598828125,-0.72223046875,3.44151953125,3.7588359375,1.48285546875,14.5915546875,6.90535546875,17.30234765625,8.067296875,19.65844140625,12.56828515625,10.291140625,3.75661328125,5.810328125,14.1041484375,17.651921875,10.739234375,12.98811328125,12.51234375,3.06113671875,3.01699609375,7.886484375,17.866328125,5.576703125,1.26762890625,3.94924609375,3.5812421875
9.94583203125,11.95455859375,13.6398671875,7.71998828125,-2.88623046875,2.12651953125,1.9778359375,-1.68714453125,12.1855546875,5.98135546875,17.46234765625,7.086296875,18.06844140625,11.27428515625,11.190140625,4.59061328125,4.340328125,13.2481484375,17.195921875,12.034234375,12.44211328125,9.80234375,3.55413671875,3.99099609375,8.786484375,16.657328125,7.326703125,1.07562890625,4.49524609375,6.0972421875
13.19083203125,12.98155859375,13.4348671875,11.37798828125,-0.840230468750001,4.78151953125,3.5338359375,-2.23314453125,12.5395546875,8.13335546875,20.27134765625,8.216296875,16.55544140625,11.53728515625,13.971140625,6.51661328125,3.062328125,12.9491484375,17.895921875,14.567234375,12.11111328125,7.97334375,5.14213671875,5.70199609375,9.990484375,14.899328125,9.614703125,1.77762890625,5.26424609375,8.8242421875
18.21783203125,15.94655859375,15.2448671875,16.92898828125,4.58276953125,10.14151953125,7.3918359375,-0.43914453125,15.4195546875,12.36935546875,24.61034765625,10.973296875,15.43244140625,13.14528515625,17.644140625,9.11861328125,2.232328125,13.2791484375,19.522921875,17.581234375,12.04511328125,7.63234375,7.47813671875,7.64199609375,11.217484375,12.892328125,11.805703125,3.15462890625,5.83924609375,10.9602421875
23.14283203125,19.53455859375,18.0568671875,22.78298828125,11.55376953125,16.09951953125,11.8118359375,2.60785546875,19.8165546875,17.07835546875,28.87034765625,14.181296875,14.76144140625,15.49328515625,20.984140625,11.57661328125,1.927328125,14.0321484375,21.551921875,20.052234375,12.08211328125,8.72434375,10.02013671875,9.28799609375,12.056484375,10.940328125,13.333703125,4.72162890625,5.89024609375,11.9542421875
26.24183203125,22.35455859375,20.7758671875,27.23298828125,17.95976953125,20.55251953125,15.0758359375,5.52885546875,24.3325546875,20.66335546875,31.59634765625,16.502296875,14.41544140625,17.85028515625,23.014140625,13.08561328125,2.062328125,14.8211484375,23.387921875,21.189234375,12.04111328125,10.57534375,12.22413671875,10.33599609375,12.253484375,9.409328125,13.919703125,5.93062890625,5.32224609375,11.6982421875
26.58883203125,23.43455859375,22.5868671875,29.04598828125,22.05676953125,22.16251953125,16.1208359375,7.21885546875,27.6575546875,22.09335546875,32.01234765625,17.049296875,14.22544140625,19.62428515625,23.340140625,13.23461328125,2.491328125,15.2701484375,24.590921875,20.813234375,11.90211328125,12.23534375,13.71813671875,10.82599609375,11.925484375,8.729328125,13.655703125,6.42962890625,4.33524609375,10.5422421875
24.20783203125,22.46855859375,23.0388671875,27.80498828125,22.91576953125,20.69851953125,14.8478359375,7.18685546875,28.9305546875,21.13635546875,30.19434765625,15.722296875,14.06844140625,20.45128515625,22.150140625,12.13461328125,3.054328125,15.1121484375,24.941921875,19.354234375,11.80811328125,12.88634375,14.33113671875,11.02399609375,11.477484375,9.210328125,12.869703125,6.18062890625,3.31224609375,9.1072421875
19.82183203125,19.76155859375,21.9388671875,23.90798828125,20.55076953125,16.88451953125,11.9728359375,5.57185546875,27.8765546875,18.23535546875,26.84834765625,13.117296875,13.81744140625,20.12128515625,19.943140625,10.23661328125,3.567328125,14.1651484375,24.352921875,17.484234375,11.86311328125,12.11934375,13.98713671875,11.11499609375,11.258484375,10.786328125,11.851703125,5.36762890625,2.58024609375,7.9552421875
14.48083203125,15.96955859375,19.2658671875,18.30598828125,15.76276953125,11.94651953125,8.5638359375,2.92385546875,24.7565546875,14.20135546875,22.90634765625,10.170296875,13.29844140625,18.52728515625,17.216140625,8.04061328125,3.844328125,12.3361484375,22.767921875,15.672234375,11.94011328125,10.04334375,12.62113671875,10.97799609375,11.250484375,12.912328125,10.668703125,4.22562890625,2.22224609375,7.3262421875
9.27783203125,11.84755859375,15.2348671875,12.19398828125,9.82976953125,7.15051953125,5.5498359375,-0.0531445312500001,20.2625546875,9.92235546875,19.16834765625,7.752296875,12.37444140625,15.74828515625,14.328140625,5.89361328125,3.774328125,9.7171484375,20.199921875,13.968234375,11.68111328125,7.24534375,10.25113671875,10.23699609375,11.035484375,14.744328125,9.185703125,2.95862890625,2.07924609375,7.1022421875
5.13483203125,8.09555859375,10.3928671875,6.75498828125,4.20376953125,3.47051953125,3.4478359375,-2.69614453125,15.3785546875,6.15635546875,16.13234765625,6.376296875,11.06644140625,12.15128515625,11.542140625,3.95461328125,3.379328125,6.6841484375,16.862921875,12.127234375,10.69511328125,4.59134375,7.13113671875,8.54499609375,10.079484375,15.473328125,7.256703125,1.73162890625,1.90224609375,6.9452421875
2.62883203125,5.29755859375,5.6058671875,2.94298828125,0.18776953125,1.41851953125,2.3798359375,-4.49914453125,11.1515546875,3.43635546875,14.00434765625,6.085296875,9.59344140625,8.36128515625,9.133140625,2.30161328125,2.778328125,3.8571484375,13.259921875,9.929234375,8.81211328125,2.90734375,3.80913671875,5.90399609375,8.127484375,14.665328125,4.945703125,0.697628906249999,1.53524609375,6.5262421875
1.88583203125,3.84355859375,1.8628671875,1.30398828125,-1.41323046875,1.03851953125,2.2178359375,-5.17214453125,8.4005546875,2.02835546875,12.80134765625,6.552296875,8.31244140625,5.10728515625,7.420140625,1.06161328125,2.123328125,1.8961484375,10.123921875,7.487234375,6.27111328125,2.66734375,1.02513671875,2.82399609375,5.497484375,12.457328125,2.636703125,0.0126289062499998,1.01724609375,5.7022421875
2.59483203125,3.84255859375,-0.0281328125000018,1.83198828125,-0.59223046875,2.00551953125,2.7328359375,-4.66614453125,7.4565546875,1.91235546875,12.45234765625,7.312296875,7.58644140625,2.97128515625,6.675140625,0.452613281250001,1.546328125,1.2261484375,8.158921875,5.307234375,3.70711328125,3.83534375,-0.555863281249999,0.18499609375,3.030484375,9.561328125,0.951703124999999,-0.18237109375,0.566246093750001,4.5872421875
4.09183203125,5.05255859375,0.231867187499998,3.91798828125,1.81876953125,3.74551953125,3.6398359375,-3.19114453125,8.0535546875,2.74635546875,12.77134765625,7.926296875,7.63344140625,2.14728515625,6.936140625,0.651613281250001,1.127328125,1.8131484375,7.695921875,4.020234375,1.91211328125,5.89334375,-0.666863281249999,-1.17700390625,1.676484375,6.994328125,0.450703125,0.167628906249999,0.42424609375,3.4692421875
5.49383203125,6.86755859375,2.2138671875,6.47998828125,4.43776953125,5.49051953125,4.5518359375,-1.22014453125,9.4075546875,3.84835546875,13.35834765625,8.016296875,8.38544140625,2.29328515625,7.835140625,1.55761328125,0.870328125,3.0991484375,8.455921875,3.941234375,1.43411328125,8.02234375,0.365136718750001,-0.94200390625,1.912484375,5.624328125,1.274703125,0.94562890625,0.67324609375,2.6452421875
5.90583203125,8.39855859375,4.8078671875,8.28298828125,5.80376953125,6.35851953125,4.9278359375,0.58585546875,10.5045546875,4.31635546875,13.54634765625,7.279296875,9.48744140625,2.66528515625,8.611140625,2.66561328125,0.727328125,4.2171484375,9.623921875,4.767234375,2.30011328125,9.41934375,1.73713671875,0.48399609375,3.415484375,5.780328125,3.014703125,1.88562890625,1.16924609375,2.3112421875
4.70883203125,8.70655859375,6.5898671875,8.41098828125,4.83876953125,5.55251953125,4.1488359375,1.57485546875,10.4965546875,3.32335546875,12.58134765625,5.599296875,10.47444140625,2.51028515625,8.395140625,3.20461328125,0.706328125,4.4411484375,10.260921875,5.672234375,4.02411328125,9.65734375,2.59413671875,2.20799609375,5.230484375,7.171328125,4.920703125,2.73762890625,1.67424609375,2.5502421875
1.78583203125,7.15055859375,6.3798671875,6.65998828125,1.20676953125,2.63851953125,1.7698359375,1.35685546875,9.0625546875,0.45935546875,9.94934765625,3.162296875,11.00144140625,1.46828515625,6.594140625,2.49061328125,0.927328125,3.6081484375,9.779921875,5.726234375,5.88411328125,8.85434375,2.48713671875,3.33699609375,6.282484375,9.107328125,6.294703125,3.42362890625,2.03624609375,3.3342421875
-2.44416796875,3.68355859375,3.7318671875,3.63798828125,-4.53123046875,-2.24648046875,-2.1951640625,-0.0711445312499999,6.5155546875,-4.07864453125,5.66834765625,0.420296874999998,10.94544140625,-0.29871484375,3.168140625,0.276613281250001,1.525328125,2.1761484375,8.184921875,4.360234375,7.23011328125,7.53034375,1.53713671875,3.35899609375,5.869484375,10.805328125,6.747703125,4.01162890625,2.22224609375,4.4772421875
-7.15616796875,-1.05744140625,-0.874132812500002,0.49798828125,-11.05723046875,-8.36348046875,-7.1451640625,-2.38114453125,3.6115546875,-9.53264453125,0.37834765625,-2.106703125,10.36344140625,-2.30071484375,-1.356859375,-3.10138671875,2.468328125,0.8931484375,5.951921875,1.608234375,7.66911328125,6.22534375,0.218136718750001,2.23399609375,3.860484375,11.620328125,6.201703125,4.53162890625,2.19824609375,5.5932421875
-11.32316796875,-5.90644140625,-6.1701328125,-1.52001171875,-16.72023046875,-14.49548046875,-12.0271640625,-5.09114453125,1.2535546875,-14.79264453125,-4.78965234375,-4.009703125,9.44744140625,-3.98371484375,-6.060859375,-6.80938671875,3.478328125,0.3621484375,3.739921875,-1.916765625,7.15811328125,5.23434375,-0.994863281249999,0.28099609375,0.651484375,11.193328125,4.771703125,4.86162890625,1.83624609375,6.2052421875
-13.90116796875,-9.47644140625,-10.4901328125,-1.48501171875,-20.05023046875,-19.19248046875,-15.6411640625,-7.69614453125,0.254554687500001,-18.64164453125,-8.49465234375,-5.051703125,8.52844140625,-4.86971484375,-9.855859375,-9.76138671875,4.155328125,0.8081484375,2.173921875,-5.222765625,6.00811328125,4.59934375,-1.82586328125,-1.95500390625,-2.981515625,9.546328125,2.715703125,4.79962890625,0.982246093750001,5.9922421875
-14.05116796875,-10.53444140625,-12.3131328125,0.99698828125,-20.14423046875,-21.12248046875,-16.9911640625,-9.72014453125,1.1965546875,-20.01764453125,-9.55365234375,-5.142703125,8.03744140625,-4.57971484375,-11.709859375,-10.94638671875,4.196328125,2.1251484375,1.772921875,-7.219765625,4.81211328125,4.28934375,-2.15586328125,-3.78800390625,-6.061515625,7.089328125,0.462703124999999,4.26162890625,-0.37475390625,5.0232421875
-11.37716796875,-8.38744140625,-10.7841328125,5.70398828125,-16.85023046875,-19.49848046875,-15.5921640625,-10.72814453125,4.2865546875,-18.28764453125,-7.31165234375,-4.308703125,8.33944140625,-2.84971484375,-10.868859375,-9.73838671875,3.556328125,4.0791484375,2.946921875,-7.023765625,4.25211328125,4.34134375,-1.86286328125,-4.48100390625,-7.626515625,4.487328125,-1.366296875,3.44062890625,-1.95075390625,3.8062421875
-6.07516796875,-3.18244140625,-6.0101328125,11.82698828125,-10.79923046875,-14.38348046875,-11.6381640625,-10.38014453125,9.2285546875,-13.45564453125,-1.89065234375,-2.643703125,9.54144140625,0.42528515625,-7.060859375,-6.09238671875,2.497328125,6.4861484375,5.955921875,-4.220765625,4.86711328125,4.87634375,-0.70686328125,-3.38700390625,-6.956515625,2.444328125,-2.045296875,2.80362890625,-3.17875390625,3.1082421875
1.05783203125,4.06455859375,1.0078671875,18.15598828125,-3.25923046875,-6.71148046875,-5.9561640625,-8.54314453125,15.2215546875,-6.23364453125,5.79934765625,-0.280703125000001,11.41044140625,5.11128515625,-0.647859375,-0.580386718749999,1.505328125,9.2651484375,10.782921875,0.959234375,6.87711328125,6.01434375,1.61413671875,-0.17100390625,-3.799515625,1.523328125,-0.966296875000001,2.93362890625,-3.39275390625,3.6282421875
8.77483203125,11.77155859375,8.7348671875,23.41798828125,4.21676953125,1.96351953125,0.258835937500001,-5.41714453125,21.1475546875,2.07835546875,14.26834765625,2.584296875,13.44444140625,10.71328515625,7.326140625,5.71261328125,1.075328125,12.3061484375,16.961921875,7.607234375,10.08411328125,7.73934375,5.19913671875,4.93599609375,1.440484375,2.007328125,2.025703125,4.22762890625,-2.16475390625,5.6532421875
15.63183203125,18.27555859375,15.5718671875,26.63198828125,10.26576953125,9.86351953125,5.7928359375,-1.59714453125,25.8425546875,9.86235546875,21.78934765625,5.578296875,15.03044140625,16.31228515625,15.253140625,11.39161328125,1.438328125,15.2701484375,23.479921875,14.252234375,13.84711328125,9.79234375,9.63813671875,10.97999609375,7.635484375,3.799328125,6.372703125,6.61262890625,0.387246093750001,8.8712421875
20.33583203125,22.30155859375,20.2698671875,27.36298828125,14.07976953125,15.43151953125,9.7018359375,2.01485546875,28.3775546875,15.57035546875,26.82134765625,8.106296875,15.64744140625,20.70728515625,21.312140625,15.04861328125,2.397328125,17.5291484375,28.916921875,19.199234375,17.18811328125,11.69334375,13.92513671875,16.44099609375,13.130484375,6.393328125,10.849703125,9.45162890625,3.52724609375,12.4692421875
22.11383203125,23.25255859375,22.2068671875,25.75898828125,15.52876953125,17.71951953125,11.4738359375,4.47685546875,28.2795546875,18.14435546875,28.40734765625,9.496296875,15.05444140625,22.78428515625,23.995140625,15.65461328125,3.431328125,18.3471484375,31.847921875,21.029234375,19.06911328125,12.91834375,16.75513671875,19.71499609375,16.256484375,9.005328125,13.988703125,11.76562890625,6.17024609375,15.4742421875
20.92583203125,21.31055859375,21.4768671875,22.41898828125,15.05776953125,16.63351953125,11.1078359375,5.15485546875,25.6495546875,17.32935546875,26.46534765625,9.279296875,13.36644140625,21.94228515625,22.641140625,12.92861328125,3.976328125,17.2231484375,31.359921875,19.112234375,18.77511328125,13.11334375,17.06113671875,19.74099609375,15.971484375,10.835328125,14.684703125,12.64362890625,7.33224609375,17.1512421875
17.42783203125,17.32155859375,18.7578671875,18.15698828125,13.45376953125,12.93351953125,9.0778359375,3.97285546875,21.1575546875,13.74735546875,21.82534765625,7.462296875,10.97344140625,18.35128515625,17.726140625,7.54261328125,3.737328125,14.1971484375,27.444921875,13.909234375,16.25311328125,12.23634375,14.51113671875,16.46199609375,12.326484375,11.392328125,12.685703125,11.66762890625,6.56524609375,17.2272421875
12.74183203125,12.51755859375,15.0448671875,13.80198828125,11.53976953125,8.01151953125,6.1898359375,1.45985546875,15.8945546875,8.70835546875,16.04834765625,4.691296875,8.42744140625,12.98028515625,10.796140625,1.03461328125,2.896328125,9.9711484375,21.106921875,6.915234375,12.26811328125,10.61734375,9.74913671875,10.95699609375,6.565484375,10.748328125,8.757703125,9.19362890625,4.20124609375,15.9422421875
8.18283203125,8.15955859375,11.3658671875,10.09198828125,9.88076953125,3.54951953125,3.3538359375,-1.40814453125,11.1545546875,3.84035546875,11.05134765625,2.228296875,6.40244140625,7.41128515625,4.042140625,-4.57638671875,2.152328125,5.8281484375,14.141921875,0.270234375,8.28411328125,8.96234375,4.28113671875,5.18699609375,0.821484375,9.605328125,4.504703125,6.37562890625,1.34124609375,13.9582421875
4.96883203125,5.22355859375,8.5628671875,7.62598828125,8.64276953125,1.09551953125,1.3578359375,-3.53014453125,8.1685546875,0.628355468750001,8.61334765625,1.624296875,5.63844140625,3.41328515625,-0.374859375000001,-7.39238671875,2.501328125,3.2821484375,8.571921875,-3.910765625,6.03411328125,8.21134375,-0.0158632812499993,1.37099609375,-2.572515625,9.073328125,1.838703125,4.81962890625,-0.496753906249999,12.1452421875
3.86883203125,4.17055859375,7.1198671875,6.76198828125,7.68876953125,1.59051953125,0.6618359375,-4.09214453125,7.7315546875,-0.0536445312499998,9.79134765625,4.080296875,6.71244140625,2.28628515625,-1.092859375,-6.32238671875,4.786328125,3.4781484375,5.882921875,-4.307765625,6.81011328125,9.16934375,-1.66886328125,1.11199609375,-1.985515625,10.159328125,2.192703125,5.86662890625,-0.0477539062499996,11.2452421875
4.87983203125,4.83155859375,7.0038671875,7.41898828125,6.79076953125,4.95751953125,1.2408359375,-2.93614453125,9.8155546875,1.72335546875,14.44234765625,9.754296875,9.66544140625,4.21928515625,1.869140625,-1.56038671875,9.179328125,6.5811484375,6.336921875,-0.968765625,10.79211328125,12.02634375,-0.33186328125,4.62199609375,2.725484375,13.185328125,5.808703125,9.84062890625,3.01624609375,11.5132421875
7.14583203125,6.44255859375,7.6448671875,8.96698828125,5.79176953125,10.02451953125,2.5608359375,-0.68014453125,13.4255546875,4.94135546875,21.15034765625,17.481296875,13.79644140625,8.08328515625,7.052140625,5.38861328125,14.964328125,11.5401484375,8.785921875,4.626234375,16.81511328125,16.12834375,2.96113671875,10.51499609375,10.015484375,17.531328125,11.519703125,15.74662890625,7.81324609375,12.5782421875
7.14583203125,6.44255859375,7.6448671875,8.96698828125,5.79176953125,10.02451953125,2.5608359375,-0.68014453125,13.4255546875,4.94135546875,21.15034765625,17.481296875,13.79644140625,8.08328515625,7.052140625,5.38861328125,14.964328125,11.5401484375,8.785921875,4.626234375,16.81511328125,16.12834375,2.96113671875,10.51499609375,10.015484375,17.531328125,11.519703125,15.74662890625,7.81324609375,12.5782421875
