"Fp1","Fpz","Fp2","F7","F3","Fz","F4","F8","FC5","FC1","FC2","FC6","T7","C3","Cz","C4","T8","CP5","CP1","CP2","CP6","P7","P3","Pz","P4","P8","POz","O1","Oz","O2"
-32.6749375,-13.79162890625,-35.87056640625,55.827265625,-22.79557421875,-24.54396875,20.88449609375,31.06087109375,28.980359375,-10.344890625,-15.91591015625,11.94048046875,75.02632421875,13.2073046875,-22.5978828125,-15.11038671875,26.1120625,6.2784765625,-28.46865234375,-16.586171875,-15.21198828125,33.1208671875,5.24770703125,-18.97601171875,15.1284296875,29.38217578125,13.28182421875,51.62326953125,27.33117578125,22.78901953125
-27.7399375,-9.99562890625,-27.79656640625,61.397265625,-14.66557421875,-18.32096875,26.31449609375,35.94587109375,31.710359375,-5.399890625,-12.02391015625,15.71548046875,73.60732421875,17.2083046875,-16.9208828125,-10.47638671875,28.8260625,7.7934765625,-22.60465234375,-12.175171875,-12.48598828125,37.4538671875,8.83470703125,-12.66101171875,19.5954296875,31.16217578125,18.13082421875,56.95626953125,31.79517578125,26.11901953125
-24.7639375,-7.53362890625,-23.75756640625,63.409265625,-9.88857421875,-14.61996875,30.39849609375,39.09187109375,31.713359375,-2.351890625,-9.35591015625,16.65748046875,70.26432421875,19.3353046875,-13.5108828125,-8.00238671875,30.5420625,6.4674765625,-19.39565234375,-10.127171875,-11.37498828125,38.8958671875,9.72270703125,-9.18201171875,21.7754296875,31.54017578125,20.24782421875,59.47526953125,33.63517578125,27.20401953125
-23.9809375,-6.53762890625,-23.70856640625,61.983265625,-8.98957421875,-13.67296875,32.54549609375,40.28587109375,28.887359375,-1.644890625,-8.34691015625,14.98848046875,64.93332421875,19.2593046875,-12.7758828125,-8.00538671875,31.1630625,2.4054765625,-19.24065234375,-10.723171875,-11.97998828125,37.2558671875,7.70170703125,-8.96001171875,21.5184296875,30.68817578125,19.38082421875,58.95126953125,32.81917578125,26.09001953125
-25.0409375,-6.75662890625,-26.23956640625,58.378265625,-11.55557421875,-15.06396875,32.33549609375,39.78587109375,24.037359375,-3.247890625,-9.19691015625,11.91348046875,58.32132421875,17.1403046875,-14.5028828125,-10.18038671875,30.8960625,-3.2455234375,-21.75165234375,-13.501171875,-13.85998828125,33.3138671875,3.43870703125,-11.54801171875,19.3994296875,29.30117578125,16.13582421875,56.08126953125,30.19517578125,23.58501953125
-27.1779375,-7.72462890625,-29.32956640625,54.335265625,-16.51057421875,-18.02396875,29.73149609375,38.17087109375,18.600359375,-6.698890625,-11.75891015625,8.90648046875,51.69232421875,13.5413046875,-17.9638828125,-13.73638671875,30.1270625,-8.8095234375,-25.91765234375,-17.456171875,-16.22098828125,28.4438671875,-1.81929296875,-15.80501171875,16.4254296875,28.22217578125,11.68082421875,52.19726953125,27.06317578125,20.84001953125
-29.4909375,-8.95662890625,-31.22156640625,51.382265625,-22.46957421875,-21.69896875,25.26849609375,36.21887109375,14.269359375,-11.216890625,-15.48391015625,6.92348046875,46.45532421875,9.3263046875,-22.1328828125,-17.61338671875,29.2380625,-12.7385234375,-30.43965234375,-21.396171875,-18.22998828125,24.0648671875,-6.68229296875,-20.28501171875,13.6234296875,28.01717578125,7.30482421875,48.74826953125,24.61017578125,18.85601953125
-31.2609375,-10.07962890625,-31.05456640625,50.307265625,-28.03857421875,-25.34296875,19.98449609375,34.68587109375,12.458359375,-15.855890625,-19.49691015625,6.00048046875,43.72632421875,5.5213046875,-25.9738828125,-20.75738671875,28.4610625,-14.1255234375,-34.12265234375,-24.326171875,-19.34798828125,21.1868671875,-10.05129296875,-23.69801171875,11.6964296875,28.70517578125,3.99382421875,46.75326953125,23.47417578125,18.12701953125
-32.1919375,-10.88762890625,-29.03956640625,50.936265625,-32.05957421875,-28.45896875,15.03849609375,34.02487109375,13.691359375,-19.700890625,-22.87791015625,5.43748046875,44.01232421875,3.0733046875,-28.7168828125,-22.41538671875,27.8260625,-12.9435234375,-36.20465234375,-25.732171875,-19.51698828125,20.1948671875,-11.38929296875,-25.28901171875,10.8634296875,29.78017578125,2.20682421875,46.46026953125,23.59717578125,18.53801953125
-32.4609375,-11.35062890625,-26.23456640625,52.329265625,-33.84557421875,-30.85596875,11.27049609375,34.20587109375,17.275359375,-22.096890625,-25.00891015625,4.40848046875,47.10832421875,2.5223046875,-30.0578828125,-22.38238671875,27.2430625,-9.9545234375,-36.52565234375,-25.677171875,-19.12798828125,20.9018671875,-10.80429296875,-25.01401171875,10.9084296875,30.49117578125,1.85982421875,47.34926953125,24.38417578125,19.53301953125
-32.5369375,-11.60062890625,-24.05956640625,53.332265625,-33.37257421875,-32.58396875,9.01949609375,34.78987109375,21.585359375,-22.834890625,-25.78891015625,2.57348046875,52.20032421875,3.7583046875,-30.1808828125,-21.04938671875,26.6420625,-6.3595234375,-35.48165234375,-24.686171875,-18.76098828125,22.7328671875,-8.93329296875,-23.45801171875,11.3684296875,30.21417578125,2.48982421875,48.45926953125,25.07317578125,20.41301953125
-32.8969375,-11.89062890625,-23.77356640625,53.191265625,-31.29857421875,-33.78096875,8.26949609375,35.16387109375,24.840359375,-22.191890625,-25.55291015625,0.353480468749998,58.11432421875,6.0333046875,-29.5878828125,-19.22838671875,26.0820625,-3.3135234375,-33.80065234375,-23.485171875,-18.86298828125,24.9428671875,-6.68429296875,-21.54901171875,11.7604296875,28.74217578125,3.48182421875,48.86326953125,25.10417578125,20.65201953125
-33.8039375,-12.49262890625,-25.98756640625,51.875265625,-28.71957421875,-34.53296875,8.92449609375,34.80687109375,25.916359375,-20.774890625,-24.77491015625,-1.26651953125,63.62132421875,8.2783046875,-28.8248828125,-17.78938671875,25.7500625,-1.5165234375,-32.25665234375,-22.714171875,-19.53798828125,26.8188671875,-4.92429296875,-20.18301171875,11.7434296875,26.34317578125,4.26082421875,48.06626953125,24.33317578125,20.06601953125
-35.2429375,-13.53062890625,-30.33056640625,49.947265625,-26.65857421875,-34.78396875,10.95149609375,33.54587109375,24.748359375,-19.238890625,-23.75591015625,-1.24551953125,67.73932421875,9.5633046875,-28.2218828125,-17.26538671875,25.8520625,-1.0325234375,-31.40865234375,-22.709171875,-20.53598828125,27.8238671875,-4.22629296875,-19.92501171875,11.1894296875,23.58517578125,4.40982421875,46.13626953125,23.00717578125,18.80201953125
-36.9509375,-14.87562890625,-35.42056640625,48.144265625,-25.57157421875,-34.34696875,14.33149609375,31.74287109375,22.232359375,-17.994890625,-22.47291015625,0.995480468749999,69.96532421875,9.4953046875,-27.7728828125,-17.60938671875,26.4740625,-1.4095234375,-31.44265234375,-23.403171875,-21.41998828125,27.6828671875,-4.75129296875,-20.84601171875,10.1834296875,21.06317578125,3.74682421875,43.54726953125,21.54617578125,17.19901953125
-38.4909375,-16.15362890625,-39.33256640625,46.916265625,-25.17857421875,-32.99496875,18.87349609375,30.22887109375,19.689359375,-17.065890625,-20.65591015625,5.32648046875,70.32232421875,8.3723046875,-27.1788828125,-18.21938671875,27.5140625,-1.9755234375,-32.12865234375,-24.367171875,-21.74698828125,26.3908671875,-6.25429296875,-22.53301171875,9.0284296875,19.19817578125,2.38682421875,40.90326953125,20.32417578125,15.65001953125
-39.2849375,-16.87362890625,-40.42656640625,46.208265625,-24.76057421875,-30.64496875,24.06149609375,29.92887109375,18.203359375,-16.116890625,-18.00391015625,10.99048046875,69.19932421875,7.0673046875,-25.9958828125,-18.24838671875,28.7510625,-2.1435234375,-32.87165234375,-24.932171875,-21.18798828125,24.2008671875,-8.14929296875,-24.20201171875,8.2384296875,18.24117578125,0.782824218750001,38.76626953125,19.60617578125,14.55601953125
-38.6869375,-16.57562890625,-38.08156640625,45.590265625,-23.65057421875,-27.45996875,29.05449609375,31.39787109375,18.155359375,-14.605890625,-14.41191015625,16.89148046875,67.08732421875,6.7383046875,-23.8018828125,-17.00638671875,30.0430625,-1.5405234375,-32.84965234375,-24.391171875,-19.55498828125,21.6488671875,-9.59929296875,-24.87401171875,8.4864296875,18.40717578125,-0.300175781249999,37.65326953125,19.62717578125,14.34301953125
-36.1529375,-14.93062890625,-32.83656640625,44.673265625,-21.55957421875,-23.77796875,32.91549609375,34.59487109375,19.224359375,-11.986890625,-10.08391015625,21.91348046875,64.38432421875,8.4583046875,-20.3138828125,-14.26538671875,31.4630625,0.0244765625000001,-31.23265234375,-22.212171875,-16.82898828125,19.5598671875,-9.66929296875,-23.63201171875,10.4074296875,19.95017578125,0.0308242187500003,38.07226953125,20.67117578125,15.43901953125
-31.5599375,-11.82262890625,-25.92956640625,43.483265625,-18.61157421875,-19.93696875,34.93649609375,38.93587109375,20.770359375,-7.936890625,-5.49091015625,25.18148046875,61.39632421875,12.8173046875,-15.4778828125,-10.33538671875,33.2260625,2.6234765625,-27.49465234375,-18.247171875,-13.23898828125,18.9028671875,-7.59829296875,-19.94401171875,14.2994296875,23.02217578125,2.43382421875,40.39426953125,22.95317578125,18.09401953125
-25.4969375,-7.45662890625,-18.68156640625,42.501265625,-15.21257421875,-16.16396875,34.94949609375,43.48387109375,22.287359375,-2.564890625,-1.21891015625,26.24348046875,58.46332421875,19.5723046875,-9.5538828125,-5.94238671875,35.3980625,6.1844765625,-21.71365234375,-12.881171875,-9.33698828125,20.4108671875,-3.15229296875,-13.96601171875,19.8234296875,27.40017578125,6.94682421875,44.53726953125,26.36017578125,22.12301953125
-19.2779375,-2.45262890625,-12.14856640625,42.345265625,-11.85357421875,-12.59796875,33.44449609375,47.19187109375,23.667359375,3.530109375,2.23908984375,25.15948046875,56.06232421875,27.5523046875,-3.1388828125,-1.96238671875,37.6360625,10.4054765625,-14.68965234375,-6.986171875,-5.92198828125,24.1428671875,3.13470703125,-6.64601171875,25.9544296875,32.31817578125,12.81482421875,49.72026953125,30.26917578125,26.77601953125
-14.5159375,2.23937109375,-7.04356640625,43.376265625,-8.87257421875,-9.30596875,31.44649609375,49.26987109375,25.196359375,9.436109375,4.64508984375,22.48148046875,54.75832421875,34.9893046875,2.9511171875,0.892613281250002,39.2330625,14.7324765625,-7.72565234375,-1.669171875,-3.75498828125,29.2888671875,10.04970703125,0.52698828125,31.2984296875,36.63617578125,18.71382421875,54.61426953125,33.69917578125,30.94501953125
-12.4309375,5.66037109375,-3.72156640625,45.536265625,-6.25557421875,-6.24996875,30.14049609375,49.54987109375,27.308359375,14.308109375,6.08908984375,19.13548046875,54.97732421875,40.2583046875,7.9411171875,2.32161328125,39.5190625,18.5164765625,-2.12765234375,2.135828125,-3.18498828125,34.4348671875,16.16470703125,6.07898828125,34.6844296875,39.33017578125,23.31682421875,57.91726953125,35.78517578125,33.66801953125
-13.2769375,7.25537109375,-2.16756640625,48.448265625,-3.65057421875,-3.26796875,30.41649609375,48.57787109375,30.234359375,17.710109375,6.93708984375,16.19648046875,56.74232421875,42.6253046875,11.3791171875,2.55361328125,38.3600625,21.2504765625,1.33434765625,4.035828125,-3.91698828125,38.1858671875,20.44370703125,9.15998828125,35.7084296875,39.98617578125,25.89982421875,59.04826953125,36.26917578125,34.62701953125
-16.2339375,7.09737109375,-2.05456640625,51.644265625,-0.656574218749999,-0.200968749999998,32.54749609375,47.24587109375,33.767359375,19.717109375,7.68908984375,14.57148046875,59.58232421875,42.5193046875,13.2691171875,2.25961328125,36.3200625,22.7514765625,2.67634765625,4.302828125,-5.12998828125,39.7828671875,22.63170703125,9.85598828125,34.8914296875,38.97717578125,26.61082421875,58.46326953125,35.65517578125,34.27601953125
-19.7799375,5.77137109375,-2.93356640625,54.730265625,2.77842578125,2.91103125,36.15749609375,46.25787109375,37.307359375,20.731109375,8.78608984375,14.68448046875,62.71332421875,41.1453046875,13.9781171875,2.29861328125,34.3620625,23.1514765625,2.54434765625,3.695828125,-5.89498828125,39.3498671875,23.20970703125,9.02998828125,33.3634296875,37.20817578125,26.27982421875,57.36426953125,34.89517578125,33.53401953125
-22.3359375,4.02437109375,-4.42956640625,57.437265625,6.17342578125,5.75503125,40.46749609375,45.81387109375,40.138359375,21.187109375,10.45108984375,16.35448046875,65.37532421875,39.7783046875,14.0101171875,3.36661328125,33.3250625,22.7654765625,1.81534765625,3.097828125,-5.63798828125,37.6888671875,23.01770703125,7.84398828125,32.2884296875,35.63817578125,25.91782421875,57.00926953125,34.85717578125,33.27301953125
-22.8929375,2.45337109375,-6.28156640625,59.564265625,8.69742578125,7.87103125,44.63249609375,45.65687109375,41.721359375,21.364109375,12.60808984375,18.95848046875,67.09232421875,39.1763046875,13.8051171875,5.70861328125,33.5360625,21.9294765625,1.21034765625,3.162828125,-4.35898828125,35.8088671875,22.81270703125,7.25698828125,32.3844296875,34.90417578125,26.24482421875,58.08526953125,35.93517578125,33.95301953125
-21.3819375,1.36837109375,-8.23456640625,60.897265625,9.61542578125,8.86103125,47.95849609375,45.32187109375,41.865359375,21.339109375,14.89408984375,21.78748046875,67.71132421875,39.3993046875,13.6191171875,8.97961328125,34.7670625,20.8844765625,1.08234765625,4.109828125,-2.51598828125,34.4628671875,22.98070703125,7.71998828125,33.7364296875,35.20417578125,27.44882421875,60.45326953125,37.97117578125,35.54601953125
-18.6289375,0.82337109375,-9.90956640625,61.191265625,8.65842578125,8.53403125,49.93849609375,44.42187109375,40.744359375,21.032109375,16.71808984375,24.30348046875,67.22932421875,39.9463046875,13.4881171875,12.30661328125,36.4510625,19.7074765625,1.37034765625,5.688828125,-0.72898828125,33.8908671875,23.45570703125,9.12398828125,35.8964296875,36.36717578125,29.20582421875,63.29626953125,40.42417578125,37.65701953125
-15.9259375,0.702371093749999,-10.83356640625,60.255265625,6.06942578125,6.90903125,50.17749609375,42.85287109375,38.749359375,20.217109375,17.37608984375,26.16348046875,65.61332421875,40.0413046875,13.2071171875,14.58061328125,37.9700625,18.2664765625,1.67034765625,7.277828125,0.483011718750001,33.8168671875,23.79370703125,10.90498828125,38.1154296875,37.98017578125,30.84882421875,65.50626953125,42.57617578125,39.69801953125
-14.4449375,0.78737109375,-10.66956640625,58.060265625,2.31042578125,4.12503125,48.40649609375,40.84887109375,36.201359375,18.534109375,16.24308984375,27.10648046875,62.76732421875,38.9023046875,12.3871171875,14.89361328125,38.8960625,16.2574765625,1.38134765625,8.106828125,0.832011718750001,33.6508671875,23.36170703125,12.26198828125,39.6284296875,39.52817578125,31.63482421875,66.12826953125,43.75317578125,41.06201953125
-14.7819375,0.83637109375,-9.47756640625,54.740265625,-2.25657421875,0.368031250000001,44.68449609375,38.84687109375,33.144359375,15.622109375,13.10008984375,26.94248046875,58.63932421875,35.9963046875,10.6371171875,12.99361328125,39.1590625,13.3674765625,-0.0496523437500009,7.584828125,0.304011718750001,32.8058671875,21.62770703125,12.46598828125,39.9264296875,40.58417578125,31.05682421875,64.76126953125,43.55017578125,41.34401953125
-16.7919375,0.67837109375,-7.78056640625,50.523265625,-7.40157421875,-4.06696875,39.70849609375,37.30087109375,29.432359375,11.401109375,8.43508984375,25.74948046875,53.36032421875,31.2913046875,7.8321171875,9.48961328125,39.0690625,9.5374765625,-2.82065234375,5.596828125,-0.85398828125,31.0158671875,18.47570703125,11.16598828125,38.9524296875,40.97717578125,29.12182421875,61.78826953125,42.03817578125,40.53801953125
-19.6929375,0.314371093749999,-6.31356640625,45.690265625,-12.77057421875,-8.65496875,34.91249609375,36.56987109375,25.079359375,6.314109375,3.44608984375,24.04548046875,47.34532421875,25.4173046875,4.2901171875,5.62361328125,39.1560625,5.1954765625,-6.59765234375,2.564828125,-2.23598828125,28.5218671875,14.37770703125,8.54798828125,37.0854296875,40.83517578125,26.38882421875,58.30826953125,39.80217578125,39.09101953125
-22.4299375,-0.098628906250001,-5.63756640625,40.580265625,-17.67957421875,-12.69796875,31.96649609375,36.84387109375,20.504359375,1.269109375,-0.45491015625,22.61748046875,41.32332421875,19.5693046875,0.651117187499999,2.64261328125,39.8190625,1.2094765625,-10.60465234375,-0.814171875,-3.48598828125,26.0248671875,10.27070703125,5.21898828125,34.8874296875,40.42817578125,23.70982421875,55.68326953125,37.68217578125,37.67501953125
-24.1749375,-0.387628906250001,-5.86456640625,35.590265625,-21.27857421875,-15.68296875,31.81249609375,38.01287109375,16.354359375,-2.790890625,-2.44991015625,22.02748046875,36.28232421875,15.0563046875,-2.5318828125,1.09361328125,40.9950625,-1.4825234375,-14.01065234375,-4.037171875,-4.54598828125,24.3788671875,7.13470703125,1.85098828125,32.7344296875,39.88917578125,21.75382421875,54.86226953125,36.31317578125,36.78701953125
-24.7169375,-0.541628906250001,-6.68356640625,31.139265625,-23.05257421875,-17.71096875,33.85749609375,39.54187109375,13.047359375,-5.432890625,-2.86591015625,22.14848046875,33.22732421875,12.7023046875,-5.1868828125,0.499613281250001,42.0910625,-2.3635234375,-16.38365234375,-7.099171875,-5.74698828125,24.1598671875,5.51770703125,-1.16901171875,30.5994296875,39.06017578125,20.62382421875,55.84626953125,35.74817578125,36.44001953125
-24.4569375,-0.787628906250001,-7.62456640625,27.654265625,-23.24457421875,-19.55396875,36.07149609375,40.56587109375,10.477359375,-7.002890625,-3.03091015625,22.16048046875,32.78532421875,12.4413046875,-7.7808828125,-0.303386718749998,42.2820625,-1.6225234375,-17.89065234375,-10.402171875,-7.61398828125,25.3588671875,5.28470703125,-3.85401171875,28.1674296875,37.58617578125,19.84882421875,57.66726953125,35.46917578125,36.18401953125
-24.0229375,-1.50162890625,-8.40156640625,25.552265625,-22.86157421875,-22.23096875,36.00449609375,40.24087109375,8.175359375,-8.425890625,-4.48191015625,21.01048046875,34.88832421875,13.3583046875,-10.9608828125,-2.38538671875,40.9980625,-0.0445234375000001,-19.13065234375,-14.321171875,-10.45998828125,27.3558671875,5.73870703125,-6.44001171875,25.1964296875,35.22717578125,18.75382421875,58.90826953125,34.76317578125,35.44101953125
-23.8799375,-3.01862890625,-9.13056640625,25.095265625,-23.20457421875,-26.37496875,32.09249609375,38.12487109375,5.765359375,-10.651890625,-8.05491015625,18.03248046875,38.74332421875,14.1113046875,-15.0578828125,-6.02138671875,38.2840625,1.3664765625,-20.74465234375,-18.774171875,-14.05598828125,29.1868671875,6.00070703125,-9.09201171875,21.8364296875,32.13517578125,16.93482421875,58.42526953125,33.20117578125,33.88601953125
-24.2429375,-5.46062890625,-10.26356640625,26.162265625,-25.20057421875,-31.84496875,24.44649609375,34.32987109375,3.296359375,-14.116890625,-13.44091015625,13.33048046875,43.16132421875,13.4723046875,-19.8018828125,-10.53638671875,34.8240625,1.8004765625,-23.06965234375,-23.144171875,-17.62998828125,29.9588671875,5.38970703125,-11.72401171875,18.6544296875,28.88217578125,14.52182421875,55.87126953125,30.89917578125,31.62901953125
-25.2049375,-8.65262890625,-12.23656640625,28.121265625,-28.91257421875,-37.75596875,14.79649609375,29.47987109375,1.161359375,-18.515890625,-19.39791015625,7.80448046875,47.02332421875,10.7893046875,-24.4218828125,-14.74038671875,31.6180625,0.8574765625,-26.02765234375,-26.579171875,-20.21198828125,29.1638671875,3.63570703125,-14.05701171875,16.3384296875,26.20617578125,12.06682421875,51.77426953125,28.41017578125,29.10001953125
-26.8339375,-12.12762890625,-15.03156640625,30.000265625,-33.48057421875,-42.82596875,5.77749609375,24.57787109375,-0.296640624999998,-22.949890625,-24.36291015625,2.88448046875,49.57532421875,6.2273046875,-28.0188828125,-17.58538671875,29.5360625,-1.4345234375,-29.22565234375,-28.437171875,-21.10698828125,26.7818671875,0.87470703125,-15.79101171875,15.3194296875,24.65517578125,10.18782421875,47.20526953125,26.37717578125,26.80701953125
-29.1179375,-15.21362890625,-17.97956640625,30.885265625,-37.53157421875,-45.83096875,-0.056503906249997,20.78187109375,-1.116640625,-26.321890625,-27.06391015625,0.0784804687499996,50.45632421875,0.756304687500002,-29.9288828125,-18.57738671875,28.9960625,-4.7185234375,-32.13965234375,-28.542171875,-20.17998828125,23.1748671875,-2.47329296875,-16.74501171875,15.5694296875,24.38117578125,9.21982421875,43.23626953125,25.18617578125,25.12101953125
-31.8519375,-17.22062890625,-20.05656640625,30.309265625,-39.80257421875,-46.00896875,-1.10350390625,19.04387109375,-1.646640625,-27.730890625,-26.86391015625,0.431480468749999,49.59732421875,-4.1586953125,-29.9058828125,-17.78738671875,29.9260625,-8.4095234375,-34.26065234375,-27.150171875,-17.82998828125,18.8938671875,-5.84029296875,-16.87901171875,16.6864296875,25.15817578125,9.09782421875,40.51026953125,24.82517578125,24.21801953125
-34.5849375,-17.67562890625,-20.51656640625,28.459265625,-39.58657421875,-43.25796875,2.81349609375,19.77687109375,-2.129640625,-26.714890625,-23.79991015625,4.09548046875,47.17732421875,-7.0666953125,-28.0728828125,-15.57738671875,31.9230625,-11.7585234375,-35.17065234375,-24.712171875,-14.72398828125,14.5428671875,-8.61729296875,-16.21101171875,18.1674296875,26.58017578125,9.49682421875,39.08226953125,24.99117578125,24.11601953125
-36.6429375,-16.50962890625,-19.39156640625,26.159265625,-36.82457421875,-38.09496875,10.50649609375,22.73287109375,-2.331640625,-23.299890625,-18.46891015625,10.24848046875,43.68732421875,-7.0156953125,-24.7638828125,-12.35738671875,34.4780625,-13.9455234375,-34.56565234375,-21.659171875,-11.49898828125,10.7108671875,-10.22829296875,-14.75501171875,19.6494296875,28.25617578125,10.09482421875,38.57626953125,25.33117578125,24.73301953125
-37.2939375,-14.08962890625,-17.45056640625,24.601265625,-31.91657421875,-31.43996875,19.89949609375,27.12787109375,-1.642640625,-17.919890625,-11.84991015625,17.42548046875,39.97532421875,-3.8116953125,-20.3958828125,-8.53738671875,37.1080625,-14.2455234375,-32.30565234375,-18.337171875,-8.59798828125,7.9408671875,-10.22129296875,-12.52701171875,20.9914296875,29.90917578125,10.76482421875,38.50626953125,25.64817578125,25.90701953125
-36.0299375,-11.07662890625,-15.65656640625,24.869265625,-25.49157421875,-24.37396875,28.67649609375,31.83787109375,0.477359374999999,-11.299890625,-5.11091015625,24.04748046875,37.13032421875,2.0113046875,-15.4328828125,-4.61238671875,39.4030625,-12.2425234375,-28.47865234375,-15.053171875,-6.28498828125,6.6848671875,-8.36829296875,-9.61801171875,22.1834296875,31.35917578125,11.59882421875,38.57226953125,25.96917578125,27.37401953125
-32.8679375,-8.18862890625,-14.53256640625,27.441265625,-18.24257421875,-17.93196875,34.89949609375,35.64687109375,4.178359375,-4.302890625,0.63908984375,28.85148046875,36.18232421875,9.4233046875,-10.3948828125,-1.17438671875,41.0110625,-8.0155234375,-23.45565234375,-12.110171875,-4.72798828125,7.2068671875,-4.76029296875,-6.27201171875,23.2154296875,32.46317578125,12.76782421875,38.80226953125,26.47317578125,28.80901953125
-28.4279375,-5.96262890625,-13.89856640625,31.968265625,-10.84457421875,-12.87996875,37.48949609375,37.59987109375,9.298359375,2.238109375,4.62708984375,31.12748046875,37.74232421875,17.2333046875,-5.8178828125,1.24161328125,41.6500625,-2.1635234375,-17.86965234375,-9.762171875,-4.05298828125,9.4938671875,0.15870703125,-2.88201171875,24.0224296875,33.09917578125,14.34982421875,39.49426953125,27.34317578125,29.92501953125
-23.7319375,-4.61462890625,-13.11256640625,37.435265625,-3.95057421875,-9.55096875,36.42649609375,37.32987109375,15.568359375,7.662109375,6.60008984375,30.78548046875,41.74532421875,24.3513046875,-2.1728828125,2.36361328125,41.1290625,4.3454765625,-12.49965234375,-8.141171875,-4.32198828125,13.2288671875,5.63870703125,0.07898828125,24.4894296875,33.17917578125,16.21182421875,40.96226953125,28.60617578125,30.57501953125
-19.8429375,-4.05562890625,-11.62756640625,42.575265625,1.72042578125,-7.86396875,32.60049609375,35.14387109375,22.521359375,11.507109375,6.79708984375,28.26648046875,47.42332421875,29.8933046875,0.201117187499996,2.26761328125,39.3820625,10.4254765625,-8.15165234375,-7.273171875,-5.51798828125,17.8438671875,10.73170703125,2.13098828125,24.4834296875,32.65117578125,17.95382421875,43.22926953125,30.00317578125,30.73801953125
-17.5329375,-4.03262890625,-9.47556640625,46.271265625,5.31142578125,-7.53896875,27.35849609375,31.78987109375,29.207359375,13.429109375,5.71508984375,24.34448046875,53.51132421875,33.1533046875,1.0901171875,1.25861328125,36.4860625,15.0874765625,-5.54165234375,-7.171171875,-7.54198828125,22.6268671875,14.46870703125,2.84498828125,23.8654296875,31.47917578125,18.96482421875,45.83226953125,30.98717578125,30.38001953125
-17.0949375,-4.30562890625,-7.32356640625,47.830265625,5.97742578125,-8.31196875,22.03549609375,28.17287109375,34.185359375,13.170109375,3.82908984375,19.91448046875,58.59332421875,33.6303046875,0.384117187499999,-0.327386718749999,32.6870625,17.6124765625,-5.17865234375,-7.929171875,-10.21998828125,26.8308671875,16.07370703125,1.90998828125,22.5274296875,29.63217578125,18.58782421875,47.91626953125,30.88917578125,29.36001953125
-18.3399375,-4.74762890625,-6.10856640625,47.120265625,3.31342578125,-9.97596875,17.67649609375,25.18587109375,36.067359375,10.679109375,1.43108984375,15.85048046875,61.51232421875,31.2073046875,-1.8988828125,-2.26838671875,28.4120625,17.6764765625,-7.21365234375,-9.685171875,-13.28098828125,29.7468671875,15.19370703125,-0.76001171875,20.4674296875,27.17317578125,16.39482421875,48.59326953125,29.21517578125,27.48401953125
-20.7799375,-5.36562890625,-6.53956640625,44.570265625,-2.17157421875,-12.26496875,14.95049609375,23.58087109375,34.287359375,6.326109375,-1.32691015625,12.88148046875,61.74632421875,26.3973046875,-5.5248828125,-4.46438671875,24.2570625,15.4234765625,-11.32065234375,-12.474171875,-16.35198828125,30.7868671875,12.03370703125,-4.92501171875,17.8604296875,24.36417578125,12.41682421875,47.33826953125,25.90217578125,24.70201953125
-23.9099375,-6.25062890625,-8.82856640625,41.013265625,-8.92057421875,-14.75196875,14.16849609375,23.73087109375,29.495359375,1.028109375,-4.25591015625,11.41748046875,59.63732421875,20.3903046875,-9.9808828125,-6.82738671875,20.8970625,11.4594765625,-16.69565234375,-16.067171875,-18.99798828125,29.5868671875,7.30770703125,-10.00501171875,15.0484296875,21.68417578125,7.19782421875,44.20326953125,21.39617578125,21.24901953125
-27.3549375,-7.49062890625,-12.68156640625,37.439265625,-14.73557421875,-16.82696875,15.36149609375,25.44187109375,23.321359375,-3.882890625,-6.93591015625,11.41748046875,56.31632421875,14.8013046875,-14.4548828125,-9.11138671875,18.9250625,6.7524765625,-22.19565234375,-19.901171875,-20.81198828125,26.1518671875,2.04370703125,-15.16001171875,12.4544296875,19.69417578125,1.64982421875,39.76726953125,16.50517578125,17.62301953125
-30.7689375,-9.05562890625,-17.42856640625,34.786265625,-17.56257421875,-17.78496875,18.37549609375,28.03087109375,17.719359375,-7.020890625,-8.67291015625,12.44548046875,53.28532421875,11.1953046875,-17.9328828125,-10.80238671875,18.6940625,2.4264765625,-26.58565234375,-23.137171875,-21.46898828125,20.9628671875,-2.67129296875,-19.45001171875,10.4884296875,18.81617578125,-3.21617578125,34.91926953125,12.13817578125,14.42201953125
-33.6459375,-10.71562890625,-22.10056640625,33.773265625,-16.33557421875,-17.03096875,22.87649609375,30.64087109375,14.292359375,-7.414890625,-8.70191015625,13.96048046875,51.77232421875,10.5883046875,-19.4128828125,-11.18838671875,20.2080625,-0.5095234375,-28.81965234375,-24.861171875,-20.75798828125,14.9268671875,-5.92629296875,-22.01501171875,9.4864296875,19.17217578125,-6.54817578125,30.57626953125,9.04917578125,12.14601953125
-35.2939375,-12.08462890625,-25.53456640625,34.718265625,-11.48757421875,-14.39896875,28.19649609375,32.53187109375,13.851359375,-4.893890625,-6.59991015625,15.61548046875,52.17032421875,13.0843046875,-18.2578828125,-9.67638671875,23.1030625,-1.4635234375,-28.34365234375,-24.387171875,-18.64398828125,9.1268671875,-7.18729296875,-22.29401171875,9.6574296875,20.53217578125,-7.87417578125,27.40926953125,7.65617578125,11.04101953125
-35.1069375,-12.78762890625,-26.62256640625,37.379265625,-4.84357421875,-10.39996875,33.20549609375,33.25487109375,16.269359375,-0.210890624999999,-2.66691015625,17.36148046875,53.89732421875,17.8223046875,-14.5258828125,-6.21438671875,26.6940625,-0.4695234375,-25.29765234375,-21.568171875,-15.37598828125,4.4508671875,-6.43229296875,-20.22001171875,10.9924296875,22.37717578125,-7.22417578125,25.64326953125,7.92917578125,11.01701953125
-32.9389375,-12.66462890625,-24.74856640625,40.955265625,1.13942578125,-6.14996875,36.47249609375,32.75687109375,20.619359375,5.203109375,2.01508984375,19.27748046875,55.76932421875,23.2683046875,-9.0898828125,-1.54438671875,30.0910625,1.8204765625,-20.52365234375,-16.957171875,-11.57298828125,1.3118671875,-4.16229296875,-16.31701171875,13.1874296875,24.02717578125,-5.11417578125,25.00326953125,9.40517578125,11.68801953125
-29.3309375,-11.85562890625,-20.17956640625,44.330265625,4.44242578125,-2.92496875,36.81549609375,31.42487109375,25.517359375,9.780109375,5.96608984375,21.32548046875,56.63732421875,27.7933046875,-3.3918828125,2.94261328125,32.3640625,4.4054765625,-15.30965234375,-11.699171875,-8.14898828125,-0.404132812499999,-1.22129296875,-11.58101171875,15.6684296875,24.83617578125,-2.35017578125,24.90026953125,11.35417578125,12.53101953125
-25.4279375,-10.68962890625,-14.10756640625,46.449265625,4.32342578125,-1.59596875,33.93749609375,29.97187109375,29.539359375,12.418109375,7.95808984375,23.20248046875,55.90432421875,30.2763046875,1.0751171875,5.76361328125,32.7610625,6.3424765625,-10.94365234375,-7.132171875,-6.04498828125,-1.1141328125,1.53270703125,-7.15101171875,17.7714296875,24.39617578125,0.272824218750001,24.78426953125,13.06417578125,13.13101953125
-22.5649375,-9.45762890625,-8.21956640625,46.653265625,1.48742578125,-2.26796875,28.73849609375,29.13387109375,31.625359375,12.841109375,7.58608984375,24.40148046875,53.67732421875,30.4613046875,3.3301171875,6.04561328125,30.9320625,7.1104765625,-8.27765234375,-4.281171875,-5.86198828125,-1.1861328125,3.55470703125,-3.89801171875,18.9894296875,22.70517578125,2.26182421875,24.48126953125,14.13017578125,13.36601953125
-21.7219375,-8.23862890625,-4.01656640625,44.871265625,-2.43857421875,-4.28696875,23.03449609375,29.37887109375,31.317359375,11.549109375,5.41908984375,24.43248046875,50.58232421875,28.9223046875,3.2361171875,3.95861328125,27.1040625,6.7644765625,-7.48565234375,-3.507171875,-7.59098828125,-0.692132812499999,4.78370703125,-2.15001171875,19.1674296875,20.19417578125,3.54882421875,24.31826953125,14.58317578125,13.42201953125
-23.0999375,-6.92362890625,-2.28256640625,41.579265625,-5.78957421875,-6.60796875,18.81149609375,30.72287109375,28.777359375,9.434109375,2.64308984375,23.10048046875,47.41432421875,26.6923046875,1.4171171875,0.588613281250002,22.1020625,5.8024765625,-8.13965234375,-4.472171875,-10.58598828125,0.571867187500001,5.55170703125,-1.66501171875,18.5304296875,17.60917578125,4.41982421875,24.92826953125,14.80717578125,13.65901953125
-26.0689375,-5.41962890625,-2.96656640625,37.533265625,-7.66257421875,-8.36296875,17.36149609375,32.69487109375,24.601359375,7.273109375,0.41108984375,20.65848046875,44.82032421875,24.7203046875,-1.1598828125,-2.68038671875,17.1560625,4.8274765625,-9.53965234375,-6.442171875,-13.79798828125,2.8208671875,6.30170703125,-1.86901171875,17.5354296875,15.77617578125,5.30282421875,26.86026953125,15.31717578125,14.40601953125
-29.4679375,-3.88962890625,-5.43956640625,33.413265625,-8.26557421875,-9.33396875,18.68349609375,34.43287109375,19.586359375,5.347109375,-0.76491015625,17.71648046875,43.10332421875,23.3953046875,-3.7238828125,-4.89238671875,13.5170625,4.1954765625,-11.13065234375,-8.707171875,-16.17998828125,5.9648671875,7.24970703125,-2.20901171875,16.6294296875,15.33917578125,6.50382421875,30.20026953125,16.50217578125,15.79601953125
-32.0959375,-2.82662890625,-8.86856640625,29.606265625,-8.66557421875,-10.07096875,21.43949609375,34.95987109375,14.588359375,3.370109375,-1.24791015625,14.91948046875,42.22732421875,22.3623046875,-6.0668828125,-5.90538671875,12.0280625,3.8254765625,-12.78265234375,-10.893171875,-17.05698828125,9.4578671875,8.18670703125,-2.46301171875,16.0404296875,16.53717578125,7.99682421875,34.37926953125,18.41317578125,17.69001953125
-33.1719375,-2.87162890625,-12.48356640625,26.263265625,-10.12557421875,-11.55096875,23.51249609375,33.61087109375,10.417359375,0.726109375,-2.04491015625,12.65648046875,41.93732421875,20.7233046875,-8.5458828125,-6.26838671875,12.8500625,3.2664765625,-14.79365234375,-13.006171875,-16.32398828125,12.4128671875,8.53770703125,-2.84501171875,15.6874296875,19.09717578125,9.34982421875,38.27326953125,20.66517578125,19.67001953125
-32.6029375,-4.44962890625,-15.66256640625,23.498265625,-13.41357421875,-14.57196875,22.95449609375,30.34887109375,7.658359375,-3.096890625,-4.20191015625,11.01348046875,41.89732421875,17.6213046875,-11.7258828125,-6.73638671875,15.4470625,1.9924765625,-17.60365234375,-15.222171875,-14.38698828125,13.9288671875,7.66970703125,-3.81801171875,15.2804296875,22.30217578125,9.89382421875,40.57026953125,22.54917578125,21.14801953125
-30.9489375,-7.41262890625,-17.93256640625,21.518265625,-18.40057421875,-19.21696875,18.90349609375,25.81187109375,6.435359375,-8.074890625,-8.14091015625,9.96848046875,41.77532421875,12.8943046875,-15.8638828125,-7.72938671875,18.8780625,-0.2165234375,-21.36865234375,-17.565171875,-11.88998828125,13.4758671875,5.31570703125,-5.70401171875,14.5714296875,25.26917578125,9.09182421875,40.32126953125,23.34517578125,21.59101953125
-29.1419375,-10.96362890625,-18.97256640625,20.574265625,-24.05857421875,-24.67696875,12.05549609375,21.11487109375,6.375359375,-13.466890625,-13.29391015625,9.60548046875,41.30332421875,7.4033046875,-20.5458828125,-9.06438671875,22.2440625,-3.0445234375,-25.64865234375,-19.688171875,-9.38198828125,11.1628671875,1.85970703125,-8.32901171875,13.6104296875,27.31917578125,6.93482421875,37.40726953125,22.72817578125,20.82201953125
-28.1059375,-13.93262890625,-18.67656640625,20.790265625,-28.81257421875,-29.46796875,4.48449609375,17.55187109375,6.911359375,-17.985890625,-18.24491015625,10.15548046875,40.36132421875,2.7333046875,-24.7118828125,-10.06338671875,25.0450625,-5.6995234375,-29.44765234375,-20.916171875,-7.09198828125,7.7248671875,-1.70529296875,-10.94401171875,12.8294296875,28.25217578125,4.09182421875,32.68626953125,21.00117578125,19.19901953125
-28.4489375,-15.28162890625,-17.18556640625,21.980265625,-31.11157421875,-31.99296875,-1.15350390625,16.23087109375,7.698359375,-20.269890625,-21.31491015625,11.85848046875,39.04232421875,0.427304687500001,-27.0788828125,-9.92738671875,27.2450625,-7.2615234375,-31.59465234375,-20.559171875,-4.91698828125,4.2338671875,-4.17329296875,-12.52501171875,12.8554296875,28.35617578125,1.68882421875,27.67826953125,18.99317578125,17.51701953125
-30.2819375,-14.55462890625,-14.84256640625,23.621265625,-30.06557421875,-31.21196875,-2.67550390625,17.66087109375,8.744359375,-19.450890625,-21.28991015625,14.80848046875,37.64232421875,1.2283046875,-26.7448828125,-8.16338671875,29.0350625,-7.1425234375,-31.28165234375,-18.306171875,-2.60798828125,1.6718671875,-4.66729296875,-12.27101171875,14.1694296875,28.15417578125,0.80082421875,23.93426953125,17.64917578125,16.63301953125
-33.1569375,-12.04162890625,-12.12256640625,25.029265625,-25.88457421875,-27.10896875,0.788496093750002,21.48087109375,10.208359375,-15.541890625,-17.93591015625,18.85448046875,36.53432421875,4.7643046875,-23.6278828125,-4.82338671875,30.4990625,-5.3825234375,-28.44665234375,-14.459171875,-0.0539882812499997,0.573867187499999,-3.02129296875,-10.02301171875,16.7864296875,28.06717578125,1.94382421875,22.39126953125,17.57017578125,17.03601953125
-36.1459375,-8.62562890625,-9.59556640625,25.704265625,-19.86457421875,-20.70396875,8.51749609375,26.53187109375,12.136359375,-9.460890625,-12.06491015625,23.55048046875,36.01332421875,9.7913046875,-18.5208828125,-0.492386718749998,31.4130625,-2.6105234375,-23.80965234375,-9.882171875,2.50401171875,0.915867187500002,0.18470703125,-6.35401171875,20.1424296875,28.16917578125,4.82782421875,23.05926953125,18.73017578125,18.59901953125
-38.1219375,-5.39662890625,-7.88256640625,25.587265625,-13.84157421875,-13.63196875,18.48949609375,31.25987109375,14.398359375,-2.683890625,-5.17691015625,28.11248046875,36.19232421875,14.8043046875,-12.7568828125,3.91261328125,31.3190625,0.3024765625,-18.54665234375,-5.678171875,4.43401171875,2.2728671875,3.93970703125,-2.30301171875,23.2584296875,28.16217578125,8.52382421875,25.19926953125,20.56117578125,20.67401953125
-38.2139375,-3.21362890625,-7.49956640625,25.019265625,-9.38157421875,-7.54796875,28.01349609375,34.26087109375,16.753359375,3.322109375,1.09608984375,31.44548046875,36.97632421875,18.6773046875,-7.6768828125,7.41761328125,29.7940625,2.6924765625,-13.79665234375,-2.784171875,4.92001171875,4.1028671875,7.28370703125,1.09198828125,25.1014296875,27.56217578125,11.91382421875,27.82426953125,22.29317578125,22.41201953125
-36.2499375,-2.41662890625,-8.60656640625,24.432265625,-7.16357421875,-3.64996875,34.45549609375,34.72787109375,18.887359375,7.574109375,5.47708984375,32.34948046875,38.08632421875,20.9953046875,-4.2108828125,9.21361328125,26.7470625,4.3444765625,-10.29265234375,-1.688171875,3.32301171875,5.9458671875,9.65370703125,3.18098828125,24.9624296875,25.95717578125,14.13782421875,30.14226953125,23.30117578125,23.12001953125
-32.9299375,-2.82762890625,-10.83756640625,24.036265625,-6.87957421875,-2.44096875,35.94949609375,32.68687109375,20.376359375,9.742109375,7.29708984375,29.98448046875,39.14332421875,21.9483046875,-2.7288828125,8.79961328125,22.5490625,5.3854765625,-8.29765234375,-2.409171875,-0.49198828125,7.4278671875,10.88570703125,3.79698828125,22.6714296875,23.20417578125,14.78882421875,31.65426953125,23.23517578125,22.45401953125
-29.6129375,-3.98862890625,-13.40356640625,23.720265625,-7.64557421875,-3.71396875,31.98149609375,28.93287109375,20.740359375,10.018109375,6.55008984375,24.38248046875,39.79532421875,21.9433046875,-3.1328828125,6.09461328125,17.9560625,5.9744765625,-7.78465234375,-4.636171875,-5.99098828125,8.1688671875,10.99670703125,3.10998828125,18.6154296875,19.53117578125,13.85582421875,31.98126953125,21.95917578125,20.44101953125
-27.7889375,-5.44762890625,-15.45756640625,23.212265625,-8.57657421875,-6.66196875,23.68049609375,24.70087109375,19.669359375,8.882109375,3.85508984375,16.75048046875,39.85732421875,21.2633046875,-5.0148828125,1.55361328125,13.9380625,6.0914765625,-8.60065234375,-7.865171875,-12.01298828125,7.8048671875,10.00670703125,1.43798828125,13.6564296875,15.56017578125,11.59782421875,30.76926953125,19.52617578125,17.43901953125
-28.4249375,-6.90262890625,-16.47256640625,22.347265625,-9.16057421875,-10.09796875,13.57749609375,21.23187109375,17.348359375,6.947109375,0.323089843749999,9.26048046875,39.38532421875,20.0163046875,-7.7528828125,-3.77838671875,11.4630625,5.5964765625,-10.47165234375,-11.452171875,-17.01698828125,6.1808671875,7.99670703125,-0.820011718749999,8.9664296875,12.22317578125,8.51282421875,27.89126953125,16.27117578125,14.07601953125
-31.4569375,-8.20462890625,-16.39756640625,21.263265625,-9.30257421875,-12.76996875,4.76549609375,19.43287109375,14.599359375,4.847109375,-2.76691015625,4.31948046875,38.63232421875,18.2883046875,-10.6308828125,-8.47338671875,11.2470625,4.4744765625,-12.93765234375,-14.677171875,-19.53498828125,3.5648671875,5.27670703125,-3.19001171875,5.7454296875,10.49817578125,5.32882421875,23.74726953125,12.87817578125,11.13401953125
-35.7329375,-9.31362890625,-15.54556640625,20.332265625,-9.19857421875,-13.79496875,-0.32350390625,19.69187109375,12.602359375,3.070109375,-4.50191015625,3.56148046875,37.90332421875,16.2583046875,-13.0618828125,-11.27938671875,13.4510625,2.9634765625,-15.40765234375,-16.955171875,-18.74598828125,0.634867187499999,2.42370703125,-5.20701171875,4.7934296875,10.97117578125,2.84182421875,19.28226953125,10.19917578125,9.27701953125
-39.5669375,-10.28762890625,-14.38056640625,19.847265625,-9.17757421875,-13.04396875,-0.91650390625,21.75087109375,12.252359375,1.781109375,-4.77891015625,7.06648046875,37.38332421875,14.1463046875,-14.8318828125,-11.75538671875,17.4890625,1.4574765625,-17.38565234375,-18.091171875,-14.91798828125,-1.8161328125,0.0487070312500001,-6.58501171875,6.1284296875,13.47317578125,1.61282421875,15.59126953125,8.85017578125,8.75401953125
-41.6259375,-11.24662890625,-13.36956640625,19.727265625,-9.52657421875,-11.18696875,1.99049609375,24.70987109375,13.608359375,0.825109375,-4.25791015625,13.28148046875,37.04632421875,12.1003046875,-16.1288828125,-10.47838671875,22.1490625,0.2804765625,-18.67665234375,-18.326171875,-9.38898828125,-3.2571328125,-1.48629296875,-7.29901171875,8.9484296875,17.04717578125,1.71682421875,13.36926953125,8.88017578125,9.28101953125
-41.5269375,-12.24062890625,-12.89556640625,19.552265625,-10.26357421875,-9.22696875,6.53349609375,27.34087109375,15.888359375,0.0111093750000002,-3.76991015625,19.78248046875,36.68932421875,10.2273046875,-17.1938828125,-8.55238671875,26.0530625,-0.4175234375,-19.31565234375,-18.037171875,-3.98898828125,-3.6081328125,-2.16129296875,-7.43601171875,12.0414296875,20.34417578125,2.77782421875,12.67926953125,9.81717578125,10.24501953125
-39.7659375,-13.09062890625,-13.16256640625,18.955265625,-10.98357421875,-7.77796875,11.20049609375,28.71187109375,18.073359375,-0.542890624999999,-3.59391015625,24.49548046875,36.08332421875,8.7723046875,-17.8638828125,-6.78538671875,28.2350625,-0.5855234375,-19.29965234375,-17.307171875,-0.19398828125,-3.1221328125,-2.12429296875,-6.94401171875,14.4184296875,22.21317578125,4.27782421875,13.15126953125,11.03317578125,11.08601953125
-37.1269375,-13.32862890625,-14.05956640625,18.010265625,-10.99557421875,-6.63296875,15.49649609375,28.72787109375,19.605359375,-0.293890625,-3.18691015625,26.64948046875,35.10032421875,8.2253046875,-17.4018828125,-5.17338671875,28.4900625,-0.1485234375,-18.36065234375,-15.759171875,1.45301171875,-2.1241328125,-1.45829296875,-5.51801171875,15.7194296875,22.12517578125,5.87082421875,14.35826953125,12.13017578125,11.55701953125
-34.1109375,-12.37962890625,-15.06856640625,17.245265625,-9.72757421875,-4.97596875,19.63949609375,28.14287109375,20.601359375,1.433109375,-1.57391015625,26.85348046875,33.76232421875,9.1973046875,-14.8548828125,-3.08738671875,27.3050625,0.9974765625,-16.05265234375,-12.826171875,1.34001171875,-0.811132812499999,-0.10629296875,-2.79301171875,16.1624296875,20.22217578125,7.48782421875,16.02226953125,13.04517578125,11.69801953125
-30.7919375,-9.88662890625,-15.34656640625,17.293265625,-7.13157421875,-2.07796875,23.76149609375,28.00287109375,21.481359375,4.946109375,1.89308984375,26.34648046875,32.19532421875,12.0393046875,-9.7408828125,0.0516132812500008,25.4130625,2.8384765625,-12.11965234375,-8.297171875,0.269011718750001,0.7488671875,1.98970703125,1.29398828125,16.1334296875,17.04117578125,9.18882421875,17.93926953125,13.86817578125,11.61601953125
-27.1089375,-6.00762890625,-14.02856640625,18.444265625,-3.79357421875,2.06003125,27.34149609375,28.92887109375,22.406359375,9.792109375,6.92608984375,26.00348046875,30.57232421875,16.4573046875,-2.6188828125,4.12961328125,23.2390625,5.1024765625,-6.88965234375,-2.739171875,-1.15698828125,2.5078671875,4.67770703125,6.22198828125,15.7864296875,13.16317578125,10.93782421875,19.80926953125,14.59817578125,11.31101953125
-23.2819375,-1.50162890625,-10.71756640625,20.417265625,-0.688574218749999,6.51703125,29.29249609375,30.64387109375,23.042359375,14.745109375,12.22408984375,25.75048046875,29.07732421875,21.3843046875,4.8591171875,8.15961328125,20.5720625,7.2684765625,-1.39265234375,2.507828125,-2.84098828125,4.3268671875,7.49870703125,10.93998828125,14.9244296875,9.03317578125,12.51482421875,21.19726953125,15.06817578125,10.71001953125
-20.0079375,2.46237109375,-5.90556640625,22.440265625,1.24242578125,9.78303125,28.51449609375,31.95987109375,22.810359375,18.200109375,15.95308984375,24.66248046875,27.88732421875,25.2443046875,10.4871171875,10.65361328125,16.6780625,8.7534765625,2.92434765625,5.786828125,-5.08598828125,5.9508671875,9.80870703125,14.24398828125,13.2184296875,5.01317578125,13.62282421875,21.71426953125,15.10617578125,9.85201953125
-18.2399375,4.70037109375,-1.01356640625,23.577265625,1.44242578125,10.38003125,24.43149609375,31.23287109375,21.336359375,18.790109375,16.49308984375,21.52548046875,27.12532421875,26.5473046875,12.3561171875,10.26661328125,10.7910625,9.1684765625,4.75634765625,5.779828125,-8.24898828125,7.0968671875,11.03970703125,15.28498828125,10.5244296875,1.54017578125,14.08382421875,21.23626953125,14.73617578125,9.03001953125
-18.6389375,4.46037109375,2.12343359375,23.168265625,-0.126574218749997,7.48703125,17.19849609375,27.14887109375,18.695359375,15.932109375,13.06308984375,15.47548046875,26.79532421875,24.5303046875,9.6101171875,6.34661328125,2.6600625,8.4514765625,3.48934765625,2.024828125,-12.44398828125,7.5568671875,10.94870703125,13.89898828125,7.0494296875,-0.844824218749999,13.94282421875,20.00126953125,14.23517578125,8.72101953125
-21.0829375,1.70137109375,2.08543359375,21.129265625,-3.12257421875,1.29003125,7.57849609375,19.44887109375,15.280359375,10.031109375,5.94108984375,6.42248046875,26.71132421875,19.4933046875,2.7251171875,-0.880386718749998,-7.1609375,6.8134765625,-0.578652343750001,-4.958171875,-17.46598828125,7.2668671875,9.67170703125,10.59898828125,3.2384296875,-1.68282421875,13.39382421875,18.48626953125,13.95817578125,9.29201953125
-24.5959375,-2.92762890625,-1.48356640625,17.906265625,-7.11957421875,-7.12996875,-3.33850390625,9.13687109375,11.506359375,2.268109375,-3.73791015625,-4.85351953125,26.50032421875,12.6293046875,-6.7608828125,-10.49638671875,-17.4069375,4.5594765625,-6.40965234375,-13.913171875,-22.91098828125,6.2898671875,7.59170703125,6.25898828125,-0.493570312500001,-0.88682421875,12.60482421875,17.16126953125,14.08017578125,10.69901953125
-27.8339375,-8.40062890625,-7.77456640625,14.138265625,-11.82457421875,-16.26596875,-14.36450390625,-1.93312890625,7.678359375,-5.890890625,-14.44291015625,-16.87551953125,25.70432421875,5.4343046875,-16.9038828125,-21.25438671875,-26.4609375,1.9464765625,-12.69065234375,-23.301171875,-28.31698828125,4.7608671875,5.11370703125,1.73198828125,-3.9725703125,1.09017578125,11.59982421875,16.26826953125,14.44517578125,12.39501953125
-29.7979375,-13.70062890625,-15.24656640625,10.314265625,-17.01257421875,-24.71096875,-24.31950390625,-11.76212890625,4.102359375,-13.176890625,-24.67791015625,-27.83551953125,24.01332421875,-0.8846953125,-26.0058828125,-31.87038671875,-32.7889375,-0.8425234375,-18.29265234375,-31.723171875,-33.21698828125,2.8568671875,2.51970703125,-2.39001171875,-7.2635703125,3.37417578125,10.28082421875,15.73226953125,14.62117578125,13.54201953125
-30.3359375,-18.07762890625,-22.27456640625,6.678265625,-22.26157421875,-31.44096875,-32.05950390625,-18.81112890625,1.193359375,-18.776890625,-33.22491015625,-36.03551953125,21.47032421875,-5.6906953125,-32.9838828125,-41.10738671875,-35.3309375,-3.5995234375,-22.51565234375,-38.164171875,-37.09598828125,0.801867187500001,-0.0322929687499999,-5.78701171875,-10.4565703125,5.03417578125,8.57182421875,15.23026953125,14.12717578125,13.42601953125
-30.1239375,-21.09962890625,-27.68756640625,3.355265625,-26.79857421875,-35.86096875,-36.55650390625,-22.37312890625,-0.640640625,-22.343890625,-39.18891015625,-40.26851953125,18.51432421875,-8.8456953125,-37.3998828125,-47.73638671875,-33.7599375,-6.0325234375,-25.11865234375,-42.051171875,-39.38398828125,-1.1251328125,-2.40129296875,-8.27901171875,-13.4105703125,5.50717578125,6.57082421875,14.39326953125,12.71017578125,11.84201953125
-30.1929375,-22.61462890625,-31.00956640625,0.496265625000007,-29.69857421875,-37.76596875,-37.11050390625,-22.65712890625,-1.273640625,-23.878890625,-41.99191015625,-40.02151953125,15.79932421875,-10.5026953125,-39.2988828125,-50.61938671875,-28.5409375,-7.8045234375,-26.19965234375,-43.195171875,-39.54498828125,-2.6301328125,-4.37729296875,-9.71301171875,-15.6455703125,4.84017578125,4.60782421875,13.01626953125,10.51517578125,9.23701953125
-31.2689375,-22.67662890625,-32.35256640625,-1.65673437499999,-30.32757421875,-37.30896875,-33.61550390625,-20.50912890625,-1.002640625,-23.611890625,-41.43691015625,-35.46151953125,13.88632421875,-10.9356953125,-39.0198828125,-49.02638671875,-20.7409375,-8.6665234375,-26.06665234375,-41.742171875,-37.28098828125,-3.4811328125,-5.68929296875,-9.97301171875,-16.5005703125,3.63717578125,3.14982421875,11.19226953125,8.07917578125,6.52301953125
-33.2979375,-21.49662890625,-32.06456640625,-2.82373437499999,-28.69957421875,-34.93196875,-26.74150390625,-16.82112890625,-0.368640625000001,-21.913890625,-37.79591015625,-27.33151953125,13.01832421875,-10.4436953125,-37.0558828125,-43.03038671875,-11.6529375,-8.5485234375,-25.10365234375,-38.132171875,-32.69398828125,-3.5761328125,-6.10729296875,-9.06201171875,-15.4525703125,2.73817578125,2.60182421875,9.30926953125,6.12617578125,4.66601953125
-35.4329375,-19.36862890625,-30.33556640625,-2.827734375,-25.51057421875,-31.25696875,-17.91450390625,-12.01612890625,0.168359375000001,-19.252890625,-31.85391015625,-16.84651953125,13.06432421875,-9.3166953125,-33.9628828125,-33.67038671875,-2.4439375,-7.5855234375,-23.67565234375,-33.064171875,-26.31498828125,-2.9701328125,-5.57229296875,-7.18801171875,-12.4245703125,2.82617578125,3.09982421875,7.90226953124999,5.27817578125,4.27801953125
-36.5289375,-16.62062890625,-27.05456640625,-1.78473437499999,-21.90557421875,-26.98196875,-9.03850390625,-6.07212890625,0.386359375000001,-16.165890625,-24.78491015625,-5.57451953125,13.61432421875,-7.8646953125,-30.3368828125,-22.71338671875,6.0090625,-6.1035234375,-22.10465234375,-27.418171875,-18.97398828125,-1.8771328125,-4.31529296875,-4.79401171875,-7.9205703125,4.12317578125,4.38982421875,7.37026953125,5.75317578125,5.34101953125
-35.8729375,-13.60762890625,-22.07156640625,-0.238734374999993,-19.09957421875,-22.80996875,-1.97450390625,0.967871093750006,0.224359374999999,-13.247890625,-17.90191015625,4.80448046875,14.14232421875,-6.4906953125,-26.8128828125,-12.16938671875,13.0720625,-4.6145234375,-20.70965234375,-22.158171875,-11.62698828125,-0.675132812499999,-2.88629296875,-2.52301171875,-2.9355703125,6.29617578125,5.83782421875,7.69426953124999,7.21117578125,7.20401953125
-33.6459375,-10.74162890625,-15.69856640625,0.976265625000003,-17.96557421875,-19.35096875,2.07349609375,8.49687109375,-0.343640624999999,-11.063890625,-12.34391015625,12.82448046875,14.17432421875,-5.6826953125,-24.0088828125,-3.74038671875,18.2810625,-3.7395234375,-19.81265234375,-18.157171875,-5.20198828125,0.136867187500002,-2.03029296875,-1.06601171875,1.3454296875,8.61617578125,6.63982421875,8.36426953125,8.84117578125,8.84501953125
-30.8409375,-8.47062890625,-9.02356640625,1.092265625,-18.70557421875,-16.95696875,2.95149609375,15.28587109375,-1.309640625,-9.972890625,-8.77491015625,17.55448046875,13.44032421875,-5.8346953125,-22.3468828125,1.57861328125,21.4130625,-4.0205234375,-19.61665234375,-15.949171875,-0.44398828125,0.0778671875000008,-2.37729296875,-0.890011718749999,3.9684296875,10.32817578125,6.17782421875,8.61526953124999,9.72617578125,9.35701953125
-28.7069375,-7.14962890625,-3.65856640625,-0.209734374999996,-20.75557421875,-15.63496875,1.44849609375,19.86687109375,-2.545640625,-9.929890625,-7.24691015625,18.77248046875,11.95332421875,-6.9746953125,-21.8248828125,3.64561328125,22.6050625,-5.6345234375,-20.00665234375,-15.515171875,2.23501171875,-1.0941328125,-4.08929296875,-1.95201171875,4.5864296875,11.03317578125,4.38882421875,7.86526953124999,9.30817578125,8.39901953125
-28.0809375,-6.87962890625,-0.99956640625,-2.660734375,-23.02557421875,-15.09496875,-1.20450390625,21.09487109375,-3.779640625,-10.439890625,-7.27291015625,16.95248046875,9.98532421875,-8.6356953125,-21.9528828125,3.06461328125,22.3270625,-8.2115234375,-20.46865234375,-16.255171875,2.86201171875,-3.2191328125,-6.68229296875,-3.61101171875,3.5834296875,10.86817578125,1.87982421875,6.04526953124999,7.66817578125,6.37201953125
-28.9709375,-7.41262890625,-1.45756640625,-5.548734375,-24.38157421875,-14.90196875,-3.90650390625,18.63687109375,-4.669640625,-10.740890625,-8.08191015625,13.09648046875,7.92332421875,-9.9986953125,-21.9378828125,0.876613281250002,21.1150625,-10.9095234375,-20.25365234375,-17.210171875,1.86901171875,-5.7451328125,-9.18129296875,-4.85601171875,1.8834296875,10.37117578125,-0.29217578125,3.64626953124999,5.46717578125,4.19601953125
-30.5539375,-8.21562890625,-4.19756640625,-8.013734375,-24.09057421875,-14.60696875,-6.00750390625,13.15487109375,-4.942640625,-10.120890625,-8.90991015625,8.45048046875,6.09332421875,-10.2596953125,-21.0308828125,-1.78238671875,19.2020625,-12.7205234375,-18.71065234375,-17.438171875,-0.06298828125,-7.9271328125,-10.51529296875,-4.74301171875,0.546429687500002,10.11917578125,-1.07417578125,1.46926953124999,3.60417578125,2.83501953125
-31.5749375,-8.65462890625,-7.57456640625,-9.385734375,-22.03857421875,-13.83296875,-7.30050390625,6.02787109375,-4.527640625,-8.184890625,-9.18291015625,4.14148046875,4.63732421875,-8.9596953125,-18.8358828125,-3.96738671875,16.3100625,-12.8575234375,-15.59665234375,-16.360171875,-2.25498828125,-9.0901328125,-9.95229296875,-2.82001171875,0.355429687499999,10.35817578125,0.11482421875,0.255269531249994,2.80117578125,2.83301953125
-30.9559375,-8.25462890625,-10.01456640625,-9.425734375,-18.62957421875,-12.35296875,-7.83750390625,-1.28112890625,-3.643640625,-4.944890625,-8.57691015625,0.798480468749998,3.51032421875,-6.1556953125,-15.4528828125,-5.10238671875,11.7880625,-11.0505234375,-11.21265234375,-13.943171875,-4.26498828125,-8.8641328125,-7.38329296875,0.67498828125,1.5414296875,10.83917578125,3.14082421875,0.344269531249992,3.29017578125,4.07801953125
-28.2999375,-6.91662890625,-10.78956640625,-8.37573437499999,-14.48557421875,-10.14096875,-7.72350390625,-7.76112890625,-2.753640625,-0.764890625,-7.01791015625,-1.66551953125,2.60032421875,-2.3736953125,-11.4238828125,-5.04138671875,5.0790625,-7.6545234375,-6.31765234375,-10.683171875,-5.99198828125,-7.3081328125,-3.37229296875,4.89298828125,3.7344296875,10.93617578125,7.19882421875,1.49926953124999,4.73317578125,5.89601953125
-24.0679375,-4.96562890625,-10.26056640625,-6.77873437499999,-10.14557421875,-7.35396875,-7.00550390625,-12.97012890625,-2.323640625,3.757109375,-4.66191015625,-3.91751953125,1.85332421875,1.5793046875,-7.5208828125,-3.99538671875,-3.7089375,-3.5315234375,-1.89065234375,-7.386171875,-7.57698828125,-4.8991328125,1.02470703125,8.70398828125,6.1634296875,10.00917578125,11.13882421875,2.99826953125,6.40217578125,7.40701953125
-19.3719375,-3.00762890625,-9.48856640625,-5.191734375,-5.96157421875,-4.26296875,-5.69050390625,-16.77712890625,-2.531640625,7.942109375,-1.83991015625,-6.67951953125,1.28932421875,4.8473046875,-4.4698828125,-2.35838671875,-13.4599375,0.2284765625,1.20234765625,-4.841171875,-9.13498828125,-2.3641328125,4.60270703125,11.13398828125,8.0194296875,7.82217578125,13.92882421875,3.98926953125,7.54217578125,7.97301953125
-15.5129375,-1.62762890625,-9.50156640625,-3.98273437499999,-2.23457421875,-1.18396875,-3.83250390625,-19.10312890625,-3.137640625,11.162109375,1.04008984375,-10.06651953125,0.89132421875,6.7483046875,-2.6978828125,-0.543386718749998,-22.1869375,2.6564765625,2.48934765625,-3.502171875,-10.52098828125,-0.433132812499998,6.40770703125,11.72598828125,8.8204296875,4.76717578125,15.04582421875,3.92426953125,7.73217578125,7.48201953125
-13.4669375,-1.11862890625,-10.60756640625,-3.29273437499999,0.604425781250001,1.56103125,-1.61050390625,-19.82212890625,-3.656640625,12.986109375,3.61808984375,-13.19151953125,0.493324218750004,6.9253046875,-2.2068828125,1.13761328125,-27.6699375,3.1914765625,2.02334765625,-3.333171875,-11.28898828125,0.4118671875,6.04870703125,10.67198828125,8.5874296875,1.74217578125,14.61682421875,2.84826953125,7.06317578125,6.34401953125
-13.4979375,-1.36062890625,-12.14456640625,-3.10673437499999,2.02442578125,3.70403125,0.67949609375,-18.80012890625,-3.689640625,13.292109375,5.65708984375,-14.39251953125,-0.173675781249997,5.4323046875,-2.6178828125,2.50661328125,-28.3169375,1.8224765625,0.324347656249998,-3.882171875,-10.90598828125,0.0898671875000012,3.80170703125,8.66498828125,7.7254296875,-0.274824218750002,13.27182421875,1.36226953124999,6.05017578125,5.22201953125
-15.1139375,-1.92862890625,-12.81056640625,-3.367734375,1.65042578125,5.08503125,2.67149609375,-16.03912890625,-3.162640625,12.305109375,7.03608984375,-12.12251953125,-1.30567578125,2.6983046875,-3.3858828125,3.49661328125,-23.8459375,-0.9535234375,-1.83765234375,-4.559171875,-9.09998828125,-1.1041328125,0.47670703125,6.55398828125,6.6994296875,-0.715824218750001,11.78582421875,0.278269531249997,5.33517578125,4.66201953125
-17.3599375,-2.38262890625,-11.46456640625,-4.08573437499999,-0.490574218749998,5.64003125,3.95849609375,-11.90612890625,-2.327640625,10.493109375,7.67208984375,-6.05951953125,-2.89067578125,-0.629695312499997,-4.0908828125,4.05861328125,-15.4539375,-4.3415234375,-3.73965234375,-4.979171875,-6.14998828125,-2.6701328125,-2.92429296875,4.95498828125,5.6844296875,0.29317578125,10.68682421875,0.145269531249994,5.32517578125,4.80701953125
-19.2639375,-2.54262890625,-7.91256640625,-5.374734375,-3.93457421875,5.33503125,4.10349609375,-7.25012890625,-1.602640625,8.340109375,7.43808984375,2.32648046875,-4.76367578125,-3.9276953125,-4.6768828125,4.03661328125,-5.3989375,-7.5465234375,-4.95965234375,-5.206171875,-2.93698828125,-4.1701328125,-5.58129296875,4.00898828125,4.4104296875,1.98517578125,10.02582421875,0.915269531249997,5.95617578125,5.31901953125
-20.1699375,-2.58862890625,-3.17856640625,-7.346734375,-7.95557421875,4.12403125,2.72149609375,-3.20212890625,-1.385640625,6.158109375,6.14008984375,10.21348046875,-6.78167578125,-6.7526953125,-5.4728828125,3.09961328125,3.8070625,-10.0155234375,-5.48065234375,-5.739171875,-0.695988281249999,-5.4141328125,-7.10429296875,3.39798828125,2.3114296875,3.31617578125,9.43082421875,1.95926953124999,6.71817578125,5.57501953125
-19.8659375,-2.89062890625,0.908433593750001,-9.938734375,-11.76857421875,2.02303125,-0.331503906249999,-0.715128906250001,-1.941640625,4.058109375,3.61608984375,14.73748046875,-8.92767578125,-8.8496953125,-6.9558828125,0.877613281250001,10.2190625,-11.5295234375,-5.58665234375,-7.207171875,-0.513988281249999,-6.4771328125,-7.54129296875,2.60498828125,-1.0665703125,3.45817578125,8.41482421875,2.43426953125,6.94417578125,5.02801953125
-18.5859375,-3.70062890625,2.58143359375,-12.834734375,-14.66857421875,-0.781968749999997,-4.74650390625,-0.199128906249996,-3.346640625,2.082109375,-0.0659101562500002,14.39348046875,-11.21767578125,-10.0486953125,-9.3828828125,-2.71438671875,12.9670625,-12.1335234375,-5.62665234375,-9.910171875,-2.78798828125,-7.5211328125,-7.20129296875,1.29498828125,-5.6405703125,2.19117578125,6.74982421875,1.78726953125,6.20717578125,3.54401953125
-16.8989375,-4.92262890625,0.94843359375,-15.579734375,-16.10957421875,-3.87096875,-9.67350390625,-1.44112890625,-5.456640625,0.374109375,-4.41791015625,9.72348046875,-13.51267578125,-10.2006953125,-12.5108828125,-7.17138671875,12.3190625,-11.9805234375,-5.78365234375,-13.480171875,-6.92698828125,-8.5821328125,-6.43029296875,-0.42701171875,-10.5935703125,0.0111757812499995,4.67882421875,0.0882695312499919,4.57817578125,1.51101953125
-15.4789375,-6.12662890625,-3.63156640625,-17.786734375,-15.76057421875,-6.64696875,-13.89250390625,-3.76112890625,-7.872640625,-0.784890624999999,-8.54291015625,2.92748046875,-15.42867578125,-9.2656953125,-15.6188828125,-11.39838671875,9.3730625,-11.2085234375,-5.99165234375,-16.898171875,-11.48398828125,-9.4541328125,-5.47729296875,-2.02701171875,-14.5965703125,-2.12382421875,2.81782421875,-2.01673046875,2.60417578125,-0.356980468750002
-14.8109375,-6.80462890625,-9.73456640625,-19.307734375,-13.62657421875,-8.52696875,-16.26750390625,-6.27712890625,-9.981640625,-1.148890625,-11.43891015625,-3.32351953125,-16.45967578125,-7.5156953125,-17.8548828125,-14.11638671875,5.5200625,-9.9295234375,-6.05465234375,-18.916171875,-14.74198828125,-9.7681328125,-4.50829296875,-2.83401171875,-16.3625703125,-3.30182421875,1.80582421875,-3.68773046875,0.981175781250002,-1.39598046875
-15.0289375,-6.68262890625,-15.45456640625,-20.286734375,-10.18657421875,-9.20596875,-16.30550390625,-8.23812890625,-11.170640625,-0.757890625,-12.46691015625,-7.15351953125,-16.26167578125,-5.6566953125,-18.6958828125,-14.48538671875,1.9070625,-8.3125234375,-5.86365234375,-18.671171875,-15.45798828125,-9.2231328125,-3.71129296875,-2.45301171875,-15.2695703125,-3.15582421875,1.89882421875,-4.38373046875,0.160175781250004,-1.35798046875
-15.9409375,-5.86562890625,-19.06356640625,-21.077734375,-6.42557421875,-8.85496875,-14.49950390625,-9.33112890625,-11.161640625,-0.0538906249999993,-11.71091015625,-8.15651953125,-14.91767578125,-4.6736953125,-18.2388828125,-12.55538671875,-0.891937500000001,-6.6795234375,-5.53865234375,-16.149171875,-13.40098828125,-7.8131328125,-3.36429296875,-1.03401171875,-11.6865703125,-2.06182421875,2.78182421875,-4.16673046875,0.0851757812500011,-0.535980468750001
-17.1559375,-4.74562890625,-19.50556640625,-22.045734375,-3.60157421875,-8.07496875,-12.18150390625,-9.73512890625,-10.239640625,0.285109375000001,-9.95491015625,-7.24351953125,-12.97767578125,-5.3586953125,-17.1238828125,-9.26338671875,-2.8819375,-5.4615234375,-5.37565234375,-12.213171875,-9.37598828125,-5.9161328125,-3.75729296875,0.783988281250002,-6.8435703125,-0.923824218749999,3.70882421875,-3.66073046875,0.259175781250004,0.416019531250001
-18.1869375,-3.75162890625,-16.64456640625,-23.318734375,-2.77457421875,-7.57796875,-10.87550390625,-9.87212890625,-9.143640625,-0.311890624999999,-8.29691015625,-5.89351953125,-11.23067578125,-7.8276953125,-16.1508828125,-5.94938671875,-4.4139375,-5.0335234375,-5.62965234375,-8.175171875,-4.76098828125,-4.1611328125,-5.02329296875,2.21498828125,-2.2795703125,-0.657824218750001,3.91082421875,-3.68773046875,0.0621757812500014,0.861019531249998
-18.5409375,-3.16362890625,-11.33256640625,-24.653734375,-4.35957421875,-7.80096875,-11.52350390625,-10.09912890625,-8.614640625,-1.987890625,-7.59291015625,-5.35151953125,-10.30867578125,-11.3956953125,-15.8308828125,-3.68738671875,-5.9099375,-5.5125234375,-6.30765234375,-5.164171875,-0.82898828125,-3.1711328125,-6.98829296875,2.76998828125,0.826429687499999,-1.70782421875,3.03682421875,-4.81873046875,-0.864824218749998,0.522019531249999
-17.8869375,-3.05062890625,-5.30056640625,-25.555734375,-7.91557421875,-8.70396875,-14.03950390625,-10.64812890625,-8.932640625,-4.363890625,-8.05091015625,-6.18751953125,-10.36967578125,-14.9116953125,-16.1348828125,-2.80838671875,-7.7259375,-6.6595234375,-7.09365234375,-3.636171875,1.74601171875,-3.2661328125,-9.15529296875,2.51098828125,2.0944296875,-3.85582421875,1.35882421875,-7.08373046875001,-2.42082421875,-0.413980468750001
-16.2209375,-3.31262890625,-0.722566406249999,-25.558734375,-12.25657421875,-9.84096875,-17.43150390625,-11.74312890625,-9.756640625,-6.660890625,-9.18991015625,-8.34051953125,-11.04167578125,-17.2536953125,-16.5508828125,-2.89938671875,-10.1319375,-7.9095234375,-7.46365234375,-3.272171875,2.97001171875,-4.3051328125,-10.83529296875,2.00498828125,1.9794296875,-6.39582421875,-0.34717578125,-9.95273046875,-4.10982421875,-1.44898046875
-13.8709375,-3.72262890625,0.601433593750002,-24.482734375,-15.81257421875,-10.57796875,-20.38950390625,-13.63212890625,-10.354640625,-7.971890625,-10.14891015625,-11.41251953125,-11.67267578125,-17.6946953125,-16.3608828125,-3.19738671875,-13.3219375,-8.5335234375,-6.87665234375,-3.257171875,3.25201171875,-5.7101328125,-11.35429296875,2.02798828125,1.4204296875,-8.52682421875,-1.18217578125,-12.57673046875,-5.30382421875,-2.05298046875
-11.2929375,-3.97462890625,-1.83256640625,-22.512734375,-17.13857421875,-10.34896875,-21.98750390625,-16.44612890625,-10.015640625,-7.584890625,-10.15191015625,-14.92051953125,-11.67167578125,-16.0176953125,-14.9928828125,-3.11438671875,-17.3659375,-7.8625234375,-4.97565234375,-2.751171875,3.02501171875,-6.6641328125,-10.25429296875,3.18498828125,1.3234296875,-9.73582421875,-0.53317578125,-14.11373046875,-5.51982421875,-1.89198046875
-8.8139375,-3.76362890625,-6.77056640625,-20.106734375,-15.42857421875,-8.86296875,-22.08950390625,-20.05412890625,-8.377640625,-5.246890625,-8.84991015625,-18.34051953125,-10.73767578125,-12.4846953125,-12.2678828125,-2.54538671875,-22.1289375,-5.5335234375,-1.71365234375,-1.286171875,2.50101171875,-6.4041328125,-7.43129296875,5.65298828125,2.1464296875,-9.96782421875,1.69582421875,-14.00673046875,-4.57382421875,-0.92498046875
-6.4949375,-2.91262890625,-11.64656640625,-17.789734375,-10.84057421875,-6.20296875,-21.25150390625,-24.01912890625,-5.513640625,-1.279890625,-6.39591015625,-21.07551953125,-8.90067578125,-7.7306953125,-8.4678828125,-1.80338671875,-27.2259375,-1.6445234375,2.61734765625,1.085828125,1.66201171875,-4.5131328125,-3.18929296875,9.12598828125,3.7484296875,-9.55982421875,5.09682421875,-12.12473046875,-2.57882421875,0.646019531249998
-4.1919375,-1.46062890625,-13.82056640625,-15.917734375,-4.45357421875,-2.76196875,-20.19250390625,-27.65012890625,-1.804640625,3.514109375,-3.27391015625,-22.54051953125,-6.41467578125,-2.5926953125,-4.2008828125,-1.28838671875,-32.0889375,3.2304765625,7.45334765625,3.887828125,0.41801171875,-1.1311328125,1.79570703125,12.93898828125,5.5234296875,-9.02682421875,8.94582421875,-8.79373046875001,0.119175781250004,2.47301953125
-1.7749375,0.312371093749999,-11.99856640625,-14.518734375,2.15342578125,0.940031250000001,-19.24150390625,-30.14912890625,2.250359375,8.128109375,-0.0469101562500001,-22.40351953125,-3.65767578124999,2.0983046875,-0.183882812500002,-1.18538671875,-36.1439375,8.1984765625,12.07834765625,6.450828125,-1.23898828125,3.0098671875,6.60570703125,16.27998828125,6.6804296875,-8.84282421875,12.41682421875,-4.72973046875001,3.00617578125,4.14701953125
0.628062499999999,1.98137109375,-7.00456640625,-13.360734375,7.50842578125,4.42103125,-18.13750390625,-30.93512890625,6.146359375,11.696109375,2.81908984375,-20.77551953125,-1.08167578125,5.7083046875,2.9551171875,-1.40738671875,-38.9999375,12.3204765625,15.76034765625,8.132828125,-3.20198828125,6.7858671875,10.28770703125,18.39098828125,6.5294296875,-9.32582421875,14.74382421875,-0.886730468750002,5.44417578125,5.22701953125
2.5490625,3.11837109375,-1.38756640625,-12.192734375,10.75442578125,7.30203125,-16.34350390625,-29.99012890625,9.399359375,13.745109375,5.02008984375,-18.18451953125,0.803324218749999,7.8903046875,4.7931171875,-1.78938671875,-40.5199375,14.8934765625,17.89934765625,8.476828125,-5.32298828125,9.0808671875,12.08670703125,18.74598828125,4.6884296875,-10.59782421875,15.34982421875,1.77026953124999,6.75717578125,5.28601953125
3.4000625,3.45337109375,1.97543359375,-10.976734375,11.85442578125,9.31803125,-13.59350390625,-27.91512890625,11.603359375,14.270109375,6.38708984375,-15.35351953125,1.47332421875,8.5893046875,5.1701171875,-2.27238671875,-40.7319375,15.6294765625,18.17034765625,7.326828125,-7.47298828125,9.1998671875,11.66270703125,17.18198828125,1.1954296875,-12.58182421875,13.96782421875,2.51026953125,6.41217578125,4.02101953125
2.8940625,2.96637109375,1.46643359375,-9.926734375,11.39342578125,10.32303125,-10.29650390625,-25.61612890625,12.522359375,13.603109375,6.85208984375,-12.95951953125,0.525324218750001,7.9553046875,4.2061171875,-2.92638671875,-39.7129375,14.6584765625,16.62634765625,4.897828125,-9.51098828125,7.1208671875,9.18070703125,13.98198828125,-3.4555703125,-15.00982421875,10.76682421875,1.01526953125,4.23117578125,1.42201953125
1.3580625,1.86537109375,-2.43156640625,-9.392734375,10.09242578125,10.25403125,-7.55450390625,-23.86812890625,12.124359375,12.153109375,6.41308984375,-11.47651953125,-2.13367578125,6.2323046875,2.2401171875,-3.83238671875,-37.5809375,12.3804765625,13.70134765625,1.744828125,-11.21198828125,3.4588671875,5.25070703125,9.83598828125,-8.4305703125,-17.47682421875,6.38582421875,-2.54473046875,0.526175781250004,-2.13798046875
-0.323937500000003,0.471371093749999,-7.53056640625,-9.68073437499999,8.32742578125,9.07603125,-6.70850390625,-23.11812890625,10.540359375,10.178109375,5.11608984375,-11.06851953125,-6.16667578124999,3.6823046875,-0.291882812500003,-4.97838671875,-34.6259375,9.2754765625,10.08834765625,-1.410171875,-12.27698828125,-0.7951328125,0.74270703125,5.65098828125,-12.8015703125,-19.54882421875,1.80082421875,-7.55073046875,-3.94882421875,-5.98498046875
-1.1329375,-0.91062890625,-11.22856640625,-10.880734375,6.03242578125,6.82603125,-8.54950390625,-23.50212890625,7.995359375,7.765109375,3.12208984375,-11.54051953125,-10.84667578125,0.590304687500002,-2.9578828125,-6.22238671875,-31.3619375,5.8324765625,6.55834765625,-3.895171875,-12.44498828125,-4.6301328125,-3.43829296875,2.27998828125,-15.8465703125,-20.89882421875,-1.95417578125,-13.04373046875,-8.21482421875,-9.36498046875
-0.426937500000001,-2.05662890625,-11.88856640625,-12.758734375,3.07542578125,3.79803125,-12.62650390625,-24.88612890625,4.825359375,5.023109375,0.83808984375,-12.35351953125,-15.27167578125,-2.6386953125,-5.3298828125,-7.26838671875,-28.3929375,2.5914765625,3.81734765625,-5.252171875,-11.62198828125,-7.3011328125,-6.51129296875,0.30698828125,-17.2275703125,-21.37182421875,-4.08017578125,-17.90173046875,-11.36182421875,-11.67498046875
1.7220625,-2.80462890625,-9.52356640625,-14.782734375,-0.223574218749999,0.68703125,-17.23950390625,-26.82812890625,1.505359375,2.326109375,-1.02891015625,-12.81251953125,-18.63567578125,-5.4296953125,-6.9478828125,-7.68738671875,-26.1149375,0.1724765625,2.41634765625,-5.255171875,-9.90898828125,-8.4731328125,-7.92329296875,-0.0470117187499994,-16.9825703125,-20.96582421875,-4.21317578125,-21.08873046875,-12.79682421875,-12.57698046875
4.5330625,-3.00862890625,-5.51956640625,-16.345734375,-2.93557421875,-1.54996875,-20.31350390625,-28.59812890625,-1.376640625,0.331109375,-1.67391015625,-12.39351953125,-20.44767578125,-7.1626953125,-7.3838828125,-7.05038671875,-24.4889375,-0.8405234375,2.66234765625,-3.889171875,-7.51898828125,-8.2181328125,-7.43129296875,1.10298828125,-15.4055703125,-19.77382421875,-2.47817578125,-21.96573046875,-12.37982421875,-12.02498046875
6.8600625,-2.55162890625,-1.68456640625,-17.083734375,-3.91457421875,-2.12196875,-20.64550390625,-29.33712890625,-3.268640625,-0.292890624999999,-0.608910156249999,-11.05051953125,-20.65867578125,-7.4526953125,-6.4428828125,-5.15838671875,-23.0859375,-0.1525234375,4.50434765625,-1.350171875,-4.68198828125,-6.9351328125,-5.20329296875,3.35098828125,-12.9425703125,-17.96682421875,0.54382421875,-20.54973046875,-10.45982421875,-10.24898046875
7.7310625,-1.43962890625,0.731433593750001,-17.071734375,-2.50257421875,-0.835968749999999,-18.59950390625,-28.36212890625,-3.854640625,0.708109375000001,1.96408984375,-9.26751953125,-19.66367578125,-6.4106953125,-4.3718828125,-2.24438671875,-21.3889375,2.0054765625,7.44834765625,1.903828125,-1.63298828125,-5.2431328125,-1.88129296875,6.05498828125,-10.1435703125,-15.84182421875,3.93682421875,-17.59773046875,-7.80282421875,-7.75498046875
6.8180625,0.10237109375,1.49843359375,-16.767734375,0.92942578125,1.75003125,-15.78450390625,-25.55712890625,-3.218640625,2.924109375,5.12408984375,-7.79151953125,-18.18067578125,-4.7016953125,-1.8868828125,1.03561328125,-19.1729375,4.8564765625,10.62334765625,5.174828125,1.33701171875,-3.8491328125,1.50470703125,8.42598828125,-7.6115703125,-13.86382421875,6.64282421875,-14.40973046875,-5.41882421875,-5.28898046875
4.5890625,1.60837109375,1.19243359375,-16.752734375,4.96042578125,4.54203125,-14.00050390625,-21.66512890625,-1.886640625,5.363109375,7.61608984375,-7.23851953125,-17.01667578125,-3.3256953125,0.0751171874999983,3.86261328125,-16.6849375,7.3244765625,13.02834765625,7.703828125,3.88101171875,-3.3721328125,3.81570703125,9.71298828125,-5.8845703125,-12.58982421875,7.75282421875,-12.37273046875,-4.25782421875,-3.69698046875
2.1240625,2.50837109375,0.612433593750001,-17.417734375,7.71442578125,6.38003125,-14.22950390625,-18.19212890625,-0.674640624999999,6.886109375,8.46908984375,-7.83551953125,-16.79567578125,-3.1996953125,0.777117187499996,5.64061328125,-14.5229375,8.4744765625,13.91934765625,8.976828125,5.69801171875,-4.1531328125,4.21970703125,9.45798828125,-5.2535703125,-12.45982421875,6.81782421875,-12.43573046875,-4.87682421875,-3.65098046875
0.700062499999998,2.39037109375,0.295433593750001,-18.729734375,7.79742578125,6.58403125,-16.24150390625,-16.73612890625,-0.339640625000001,6.756109375,7.48408984375,-9.40851953125,-17.75167578125,-4.7176953125,0.066117187499998,6.27161328125,-13.2869375,7.9294765625,13.14534765625,8.983828125,6.71201171875,-6.1211328125,2.55370703125,7.72998828125,-5.6155703125,-13.53682421875,4.04782421875,-14.76273046875,-7.19482421875,-5.32698046875
1.2810625,1.26137109375,0.39643359375,-20.209734375,5.08342578125,5.30603125,-18.92650390625,-18.07512890625,-1.229640625,5.038109375,5.31408984375,-11.48651953125,-19.67067578125,-7.4926953125,-1.5218828125,6.14361328125,-13.2219375,6.0554765625,11.26134765625,8.247828125,7.17001171875,-8.7901328125,-0.56529296875,5.16798828125,-6.4775703125,-15.37782421875,0.256824218750001,-18.72273046875,-10.50282421875,-8.24998046875
4.0820625,-0.37562890625,0.85243359375,-21.164734375,0.89442578125,3.48403125,-21.02450390625,-21.67012890625,-3.169640625,2.609109375,3.10108984375,-13.41951953125,-21.99567578125,-10.4636953125,-2.9918828125,5.83161328125,-14.0899375,3.7784765625,9.32134765625,7.565828125,7.55601171875,-11.4151328125,-3.96129296875,2.77198828125,-7.1765703125,-17.18982421875,-3.45517578125,-23.20673046875,-13.76182421875,-11.45398046875
8.4000625,-1.69462890625,1.60043359375,-21.089734375,-2.58357421875,2.37703125,-21.77250390625,-25.96112890625,-5.621640625,0.780109375,1.90708984375,-14.52351953125,-24.06267578125,-12.3406953125,-3.3428828125,5.75461328125,-15.3519375,2.1304765625,8.42934765625,7.609828125,8.32901171875,-13.2611328125,-6.36829296875,1.49898828125,-7.1895703125,-18.20782421875,-6.13417578125,-27.07373046875,-16.04582421875,-13.90798046875
12.9100625,-1.91462890625,2.66143359375,-19.949734375,-3.33557421875,2.97503125,-21.12850390625,-29.23112890625,-7.969640625,0.705109375000001,2.28008984375,-14.30151953125,-25.35767578125,-12.1766953125,-1.9788828125,6.03861328125,-16.4789375,1.7964765625,9.28734765625,8.658828125,9.67501171875,-13.8451328125,-6.89729296875,1.90098828125,-6.3555703125,-18.06082421875,-7.27217578125,-29.50173046875,-16.90082421875,-14.95698046875
16.2970625,-0.652628906250001,4.05743359375,-18.178734375,-0.476574218749999,5.59303125,-19.51950390625,-30.42712890625,-9.684640625,2.877109375,4.15908984375,-12.67651953125,-25.67067578125,-9.7586953125,1.0961171875,6.65961328125,-17.1769375,2.9044765625,11.95534765625,10.577828125,11.42701171875,-13.0481328125,-5.28229296875,3.98298828125,-4.8675703125,-16.88882421875,-6.84317578125,-30.10573046875,-16.40482421875,-14.51698046875
17.8370625,1.89537109375,5.65543359375,-16.430734375,5.35242578125,9.79403125,-17.44850390625,-29.55512890625,-10.365640625,6.930109375,7.05308984375,-10.03851953125,-25.11167578125,-5.6646953125,5.3491171875,7.62061328125,-17.4099375,5.0874765625,15.91834765625,13.005828125,13.18101171875,-11.0751328125,-1.85529296875,7.31698828125,-3.0825703125,-15.18182421875,-5.13917578125,-28.91273046875,-14.98082421875,-12.98398046875
17.6310625,5.03537109375,7.14143359375,-15.275734375,12.29442578125,14.58803125,-15.28450390625,-27.56112890625,-9.798640625,11.800109375,10.29108984375,-7.07251953125,-24.00867578125,-1.0066953125,9.9371171875,8.96761328125,-17.3089375,7.7144765625,20.35734765625,15.557828125,14.50901171875,-8.3321328125,2.66370703125,11.26398828125,-1.3215703125,-13.50082421875,-2.58617578125,-26.28673046875,-13.14582421875,-10.99598046875
16.4470625,7.88237109375,8.21643359375,-14.984734375,18.14042578125,18.79903125,-13.34650390625,-25.81412890625,-8.077640625,16.159109375,13.21708984375,-4.51051953125,-22.80867578125,3.0163046875,13.9681171875,10.65761328125,-17.0869375,10.1354765625,24.46834765625,17.938828125,15.13201171875,-5.3241328125,7.40770703125,15.17698828125,0.229429687500001,-12.26482421875,0.369824218750001,-22.86873046875,-11.34382421875,-9.17198046875
15.3510625,9.73437109375,8.86343359375,-15.462734375,21.31442578125,21.47703125,-12.06450390625,-25.41912890625,-5.657640625,18.930109375,15.30208984375,-2.95651953125,-22.00867578125,5.5333046875,16.7551171875,12.45561328125,-16.9889375,11.8584765625,27.69334765625,19.946828125,15.01801171875,-2.5811328125,11.58170703125,18.52298828125,1.5004296875,-11.66082421875,3.30182421875,-19.46873046875,-9.88182421875,-7.90898046875
15.3040625,10.34237109375,9.39943359375,-16.363734375,21.44742578125,22.22103125,-11.92850390625,-26.67412890625,-3.233640625,19.662109375,16.23908984375,-2.77551953125,-22.09067578125,6.2443046875,17.9821171875,13.99961328125,-17.2229375,12.6314765625,29.80134765625,21.441828125,14.37601171875,-0.592132812500001,14.59570703125,20.92998828125,2.4394296875,-11.67182421875,5.83982421875,-16.88973046875,-8.94182421875,-7.29398046875
16.7960625,9.93537109375,10.23743359375,-17.365734375,19.27942578125,21.24903125,-13.19950390625,-29.01612890625,-1.505640625,18.592109375,16.01908984375,-4.00251953125,-23.42367578125,5.4103046875,17.7441171875,14.95761328125,-17.8849375,12.4434765625,30.81134765625,22.310828125,13.54801171875,0.275867187500001,16.13370703125,22.18398828125,2.9334296875,-12.15782421875,7.67582421875,-15.72573046875,-8.61382421875,-7.18498046875
19.6580625,9.04137109375,11.57443359375,-18.432734375,16.09442578125,19.22503125,-15.61850390625,-31.40312890625,-0.993640625000001,16.440109375,14.95608984375,-6.29251953125,-26.14167578125,3.6463046875,16.4451171875,15.17561328125,-18.9199375,11.4824765625,30.86834765625,22.461828125,12.84001171875,-0.1351328125,16.16770703125,22.21098828125,2.7924296875,-12.95882421875,8.57682421875,-16.20273046875,-8.93182421874999,-7.39298046875
23.1670625,8.23737109375,13.26343359375,-19.818734375,13.10242578125,16.98103125,-18.37850390625,-32.85412890625,-1.947640625,14.057109375,13.60108984375,-8.99551953125,-30.01867578125,1.6813046875,14.6461171875,14.71961328125,-20.1639375,10.0854765625,30.17234765625,21.882828125,12.37401171875,-1.7021328125,14.95370703125,21.09598828125,1.8464296875,-13.95282421875,8.43082421875,-18.10073046875,-9.85282421874999,-7.82798046875
26.4020625,7.92937109375,14.91843359375,-21.833734375,11.10842578125,15.27803125,-20.46950390625,-32.86312890625,-4.324640625,12.128109375,12.55808984375,-11.35851953125,-34.43167578125,0.157304687500002,12.9151171875,13.83261328125,-21.4249375,8.6584765625,28.99534765625,20.724828125,12.07101171875,-4.0091328125,12.99670703125,19.12998828125,0.114429687499999,-15.03682421875,7.32382421875,-20.80573046875,-11.20882421875,-8.50898046875
28.6310625,8.23637109375,16.14043359375,-24.560734375,10.41242578125,14.59703125,-21.17350390625,-31.58812890625,-7.814640625,10.995109375,12.27408984375,-12.77451953125,-38.50067578125,-0.526695312499999,11.7151171875,12.83661328125,-22.5409375,7.5564765625,27.70134765625,19.357828125,11.77201171875,-6.4651328125,10.93870703125,16.82598828125,-2.0775703125,-16.06782421875,5.60082421875,-23.52673046875,-12.67982421875,-9.46398046875
29.5480625,8.98837109375,16.73643359375,-27.748734375,10.85742578125,15.03103125,-20.38650390625,-29.73312890625,-11.869640625,10.635109375,12.88308984375,-12.93851953125,-41.39367578125,-0.342695312499998,11.3101171875,12.04261328125,-23.3729375,6.9384765625,26.68234765625,18.306828125,11.40801171875,-8.5241328125,9.35270703125,14.81498828125,-4.1515703125,-16.83082421875,3.80482421875,-25.58773046875,-13.84982421875,-10.62198046875
29.2800625,9.82837109375,16.80743359375,-30.872734375,11.97542578125,16.30303125,-18.55550390625,-28.13412890625,-15.710640625,10.759109375,14.17308984375,-11.91051953125,-42.67367578125,0.3233046875,11.7091171875,11.69161328125,-23.7729375,6.7064765625,26.21134765625,18.056828125,11.10801171875,-9.8801328125,8.55670703125,13.63398828125,-5.5075703125,-17.10082421875,2.48782421875,-26.66373046875,-14.35482421875,-11.78498046875
28.2690625,10.38337109375,16.64643359375,-33.309734375,13.20142578125,17.92203125,-16.34850390625,-27.30012890625,-18.398640625,10.975109375,15.69508984375,-10.10851953125,-42.47167578125,0.802304687500001,12.6791171875,11.91661328125,-23.5899375,6.5824765625,26.31134765625,18.837828125,11.15001171875,-10.5171328125,8.52870703125,13.51998828125,-5.7975703125,-16.76382421875,1.97882421875,-26.84573046875,-14.02882421875,-12.67298046875
27.0770625,10.41137109375,16.49543359375,-34.584734375,14.05442578125,19.37803125,-14.31950390625,-27.23712890625,-19.138640625,10.937109375,16.94308984375,-8.24351953125,-41.38767578125,0.441304687500001,13.8251171875,12.71661328125,-22.7449375,6.2814765625,26.75134765625,20.485828125,11.77801171875,-10.5961328125,8.98870703125,14.31298828125,-5.0975703125,-15.91582421875,2.24282421875,-26.53473046875,-12.98482421875,-13.04298046875
26.2110625,9.88437109375,16.38043359375,-34.617734375,14.26742578125,20.28703125,-12.79150390625,-27.65412890625,-17.780640625,10.432109375,17.52808984375,-7.12451953125,-40.19967578125,-1.0636953125,14.7211171875,13.93961328125,-21.3059375,5.6594765625,27.16634765625,22.490828125,13.01201171875,-10.3211328125,9.56570703125,15.53198828125,-3.8755703125,-14.88582421875,2.89282421875,-26.23573046875,-11.59882421875,-12.82698046875
25.9700625,8.97437109375,16.19843359375,-33.804734375,13.86842578125,20.48303125,-11.89150390625,-28.27512890625,-15.134640625,9.419109375,17.28708984375,-7.31551953125,-39.52367578125,-3.5106953125,15.0521171875,15.30161328125,-19.5359375,4.7404765625,27.23234765625,24.193828125,14.59001171875,-9.8671328125,9.96370703125,16.57198828125,-2.7815703125,-14.14582421875,3.36582421875,-26.37173046875,-10.40082421875,-12.21798046875
26.3720625,7.96437109375,15.91743359375,-32.852734375,13.20342578125,20.05103125,-11.63150390625,-28.99412890625,-12.754640625,8.017109375,16.30208984375,-8.80251953125,-39.61967578125,-6.3356953125,14.7071171875,16.43261328125,-17.8359375,3.6574765625,26.80234765625,25.040828125,16.07601171875,-9.4091328125,10.02170703125,16.92098828125,-2.3825703125,-14.14882421875,3.14882421875,-27.14673046875,-9.91482421875,-11.65598046875
27.1560625,7.12337109375,15.64443359375,-32.463734375,12.78142578125,19.25503125,-11.96050390625,-29.84712890625,-12.215640625,6.441109375,14.80708984375,-10.91651953125,-40.40967578125,-8.9476953125,13.7831171875,16.95761328125,-16.6149375,2.5514765625,25.91634765625,24.759828125,17.05001171875,-9.1381328125,9.69070703125,16.30698828125,-2.9685703125,-15.15582421875,1.96182421875,-28.52273046875,-10.51182421875,-11.69598046875
27.8910625,6.59637109375,15.46643359375,-33.059734375,12.96842578125,18.35603125,-12.79450390625,-30.94212890625,-14.317640625,4.917109375,13.07208984375,-12.64251953125,-41.64667578125,-11.0146953125,12.5161171875,16.60861328125,-16.1139375,1.5114765625,24.72834765625,23.417828125,17.27101171875,-9.2381328125,8.96470703125,14.74898828125,-4.4955703125,-17.11982421875,-0.18017578125,-30.30673046875,-12.30482421875,-12.78398046875
28.2130625,6.37137109375,15.25643359375,-34.626734375,13.72342578125,17.48903125,-14.00950390625,-32.35712890625,-18.657640625,3.599109375,11.32108984375,-13.16451953125,-43.09367578125,-12.5196953125,11.1901171875,15.36661328125,-16.3029375,0.5504765625,23.42034765625,21.372828125,16.77001171875,-9.8291328125,7.85670703125,12.51398828125,-6.6335703125,-19.67082421875,-3.00017578125,-32.28273046875,-15.11882421875,-15.04298046875
28.0930625,6.31537109375,14.69243359375,-36.726734375,14.59042578125,16.70303125,-15.36550390625,-34.03412890625,-23.780640625,2.541109375,9.73708984375,-12.27551953125,-44.61867578125,-13.6176953125,10.0691171875,13.57161328125,-16.9229375,-0.3655234375,22.16034765625,19.158828125,15.84701171875,-10.9151328125,6.42070703125,10.02998828125,-8.8915703125,-22.21482421875,-6.05117578125,-34.29873046875,-18.51982421875,-18.13998046875
27.9300625,6.25237109375,13.48643359375,-38.661734375,14.98842578125,16.10703125,-16.45950390625,-35.73012890625,-27.844640625,1.724109375,8.52008984375,-10.38751953125,-46.17567578125,-14.4556953125,9.3661171875,11.85361328125,-17.6389375,-1.2765234375,21.09134765625,17.341828125,14.97701171875,-12.3841328125,4.79770703125,7.76298828125,-10.7655703125,-24.12382421875,-8.82617578125,-36.27173046875,-21.91282421875,-21.35498046875
28.3080625,6.04037109375,11.62643359375,-39.811734375,14.57842578125,15.90603125,-16.84150390625,-37.13712890625,-29.506640625,1.106109375,7.89608984375,-8.25351953125,-47.75567578125,-15.1116953125,9.1971171875,10.85561328125,-18.1979375,-2.1895234375,20.33134765625,16.358828125,14.61401171875,-14.0521328125,3.19870703125,6.09998828125,-11.9025703125,-24.97982421875,-10.89217578125,-38.13673046875,-24.71482421875,-23.85798046875
29.5840625,5.62437109375,9.50043359375,-39.967734375,13.48542578125,16.28203125,-16.30450390625,-38.05512890625,-28.550640625,0.673109375000001,8.03308984375,-6.68951953125,-49.32667578125,-15.6326953125,9.5481171875,10.89361328125,-18.5089375,-3.0625234375,19.95634765625,16.386828125,14.97001171875,-15.7231328125,1.84970703125,5.24898828125,-12.2015703125,-24.75282421875,-12.01817578125,-39.81973046875,-26.53282421875,-25.08498046875
31.6180625,5.07037109375,7.85643359375,-39.429734375,12.25542578125,17.24803125,-15.13350390625,-38.41912890625,-25.881640625,0.453109375,8.92708984375,-6.40951953125,-50.81567578125,-16.0906953125,10.2921171875,11.81761328125,-18.6389375,-3.7995234375,19.99234765625,17.313828125,15.89301171875,-17.2351328125,0.91970703125,5.21098828125,-11.8375703125,-23.82082421875,-12.24417578125,-41.23273046875,-27.27982421875,-25.00398046875
33.8580625,4.56737109375,7.57743359375,-38.817734375,11.57842578125,18.63403125,-14.02250390625,-38.20012890625,-22.891640625,0.505109375,10.37408984375,-7.84451953125,-52.12267578125,-16.5646953125,11.2641171875,13.14661328125,-18.7369375,-4.2635234375,20.42534765625,18.817828125,16.93301171875,-18.4521328125,0.47770703125,5.81798828125,-11.1705703125,-22.80682421875,-11.85617578125,-42.27973046875,-27.16482421875,-24.10898046875
35.6690625,4.38437109375,9.25143359375,-38.753734375,11.93642578125,20.17403125,-13.67650390625,-37.39512890625,-20.674640625,0.881109375000001,12.05008984375,-10.84451953125,-53.14967578125,-17.0616953125,12.3441171875,14.38361328125,-18.9409375,-4.3395234375,21.21134765625,20.507828125,17.57901171875,-19.2201328125,0.48870703125,6.82398828125,-10.6015703125,-22.27482421875,-11.26917578125,-42.86673046875,-26.56382421875,-23.14098046875
36.6480625,4.75337109375,12.74643359375,-39.618734375,13.31142578125,21.59803125,-14.35650390625,-36.16412890625,-19.630640625,1.550109375,13.63608984375,-14.47851953125,-53.82667578125,-17.4896953125,13.4731171875,15.25561328125,-19.3109375,-4.0185234375,22.25634765625,22.054828125,17.52701171875,-19.3621328125,0.83770703125,7.96798828125,-10.4125703125,-22.46982421875,-10.87417578125,-42.93373046875,-25.86682421875,-22.70898046875
36.7870625,5.76537109375,17.17143359375,-41.442734375,15.15642578125,22.66903125,-15.76650390625,-34.90412890625,-19.630640625,2.347109375,14.86608984375,-17.24351953125,-54.14867578125,-17.7046953125,14.5881171875,15.75661328125,-19.8149375,-3.4465234375,23.37934765625,23.241828125,16.83401171875,-18.7611328125,1.33970703125,8.99598828125,-10.6835703125,-23.23982421875,-10.92017578125,-42.50473046875,-25.35582421875,-23.01798046875
36.4420625,7.32937109375,21.40543359375,-43.889734375,16.66542578125,23.21403125,-17.35550390625,-34.06712890625,-20.422640625,2.983109375,15.50308984375,-17.76151953125,-54.20367578125,-17.5866953125,15.5741171875,16.00461328125,-20.3839375,-2.8705234375,24.33634765625,23.960828125,15.87401171875,-17.4861328125,1.79570703125,9.68198828125,-11.3095703125,-24.18182421875,-11.46317578125,-41.70873046875,-25.15282421875,-23.83498046875
36.1870625,9.22137109375,24.77143359375,-46.311734375,17.23942578125,23.17703125,-18.74050390625,-33.87112890625,-21.858640625,3.202109375,15.36308984375,-15.57751953125,-54.16367578125,-17.0886953125,16.2981171875,16.08761328125,-20.9739375,-2.4945234375,24.92734765625,24.207828125,15.15401171875,-15.8301328125,2.06870703125,9.87698828125,-12.0685703125,-24.87882421875,-12.36617578125,-40.73073046875,-25.22582421875,-24.66198046875
36.6050625,11.15937109375,27.26143359375,-47.921734375,16.87442578125,22.67003125,-19.85950390625,-34.17412890625,-23.802640625,2.960109375,14.44608984375,-11.48551953125,-54.20467578125,-16.2526953125,16.7221171875,16.04661328125,-21.5609375,-2.3335234375,25.14234765625,24.112828125,15.11101171875,-14.2231328125,2.15770703125,9.60798828125,-12.7075703125,-25.06482421875,-13.34417578125,-39.74773046875,-25.41782421875,-24.99598046875
38.0800625,12.83237109375,29.12543359375,-48.069734375,16.19242578125,21.99503125,-20.78250390625,-34.56612890625,-25.901640625,2.504109375,13.06108984375,-7.15051953125,-54.39867578125,-15.2466953125,16.9851171875,15.94561328125,-22.0659375,-2.2055234375,25.19634765625,23.943828125,15.96501171875,-13.0581328125,2.18470703125,9.10298828125,-13.0205703125,-24.64682421875,-14.07517578125,-38.91273046875,-25.52482421875,-24.56498046875
40.6150625,13.92037109375,30.32743359375,-46.535734375,16.06642578125,21.55403125,-21.46250390625,-34.59312890625,-27.506640625,2.217109375,11.76108984375,-4.25251953125,-54.66167578125,-14.4176953125,17.3411171875,15.94161328125,-22.2909375,-1.8685234375,25.39434765625,24.023828125,17.67401171875,-12.5751328125,2.27270703125,8.69498828125,-12.9175703125,-23.65682421875,-14.32117578125,-38.39673046875,-25.38882421875,-23.41398046875
43.7710625,14.16337109375,30.43143359375,-43.711734375,17.05442578125,21.66703125,-21.71050390625,-33.99912890625,-27.939640625,2.336109375,11.08708984375,-3.73951953125,-54.84167578125,-14.2516953125,17.9861171875,16.22861328125,-21.9759375,-1.2405234375,25.90634765625,24.572828125,19.97501171875,-12.8431328125,2.41670703125,8.63098828125,-12.4725703125,-22.20682421875,-14.04117578125,-38.40873046875,-24.97482421875,-21.86198046875
46.7840625,13.49037109375,28.99143359375,-40.551734375,19.01242578125,22.37403125,-21.38150390625,-32.90212890625,-26.946640625,2.753109375,11.27908984375,-5.55751953125,-54.90867578125,-15.1716953125,18.9071171875,16.91561328125,-20.9899375,-0.5185234375,26.60434765625,25.574828125,22.46901171875,-13.8001328125,2.42970703125,8.91298828125,-11.9135703125,-20.50582421875,-13.42917578125,-39.13273046875,-24.38282421875,-20.36398046875
48.8480625,12.12637109375,26.02143359375,-38.242734375,21.16142578125,23.38603125,-20.52550390625,-31.78812890625,-24.976640625,3.042109375,12.15408984375,-8.90251953125,-55.09367578125,-17.2706953125,19.8501171875,17.90661328125,-19.5159375,-0.1085234375,27.09234765625,26.745828125,24.70001171875,-15.2971328125,2.02270703125,9.26498828125,-11.5665703125,-18.88782421875,-12.85917578125,-40.62073046875,-23.81882421875,-19.37398046875
49.4520625,10.52337109375,22.11543359375,-37.688734375,22.52942578125,24.23203125,-19.37150390625,-31.24912890625,-23.049640625,2.686109375,13.18608984375,-12.69051953125,-55.84167578125,-20.2196953125,20.4211171875,18.82361328125,-18.0799375,-0.4315234375,26.88434765625,27.610828125,26.21101171875,-17.1391328125,0.93970703125,9.23798828125,-11.7845703125,-17.81882421875,-12.79117578125,-42.74373046875,-23.55382421875,-19.26798046875
48.5560625,9.15937109375,18.21543359375,-39.090734375,22.46542578125,24.51103125,-18.22450390625,-31.62612890625,-22.305640625,1.337109375,13.72708984375,-15.95851953125,-57.57367578125,-23.4636953125,20.2601171875,19.07561328125,-17.3399375,-1.7265234375,25.62334765625,27.666828125,26.60301171875,-19.1481328125,-0.93929296875,8.39398828125,-12.8815703125,-17.80382421875,-13.63017578125,-45.26873046875,-23.89382421875,-20.29498046875
46.5400625,8.32337109375,15.28043359375,-41.900734375,20.89942578125,24.05403125,-17.39950390625,-32.79512890625,-23.584640625,-0.999890625,13.28108984375,-18.08851953125,-60.40567578125,-26.5356953125,19.2051171875,18.07461328125,-17.7709375,-3.9695234375,23.26334765625,26.588828125,25.65801171875,-21.2331328125,-3.54929296875,6.49998828125,-15.0395703125,-19.19582421875,-15.58917578125,-47.99573046875,-25.12082421875,-22.53198046875
43.9910625,8.05437109375,14.05143359375,-45.155734375,18.31742578125,22.95503125,-17.19250390625,-34.22112890625,-27.183640625,-3.914890625,11.72208984375,-18.90251953125,-63.99867578125,-29.2146953125,17.4131171875,15.56961328125,-19.4229375,-6.8755234375,20.15234765625,24.405828125,23.47901171875,-23.3981328125,-6.62729296875,3.67798828125,-18.2055703125,-21.98582421875,-18.55317578125,-50.82673046875,-27.35682421875,-25.78898046875
41.5390625,8.23237109375,14.94143359375,-47.905734375,15.59142578125,21.54003125,-17.76550390625,-35.18112890625,-32.666640625,-6.670890625,9.41008984375,-18.64951953125,-67.61067578125,-31.4026953125,15.3921171875,11.91061328125,-21.8729375,-9.9465234375,17.01234765625,21.586828125,20.58901171875,-25.6531328125,-9.70329296875,0.44998828125,-21.9995703125,-25.69082421875,-22.01117578125,-53.68373046875,-30.41482421875,-29.55098046875
39.8100625,8.73837109375,17.95843359375,-49.494734375,13.75542578125,20.34103125,-18.94450390625,-35.00112890625,-38.731640625,-8.378890625,7.11808984375,-17.79951953125,-70.34567578125,-32.8716953125,13.9281171875,8.06761328125,-24.3449375,-12.5145234375,14.79834765625,18.960828125,17.86501171875,-27.8221328125,-12.11729296875,-2.35001171875,-25.7055703125,-29.42782421875,-25.10917578125,-56.32173046875,-33.70782421875,-33.01298046875
39.3930625,9.54837109375,22.62143359375,-49.651734375,13.72142578125,19.99803125,-20.14050390625,-33.28412890625,-43.384640625,-8.268890625,5.78708984375,-16.71051953125,-71.49867578125,-33.1416953125,13.8721171875,5.29961328125,-25.9479375,-13.8455234375,14.42734765625,17.467828125,16.29101171875,-29.4521328125,-13.14029296875,-3.80301171875,-28.4205703125,-32.18182421875,-26.86317578125,-58.23873046875,-36.34082421875,-35.28598046875
40.7040625,10.71937109375,27.94043359375,-48.506734375,15.92442578125,21.02103125,-20.56450390625,-30.07412890625,-44.660640625,-6.005890625,6.13808984375,-15.42951953125,-70.85967578125,-31.6906953125,15.8131171875,4.60361328125,-25.9939375,-13.3815234375,16.41634765625,17.804828125,16.58501171875,-29.9381328125,-12.23329296875,-3.24601171875,-29.3655703125,-33.19882421875,-26.52817578125,-58.83673046875,-37.44982421875,-35.74198046875
43.7610625,12.26737109375,32.61843359375,-46.541734375,20.06242578125,23.49903125,-19.64950390625,-25.89012890625,-41.615640625,-1.924890625,8.31308984375,-13.83351953125,-68.79367578125,-28.3776953125,19.7601171875,6.23061328125,-24.3319375,-11.0495234375,20.56234765625,20.092828125,18.84401171875,-28.8641328125,-9.38229296875,-0.609011718749999,-28.2755703125,-32.35682421875,-23.99417578125,-57.81573046875,-36.66282421875,-34.34398046875
48.0510625,14.05137109375,35.49243359375,-44.422734375,25.14442578125,26.97703125,-17.39450390625,-21.59512890625,-34.930640625,2.984109375,11.73808984375,-11.94651953125,-66.07867578125,-23.7436953125,25.0061171875,9.56561328125,-21.5169375,-7.4455234375,25.88334765625,23.757828125,22.42701171875,-26.3261328125,-5.25929296875,3.45098828125,-25.6185703125,-30.28682421875,-19.95817578125,-55.49873046875,-34.39182421875,-31.74698046875
52.6130625,15.76537109375,35.99343359375,-42.732734375,29.85942578125,30.59703125,-14.36850390625,-18.17912890625,-26.657640625,7.405109375,15.34008984375,-10.07851953125,-63.55867578125,-18.9176953125,30.3351171875,13.43161328125,-18.6339375,-3.6735234375,30.93934765625,27.730828125,26.19301171875,-23.0011328125,-1.04629296875,7.75498828125,-22.4555703125,-28.12382421875,-15.71217578125,-52.76573046875,-31.70582421875,-29.05398046875
56.3840625,17.04037109375,34.33343359375,-41.734734375,33.09142578125,33.44703125,-11.40150390625,-16.50512890625,-19.277640625,10.199109375,18.03208984375,-8.62151953125,-61.82667578125,-15.1656953125,34.4851171875,16.67061328125,-16.8029375,-0.8865234375,34.42934765625,30.902828125,29.00901171875,-19.8611328125,2.03170703125,11.08798828125,-19.9795703125,-26.95982421875,-12.60317578125,-50.61873046875,-29.79682421875,-27.32098046875
58.6360625,17.62837109375,31.36843359375,-41.300734375,34.34742578125,34.93603125,-9.15450390625,-17.02312890625,-14.679640625,10.842109375,19.19308984375,-7.72751953125,-61.06467578125,-13.3566953125,36.6511171875,18.63661328125,-16.6509375,0.2354765625,35.71434765625,32.576828125,30.24601171875,-17.7451328125,3.20770703125,12.69498828125,-18.9935703125,-27.33082421875,-11.49317578125,-49.70473046875,-29.39582421875,-27.10798046875
59.2720625,17.53037109375,28.25243359375,-41.039734375,33.91742578125,35.01603125,-7.84750390625,-19.48912890625,-13.573640625,9.580109375,18.87308984375,-7.20251953125,-61.10767578125,-13.6346953125,36.7571171875,19.34261328125,-18.0619375,-0.2425234375,35.00734765625,32.679828125,29.98801171875,-17.0281328125,2.41670703125,12.50298828125,-19.6315703125,-29.02382421875,-12.49717578125,-50.11073046875,-30.50682421875,-28.32098046875
58.7980625,17.00037109375,26.05943359375,-40.555734375,32.68142578125,34.11703125,-7.33050390625,-22.95812890625,-15.484640625,7.236109375,17.62608984375,-6.75651953125,-61.63467578125,-15.4626953125,35.3851171875,19.21161328125,-20.3279375,-1.6285234375,33.13334765625,31.641828125,28.84301171875,-17.5591328125,0.19970703125,10.99498828125,-21.4525703125,-31.30682421875,-15.09117578125,-51.49073046875,-32.55082421875,-30.37398046875
58.0100625,16.40337109375,25.49243359375,-39.670734375,31.59342578125,32.82103125,-7.43250390625,-26.17912890625,-19.183640625,4.773109375,16.08908984375,-6.39151953125,-62.38067578125,-17.9776953125,33.4261171875,18.63461328125,-22.5779375,-3.0255234375,31.04134765625,30.050828125,27.53201171875,-18.8501328125,-2.63729296875,8.84198828125,-23.7775703125,-33.38182421875,-18.44517578125,-53.34473046875,-34.76082421875,-32.53598046875
57.6070625,16.02437109375,26.76243359375,-38.504734375,31.13342578125,31.49903125,-8.27850390625,-28.18412890625,-23.274640625,2.840109375,14.59908984375,-6.55951953125,-63.26567578125,-20.4486953125,31.6571171875,17.66561328125,-24.2129375,-3.8205234375,29.35334765625,28.325828125,26.49901171875,-20.3531328125,-5.39729296875,6.55598828125,-26.0475703125,-34.79682421875,-21.78317578125,-55.23073046875,-36.55682421875,-34.26098046875
57.9730625,15.94337109375,29.64343359375,-37.367734375,31.12242578125,30.18503125,-10.20050390625,-28.65312890625,-26.650640625,1.546109375,13.10008984375,-7.89751953125,-64.38767578125,-22.5766953125,30.4761171875,16.06761328125,-25.1399375,-3.9605234375,28.17934765625,26.589828125,25.78001171875,-21.6951328125,-7.71429296875,4.32698828125,-28.0105703125,-35.58882421875,-24.62117578125,-56.86173046875,-37.73482421875,-35.36198046875
59.1520625,16.06537109375,33.61943359375,-36.582734375,31.01842578125,28.75903125,-13.30750390625,-27.92012890625,-28.683640625,0.593109375000001,11.36608984375,-10.74051953125,-65.92167578125,-24.4466953125,29.9131171875,13.64961328125,-25.7199375,-3.8755234375,27.25534765625,24.781828125,25.13301171875,-22.7641328125,-9.55329296875,2.11998828125,-29.6825703125,-36.15282421875,-26.82017578125,-58.11673046875,-38.45982421875,-35.99398046875
60.9280625,16.24337109375,37.97843359375,-36.370734375,30.42842578125,27.20903125,-17.11450390625,-26.73312890625,-29.219640625,-0.384890625,9.35008984375,-14.82151953125,-68.00467578125,-26.2216953125,29.8101171875,10.61261328125,-26.5139375,-4.1445234375,26.25234765625,22.880828125,24.29701171875,-23.6641328125,-11.05529296875,-0.109011718749999,-31.1965703125,-36.96182421875,-28.50217578125,-59.04273046875,-39.12582421875,-36.52798046875
62.9330625,16.40137109375,41.84543359375,-36.842734375,29.40942578125,25.74003125,-20.63650390625,-25.96012890625,-28.518640625,-1.528890625,7.33608984375,-19.38951953125,-70.63867578125,-27.8306953125,30.0121171875,7.59861328125,-27.9679375,-5.1255234375,25.03734765625,21.051828125,23.17701171875,-24.5921328125,-12.35829296875,-2.23301171875,-32.6575703125,-38.29882421875,-29.89017578125,-59.82073046875,-40.15382421875,-37.34798046875
64.7880625,16.56437109375,44.28143359375,-37.985734375,28.38342578125,24.64703125,-22.93950390625,-26.27012890625,-27.164640625,-2.710890625,5.78808984375,-23.59951953125,-73.62167578125,-28.9076953125,30.4321171875,5.40661328125,-30.1759375,-6.7555234375,23.73834765625,19.604828125,21.88601171875,-25.6961328125,-13.49729296875,-3.95701171875,-34.0805703125,-40.12782421875,-31.16417578125,-60.67473046875,-41.78382421875,-38.66198046875
66.2340625,16.79137109375,44.52443359375,-39.660734375,27.79042578125,24.10203125,-23.74250390625,-27.86912890625,-25.908640625,-3.719890625,5.01508984375,-26.82251953125,-76.52367578125,-29.0436953125,31.0041171875,4.54761328125,-32.8219375,-8.6345234375,22.62234765625,18.811828125,20.64801171875,-26.9691328125,-14.41729296875,-4.97901171875,-35.3995703125,-42.12082421875,-32.37317578125,-61.74473046875,-43.94282421875,-40.38198046875
67.2020625,17.06737109375,42.33643359375,-41.624734375,27.73742578125,24.00203125,-23.63750390625,-30.42012890625,-25.432640625,-4.496890625,4.91408984375,-28.72551953125,-78.75867578125,-28.1896953125,31.5961171875,4.92761328125,-35.3329375,-10.2995234375,21.88434765625,18.714828125,19.66801171875,-28.2291328125,-15.06929296875,-5.19701171875,-36.5325703125,-43.83282421875,-33.43217578125,-63.00273046875,-46.24782421875,-42.16198046875
67.7340625,17.25737109375,38.25343359375,-43.600734375,27.91242578125,23.99103125,-23.74350390625,-33.22712890625,-26.103640625,-5.221890625,5.00708984375,-29.21751953125,-79.79167578125,-26.8966953125,31.9821171875,5.85161328125,-37.1739375,-11.5035234375,21.49434765625,19.057828125,19.00501171875,-29.1991328125,-15.50029296875,-4.82801171875,-37.4755703125,-44.94182421875,-34.23117578125,-64.28773046875,-48.18182421875,-43.60998046875
67.8570625,17.16837109375,33.55843359375,-45.291734375,27.82342578125,23.67803125,-24.99750390625,-35.52812890625,-27.843640625,-6.181890625,4.73908984375,-28.46951953125,-79.41567578125,-26.1486953125,31.9141171875,6.35561328125,-38.1199375,-12.3135234375,21.18834765625,19.400828125,18.52601171875,-29.6771328125,-15.90029296875,-4.36401171875,-38.3565703125,-45.43882421875,-34.76217578125,-65.44373046875,-49.37182421875,-44.54098046875
67.5350625,16.70237109375,29.88043359375,-46.369734375,27.21842578125,22.94203125,-27.55550390625,-36.74512890625,-30.199640625,-7.536890625,3.83208984375,-27.01151953125,-77.94667578125,-26.8156953125,31.2591171875,5.72661328125,-38.3449375,-12.9895234375,20.63034765625,19.339828125,17.97501171875,-29.6731328125,-16.52229296875,-4.36801171875,-39.4005703125,-45.62682421875,-35.17217578125,-66.44073046875,-49.79182421875,-45.09098046875
66.7430625,15.98437109375,28.56443359375,-46.558734375,26.34342578125,22.05303125,-30.72050390625,-36.61912890625,-32.585640625,-9.137890625,2.43308984375,-25.67151953125,-76.15367578125,-29.0866953125,30.1251171875,3.88461328125,-38.2669375,-13.7505234375,19.64334765625,18.729828125,17.15101171875,-29.4291328125,-17.53829296875,-5.20501171875,-40.7915703125,-45.90782421875,-35.68217578125,-67.37773046875,-49.74782421875,-45.59398046875
65.5660625,15.34537109375,30.07043359375,-45.853734375,25.79742578125,21.50703125,-33.41150390625,-35.24112890625,-34.513640625,-10.574890625,0.95908984375,-25.19951953125,-74.88967578125,-32.3006953125,28.8531171875,1.41261328125,-38.2769375,-14.6105234375,18.36234765625,17.748828125,16.08901171875,-29.2841328125,-18.88829296875,-6.83701171875,-42.5205703125,-46.48782421875,-36.42717578125,-68.35173046875,-49.65782421875,-46.31898046875
64.2620625,15.14837109375,33.75143359375,-44.647734375,26.11542578125,21.70803125,-34.79050390625,-32.98612890625,-35.693640625,-11.388890625,-0.19191015625,-25.79151953125,-74.64567578125,-35.3056953125,27.8811171875,-0.785386718749999,-38.5169375,-15.3635234375,17.20134765625,16.795828125,15.10901171875,-29.4631328125,-20.25529296875,-8.80801171875,-44.3185703125,-47.21882421875,-37.35017578125,-69.32073046875,-49.77982421875,-47.25798046875
63.2830625,15.57037109375,38.12443359375,-43.558734375,27.42142578125,22.74403125,-34.58650390625,-30.37112890625,-35.971640625,-11.312890625,-0.83591015625,-26.93651953125,-75.33867578125,-37.0656953125,27.5731171875,-1.92538671875,-38.8639375,-15.6805234375,16.65434765625,16.284828125,14.67101171875,-29.9441328125,-21.16829296875,-10.42001171875,-45.7545703125,-47.68182421875,-38.22417578125,-70.07173046875,-50.09582421875,-48.12898046875
63.1850625,16.49837109375,41.50243359375,-43.067734375,29.40642578125,24.38503125,-33.01550390625,-27.96012890625,-35.280640625,-10.367890625,-0.984910156250001,-27.75551953125,-76.46467578125,-37.0996953125,28.0821171875,-1.64738671875,-39.0629375,-15.2315234375,17.06534765625,16.463828125,15.11101171875,-30.4571328125,-21.19529296875,-11.02601171875,-46.4255703125,-47.45082421875,-38.78517578125,-70.33273046875,-50.39082421875,-48.55298046875
64.3850625,17.60337109375,42.66743359375,-43.250734375,31.59342578125,26.22203125,-30.48350390625,-26.34512890625,-33.667640625,-8.790890625,-0.708910156250001,-27.56951953125,-77.45967578125,-35.5546953125,29.3101171875,-0.0823867187499978,-38.9069375,-13.7855234375,18.49134765625,17.335828125,16.43801171875,-30.5991328125,-20.10629296875,-10.29701171875,-46.1485703125,-46.35682421875,-38.86017578125,-69.93873046875,-50.43182421875,-48.28298046875
66.8680625,18.52637109375,41.33343359375,-43.792734375,33.62342578125,27.83503125,-27.38750390625,-26.05312890625,-31.329640625,-6.899890625,-0.0359101562500008,-26.26251953125,-77.97167578125,-32.9826953125,30.9441171875,2.27461328125,-38.3489375,-11.2905234375,20.71134765625,18.685828125,18.29701171875,-29.9951328125,-17.95029296875,-8.34401171875,-45.0405703125,-44.60582421875,-38.43417578125,-68.92373046875,-50.11282421875,-47.33298046875
70.0620625,19.06737109375,38.25943359375,-44.181734375,35.40142578125,28.97003125,-24.09750390625,-27.23112890625,-28.595640625,-4.991890625,1.02808984375,-24.22951953125,-77.90967578125,-30.0566953125,32.5611171875,4.78761328125,-37.5089375,-7.9375234375,23.32134765625,20.181828125,20.13201171875,-28.4571328125,-15.04029296875,-5.68301171875,-43.4705703125,-42.70682421875,-37.63517578125,-67.51473046875,-49.49082421875,-45.97398046875
73.0460625,19.28737109375,34.99143359375,-43.925734375,37.04142578125,29.66003125,-21.03750390625,-29.32812890625,-25.837640625,-3.294890625,2.41008984375,-22.06251953125,-77.35267578125,-27.3356953125,33.7741171875,6.92061328125,-36.6309375,-4.1775234375,25.87934765625,21.500828125,21.45901171875,-26.1141328125,-11.89229296875,-3.04901171875,-41.9085703125,-41.27782421875,-36.68317578125,-66.04773046875,-48.74882421875,-44.61998046875
74.9680625,19.45937109375,33.24743359375,-42.731734375,38.71842578125,30.20603125,-18.72450390625,-31.13912890625,-23.381640625,-1.956890625,3.91908984375,-20.22751953125,-76.47267578125,-25.1856953125,34.3631171875,8.40261328125,-36.0129375,-0.6545234375,28.01634765625,22.433828125,22.09001171875,-23.4171328125,-9.11629296875,-1.13101171875,-40.7455703125,-40.81982421875,-35.82817578125,-64.85373046875,-48.11882421875,-43.68498046875
75.4080625,19.90837109375,34.16743359375,-40.630734375,40.52142578125,30.99403125,-17.65750390625,-31.34712890625,-21.454640625,-1.046890625,5.27308984375,-18.92351953125,-75.49667578125,-23.7936953125,34.3371171875,9.24861328125,-35.9169375,1.9734765625,29.49134765625,22.932828125,22.19501171875,-21.0031328125,-7.27729296875,-0.330011718749999,-40.1555703125,-41.53782421875,-35.28217578125,-64.16673046875,-47.79982421875,-43.45198046875
74.5180625,20.80437109375,37.79343359375,-38.036734375,42.36442578125,32.24303125,-18.11750390625,-29.26512890625,-20.194640625,-0.587890624999999,6.19108984375,-18.11351953125,-74.68767578125,-23.2466953125,33.8951171875,9.63461328125,-36.4759375,3.2344765625,30.19834765625,23.087828125,22.14701171875,-19.4411328125,-6.74429296875,-0.64301171875,-40.0685703125,-43.27382421875,-35.15717578125,-64.07473046875,-47.89582421875,-43.99298046875
72.8720625,22.02137109375,43.04643359375,-35.729734375,43.96842578125,33.81403125,-19.99950390625,-25.35512890625,-19.712640625,-0.590890624999999,6.49308984375,-17.66151953125,-74.30767578125,-23.6066953125,33.3111171875,9.71061328125,-37.6439375,2.9774765625,30.12834765625,23.040828125,22.25301171875,-19.0461328125,-7.60329296875,-1.71501171875,-40.2535703125,-45.57582421875,-35.44717578125,-64.54873046875,-48.40682421875,-45.16998046875
71.1080625,23.13837109375,48.15843359375,-34.750734375,44.93142578125,35.17003125,-22.82950390625,-21.28112890625,-20.177640625,-1.061890625,6.16508984375,-17.45151953125,-74.57667578125,-24.9246953125,32.8031171875,9.47961328125,-39.2469375,1.3534765625,29.31834765625,22.902828125,22.53901171875,-19.8551328125,-9.67829296875,-3.03001171875,-40.4595703125,-47.86582421875,-36.06417578125,-65.53273046875,-49.27182421875,-46.72398046875
69.5680625,23.61737109375,51.36643359375,-36.178734375,44.88742578125,35.54003125,-25.97850390625,-19.37812890625,-21.835640625,-1.976890625,5.37208984375,-17.41851953125,-75.64067578125,-27.2166953125,32.4731171875,8.81661328125,-41.0959375,-1.3295234375,27.83034765625,22.714828125,22.74501171875,-21.7631328125,-12.66029296875,-4.13901171875,-40.5345703125,-49.63782421875,-36.90517578125,-67.03873046875,-50.42882421875,-48.40598046875
68.1870625,23.06137109375,51.57443359375,-40.724734375,43.68242578125,34.26803125,-28.95450390625,-21.61512890625,-24.856640625,-3.245890625,4.36908984375,-17.51951953125,-77.53767578125,-30.4086953125,32.3051171875,7.59761328125,-43.0689375,-4.7535234375,25.75234765625,22.472828125,22.52301171875,-24.6221328125,-16.24029296875,-4.80201171875,-40.4505703125,-50.61782421875,-37.89817578125,-69.13173046875,-51.83582421875,-50.07298046875
66.7200625,21.43737109375,48.79843359375,-48.265734375,41.47442578125,31.22703125,-31.57050390625,-28.46712890625,-29.130640625,-4.737890625,3.37008984375,-17.71851953125,-80.13767578125,-34.3086953125,32.2331171875,5.82761328125,-45.1199375,-8.6565234375,23.22134765625,22.163828125,21.70301171875,-28.2311328125,-20.17829296875,-5.02801171875,-40.2615703125,-50.84382421875,-38.99917578125,-71.80473046875,-53.44982421875,-51.69398046875
65.0690625,19.12937109375,44.18743359375,-57.644734375,38.68942578125,27.01603125,-33.93550390625,-38.38512890625,-34.172640625,-6.336890625,2.44408984375,-17.98151953125,-83.14267578125,-38.6166953125,32.1821171875,3.69161328125,-47.2209375,-12.8015234375,20.42834765625,21.796828125,20.43301171875,-32.2581328125,-24.29129296875,-5.00601171875,-40.0385703125,-50.63382421875,-40.16117578125,-74.85873046875,-55.18682421875,-53.29498046875
65.0690625,19.12937109375,44.18743359375,-57.644734375,38.68942578125,27.01603125,-33.93550390625,-38.38512890625,-34.172640625,-6.336890625,2.44408984375,-17.98151953125,-83.14267578125,-38.6166953125,32.1821171875,3.69161328125,-47.2209375,-12.8015234375,20.42834765625,21.796828125,20.43301171875,-32.2581328125,-24.29129296875,-5.00601171875,-40.0385703125,-50.63382421875,-40.16117578125,-74.85873046875,-55.18682421875,-53.29498046875
