"Fp1","Fpz","Fp2","F7","F3","Fz","F4","F8","FC5","FC1","FC2","FC6","T7","C3","Cz","C4","T8","CP5","CP1","CP2","CP6","P7","P3","Pz","P4","P8","POz","O1","Oz","O2"
-2.2586171875,-1.96194140625,1.00244921875,8.50979296875,2.75509375,-1.3856171875,-4.7311484375,2.83441015625,-1.17380859375,-2.76209375,1.7008984375,-3.9006953125,-7.7830546875,1.9333203125,-0.92400390625,-7.05265234375,-5.0905625,-7.991796875,-2.556078125,-8.04459375,-7.330875,0.1567265625,-9.93955078125,-18.11651953125,-7.2693671875,1.84483203125,-8.24330078125,-5.62320703125,-2.64122265625,-0.93033203125
-4.0536171875,-1.63494140625,1.44444921875,3.63979296875,0.47209375,-3.2346171875,-2.7481484375,1.35841015625,-6.18680859375,-4.02509375,0.3688984375,-1.6576953125,-8.8670546875,-0.445679687499998,-3.06400390625,-4.69465234375,-4.5435625,-7.656796875,-5.969078125,-8.72859375,-6.269875,0.9397265625,-10.95055078125,-20.47651953125,-8.6113671875,1.27783203125,-13.96130078125,-6.11520703125,-3.17822265625,-3.26033203125
-3.7386171875,-0.54994140625,2.19044921875,0.43379296875,-1.81790625,-4.1696171875,-1.4591484375,1.05641015625,-10.36580859375,-5.26309375,-0.5111015625,0.0173046874999994,-7.4140546875,-2.3026796875,-4.36700390625,-3.01565234375,-3.6765625,-7.217796875,-8.138078125,-8.87859375,-5.161875,2.0187265625,-11.72855078125,-22.18051953125,-9.5453671875,1.01783203125,-16.84030078125,-6.13120703125,-3.19522265625,-4.23333203125
-1.9506171875,0.742058593749999,2.75544921875,-1.31220703125,-4.27490625,-4.5386171875,-1.1561484375,1.44141015625,-13.62380859375,-6.59009375,-1.2061015625,0.740304687499999,-4.5800546875,-3.7796796875,-5.02100390625,-2.44765234375,-2.7955625,-6.842796875,-9.264078125,-8.75359375,-4.348875,3.0967265625,-12.36555078125,-23.30651953125,-10.2543671875,0.93783203125,-17.14930078125,-6.04520703125,-2.91422265625,-3.97833203125
-0.2016171875,1.22705859375,2.38844921875,-2.36020703125,-6.99890625,-5.0356171875,-2.0101484375,1.55241015625,-16.00280859375,-8.17509375,-2.1921015625,0.1703046875,-2.5110546875,-5.2026796875,-5.56900390625,-3.37465234375,-2.3875625,-6.826796875,-9.983078125,-8.90259375,-4.325875,3.6547265625,-13.06355078125,-24.15251953125,-11.1133671875,0.77783203125,-16.04430078125,-6.42320703125,-2.77422265625,-3.11133203125
-0.0706171874999999,-0.0539414062500008,0.48644921875,-3.54420703125,-9.89090625,-6.2956171875,-4.0371484375,0.53241015625,-17.58380859375,-10.16709375,-3.9011015625,-1.8286953125,-2.9940546875,-6.8776796875,-6.65400390625,-5.95265234375,-2.8935625,-7.484796875,-11.003078125,-9.91459375,-5.501875,3.2077265625,-14.04355078125,-25.06251953125,-12.5023671875,0.27983203125,-14.84130078125,-7.63020703125,-3.15922265625,-2.39733203125
-2.3676171875,-3.40494140625,-2.97055078125,-5.27820703125,-12.63290625,-8.5386171875,-7.0361484375,-1.87458984375,-18.45380859375,-12.57509375,-6.4621015625,-5.0066953125,-6.4180546875,-8.9016796875,-8.69900390625,-9.92865234375,-4.5075625,-8.976796875,-12.735078125,-12.06759375,-7.930875,1.5877265625,-15.39755078125,-26.21551953125,-14.5453671875,-0.66416796875,-14.38030078125,-9.54120703125,-4.16622265625,-2.35233203125
-6.7126171875,-8.14994140625,-7.24255078125,-7.33420703125,-14.76990625,-11.4396171875,-10.5261484375,-5.16458984375,-18.69980859375,-15.15209375,-9.5661015625,-8.6596953125,-11.5800546875,-11.0496796875,-11.64800390625,-14.54165234375,-7.0605625,-11.153796875,-15.093078125,-15.08259375,-11.146875,-0.9232734375,-16.96555078125,-27.47951953125,-16.9373671875,-1.90616796875,-14.78130078125,-11.53620703125,-5.52222265625,-3.00333203125
-11.6806171875,-12.82294140625,-11.05855078125,-8.99520703125,-15.85490625,-14.2296171875,-13.7411484375,-8.30158984375,-18.39880859375,-17.38409375,-12.5061015625,-11.7846953125,-16.3500546875,-12.8286796875,-14.89800390625,-18.65565234375,-10.0055625,-13.518796875,-17.503078125,-18.13059375,-14.247875,-3.6822734375,-18.31155078125,-28.40951953125,-18.9613671875,-3.05816796875,-15.54530078125,-12.77720703125,-6.69522265625,-3.89933203125
-15.4086171875,-15.77394140625,-13.15755078125,-9.47420703125,-15.60390625,-15.9976171875,-15.8041484375,-10.20358984375,-17.59980859375,-18.64809375,-14.4051015625,-13.4276953125,-18.7640546875,-13.6826796875,-17.47500390625,-21.12165234375,-12.5305625,-15.377796875,-19.123078125,-20.13859375,-16.223875,-5.9402734375,-18.86155078125,-28.41151953125,-19.7493671875,-3.63716796875,-15.84630078125,-12.57920703125,-7.12622265625,-4.37233203125
-16.3576171875,-15.88594140625,-12.86355078125,-8.36920703125,-14.06090625,-16.1006171875,-16.0881484375,-10.23458984375,-16.36980859375,-18.51409375,-14.6001015625,-13.0876953125,-17.9710546875,-13.2776796875,-18.44600390625,-21.23565234375,-13.8045625,-16.144796875,-19.207078125,-20.26859375,-16.388875,-7.1382734375,-18.16255078125,-27.03551953125,-18.6803671875,-3.28316796875,-14.94130078125,-10.72320703125,-6.47522265625,-3.88033203125
-13.9596171875,-13.04794140625,-10.36455078125,-5.94020703125,-11.70890625,-14.5246171875,-14.5821484375,-8.49158984375,-14.91980859375,-17.01409375,-12.9941015625,-10.9666953125,-14.5730546875,-11.7306796875,-17.36100390625,-19.05365234375,-13.2795625,-15.634796875,-17.508078125,-18.32159375,-14.683875,-7.1112734375,-16.14155078125,-24.24551953125,-15.7193671875,-1.95316796875,-12.58530078125,-7.60420703125,-4.81622265625,-2.27433203125
-8.9146171875,-8.22394140625,-6.61355078125,-3.03620703125,-9.39690625,-11.9566171875,-12.0141484375,-5.75158984375,-13.67580859375,-14.71409375,-10.1901015625,-7.9296953125,-10.2170546875,-9.6256796875,-14.50900390625,-15.41665234375,-10.9635625,-14.169796875,-14.452078125,-14.86759375,-11.728875,-6.1272734375,-13.21955078125,-20.52851953125,-11.5273671875,0.0378320312500002,-9.22130078125,-4.16620703125,-2.68522265625,0.10066796875
-2.9836171875,-3.08994140625,-2.94555078125,-0.71020703125,-7.99690625,-9.4656171875,-9.5501484375,-3.10958984375,-13.13880859375,-12.48609375,-7.2591015625,-5.1666953125,-6.7070546875,-7.7716796875,-10.80800390625,-11.63965234375,-7.5515625,-12.413796875,-10.962078125,-11.03759375,-8.587875,-4.7462734375,-10.19655078125,-16.75151953125,-7.2583671875,2.11283203125,-5.79930078125,-1.60320703125,-0.93822265625,2.52766796875
1.7413828125,0.627058593749999,-0.588550781249999,0.27779296875,-7.96390625,-7.9716171875,-8.2021484375,-1.52258984375,-13.55380859375,-11.07909375,-5.2511015625,-3.6846953125,-5.1320546875,-6.8106796875,-7.41200390625,-9.00665234375,-4.2795625,-11.025796875,-8.020078125,-8.06759375,-6.361875,-3.5602734375,-7.93555078125,-13.83551953125,-4.1443671875,3.60383203125,-3.35430078125,-0.90820703125,-0.41722265625,4.18166796875
3.7683828125,1.84205859375,-0.26255078125,-0.21620703125,-9.07590625,-7.8366171875,-8.2991484375,-1.47058984375,-14.66880859375,-10.76009375,-4.7201015625,-3.8856953125,-5.4600546875,-6.9006796875,-5.23300390625,-8.28965234375,-2.4425625,-10.312796875,-6.254078125,-6.81659375,-5.804875,-2.9262734375,-6.99455078125,-12.41351953125,-3.0423671875,3.92483203125,-2.62130078125,-2.43720703125,-1.56322265625,4.43066796875
2.8423828125,0.512058593749999,-1.96355078125,-1.70220703125,-10.53690625,-8.7856171875,-9.3801484375,-2.84958984375,-15.78380859375,-11.22509375,-5.5291015625,-5.4326953125,-6.7320546875,-7.6746796875,-4.63800390625,-9.49465234375,-2.7405625,-10.117796875,-5.753078125,-7.47659375,-7.080875,-2.8322734375,-7.41355078125,-12.63351953125,-4.1583671875,2.71683203125,-3.81630078125,-5.71520703125,-4.18722265625,3.05966796875
-0.103617187499999,-2.47294140625,-5.02055078125,-3.32520703125,-11.37290625,-10.1386171875,-10.5361484375,-5.05558984375,-16.06080859375,-11.84509375,-7.0131015625,-7.4786953125,-7.6840546875,-8.4916796875,-5.42800390625,-11.95365234375,-4.8285625,-9.994796875,-6.171078125,-9.59659375,-9.745875,-2.9542734375,-8.76855078125,-14.19951953125,-7.0253671875,-0.00616796874999981,-6.58030078125,-9.60320703125,-7.52422265625,0.34666796875
-3.6176171875,-5.83094140625,-8.39055078125,-4.26420703125,-10.92390625,-11.1936171875,-10.9841484375,-7.24658984375,-14.92880859375,-12.08009375,-8.3951015625,-9.1136953125,-7.4510546875,-8.8296796875,-7.06600390625,-14.67665234375,-7.4615625,-9.558796875,-7.028078125,-12.36959375,-12.945875,-2.8772734375,-10.44155078125,-16.57451953125,-10.7573671875,-3.76716796875,-10.09530078125,-12.75320703125,-10.55922265625,-3.02733203125
-6.5386171875,-8.51094140625,-11.06255078125,-4.08920703125,-9.15890625,-11.5826171875,-10.5001484375,-8.67458984375,-12.37780859375,-11.78409375,-9.2031015625,-9.7776953125,-5.9400546875,-8.5756796875,-8.98000390625,-16.78365234375,-9.2175625,-8.760796875,-8.014078125,-15.01059375,-15.736875,-2.3342734375,-11.92955078125,-19.23251953125,-14.4023671875,-7.69016796875,-13.41130078125,-14.14020703125,-12.43522265625,-6.18033203125
-8.4536171875,-10.06894140625,-12.40355078125,-2.91220703125,-6.67890625,-11.4106171875,-9.4861484375,-8.98758984375,-9.03280859375,-11.24609375,-9.4551015625,-9.4506953125,-3.7590546875,-8.0556796875,-10.77900390625,-17.81465234375,-9.3345625,-7.921796875,-9.139078125,-17.04159375,-17.415875,-1.3482734375,-13.03555078125,-21.83051953125,-17.2713671875,-10.78816796875,-15.84430078125,-13.41720703125,-12.77122265625,-8.33433203125
-9.6096171875,-10.65394140625,-12.32755078125,-1.25620703125,-4.41390625,-11.1216171875,-8.6721484375,-8.32558984375,-5.94780859375,-10.97109375,-9.5371015625,-8.5746953125,-1.8230546875,-7.8276796875,-12.29900390625,-17.82965234375,-8.0625625,-7.532796875,-10.598078125,-18.36759375,-17.745875,-0.2032734375,-13.86255078125,-24.22451953125,-19.0933671875,-12.36616796875,-17.19830078125,-10.97420703125,-11.77022265625,-9.11333203125
-10.4656171875,-10.71694140625,-11.22955078125,0.24679296875,-3.19990625,-11.1826171875,-8.6831484375,-7.17458984375,-4.19480859375,-11.36009375,-9.8721015625,-7.7776953125,-0.954054687499999,-8.3516796875,-13.50900390625,-17.27065234375,-6.3355625,-7.977796875,-12.510078125,-19.16359375,-16.961875,0.6747265625,-14.66455078125,-26.38851953125,-19.9663671875,-12.29516796875,-17.69030078125,-7.70820703125,-10.09222265625,-8.69533203125
-11.2466171875,-10.66094140625,-9.72755078125,1.12679296875,-3.46290625,-11.8066171875,-9.7021484375,-6.08658984375,-4.43080859375,-12.48309375,-10.6331015625,-7.5616953125,-1.6360546875,-9.7506796875,-14.38600390625,-16.66065234375,-5.0685625,-9.336796875,-14.705078125,-19.65759375,-15.561875,0.8837265625,-15.63655078125,-28.28251953125,-20.1543671875,-10.95916796875,-17.72030078125,-4.63720703125,-8.52922265625,-7.68233203125
-11.7436171875,-10.62194140625,-8.36255078125,1.18879296875,-5.11890625,-12.8676171875,-11.3941484375,-5.40758984375,-6.66680859375,-14.04709375,-11.6501015625,-8.0736953125,-3.9250546875,-11.7626796875,-14.87100390625,-16.29865234375,-4.6245625,-11.372796875,-16.749078125,-19.94159375,-14.032875,0.1357265625,-16.79655078125,-29.79951953125,-19.8763671875,-8.94416796875,-17.66830078125,-2.54220703125,-7.64622265625,-6.74433203125
-11.4676171875,-10.46594140625,-7.41855078125,0.492792968750001,-7.65690625,-13.9826171875,-13.0791484375,-5.17058984375,-10.30080859375,-15.58209375,-12.5401015625,-9.0826953125,-7.4140546875,-13.9076796875,-14.91200390625,-16.14665234375,-4.7565625,-13.670796875,-18.149078125,-19.95059375,-12.663875,-1.6942734375,-18.00955078125,-30.80951953125,-19.2153671875,-6.74616796875,-17.78030078125,-1.77420703125,-7.58722265625,-6.29033203125
-10.0056171875,-9.95694140625,-6.91855078125,-0.71520703125,-10.34290625,-14.6906171875,-14.0561484375,-5.15358984375,-14.37280859375,-16.69409375,-12.9331015625,-10.1226953125,-11.2670546875,-15.7196796875,-14.54600390625,-15.94065234375,-4.9585625,-15.821796875,-18.599078125,-19.57959375,-11.547875,-4.5452734375,-19.11755078125,-31.26551953125,-18.1883671875,-4.69016796875,-18.13030078125,-2.28120703125,-8.14322265625,-6.36733203125
-7.3796171875,-8.95494140625,-6.73555078125,-2.08320703125,-12.46790625,-14.6576171875,-13.9101484375,-5.05658984375,-17.89780859375,-17.24209375,-12.6611015625,-10.7356953125,-14.3800546875,-16.9106796875,-13.93100390625,-15.44165234375,-4.9065625,-17.527796875,-18.141078125,-18.83959375,-10.706875,-8.1062734375,-20.02355078125,-31.26151953125,-16.8773671875,-3.05016796875,-18.66230078125,-3.75120703125,-8.97022265625,-6.80233203125
-4.2076171875,-7.54894140625,-6.72955078125,-3.26920703125,-13.57190625,-13.8356171875,-12.6891484375,-4.70058984375,-20.16280859375,-17.33709375,-11.8281015625,-10.6726953125,-15.7500546875,-17.3846796875,-13.31400390625,-14.62565234375,-4.6755625,-18.593796875,-17.166078125,-17.92059375,-10.189875,-11.7572734375,-20.66955078125,-30.97851953125,-15.5003671875,-2.16516796875,-19.28630078125,-5.74020703125,-9.80322265625,-7.39233203125
-1.5536171875,-6.09594140625,-6.83855078125,-4.06420703125,-13.55090625,-12.5016171875,-10.8841484375,-4.11258984375,-20.84280859375,-17.21509375,-10.7511015625,-10.0036953125,-14.9350546875,-17.1646796875,-12.94800390625,-13.72565234375,-4.6265625,-18.883796875,-16.227078125,-17.12359375,-10.094875,-14.6302734375,-20.96155078125,-30.57051953125,-14.3633671875,-2.38516796875,-19.91030078125,-7.75020703125,-10.51422265625,-7.99533203125
-0.5166171875,-5.15694140625,-7.13055078125,-4.46120703125,-12.63390625,-11.1416171875,-9.2641484375,-3.48658984375,-19.95180859375,-17.09509375,-9.8271015625,-9.0856953125,-12.3310546875,-16.3326796875,-13.02100390625,-13.13665234375,-5.0645625,-18.342796875,-15.755078125,-16.72759375,-10.508875,-15.8662734375,-20.75555078125,-30.07251953125,-13.7383671875,-3.86016796875,-20.37830078125,-9.30720703125,-11.06322265625,-8.50433203125
-1.7206171875,-5.30894140625,-7.75655078125,-4.62120703125,-11.26190625,-10.2636171875,-8.6211484375,-3.06658984375,-17.76280859375,-17.10409375,-9.4071015625,-8.4196953125,-8.9990546875,-15.0566796875,-13.61300390625,-13.23365234375,-5.9555625,-17.068796875,-15.864078125,-16.86959375,-11.438875,-14.9942734375,-19.94955078125,-29.41251953125,-13.7593671875,-6.34216796875,-20.43630078125,-10.06720703125,-11.41122265625,-8.81433203125
-4.9746171875,-6.85694140625,-8.82255078125,-4.78620703125,-9.96890625,-10.2466171875,-9.4851484375,-3.03858984375,-14.80680859375,-17.28909375,-9.7321015625,-8.4376953125,-6.1250546875,-13.6386796875,-14.68600390625,-14.17565234375,-6.9215625,-15.352796875,-16.372078125,-17.50259375,-12.765875,-12.2022734375,-18.59655078125,-28.50551953125,-14.3553671875,-9.17216796875,-19.84630078125,-9.92720703125,-11.48722265625,-8.83133203125
-9.2906171875,-9.59494140625,-10.23055078125,-5.13620703125,-9.24390625,-11.2166171875,-11.8601484375,-3.46258984375,-11.87180859375,-17.63409375,-10.8631015625,-9.2866953125,-4.4430546875,-12.4976796875,-16.05800390625,-15.76465234375,-7.5185625,-13.633796875,-16.963078125,-18.40259375,-14.237875,-8.3302734375,-16.94355078125,-27.33951953125,-15.2513671875,-11.50216796875,-18.56730078125,-9.04320703125,-11.21522265625,-8.51333203125
-13.2696171875,-12.74794140625,-11.61855078125,-5.67120703125,-9.37590625,-12.9656171875,-15.1131484375,-4.21758984375,-9.83780859375,-18.07709375,-12.5961015625,-10.7066953125,-4.0100546875,-12.0366796875,-17.40400390625,-17.46565234375,-7.5595625,-12.365796875,-17.351078125,-19.22559375,-15.472875,-4.5722734375,-15.36755078125,-25.99151953125,-16.0263671875,-12.62816796875,-16.81030078125,-7.76520703125,-10.57122265625,-7.88833203125
-15.6356171875,-15.18794140625,-12.44155078125,-6.16720703125,-10.29590625,-14.9386171875,-18.1161484375,-4.99558984375,-9.34680859375,-18.48409375,-14.4411015625,-12.0886953125,-4.3930546875,-12.4456796875,-18.28800390625,-18.57665234375,-7.2155625,-11.857796875,-17.343078125,-19.58559375,-16.019875,-2.0122734375,-14.21755078125,-24.56251953125,-16.2273671875,-12.27716796875,-14.93630078125,-6.47520703125,-9.61022265625,-7.03733203125
-15.6736171875,-15.83794140625,-12.18855078125,-6.27420703125,-11.54990625,-16.3956171875,-19.6431484375,-5.37958984375,-10.46480859375,-18.62609375,-15.7321015625,-12.7296953125,-5.0560546875,-13.5556796875,-18.27200390625,-18.49065234375,-6.7805625,-12.120796875,-16.834078125,-19.13559375,-15.465875,-1.2092734375,-13.63855078125,-23.07751953125,-15.4993671875,-10.68316796875,-13.29630078125,-5.41620703125,-8.42422265625,-6.03533203125
-13.3546171875,-14.08794140625,-10.59955078125,-5.68320703125,-12.44190625,-16.6856171875,-18.8621484375,-5.01358984375,-12.59680859375,-18.19509375,-15.8781015625,-12.1666953125,-5.6270546875,-14.8296796875,-17.05900390625,-16.91465234375,-6.3295625,-12.795796875,-15.787078125,-17.64559375,-13.589875,-1.9942734375,-13.45955078125,-21.41451953125,-13.6983671875,-8.42716796875,-12.10930078125,-4.58720703125,-7.06122265625,-4.90333203125
-9.1906171875,-10.06094140625,-7.80255078125,-4.25220703125,-12.29990625,-15.5096171875,-15.7391484375,-3.78058984375,-14.71880859375,-16.91609375,-14.6261015625,-10.4076953125,-5.9280546875,-15.5366796875,-14.62900390625,-13.98665234375,-5.5755625,-13.249796875,-14.210078125,-15.09759375,-10.503875,-3.5982734375,-13.24255078125,-19.35251953125,-10.9543671875,-6.15416796875,-11.37230078125,-3.78220703125,-5.49122265625,-3.59133203125
-4.0046171875,-4.64794140625,-4.32155078125,-2.06420703125,-10.77090625,-13.0516171875,-11.1401484375,-1.88358984375,-15.83180859375,-14.71609375,-12.2121015625,-7.9596953125,-5.8960546875,-15.0766796875,-11.32000390625,-10.25965234375,-4.0945625,-12.858796875,-12.174078125,-11.76759375,-6.722875,-5.0552734375,-12.51855078125,-16.74651953125,-7.6913671875,-4.30916796875,-10.87530078125,-2.81720703125,-3.69122265625,-2.05133203125
1.2043828125,0.726058593749999,-0.95755078125,0.53679296875,-8.03190625,-9.9536171875,-6.5611484375,0.201410156249999,-15.38980859375,-11.87609375,-9.3351015625,-5.6096953125,-5.5470546875,-13.3066796875,-7.80800390625,-6.56965234375,-1.7325625,-11.359796875,-9.893078125,-8.25059375,-3.083875,-5.6842734375,-11.09955078125,-13.72951953125,-4.5853671875,-3.04116796875,-10.38030078125,-1.78420703125,-1.81622265625,-0.37433203125
5.3343828125,4.53805859375,1.44444921875,2.96179296875,-4.80290625,-7.1226171875,-3.5381484375,1.89741015625,-13.51580859375,-9.02909375,-6.9251015625,-4.0836953125,-5.0050546875,-10.6766796875,-4.94100390625,-3.79365234375,1.1394375,-9.064796875,-7.789078125,-5.34459375,-0.514875,-5.3892734375,-9.23655078125,-10.79051953125,-2.4263671875,-2.28616796875,-9.89230078125,-1.14520703125,-0.29922265625,1.11866796875
7.3363828125,5.70405859375,2.29444921875,4.53779296875,-2.08790625,-5.3926171875,-2.9701484375,2.77241015625,-10.88980859375,-6.95209375,-5.7731015625,-3.7376953125,-4.5030546875,-8.0776796875,-3.46200390625,-2.55865234375,3.7444375,-6.782796875,-6.415078125,-3.79059375,0.286125,-4.6062734375,-7.52655078125,-8.62951953125,-1.8663671875,-1.93616796875,-9.70730078125,-1.49320703125,0.26877734375,1.95466796875
6.5663828125,4.01005859375,1.48344921875,4.80079296875,-0.730906249999999,-5.1756171875,-4.7031484375,2.71941015625,-8.41880859375,-6.25009375,-6.1691015625,-4.4166953125,-4.2980546875,-6.4466796875,-3.70000390625,-3.02065234375,5.2774375,-5.448796875,-6.199078125,-3.96859375,-0.872875000000001,-3.9672734375,-6.59255078125,-7.82951953125,-3.1383671875,-1.94816796875,-10.15630078125,-3.10720703125,-0.50222265625,1.77366796875
3.1633828125,0.220058593749999,-0.56355078125,3.70579296875,-1.05990625,-6.2996171875,-7.6331484375,1.98441015625,-6.88480859375,-7.10409375,-7.7861015625,-5.5646953125,-4.5360546875,-6.3426796875,-5.43600390625,-4.79365234375,5.2594375,-5.643796875,-7.196078125,-5.70359375,-3.564875,-3.8672734375,-6.74355078125,-8.55351953125,-5.8893671875,-2.31716796875,-11.27330078125,-5.59520703125,-2.43022265625,0.61366796875
-1.8536171875,-4.23094140625,-3.05355078125,1.60879296875,-2.79190625,-8.1516171875,-10.2821484375,1.00441015625,-6.74580859375,-9.18509375,-9.8591015625,-6.4926953125,-5.1440546875,-7.7376796875,-8.00400390625,-7.09565234375,3.6904375,-7.278796875,-9.029078125,-8.30159375,-6.876875,-4.2222734375,-7.80755078125,-10.44451953125,-9.2613671875,-2.97516796875,-12.71230078125,-7.92620703125,-4.68622265625,-1.02133203125
-6.9326171875,-7.83694140625,-5.12555078125,-0.92820703125,-5.23690625,-9.9926171875,-11.5151484375,0.19441015625,-8.07080859375,-11.79409375,-11.5681015625,-6.6756953125,-5.8390546875,-10.0786796875,-10.57700390625,-9.03965234375,1.0154375,-9.631796875,-11.069078125,-10.81259375,-9.718875,-4.5312734375,-9.24755078125,-12.79051953125,-12.2023671875,-3.72616796875,-13.94530078125,-8.93120703125,-6.17322265625,-2.42733203125
-10.5906171875,-9.61194140625,-6.17055078125,-3.29320703125,-7.60090625,-11.2206171875,-10.9881484375,-0.19658984375,-10.51980859375,-14.11509375,-12.3771015625,-5.9346953125,-6.3230546875,-12.5596796875,-12.47000390625,-9.95665234375,-2.0135625,-11.714796875,-12.687078125,-12.40959375,-11.208875,-4.2322734375,-10.47455078125,-14.86051953125,-13.8773671875,-4.29316796875,-14.54730078125,-8.01520703125,-6.16822265625,-3.12033203125
-11.9416171875,-9.36294140625,-6.00155078125,-4.90720703125,-9.25290625,-11.4966171875,-9.1311484375,-0.0945898437500001,-13.37880859375,-15.47709375,-12.1711015625,-4.4486953125,-6.5030546875,-14.4286796875,-13.32700390625,-9.61365234375,-4.4995625,-12.750796875,-13.467078125,-12.67959375,-10.938875,-3.1012734375,-11.12855078125,-16.16951953125,-13.9433671875,-4.41916796875,-14.37430078125,-5.59720703125,-4.77822265625,-3.08733203125
-10.8796171875,-7.54994140625,-4.82155078125,-5.31920703125,-9.86990625,-10.7646171875,-6.7741484375,0.44541015625,-15.75680859375,-15.53309375,-11.1891015625,-2.6286953125,-6.5440546875,-15.2086796875,-13.14600390625,-8.22565234375,-5.5775625,-12.463796875,-13.310078125,-11.71359375,-9.055875,-1.4312734375,-11.16755078125,-16.56551953125,-12.5723671875,-3.92916796875,-13.58930078125,-2.93120703125,-2.85322265625,-2.70133203125
-7.9526171875,-4.92094140625,-3.06555078125,-4.36120703125,-9.47890625,-9.2416171875,-4.7371484375,1.28641015625,-16.95380859375,-14.33809375,-9.8831015625,-0.9546953125,-6.6230546875,-14.8076796875,-12.22600390625,-6.33965234375,-4.6485625,-11.091796875,-12.436078125,-10.00259375,-6.161875,0.1087265625,-10.77055078125,-16.16151953125,-10.2953671875,-2.75016796875,-12.54730078125,-1.40320703125,-1.43522265625,-2.38233203125
-4.1056171875,-2.22494140625,-1.25855078125,-2.29620703125,-8.43590625,-7.3996171875,-3.6011484375,2.21341015625,-16.78380859375,-12.37009375,-8.7801015625,0.137304687499999,-6.6290546875,-13.5266796875,-11.09100390625,-4.66865234375,-1.6745625,-9.208796875,-11.293078125,-8.25459375,-3.141875,0.8457265625,-10.18355078125,-15.24251953125,-7.7833671875,-0.93216796875,-11.58430078125,-1.76420703125,-1.14222265625,-2.30733203125
-0.4506171875,-0.099941406250001,0.0654492187500004,0.18779296875,-7.33690625,-5.8886171875,-3.6961484375,2.92041015625,-15.65180859375,-10.43209375,-8.3911015625,0.330304687499999,-6.1100546875,-11.9736796875,-10.38300390625,-3.92265234375,2.5854375,-7.463796875,-10.413078125,-7.19159375,-0.950875,0.4657265625,-9.63155078125,-14.18651953125,-5.6813671875,1.30083203125,-10.84130078125,-3.76520703125,-1.87422265625,-2.32533203125
1.9453828125,0.956058593749999,0.44944921875,2.17679296875,-6.86090625,-5.3806171875,-5.1501484375,3.05741015625,-14.32380859375,-9.41409375,-9.1171015625,-0.5086953125,-4.5970546875,-10.8616796875,-10.67300390625,-4.61265234375,6.6824375,-6.356796875,-10.237078125,-7.33059375,-0.344875,-0.8112734375,-9.26055078125,-13.37851953125,-4.4423671875,3.55483203125,-10.26130078125,-6.32520703125,-2.94522265625,-2.08533203125
2.2893828125,0.632058593749999,-0.37155078125,2.85379296875,-7.53090625,-6.3456171875,-7.8841484375,2.33641015625,-13.52280859375,-9.94809375,-11.1201015625,-2.2816953125,-2.0690546875,-10.7556796875,-12.23400390625,-6.85265234375,9.0354375,-6.098796875,-10.967078125,-8.79259375,-1.617875,-2.3182734375,-9.09355078125,-13.06951953125,-4.2053671875,5.37483203125,-9.72330078125,-8.07020703125,-3.49122265625,-1.24233203125
0.271382812500001,-1.13094140625,-2.38055078125,1.79479296875,-9.47190625,-8.8236171875,-11.5711484375,0.67341015625,-13.56580859375,-12.13509375,-14.2181015625,-4.6906953125,0.822945312500001,-11.8506796875,-14.89000390625,-10.27965234375,8.6464375,-6.591796875,-12.475078125,-11.24359375,-4.461875,-3.2722734375,-9.02955078125,-13.27851953125,-4.7633671875,6.41083203125,-9.14730078125,-7.99420703125,-2.92222265625,0.34666796875
-3.8136171875,-4.12294140625,-5.28255078125,-0.88720703125,-12.30590625,-12.3266171875,-15.6261484375,-1.72958984375,-14.25880859375,-15.47009375,-17.8641015625,-7.3486953125,2.9899453125,-13.9066796875,-18.05200390625,-14.14865234375,5.5404375,-7.530796875,-14.334078125,-14.02059375,-8.066875,-3.1662734375,-8.92655078125,-13.78551953125,-5.6933671875,6.51383203125,-8.49930078125,-5.94520703125,-1.22522265625,2.49766796875
-9.0556171875,-7.84994140625,-8.56655078125,-4.57920703125,-15.25790625,-15.9516171875,-19.2821484375,-4.41558984375,-15.10680859375,-19.02109375,-21.2521015625,-9.8546953125,3.4749453125,-16.3586796875,-20.92500390625,-17.57565234375,0.7004375,-8.556796875,-15.989078125,-16.39459375,-11.422875,-2.0302734375,-8.70055078125,-14.25251953125,-6.5753671875,5.73183203125,-7.79930078125,-2.69820703125,1.01777734375,4.68766796875
-14.0886171875,-11.54194140625,-11.58755078125,-8.36020703125,-17.46190625,-18.6956171875,-21.7301484375,-6.80958984375,-15.70080859375,-21.76009375,-23.5491015625,-11.8066953125,1.9799453125,-18.5406796875,-22.78800390625,-19.80665234375,-4.3465625,-9.382796875,-17.014078125,-17.83459375,-13.679875,-0.3752734375,-8.37155078125,-14.36451953125,-7.1633671875,4.25083203125,-7.14530078125,0.48079296875,2.92377734375,6.20966796875
-17.4736171875,-14.29694140625,-13.68855078125,-11.26420703125,-18.31690625,-19.8326171875,-22.3541484375,-8.37858984375,-15.98280859375,-22.94809375,-24.1731015625,-12.8216953125,-0.9790546875,-19.9296796875,-23.22400390625,-20.44165234375,-8.0695625,-9.858796875,-17.278078125,-18.14159375,-14.437875,1.1207265625,-8.03455078125,-13.94351953125,-7.4293671875,2.35183203125,-6.69030078125,2.50379296875,3.78177734375,6.47566796875
-18.2556171875,-15.42694140625,-14.40155078125,-12.56020703125,-17.72390625,-19.1776171875,-20.9801484375,-8.77958984375,-16.21280859375,-22.41609375,-23.0341015625,-12.6446953125,-4.3380546875,-20.2936796875,-22.23500390625,-19.55165234375,-9.4175625,-9.975796875,-16.919078125,-17.46059375,-13.829875,1.9767265625,-7.77355078125,-12.98251953125,-7.5023671875,0.39283203125,-6.50530078125,2.96579296875,3.40377734375,5.32066796875
-16.4066171875,-14.81494140625,-13.64855078125,-11.98320703125,-16.08990625,-17.1376171875,-18.0221484375,-7.94858984375,-16.66880859375,-20.61009375,-20.5891015625,-11.3116953125,-7.0000546875,-19.6816796875,-20.20100390625,-17.62465234375,-8.1185625,-9.800796875,-16.180078125,-16.15959375,-12.405875,2.0927265625,-7.60355078125,-11.61751953125,-7.5393671875,-1.25616796875,-6.48530078125,2.19779296875,2.16677734375,3.11566796875
-12.8456171875,-12.97494140625,-11.79655078125,-9.81820703125,-14.09590625,-14.5106171875,-14.3531484375,-6.09858984375,-17.34280859375,-18.32809375,-17.6651015625,-9.2116953125,-8.3400546875,-18.2846796875,-17.70600390625,-15.33265234375,-4.7095625,-9.384796875,-15.229078125,-14.64759375,-10.841875,1.6807265625,-7.43255078125,-10.05151953125,-7.6263671875,-2.34816796875,-6.42630078125,0.92279296875,0.72077734375,0.57666796875
-8.9536171875,-10.75694140625,-9.49555078125,-6.75120703125,-12.33290625,-12.0936171875,-10.9411484375,-3.62958984375,-17.84980859375,-16.29609375,-15.0901015625,-6.9516953125,-8.3990546875,-16.2836796875,-15.30100390625,-13.23965234375,-0.2805625,-8.708796875,-14.080078125,-13.20659375,-9.635875,1.0507265625,-7.10055078125,-8.47851953125,-7.7463671875,-2.90016796875,-6.18730078125,-0.18720703125,-0.42022265625,-1.62033203125
-5.9196171875,-8.89694140625,-7.40555078125,-3.53520703125,-11.00390625,-10.3116171875,-8.4541484375,-1.01758984375,-17.58980859375,-14.83109375,-13.3331015625,-5.1136953125,-7.6420546875,-13.7896796875,-13.31600390625,-11.61665234375,3.9234375,-7.702796875,-12.631078125,-11.93759375,-8.941875,0.4327265625,-6.46555078125,-7.03351953125,-7.8253671875,-3.21216796875,-5.74430078125,-0.80020703125,-1.12622265625,-3.16133203125
-4.2876171875,-7.73694140625,-5.95455078125,-0.69120703125,-9.86690625,-9.0826171875,-7.0451484375,1.28641015625,-16.04480859375,-13.76809375,-12.3611015625,-4.0226953125,-6.5070546875,-10.8926796875,-11.80200390625,-10.44965234375,6.8964375,-6.326796875,-10.778078125,-10.80459375,-8.593875,-0.0642734375,-5.49355078125,-5.78951953125,-7.7923671875,-3.70616796875,-5.14030078125,-0.94920703125,-1.59822265625,-4.13733203125
-3.9006171875,-7.18594140625,-5.23755078125,1.56679296875,-8.44090625,-7.9866171875,-6.3921484375,2.92841015625,-13.04780859375,-12.66409375,-11.7611015625,-3.6316953125,-5.1380546875,-7.7676796875,-10.59200390625,-9.55765234375,8.1264375,-4.665796875,-8.562078125,-9.72659375,-8.265875,-0.4002734375,-4.29555078125,-4.77251953125,-7.6153671875,-4.66816796875,-4.44230078125,-0.88620703125,-2.12622265625,-4.84433203125
-4.1536171875,-6.87794140625,-5.06155078125,3.19779296875,-6.34690625,-6.6096171875,-5.9531484375,3.74141015625,-8.90980859375,-11.11009375,-11.0391015625,-3.5856953125,-3.4830546875,-4.7326796875,-9.43700390625,-8.72865234375,7.6794375,-2.959796875,-6.219078125,-8.64159375,-7.665875,-0.5632734375,-3.10655078125,-3.98251953125,-7.2753671875,-6.06116796875,-3.75330078125,-0.89020703125,-2.86222265625,-5.52433203125
-4.3786171875,-6.41594140625,-5.09455078125,4.14679296875,-3.57690625,-4.8136171875,-5.2821484375,3.83741015625,-4.36780859375,-9.00409375,-9.9001015625,-3.4166953125,-1.5510546875,-2.2136796875,-8.13600390625,-7.81765234375,6.0834375,-1.553796875,-4.106078125,-7.54059375,-6.660875,-0.5702734375,-2.20355078125,-3.41451953125,-6.7473671875,-7.53416796875,-3.17930078125,-1.12620703125,-3.74622265625,-6.21133203125
-4.1986171875,-5.59294140625,-5.01355078125,4.30479296875,-0.554906249999999,-2.8036171875,-4.2671484375,3.62741015625,-0.373808593749999,-6.64409375,-8.3581015625,-2.7836953125,0.453945312500001,-0.614679687499998,-6.63800390625,-6.79065234375,4.0884375,-0.777796875,-2.529078125,-6.45559375,-5.307875,-0.4852734375,-1.81155078125,-3.06151953125,-5.9963671875,-8.58916796875,-2.73530078125,-1.54720703125,-4.54722265625,-6.72133203125
-3.6716171875,-4.47894140625,-4.57855078125,3.62479296875,2.03209375,-1.0106171875,-3.1491484375,3.67141015625,2.17119140625,-4.58609375,-6.6751015625,-1.6256953125,2.2069453125,-0.162679687499998,-5.05800390625,-5.70565234375,2.3914375,-0.792796875000001,-1.630078125,-5.43759375,-3.781875,-0.3922734375,-1.99555078125,-2.89051953125,-4.9963671875,-8.78916796875,-2.31030078125,-1.87120703125,-4.94922265625,-6.72633203125
-3.1516171875,-3.31594140625,-3.65155078125,2.28479296875,3.52009375,0.1323828125,-2.3331484375,4.38541015625,2.67119140625,-3.36409375,-5.1771015625,-0.163695312500001,3.4059453125,-0.820679687499998,-3.62400390625,-4.65065234375,1.4344375,-1.506796875,-1.370078125,-4.51659375,-2.271875,-0.3472734375,-2.61455078125,-2.82351953125,-3.7563671875,-7.91416796875,-1.75530078125,-1.68820703125,-4.64722265625,-5.88033203125
-2.9946171875,-2.34894140625,-2.24055078125,0.74379296875,3.56109375,0.4003828125,-2.0981484375,5.78241015625,1.04719140625,-3.22709375,-4.1001015625,1.2023046875,3.8529453125,-2.3136796875,-2.57100390625,-3.71465234375,1.3104375,-2.618796875,-1.607078125,-3.70459375,-0.924875,-0.3702734375,-3.38255078125,-2.76951953125,-2.3663671875,-6.02816796875,-1.00730078125,-0.70920703125,-3.50422265625,-4.01733203125
-3.3146171875,-1.72494140625,-0.56855078125,-0.41120703125,2.27709375,-0.1186171875,-2.4211484375,7.41041015625,-2.17280859375,-4.03609375,-3.5161015625,2.0353046875,3.4749453125,-4.2346796875,-2.05100390625,-2.99765234375,1.7644375,-3.768796875,-2.171078125,-3.03459375,0.139125,-0.4802734375,-4.03255078125,-2.69251953125,-1.0233671875,-3.47716796875,-0.14330078125,0.95579296875,-1.70822265625,-1.33833203125
-3.9616171875,-1.49894140625,0.92344921875,-0.77320703125,0.22009375,-1.0806171875,-2.9931484375,8.52041015625,-5.97380859375,-5.33509375,-3.3511015625,2.0063046875,2.3449453125,-6.1566796875,-2.07100390625,-2.61165234375,2.2634375,-4.691796875,-2.936078125,-2.58459375,0.809125,-0.7372734375,-4.44255078125,-2.65951953125,0.0076328125000007,-0.79316796875,0.62669921875,2.72979296875,0.19677734375,1.55666796875
-4.6256171875,-1.64494140625,1.75144921875,-0.36720703125,-1.82390625,-2.0446171875,-3.3771484375,8.41541015625,-9.17180859375,-6.53109375,-3.4321015625,1.0563046875,0.6899453125,-7.6806796875,-2.48100390625,-2.59965234375,2.1654375,-5.255796875,-3.834078125,-2.41359375,1.039125,-1.2222734375,-4.63055078125,-2.76751953125,0.545632812500001,1.49083203125,1.02669921875,3.82479296875,1.55177734375,3.90566796875
-4.9486171875,-1.99394140625,1.68044921875,0.39579296875,-3.09390625,-2.6096171875,-3.2011484375,6.83741015625,-10.80480859375,-7.07809375,-3.5071015625,-0.472695312500001,-1.1370546875,-8.4376796875,-2.98600390625,-2.81165234375,1.0284375,-5.389796875,-4.772078125,-2.44959375,0.952125000000001,-1.9342734375,-4.60955078125,-2.98751953125,0.6786328125,3.05283203125,0.89569921875,3.72879296875,1.98577734375,5.20066796875
-4.5976171875,-2.18494140625,0.93144921875,1.04479296875,-3.08790625,-2.4696171875,-2.3101484375,4.20241015625,-10.41480859375,-6.63509375,-3.2681015625,-1.8686953125,-2.7660546875,-8.1266796875,-3.19600390625,-2.88665234375,-1.0695625,-5.007796875,-5.507078125,-2.41659375,0.882125,-2.7062734375,-4.25455078125,-3.04551953125,0.8046328125,3.88983203125,0.390699218749999,2.58179296875,1.69777734375,5.49166796875
-3.3826171875,-1.78194140625,0.12244921875,1.37279296875,-1.74090625,-1.4936171875,-0.874148437500001,1.49841015625,-8.15480859375,-5.19309375,-2.4581015625,-2.3566953125,-3.9000546875,-6.6336796875,-2.75700390625,-2.39565234375,-3.3905625,-4.023796875,-5.625078125,-1.92359375,1.243125,-3.2142734375,-3.31955078125,-2.49951953125,1.4556328125,4.24083203125,-0.00430078125000044,1.11079296875,1.32777734375,5.30366796875
-1.3976171875,-0.54494140625,-0.0865507812499997,1.47279296875,0.512093750000001,0.1733828125,0.610851562500001,-0.171589843750001,-4.72580859375,-3.10309375,-1.0431015625,-1.5496953125,-4.3170546875,-4.1696796875,-1.52700390625,-1.10465234375,-4.7745625,-2.460796875,-4.736078125,-0.68659375,2.291125,-3.1182734375,-1.60655078125,-1.00051953125,2.9486328125,4.38283203125,0.201699218749999,0.16779296875,1.47277734375,5.21166796875
0.9353828125,1.31605859375,0.59444921875,1.53579296875,2.87109375,2.0693828125,1.4828515625,-0.16058984375,-1.15280859375,-0.97109375,0.684898437499999,0.240304687499999,-3.8000546875,-1.3086796875,0.30899609375,0.822347656250001,-4.2235625,-0.543796875,-2.736078125,1.25740625,3.930125,-2.2442734375,0.83244921875,1.42448046875,5.1176328125,4.43683203125,1.12469921875,0.18979296875,2.22077734375,5.38366796875
3.0083828125,3.16905859375,1.89644921875,1.65879296875,4.51209375,3.5993828125,1.2498515625,1.39141015625,1.55119140625,0.57690625,2.2218984375,2.0903046875,-2.1860546875,1.1873203125,2.30199609375,2.84734765625,-1.5215625,1.336203125,0.0619218750000012,3.50340625,5.721125,-0.6942734375,3.64044921875,4.29148046875,7.3376328125,4.33783203125,2.44769921875,1.00979296875,3.08477734375,5.48866796875
4.3033828125,4.28205859375,3.15944921875,1.80779296875,4.95309375,4.3473828125,-0.088148437500001,3.66141015625,2.73419140625,1.17490625,3.1308984375,2.9713046875,0.389945312500001,2.6903203125,3.95099609375,4.31734765625,2.5374375,2.782203125,3.043921875,5.45040625,7.098125,1.1587265625,6.28844921875,6.88848046875,8.8576328125,3.97283203125,3.71569921875,2.09879296875,3.40077734375,5.03366796875
4.6133828125,4.25205859375,3.74044921875,1.83879296875,4.22309375,4.2773828125,-1.9841484375,5.59641015625,2.27219140625,0.873906250000001,3.2778984375,2.3433046875,3.2459453125,2.9793203125,4.93399609375,4.81334765625,6.4944375,3.575203125,5.548921875,6.60240625,7.680125,2.8087265625,8.30844921875,8.64248046875,9.2376328125,3.38583203125,4.67969921875,3.00579296875,2.83677734375,3.84166796875
4.0223828125,3.20505859375,3.38044921875,1.52779296875,2.73409375,3.6503828125,-3.6351484375,6.43241015625,0.472191406250001,0.05190625,2.8388984375,0.4593046875,5.2319453125,2.2653203125,5.18099609375,4.33034765625,8.9844375,3.729203125,7.083921875,6.78440625,7.452125,3.7877265625,9.45844921875,9.37848046875,8.5856328125,2.87283203125,5.40369921875,3.61479296875,1.63277734375,2.28066796875
2.7223828125,1.66505859375,2.29044921875,0.63079296875,0.99109375,2.7803828125,-4.4221484375,6.00241015625,-2.18480859375,-0.869093749999999,2.0978984375,-1.8236953125,5.2289453125,0.975320312500001,4.78099609375,3.20534765625,9.4044375,3.396203125,7.436921875,6.16640625,6.732125,3.8207265625,9.73944921875,9.32048046875,7.4576328125,2.87083203125,6.13769921875,4.07779296875,0.424777343750001,1.09466796875
0.8553828125,0.207058593749999,0.94744921875,-0.96620703125,-0.636906249999999,1.8203828125,-4.2291484375,4.69541015625,-5.22980859375,-1.67909375,1.2178984375,-3.5636953125,2.7919453125,-0.513679687499998,3.82999609375,1.85834765625,8.0854375,2.748203125,6.703921875,5.10540625,5.951125,2.9277265625,9.31344921875,8.87048046875,6.5166328125,3.68283203125,7.10969921875,4.55279296875,-0.17822265625,0.96366796875
-1.4586171875,-0.814941406250001,-0.23455078125,-3.09520703125,-1.97290625,0.7173828125,-3.4361484375,3.12741015625,-8.18480859375,-2.44509375,0.1668984375,-4.2326953125,-1.5000546875,-1.9736796875,2.36999609375,0.577347656250002,5.8934375,1.950203125,5.218921875,3.94640625,5.410125,1.4317265625,8.42444921875,8.36048046875,6.1816328125,5.22983203125,8.32569921875,5.02379296875,0.0387773437500005,2.10166796875
-3.9626171875,-1.34794140625,-1.11155078125,-5.25720703125,-2.97490625,-0.6866171875,-2.6761484375,1.74741015625,-10.47580859375,-3.37209375,-1.2031015625,-3.9256953125,-6.1940546875,-3.2676796875,0.445996093750001,-0.555652343749999,3.6054375,1.207203125,3.422921875,2.88640625,5.143125,-0.1342734375,7.34544921875,7.91448046875,6.4586328125,6.98883203125,9.47869921875,5.34079296875,0.804777343750001,4.11966796875
-6.1586171875,-1.52594140625,-1.79855078125,-6.74320703125,-3.65390625,-2.4926171875,-2.5291484375,0.64541015625,-11.49180859375,-4.60009375,-2.9791015625,-3.2126953125,-9.5530546875,-4.2726796875,-1.80700390625,-1.59865234375,1.5244375,0.752203124999999,1.717921875,1.94340625,4.953125,-1.2442734375,6.32544921875,7.46048046875,6.9996328125,8.20383203125,10.05369921875,5.39679296875,1.55277734375,6.22766796875
-7.4216171875,-1.50694140625,-2.48755078125,-6.88620703125,-4.02590625,-4.5916171875,-3.2781484375,-0.35258984375,-10.85280859375,-6.07809375,-5.0541015625,-2.7906953125,-10.3070546875,-4.8926796875,-4.11600390625,-2.64365234375,-0.4325625,0.738203125,0.376921875000001,1.03340625,4.564125,-1.6132734375,5.51444921875,6.84648046875,7.3126328125,8.24083203125,9.61369921875,5.22879296875,1.71877734375,7.62166796875
-7.2906171875,-1.35994140625,-3.26355078125,-5.38420703125,-4.09190625,-6.6316171875,-4.7951484375,-1.43958984375,-8.70980859375,-7.55709375,-7.1011015625,-3.1186953125,-8.2190546875,-5.1256796875,-6.09800390625,-3.73065234375,-2.3395625,1.115203125,-0.491078125,0.0774062499999992,3.789125,-1.3312734375,4.91544921875,5.98448046875,6.9976328125,6.88683203125,8.04869921875,4.95079296875,0.99877734375,7.84266796875
-5.7386171875,-1.06594140625,-4.03155078125,-2.53220703125,-3.84090625,-8.1316171875,-6.5831484375,-2.65258984375,-5.79780859375,-8.66509375,-8.6851015625,-4.2146953125,-4.2000546875,-5.0796796875,-7.36700390625,-4.80465234375,-3.9605625,1.621203125,-0.920078125,-0.899593750000001,2.641125,-0.8052734375,4.42144921875,4.92848046875,5.9026328125,4.44183203125,5.62969921875,4.61579296875,-0.551222656249999,6.92366796875
-3.2396171875,-0.61394140625,-4.62055078125,0.85279296875,-3.26890625,-8.7136171875,-7.9961484375,-3.90358984375,-3.11480859375,-9.06509375,-9.4571015625,-5.6906953125,0.0749453125000006,-4.9026796875,-7.68100390625,-5.75965234375,-4.8185625,1.927203125,-1.048078125,-1.78159375,1.291125,-0.5362734375,3.90444921875,3.85048046875,4.1386328125,1.56083203125,2.88369921875,4.16279296875,-2.55322265625,5.32566796875
-0.5776171875,-0.119941406250001,-4.94355078125,3.82379296875,-2.43390625,-8.3156171875,-8.5871484375,-5.13058984375,-1.41580859375,-8.63709375,-9.3401015625,-7.0226953125,2.9259453125,-4.7016796875,-7.09400390625,-6.54265234375,-4.5505625,1.811203125,-1.063078125,-2.47859375,-0.073875000000001,-0.8652734375,3.27144921875,2.91048046875,1.9746328125,-1.05816796875,0.42069921875,3.52279296875,-4.45022265625,3.70166796875
1.4803828125,0.154058593749999,-5.09455078125,5.74079296875,-1.51290625,-7.2656171875,-8.3751484375,-6.41958984375,-0.888808593749998,-7.58409375,-8.6131015625,-7.8616953125,3.4329453125,-4.5306796875,-5.99700390625,-7.23465234375,-3.2675625,1.247203125,-1.156078125,-3.03859375,-1.393875,-1.8222734375,2.46144921875,2.13148046875,-0.319367187499999,-2.98316796875,-1.26430078125,2.73379296875,-5.73422265625,2.59666796875
2.4793828125,-0.0629414062500011,-5.28455078125,6.47579296875,-0.80890625,-6.1626171875,-7.8391484375,-7.94458984375,-1.21680859375,-6.37209375,-7.8111015625,-8.1946953125,1.7939453125,-4.4366796875,-4.99600390625,-8.00765234375,-1.6225625,0.359203124999999,-1.498078125,-3.64859375,-2.751875,-3.1602734375,1.42544921875,1.36548046875,-2.5563671875,-4.18416796875,-1.99430078125,1.92779296875,-6.20122265625,2.18866796875
2.4173828125,-0.838941406250001,-5.67555078125,6.31479296875,-0.63390625,-5.5886171875,-7.5801484375,-9.75358984375,-1.91180859375,-5.47909375,-7.4591015625,-8.2466953125,-0.8990546875,-4.4756796875,-4.62900390625,-8.96665234375,-0.552562500000001,-0.677796875,-2.194078125,-4.49259375,-4.239875,-4.5202734375,0.144449218749999,0.419480468750002,-4.6173671875,-4.93616796875,-2.00730078125,1.17079296875,-6.09822265625,2.20166796875
1.6703828125,-1.92394140625,-6.23355078125,5.73979296875,-1.09690625,-5.7776171875,-7.8941484375,-11.57358984375,-2.58080859375,-5.12909375,-7.7801015625,-8.2336953125,-3.3020546875,-4.6696796875,-5.07300390625,-9.99165234375,-0.834562500000001,-1.703796875,-3.182078125,-5.56959375,-5.771875,-5.5862734375,-1.30255078125,-0.742519531249997,-6.3593671875,-5.54116796875,-1.78230078125,0.37179296875,-6.00622265625,2.09166796875
0.7883828125,-2.83494140625,-6.69855078125,5.24079296875,-1.93590625,-6.4516171875,-8.5401484375,-12.83058984375,-2.98080859375,-5.16509375,-8.5381015625,-8.1666953125,-4.4660546875,-4.9256796875,-6.02400390625,-10.70365234375,-2.6965625,-2.555796875,-4.174078125,-6.59559375,-7.015875,-6.1382734375,-2.66955078125,-1.85651953125,-7.5383671875,-6.07216796875,-1.68530078125,-0.60520703125,-6.44822265625,1.44266796875
0.2443828125,-3.08994140625,-6.70655078125,5.16679296875,-2.57990625,-6.9596171875,-8.8581484375,-12.93458984375,-2.94480859375,-5.14209375,-9.1611015625,-7.8486953125,-4.1600546875,-5.0226796875,-6.82600390625,-10.60565234375,-5.6655625,-3.025796875,-4.735078125,-7.08759375,-7.500875,-6.0072734375,-3.54155078125,-2.39551953125,-7.8333671875,-6.29016796875,-1.71630078125,-1.67520703125,-7.45522265625,0.317667968749999
0.287382812500001,-2.44994140625,-5.99855078125,5.61179296875,-2.44490625,-6.6456171875,-8.1651484375,-11.65858984375,-2.37380859375,-4.60109375,-9.0641015625,-7.0396953125,-2.7840546875,-4.7166796875,-6.81600390625,-9.34365234375,-8.7295625,-2.887796875,-4.509078125,-6.59959375,-6.883875,-5.0702734375,-3.48455078125,-1.81951953125,-6.9883671875,-5.83016796875,-1.55230078125,-2.41420703125,-8.44222265625,-0.71733203125
0.8773828125,-1.06294140625,-4.60155078125,6.36379296875,-1.29990625,-5.2266171875,-6.1791484375,-9.32458984375,-1.35380859375,-3.35809375,-7.9741015625,-5.6776953125,-1.0310546875,-3.9246796875,-5.68200390625,-6.97165234375,-10.7295625,-2.027796875,-3.430078125,-5.00659375,-5.191875,-3.3552734375,-2.28055078125,0.0844804687500016,-5.0123671875,-4.51116796875,-0.79630078125,-2.28220703125,-8.54622265625,-0.94933203125
1.7233828125,0.576058593749999,-2.89155078125,6.97179296875,0.534093750000001,-2.9506171875,-3.2551484375,-6.68658984375,-0.266808593749998,-1.65109375,-6.0961015625,-4.0136953125,0.4249453125,-2.8576796875,-3.65200390625,-4.04465234375,-10.8375625,-0.601796875000002,-1.791078125,-2.64159375,-2.882875,-1.1762734375,-0.134550781250001,2.99348046875,-2.2753671875,-2.56916796875,0.76169921875,-1.05520703125,-7.21522265625,-0.00633203125000037
2.4113828125,1.82705859375,-1.45155078125,6.91679296875,2.30409375,-0.4896171875,-0.2861484375,-4.58458984375,0.288191406250002,-0.0480937499999996,-4.0141015625,-2.5756953125,1.0809453125,-1.9726796875,-1.40000390625,-1.43265234375,-8.8895625,0.926203124999999,-0.110078124999999,-0.187593750000001,-0.671875,0.8767265625,2.34544921875,6.12148046875,0.5796328125,-0.62316796875,2.97569921875,0.938792968750001,-4.61022265625,1.85066796875
2.5833828125,2.19005859375,-0.80555078125,5.85679296875,3.21409375,1.3753828125,1.6918515625,-3.60058984375,-0.161808593749999,0.876906250000001,-2.4101015625,-1.9356953125,0.665945312500001,-1.7116796875,0.316996093749999,0.0733476562500002,-5.4205625,1.986203125,1.125921875,1.65640625,0.784125,2.1907265625,4.41844921875,8.59148046875,2.8986328125,0.61083203125,5.34669921875,2.98079296875,-1.56322265625,3.83966796875
2.1093828125,1.51905859375,-1.15055078125,3.85979296875,2.89909375,2.1543828125,2.0168515625,-3.86358984375,-1.55080859375,0.915906250000001,-1.7011015625,-2.4086953125,-0.767054687499999,-2.1616796875,1.08099609375,0.16634765625,-1.4055625,2.229203125,1.720921875,2.53140625,1.167125,2.4797265625,5.58644921875,9.85948046875,4.2986328125,0.70283203125,7.23569921875,4.40179296875,0.868777343750001,5.08466796875
1.1603828125,0.102058593749999,-2.23355078125,1.52279296875,1.68509375,1.9373828125,0.7848515625,-5.04558984375,-3.13180859375,0.418906250000001,-1.7931015625,-3.8486953125,-2.7710546875,-2.9056796875,1.05499609375,-0.82065234375,2.1274375,1.781203125,1.908921875,2.58140625,0.590125,1.9497265625,5.81744921875,9.96748046875,4.8176328125,-0.23816796875,8.21569921875,4.91779296875,1.92577734375,5.09566796875
0.1713828125,-1.41094140625,-3.44155078125,-0.19220703125,0.47509375,1.3823828125,-1.1291484375,-6.52158984375,-3.81080859375,0.16390625,-2.1071015625,-5.6566953125,-4.5610546875,-3.1946796875,0.89299609375,-2.07765234375,4.4154375,1.203203125,2.221921875,2.33840625,-0.500875000000001,1.1427265625,5.50844921875,9.46448046875,4.8386328125,-1.60516796875,8.29369921875,4.65879296875,1.44777734375,4.01866796875
-0.300617187499999,-2.20894140625,-4.06255078125,-0.39820703125,0.29009375,1.3793828125,-2.4461484375,-7.62658984375,-2.76180859375,0.96490625,-1.8701015625,-7.0226953125,-5.2780546875,-2.3546796875,1.37299609375,-2.70465234375,5.1444375,1.175203125,3.159921875,2.42340625,-1.521875,0.5747265625,5.23044921875,9.07848046875,4.8776328125,-2.58716796875,7.85269921875,3.98079296875,-0.13522265625,2.55266796875
0.194382812500001,-1.65494140625,-3.59255078125,1.22979296875,1.75409375,2.5763828125,-2.1061484375,-7.89158984375,0.102191406250002,3.23690625,-0.5341015625,-7.2706953125,-4.3710546875,-0.175679687499999,2.96799609375,-2.10465234375,4.4904375,2.119203125,4.876921875,3.23740625,-1.966875,0.4577265625,5.44444921875,9.36148046875,5.3256328125,-2.57716796875,7.41669921875,3.27279296875,-2.04422265625,1.58466796875
1.7513828125,0.376058593749999,-1.97155078125,4.25779296875,4.80109375,5.0613828125,0.1728515625,-7.18958984375,4.09019140625,6.76090625,1.9328984375,-6.1636953125,-1.8960546875,2.9533203125,5.60599609375,-0.226652343749999,3.0454375,3.963203125,7.097921875,4.79440625,-1.570875,0.6407265625,6.30444921875,10.46248046875,6.2896328125,-1.46616796875,7.44469921875,2.83279296875,-3.49822265625,1.74066796875
3.9913828125,3.34605859375,0.39844921875,7.66979296875,8.71209375,8.3403828125,3.7088515625,-5.74958984375,8.05319140625,10.76090625,5.0088984375,-4.0236953125,1.4669453125,6.2093203125,8.71999609375,2.44334765625,1.6084375,6.161203125,9.276921875,6.74140625,-0.393875,0.7597265625,7.61444921875,12.12948046875,7.5636328125,0.31983203125,8.19769921875,2.79479296875,-4.02022265625,3.06366796875
6.2083828125,6.26305859375,2.85144921875,10.30979296875,12.41909375,11.5643828125,7.1598515625,-4.05458984375,10.83519140625,14.24090625,7.8618984375,-1.6056953125,4.7339453125,8.6833203125,11.53499609375,5.12734765625,0.8964375,7.938203125,10.838921875,8.55040625,1.219125,0.4577265625,8.93344921875,13.87648046875,8.7526328125,2.06283203125,9.61569921875,3.07579296875,-3.59322265625,4.98566796875
7.7323828125,8.17805859375,4.78744921875,11.33379296875,14.92509375,13.9043828125,9.2028515625,-2.66158984375,11.66119140625,16.40590625,9.7398984375,0.2603046875,7.0709453125,9.7573203125,13.42399609375,7.13334765625,1.2594375,8.633203125,11.405921875,9.78440625,2.809125,-0.4142734375,9.76844921875,15.21248046875,9.4726328125,3.11983203125,11.27869921875,3.40079296875,-2.59322265625,6.62866796875
8.2763828125,8.68005859375,5.93044921875,10.52379296875,15.68309375,14.9123828125,9.2168515625,-1.97358984375,10.39219140625,16.94990625,10.3348984375,1.0803046875,8.0839453125,9.3273203125,14.14299609375,8.15234765625,2.5474375,7.967203125,10.933921875,10.29240625,4.024125,-1.7102734375,9.78044921875,15.83748046875,9.5646328125,3.23683203125,12.56969921875,3.42579296875,-1.52922265625,7.26666796875
8.0573828125,8.07005859375,6.38744921875,8.33679296875,14.74709375,14.6833828125,7.5968515625,-2.09358984375,7.57219140625,16.09090625,9.8948984375,0.934304687499999,7.8319453125,7.7893203125,13.86499609375,8.35034765625,4.1924375,6.130203125,9.730921875,10.23640625,4.769125,-3.0542734375,8.91244921875,15.70248046875,9.1736328125,2.64283203125,12.97969921875,2.93479296875,-0.777222656249999,6.70066796875
7.6393828125,7.12005859375,6.49344921875,5.69179296875,12.64909375,13.7213828125,5.4908515625,-2.83158984375,4.22519140625,14.37990625,9.0248984375,0.3673046875,6.6259453125,5.8183203125,13.00899609375,8.20434765625,5.4424375,3.653203125,8.296921875,9.95040625,5.203125,-4.0232734375,7.40144921875,14.96948046875,8.6826328125,1.91383203125,12.32569921875,1.98979296875,-0.42422265625,5.32366796875
7.6613828125,6.61805859375,6.56144921875,3.57479296875,10.09509375,12.6103828125,4.1558515625,-3.84858984375,1.45219140625,12.42590625,8.2988984375,0.0283046874999995,4.8079453125,4.0543203125,11.99299609375,8.20334765625,5.6634375,1.194203125,7.097921875,9.73540625,5.584125,-4.3422734375,5.69244921875,13.91548046875,8.5086328125,1.68983203125,10.76969921875,0.973792968750001,-0.28222265625,3.88466796875
8.5553828125,6.96005859375,6.69444921875,2.66979296875,7.65909375,11.7053828125,4.3168515625,-4.82458984375,-0.0098085937499981,10.65490625,7.9558984375,0.275304687499999,2.6579453125,2.8663203125,11.05299609375,8.58934765625,4.5874375,-0.677796875,6.402921875,9.71240625,6.081125,-3.9802734375,4.29444921875,12.84548046875,8.9026328125,2.38883203125,8.71869921875,0.46779296875,-0.0152226562499997,3.11266796875
10.2923828125,7.98905859375,6.76244921875,3.14579296875,5.63409375,11.0223828125,5.8578515625,-5.55758984375,-0.0308085937499989,9.20090625,7.8148984375,0.995304687499999,0.453945312500001,2.2823203125,10.18699609375,9.25034765625,2.4614375,-1.598796875,6.266921875,9.79440625,6.674125,-3.0932734375,3.60544921875,12.02548046875,9.8376328125,4.01283203125,6.70869921875,0.99079296875,0.687777343750001,3.38866796875
12.2673828125,9.09405859375,6.52144921875,4.62479296875,4.02709375,10.3073828125,7.9448515625,-6.01058984375,0.966191406250001,7.94390625,7.4398984375,1.7003046875,-1.4260546875,2.0923203125,9.24899609375,9.80534765625,0.0194374999999996,-1.466796875,6.599921875,9.77440625,7.178125,-1.9022734375,3.79444921875,11.63548046875,11.0446328125,6.15483203125,5.26069921875,2.72179296875,1.94777734375,4.62566796875
13.4453828125,9.52005859375,5.79344921875,6.35279296875,2.69709375,9.1983828125,9.4728515625,-6.32458984375,2.32119140625,6.68190625,6.4138984375,1.8053046875,-2.5290546875,2.0503203125,8.10199609375,9.83434765625,-1.7965625,-0.405796875,7.236921875,9.47440625,7.354125,-0.5612734375,4.76944921875,11.73448046875,12.1556328125,8.16783203125,4.69869921875,5.34579296875,3.62777734375,6.37866796875
12.8313828125,8.73105859375,4.58244921875,7.51979296875,1.53609375,7.4463828125,9.5738515625,-6.75458984375,3.49919140625,5.33290625,4.5818984375,0.916304687499999,-2.5140546875,2.0453203125,6.75499609375,9.10734765625,-2.2705625,1.286203125,8.002921875,8.85740625,7.022125,0.8647265625,6.24944921875,12.26748046875,12.8686328125,9.43783203125,5.05469921875,8.12479296875,5.37677734375,8.08966796875
10.0413828125,6.68005859375,3.08744921875,7.62779296875,0.58409375,5.1083828125,7.9828515625,-7.51758984375,4.28019140625,4.02590625,2.1718984375,-0.995695312500001,-1.3640546875,2.1393203125,5.39699609375,7.69334765625,-1.2695625,3.209203125,8.764921875,8.05440625,6.124125,2.3477265625,7.86044921875,13.08448046875,13.0296328125,9.62783203125,6.12869921875,10.17279296875,6.75877734375,9.31066796875
5.6423828125,3.87205859375,1.62744921875,6.68679296875,0.0130937500000003,2.6023828125,5.1148515625,-8.61458984375,4.69019140625,3.05090625,-0.272101562500001,-3.5656953125,0.558945312500001,2.4443203125,4.33799609375,5.93334765625,0.6944375,4.933203125,9.451921875,7.29940625,4.741125,3.8067265625,9.25044921875,14.00148046875,12.6456328125,8.78983203125,7.61469921875,10.83479296875,7.41377734375,9.80566796875
1.0203828125,1.16605859375,0.53244921875,5.10479296875,-0.0129062499999995,0.5633828125,1.8758515625,-9.77758984375,4.79319140625,2.70790625,-2.0851015625,-6.1306953125,2.5839453125,2.9893203125,3.88499609375,4.30534765625,2.7494375,6.088203125,10.017921875,6.84440625,3.102125,5.0897265625,10.17844921875,14.85448046875,11.8566328125,7.32883203125,9.16169921875,9.99379296875,7.22277734375,9.54066796875
-2.1816171875,-0.567941406250001,0.0324492187500001,3.40379296875,0.566093750000001,-0.414617187499999,-0.662148437500001,-10.57358984375,4.60019140625,3.17390625,-2.7201015625,-7.9136953125,3.8939453125,3.6733203125,4.23499609375,3.27934765625,4.1014375,6.477203125,10.407921875,6.88940625,1.570125,6.0117265625,10.57144921875,15.55048046875,10.9226328125,5.84383203125,10.42569921875,8.15179296875,6.39077734375,8.65366796875
-2.7636171875,-0.77894140625,0.18944921875,2.00079296875,1.71209375,0.00338281249999994,-1.6251484375,-10.62958984375,4.17119140625,4.43290625,-1.9311015625,-8.2816953125,3.7839453125,4.3433203125,5.39699609375,3.16134765625,4.3954375,6.126203125,10.577921875,7.52240625,0.564125000000001,6.4077265625,10.50644921875,16.06648046875,10.1756328125,4.89983203125,11.15869921875,6.19279296875,5.37677734375,7.41366796875
-0.481617187499999,0.558058593749999,0.89544921875,1.15479296875,3.31609375,1.7483828125,-0.633148437500001,-9.84258984375,3.72719140625,6.25490625,0.123898437499999,-7.0066953125,2.0029453125,4.8803203125,7.13899609375,3.99134765625,3.8364375,5.257203125,10.512921875,8.66240625,0.422124999999999,6.1667265625,10.11044921875,16.38848046875,9.9206328125,4.83083203125,11.31369921875,4.94379296875,4.67877734375,6.17466796875
3.8543828125,2.95705859375,1.93344921875,1.00679296875,5.14909375,4.3143828125,2.0348515625,-8.46458984375,3.57219140625,8.20290625,2.8718984375,-4.4236953125,-1.0000546875,5.2203203125,8.97299609375,5.50534765625,3.0144375,4.178203125,10.193921875,10.01640625,1.253125,5.2747265625,9.46544921875,16.43248046875,10.2826328125,5.63583203125,11.01469921875,4.77579296875,4.59477734375,5.28966796875
8.7373828125,5.61805859375,3.06044921875,1.60479296875,6.79709375,6.8653828125,5.5198515625,-6.98758984375,3.84319140625,9.70390625,5.4688984375,-1.3446953125,-4.1260546875,5.3223203125,10.25299609375,7.21434765625,2.5424375,3.176203125,9.558921875,11.12640625,2.863125,3.8507265625,8.57744921875,16.01948046875,11.1126328125,7.00483203125,10.41969921875,5.42979296875,5.05677734375,4.97366796875
12.5753828125,7.72705859375,4.05344921875,2.89379296875,7.72909375,8.5483828125,8.7048515625,-5.87758984375,4.36719140625,10.20790625,7.0878984375,1.2543046875,-6.0590546875,5.1543203125,10.38399609375,8.56234765625,2.7374375,2.439203125,8.550921875,11.51240625,4.802125,2.1727265625,7.42244921875,14.93948046875,11.9856328125,8.40383203125,9.62169921875,6.13279296875,5.62977734375,5.16266796875
14.2663828125,8.71205859375,4.70644921875,4.67479296875,7.53209375,8.8433828125,10.6408515625,-5.35358984375,4.78819140625,9.40590625,7.2418984375,2.6343046875,-5.9090546875,4.7313203125,9.07599609375,9.11134765625,3.5194375,2.053203125,7.225921875,10.86540625,6.504125,0.6207265625,6.01444921875,13.07048046875,12.3376328125,9.21383203125,8.65469921875,5.93779296875,5.67077734375,5.45766796875
13.4923828125,8.36905859375,4.84544921875,6.59479296875,6.19209375,7.7693828125,10.8568515625,-5.35858984375,4.89419140625,7.42190625,5.9838984375,2.5543046875,-3.7000546875,4.1763203125,6.50899609375,8.70034765625,4.5434375,2.029203125,5.806921875,9.19840625,7.472125,-0.4312734375,4.47544921875,10.50648046875,11.7016328125,8.92983203125,7.52669921875,4.20079296875,4.64677734375,5.27466796875
10.7313828125,6.89005859375,4.38544921875,8.23379296875,4.19109375,5.8243828125,9.4538515625,-5.70858984375,4.82719140625,4.83890625,3.8608984375,1.2923046875,-0.3490546875,3.7203203125,3.30999609375,7.50234765625,5.4194375,2.359203125,4.609921875,6.88840625,7.448125,-0.7412734375,3.05044921875,7.61248046875,9.9456328125,7.38583203125,6.26369921875,0.96479296875,2.46877734375,4.19666796875
7.0793828125,4.81405859375,3.42044921875,9.27279296875,2.33009375,3.7563828125,7.0138515625,-6.25558984375,4.97519140625,2.50590625,1.6748984375,-0.546695312500001,2.9139453125,3.5993203125,0.333996093750001,5.95634765625,5.8684375,3.028203125,3.918921875,4.54940625,6.495125,-0.2932734375,2.05444921875,4.95348046875,7.3746328125,4.89083203125,4.97569921875,-2.94520703125,-0.349222656249999,2.29266796875
3.9183828125,2.85805859375,2.22744921875,9.64579296875,1.33209375,2.2723828125,4.3578515625,-6.94558984375,5.61019140625,1.17190625,0.144898437499999,-2.3116953125,5.2479453125,3.8933203125,-1.65300390625,4.57334765625,5.7824375,3.955203125,3.867921875,2.79340625,4.946125,0.6757265625,1.73044921875,3.09348046875,4.6096328125,2.13983203125,3.90469921875,-6.24520703125,-2.88022265625,0.156667968749999
2.3863828125,1.62505859375,1.14244921875,9.52179296875,1.44409375,1.7573828125,2.2388515625,-7.78158984375,6.56619140625,1.13090625,-0.384101562500001,-3.5816953125,6.5189453125,4.4163203125,-2.27200390625,3.70434765625,5.1984375,4.939203125,4.370921875,1.96640625,3.247125,1.7367265625,2.11644921875,2.36548046875,2.3076328125,-0.10716796875,3.33369921875,-7.79220703125,-4.24722265625,-1.42333203125
2.8293828125,1.32005859375,0.41044921875,9.15579296875,2.30109375,2.1253828125,1.0668515625,-8.76658984375,7.27719140625,2.11290625,-0.0531015625000002,-4.3056953125,7.0929453125,4.7843203125,-1.64700390625,3.41934765625,4.1924375,5.701203125,5.116921875,2.03240625,1.775125,2.4397265625,3.00244921875,2.73148046875,0.881632812499999,-1.37616796875,3.38069921875,-7.14620703125,-4.07822265625,-1.91533203125
4.6183828125,1.68005859375,0.0844492187500006,8.75879296875,3.19909375,2.9253828125,0.8268515625,-9.83258984375,7.19119140625,3.49290625,0.6498984375,-4.7276953125,7.3739453125,4.6653203125,-0.28900390625,3.54334765625,2.7474375,6.019203125,5.703921875,2.65640625,0.745125,2.5257265625,4.03744921875,3.83548046875,0.3876328125,-1.64216796875,3.89769921875,-4.76720703125,-2.65322265625,-1.30233203125
6.5553828125,2.23405859375,0.0684492187500005,8.48879296875,3.62309375,3.6783828125,1.2398515625,-10.77858984375,6.26619140625,4.67790625,1.2258984375,-5.1316953125,7.4919453125,4.0343203125,1.19299609375,3.82534765625,0.697437499999999,5.847203125,5.872921875,3.42640625,0.226125,2.0457265625,4.88544921875,5.20848046875,0.6186328125,-1.21416796875,4.60369921875,-1.75420703125,-0.66522265625,0.0136679687499996
7.6693828125,2.68405859375,0.23944921875,8.50479296875,3.63909375,4.2133828125,2.0318515625,-11.29758984375,5.11219140625,5.42990625,1.4728984375,-5.5806953125,7.3579453125,3.2503203125,2.37899609375,4.10534765625,-2.1195625,5.326203125,5.662921875,4.06840625,0.198124999999999,1.3017265625,5.35644921875,6.48348046875,1.2916328125,-0.49516796875,5.31369921875,0.707792968750001,1.20177734375,1.52666796875
7.8083828125,3.12905859375,0.56644921875,8.93879296875,3.85109375,4.7133828125,3.0818515625,-11.12558984375,4.62019140625,5.91190625,1.5528984375,-5.8636953125,6.9549453125,2.8623203125,3.15899609375,4.37034765625,-5.5295625,4.672203125,5.346921875,4.51540625,0.581125,0.6507265625,5.43644921875,7.49548046875,2.1716328125,0.21983203125,6.00269921875,1.89779296875,2.59977734375,2.88966796875
7.6223828125,3.92105859375,1.11144921875,9.82779296875,4.96309375,5.4793828125,4.3478515625,-10.22058984375,5.38319140625,6.48090625,1.8018984375,-5.6946953125,6.5369453125,3.2863203125,3.65699609375,4.66534765625,-8.7805625,4.042203125,5.200921875,4.82740625,1.205125,0.3027265625,5.22144921875,8.22248046875,3.0896328125,0.79483203125,6.69669921875,1.80079296875,3.56377734375,3.99666796875
7.9733828125,5.26505859375,1.90244921875,11.06779296875,7.24709375,6.6163828125,5.6748515625,-8.83958984375,7.37319140625,7.37890625,2.4368984375,-4.9936953125,6.4769453125,4.5583203125,4.04399609375,4.93134765625,-10.6705625,3.475203125,5.293921875,5.03840625,1.786125,0.2467265625,4.82844921875,8.65248046875,3.8636328125,1.17683203125,7.33469921875,0.97579296875,4.31277734375,4.85466796875
9.2543828125,6.90705859375,2.78844921875,12.40679296875,10.29309375,7.8753828125,6.6848515625,-7.45458984375,10.03219140625,8.53090625,3.3758984375,-4.0016953125,6.8899453125,6.3273203125,4.37899609375,4.94534765625,-10.1095625,2.947203125,5.459921875,5.07340625,1.986125,0.3297265625,4.34744921875,8.71748046875,4.2666328125,1.31683203125,7.74369921875,0.180792968750001,5.00477734375,5.41366796875
11.0763828125,8.17605859375,3.43344921875,13.48379296875,13.16009375,8.7423828125,6.9208515625,-6.57158984375,12.61919140625,9.57190625,4.2728984375,-3.1556953125,7.4039453125,8.0503203125,4.59299609375,4.43534765625,-6.8105625,2.486203125,5.434921875,4.79740625,1.580125,0.4207265625,3.86744921875,8.35148046875,4.1166328125,1.17083203125,7.70169921875,0.0187929687499997,5.62277734375,5.51266796875
12.5403828125,8.39505859375,3.48744921875,13.95079296875,14.85709375,8.7233828125,6.1428515625,-6.54558984375,14.55219140625,10.07690625,4.7458984375,-2.8236953125,7.3609453125,9.2763203125,4.58399609375,3.32534765625,-1.6605625,2.257203125,5.059921875,4.16940625,0.620125,0.5517265625,3.53344921875,7.61948046875,3.4156328125,0.75583203125,7.02769921875,0.74179296875,6.03177734375,4.98366796875
12.8723828125,7.37605859375,2.84144921875,13.70179296875,14.87109375,7.6903828125,4.5408515625,-7.43958984375,15.58419140625,9.82990625,4.6228984375,-3.1066953125,6.3819453125,9.8313203125,4.36199609375,1.88434765625,3.5484375,2.516203125,4.425921875,3.35540625,-0.537875,0.9257265625,3.52644921875,6.77248046875,2.4286328125,0.19983203125,5.72069921875,2.18579296875,6.08477734375,3.83066796875
11.9753828125,5.62405859375,1.75044921875,13.02179296875,13.44009375,6.0353828125,2.6678515625,-9.02158984375,15.80019140625,8.96490625,4.0448984375,-3.8296953125,4.8709453125,9.8223203125,4.09899609375,0.65334765625,6.9004375,3.441203125,3.867921875,2.68940625,-1.405875,1.7977265625,3.96744921875,6.16348046875,1.6026328125,-0.29316796875,4.03169921875,3.81079296875,5.68677734375,2.29466796875
10.5113828125,4.09605859375,0.73044921875,12.46079296875,11.40709375,4.4963828125,1.1358515625,-10.87858984375,15.48719140625,7.90890625,3.3708984375,-4.6896953125,4.0159453125,9.5053203125,4.05699609375,0.173347656250002,7.2074375,4.972203125,3.765921875,2.50340625,-1.609875,3.2907265625,4.81344921875,6.06248046875,1.3566328125,-0.53016796875,2.37069921875,4.87479296875,4.80277734375,0.77066796875
9.4893828125,3.66605859375,0.28344921875,12.47979296875,9.75309375,3.7503828125,0.3018515625,-12.59358984375,14.98519140625,7.17490625,2.9578984375,-5.4106953125,5.1379453125,9.1133203125,4.42699609375,0.702347656250002,4.4864375,6.766203125,4.291921875,2.93940625,-1.067875,5.2657265625,5.83744921875,6.50148046875,1.8806328125,-0.41016796875,1.07869921875,4.75879296875,3.48977734375,-0.35533203125
9.6343828125,4.63405859375,0.63944921875,13.13679296875,9.09109375,4.0343828125,0.1728515625,-13.81458984375,14.54319140625,7.10690625,2.9848984375,-5.8306953125,8.7159453125,8.7363203125,5.18699609375,2.08734765625,-0.0925625000000005,8.289203125,5.274921875,3.84940625,0.00612499999999905,7.2997265625,6.70044921875,7.24448046875,3.0496328125,0.04383203125,0.258699218749999,3.29379296875,1.94677734375,-0.84033203125
10.9493828125,6.57205859375,1.66544921875,14.07179296875,9.40609375,5.0613828125,0.5288515625,-14.21658984375,14.21919140625,7.70290625,3.4068984375,-5.8876953125,13.7669453125,8.2853203125,6.06799609375,3.83334765625,-4.6985625,8.974203125,6.284921875,4.84840625,1.229125,8.7907265625,7.05244921875,7.87348046875,4.4556328125,0.69483203125,-0.19830078125,0.87479296875,0.504777343750001,-0.63233203125
12.7443828125,8.60005859375,2.99444921875,14.72879296875,10.15109375,6.2243828125,1.1358515625,-13.44658984375,13.84519140625,8.61690625,4.0438984375,-5.5566953125,18.1019453125,7.5643203125,6.67099609375,5.35534765625,-7.5295625,8.406203125,6.840921875,5.48540625,2.233125,9.1517265625,6.64844921875,7.98048046875,5.5796328125,1.35583203125,-0.474300781250001,-1.74320703125,-0.49322265625,0.13466796875
14.0933828125,9.91905859375,4.25044921875,14.63679296875,10.63209375,6.9393828125,1.8968515625,-11.21658984375,13.14319140625,9.37590625,4.7158984375,-4.7756953125,19.4269453125,6.4353203125,6.67999609375,6.24834765625,-7.4985625,6.502203125,6.634921875,5.47740625,2.800125,8.0607265625,5.46244921875,7.36548046875,6.0166328125,1.86683203125,-0.71730078125,-3.81120703125,-0.83422265625,1.20166796875
14.3633828125,10.20405859375,5.20444921875,13.58279296875,10.43609375,6.9343828125,2.8318515625,-7.51958984375,11.97119140625,9.65390625,5.3298984375,-3.4536953125,16.6099453125,4.9893203125,6.05399609375,6.45234765625,-4.6465625,3.619203125,5.684921875,4.86440625,2.905125,5.6577265625,3.75444921875,6.16848046875,5.6546328125,2.15083203125,-0.96430078125,-4.88320703125,-0.51322265625,2.26466796875
13.4323828125,9.61905859375,5.77444921875,11.65479296875,9.64009375,6.3383828125,3.9318515625,-2.80758984375,10.52419140625,9.43390625,5.8678984375,-1.5666953125,10.3739453125,3.5823203125,5.06099609375,6.18234765625,-0.0925625000000005,0.495203125,4.344921875,3.96640625,2.646125,2.5747265625,2.02144921875,4.82248046875,4.7026328125,2.19983203125,-1.09930078125,-4.89920703125,0.30577734375,3.05866796875
11.5613828125,8.53105859375,5.95444921875,9.18579296875,8.68009375,5.5483828125,5.0248515625,2.05541015625,9.27619140625,8.94490625,6.3108984375,0.7183046875,3.0039453125,2.6693203125,4.12199609375,5.73534765625,4.4944375,-2.008796875,3.147921875,3.18740625,2.162125,-0.2582734375,0.808449218749999,3.84748046875,3.5696328125,2.02283203125,-0.90930078125,-4.07620703125,1.40077734375,3.41366796875
9.1543828125,7.26005859375,5.79944921875,6.63279296875,8.02309375,4.9783828125,5.7868515625,6.08841015625,8.67919140625,8.49790625,6.5958984375,3.0303046875,-2.7430546875,2.5663203125,3.60099609375,5.33334765625,7.6394375,-3.237796875,2.543921875,2.81840625,1.603125,-1.9622734375,0.48944921875,3.61448046875,2.6876328125,1.64683203125,-0.24530078125,-2.72120703125,2.59777734375,3.29966796875
6.6513828125,6.05005859375,5.47144921875,4.43679296875,7.89209375,4.8813828125,5.9388515625,8.58241015625,8.84619140625,8.33390625,6.6828984375,4.9343046875,-4.9370546875,3.2813203125,3.66399609375,5.10734765625,8.6614375,-2.980796875,2.685921875,2.96840625,1.168125,-2.0632734375,1.11744921875,4.20448046875,2.3786328125,1.16183203125,0.81169921875,-1.13820703125,3.78877734375,2.83066796875
4.5423828125,5.15405859375,5.23944921875,2.90279296875,8.20109375,5.3123828125,5.4748515625,9.38641015625,9.46419140625,8.56590625,6.6598984375,6.1573046875,-3.2670546875,4.5283203125,4.26699609375,5.14834765625,7.8534375,-1.523796875,3.400921875,3.59740625,1.115125,-0.7062734375,2.40844921875,5.41048046875,2.7966328125,0.76483203125,1.96269921875,0.35779296875,4.85177734375,2.23266796875
3.3273828125,4.83105859375,5.39544921875,2.12579296875,8.65909375,6.1953828125,4.7608515625,8.93141015625,9.98819140625,9.18090625,6.7818984375,6.7243046875,1.0459453125,5.8723203125,5.22799609375,5.55034765625,6.2434375,0.519203124999999,4.335921875,4.59040625,1.692125,1.3907265625,3.85844921875,6.85748046875,3.9166328125,0.71583203125,2.87969921875,1.42179296875,5.59677734375,1.78766796875
3.3643828125,5.23505859375,6.11844921875,1.98879296875,8.97409375,7.3783828125,4.4178515625,7.99141015625,9.97119140625,10.09990625,7.3738984375,6.9443046875,6.0339453125,6.9423203125,6.34199609375,6.40534765625,5.0554375,2.484203125,5.171921875,5.80940625,3.017125,3.2557265625,4.97144921875,8.18748046875,5.5686328125,1.22983203125,3.38469921875,1.79579296875,5.85277734375,1.76666796875
4.6663828125,6.33505859375,7.39244921875,2.24179296875,9.04009375,8.7043828125,5.0888515625,7.32641015625,9.34419140625,11.26390625,8.6768984375,7.2423046875,9.9159453125,7.5983203125,7.47799609375,7.76634765625,5.0964375,3.943203125,5.782921875,7.14340625,4.987125,4.1317265625,5.49944921875,9.20748046875,7.4826328125,2.33883203125,3.51069921875,1.51979296875,5.62877734375,2.34466796875
6.8233828125,7.92105859375,8.99544921875,2.67179296875,9.05509375,10.0803828125,7.1758515625,7.40641015625,8.50419140625,12.67590625,10.7188984375,7.9753046875,11.6829453125,7.9813203125,8.63799609375,9.60634765625,6.3104375,4.827203125,6.304921875,8.51740625,7.264125,3.8347265625,5.54644921875,9.94248046875001,9.3246328125,3.81083203125,3.45169921875,1.01579296875,5.18077734375,3.47666796875
9.1493828125,9.68805859375,10.57844921875,3.26479296875,9.44809375,11.5123828125,10.6438515625,8.32141015625,8.11819140625,14.36990625,13.2888984375,9.3163046875,11.1909453125,8.4253203125,9.91099609375,11.76534765625,7.7374375,5.365203125,7.063921875,9.87240625,9.374125,2.7957265625,5.45344921875,10.54048046875,10.7386328125,5.17883203125,3.46369921875,0.886792968750001,4.86177734375,4.82966796875
11.0133828125,11.33605859375,11.79444921875,4.20779296875,10.57109375,13.0113828125,14.9238515625,9.83641015625,8.71019140625,16.27190625,15.9668984375,11.2083046875,8.9299453125,9.2353203125,11.33799609375,13.94034765625,7.9984375,5.864203125,8.358921875,11.11040625,10.862125,1.7767265625,5.56144921875,11.13248046875,11.4156328125,5.92483203125,3.71669921875,1.54479296875,4.86277734375,5.85366796875
12.1033828125,12.60105859375,12.41644921875,5.68979296875,12.33109375,14.4083828125,18.9688515625,11.52441015625,10.22019140625,18.07790625,18.1778984375,13.3403046875,5.7039453125,10.4483203125,12.76099609375,15.71534765625,6.1324375,6.473203125,10.182921875,12.05240625,11.436125,1.4377265625,5.98144921875,11.71048046875,11.1636328125,5.71883203125,4.16169921875,2.92679296875,5.06277734375,6.01966796875
12.4353828125,13.22405859375,12.39944921875,7.62179296875,14.04509375,15.2593828125,21.4738515625,12.89941015625,11.88619140625,19.23790625,19.2818984375,15.1643046875,2.3879453125,11.6963203125,13.78399609375,16.62834765625,2.3214375,7.034203125,12.097921875,12.43940625,11.023125,1.9947265625,6.52244921875,12.11548046875,9.9786328125,4.59383203125,4.53869921875,4.49779296875,5.11677734375,5.08266796875
12.1213828125,12.93305859375,11.83344921875,9.53179296875,14.69909375,14.9853828125,21.2998515625,13.55841015625,12.57519140625,19.13190625,18.7458984375,15.9923046875,-0.212054687499999,12.3173203125,13.89399609375,16.28234765625,-1.9845625,7.134203125,13.402921875,12.01240625,9.740125,3.1347265625,6.78944921875,12.12348046875,8.0566328125,2.97183203125,4.58669921875,5.55779296875,4.71877734375,3.23566796875
11.1683828125,11.52405859375,10.87244921875,10.71379296875,13.48309375,13.1923828125,17.9528515625,13.29341015625,11.42819140625,17.36090625,16.3548984375,15.2413046875,-1.5060546875,11.6833203125,12.71899609375,14.49534765625,-4.7555625,6.346203125,13.484921875,10.65340625,7.848125,4.2347265625,6.41244921875,11.57748046875,5.7686328125,1.51583203125,4.25169921875,5.64579296875,3.85777734375,1.06366796875
9.5243828125,9.05105859375,9.67744921875,10.58779296875,10.25109375,9.9603828125,11.9458515625,12.14941015625,8.40319140625,14.02890625,12.3848984375,12.7583046875,-1.3380546875,9.6013203125,10.25399609375,11.45634765625,-4.5235625,4.539203125,12.146921875,8.51540625,5.714125,4.7207265625,5.27944921875,10.48748046875,3.5756328125,0.87783203125,3.70169921875,4.80979296875,2.88977734375,-0.67633203125
7.3393828125,5.99905859375,8.41144921875,9.08079296875,5.65909375,5.9263828125,4.7758515625,10.40441015625,4.39119140625,9.81190625,7.6118984375,9.0253046875,-0.139054687499999,6.5253203125,6.94299609375,7.77534765625,-1.2185625,2.073203125,9.715921875,6.04740625,3.776125,4.3697265625,3.63444921875,9.03848046875,1.9216328125,1.42383203125,3.19769921875,3.55579296875,2.35577734375,-1.35933203125
5.1923828125,3.26605859375,7.27244921875,6.79279296875,0.93309375,2.1243828125,-1.5181484375,8.49141015625,0.814191406250002,5.74490625,3.1338984375,5.0763046875,1.2079453125,3.4053203125,3.54499609375,4.35634765625,3.8744375,-0.293796875,6.932921875,3.87540625,2.462125,3.4017265625,1.97644921875,7.51848046875,1.1056328125,3.08183203125,2.97369921875,2.54579296875,2.68577734375,-0.75033203125
3.9843828125,1.87005859375,6.50244921875,4.76979296875,-2.61490625,-0.3876171875,-5.0851484375,6.88741015625,-1.05580859375,2.83890625,0.0378984375,2.1323046875,1.8689453125,1.2553203125,0.87699609375,2.11934765625,8.9424375,-1.733796875,4.668921875,2.58940625,2.092125,2.3487265625,0.831449218749999,6.22548046875,1.2186328125,5.37083203125,3.19969921875,2.25779296875,3.95377734375,0.90266796875
4.4723828125,2.47905859375,6.34944921875,3.94779296875,-4.08690625,-0.9606171875,-4.9541484375,5.98341015625,-0.668808593749999,1.70690625,-0.9591015625,1.1263046875,1.5969453125,0.697320312500002,-0.45400390625,1.70234765625,12.5734375,-1.731796875,3.603921875,2.55940625,2.803125,1.7917265625,0.542449218749999,5.41448046875,2.1686328125,7.62383203125,3.95569921875,2.81379296875,5.82777734375,2.98366796875
6.7383828125,5.02005859375,6.95544921875,4.58779296875,-3.31490625,0.351382812500001,-1.3821484375,5.96941015625,1.62419140625,2.37890625,0.2288984375,2.3483046875,0.8909453125,1.7263203125,-0.23300390625,3.25834765625,14.1924375,-0.298796875000001,3.974921875,3.82340625,4.506125,2.0867265625,1.16944921875,5.26348046875,3.7476328125,9.26183203125,5.18669921875,4.00879296875,7.73777734375,4.78766796875
9.9453828125,8.58505859375,8.23244921875,6.12179296875,-0.892906249999999,2.8103828125,4.2528515625,6.78341015625,4.80519140625,4.34390625,3.0298984375,5.3403046875,0.5819453125,3.7793203125,1.30899609375,6.38434765625,13.9214375,2.043203125,5.523921875,6.07140625,6.868125,3.1837265625,2.47744921875,5.81448046875,5.6826328125,9.98383203125,6.69969921875,5.45779296875,9.12177734375,5.80266796875
12.6253828125,11.74805859375,9.81944921875,7.50879296875,2.06709375,5.3233828125,9.9608515625,8.13041015625,7.64419140625,6.74590625,6.4128984375,9.0603046875,1.1339453125,6.0203203125,3.57799609375,10.19934765625,12.1914375,4.487203125,7.616921875,8.70840625,9.331125,4.6197265625,4.00744921875,6.91648046875,7.6336328125,9.79583203125,8.20669921875,6.75479296875,9.63677734375,5.86266796875
13.4123828125,13.20505859375,11.20044921875,7.88079296875,4.35809375,6.9213828125,13.8788515625,9.57841015625,9.17219140625,8.71190625,9.2728984375,12.2693046875,2.2089453125,7.7063203125,5.82299609375,13.61234765625,9.4554375,6.267203125,9.482921875,11.02040625,11.223125,5.7097265625,5.25444921875,8.24948046875,9.2306328125,8.93083203125,9.36769921875,7.60779296875,9.23277734375,5.13666796875
11.8443828125,12.45905859375,11.96344921875,7.06079296875,5.15009375,7.1693828125,14.9648515625,10.69041015625,9.02019140625,9.69190625,10.8458984375,14.0123046875,2.8929453125,8.4883203125,7.43099609375,15.72134765625,6.1844375,6.974203125,10.501921875,12.44640625,12.000125,5.8897265625,5.89844921875,9.46648046875,10.1786328125,7.74283203125,9.86669921875,7.91879296875,8.14877734375,4.01966796875
8.7373828125,10.13405859375,12.02144921875,5.66479296875,4.35909375,6.3533828125,13.3558515625,11.18241015625,7.55719140625,9.68590625,10.9878984375,13.9833046875,2.4199453125,8.5223203125,8.17299609375,16.16634765625,2.9964375,6.716203125,10.449921875,12.81840625,11.495125,5.0387265625,5.97944921875,10.38548046875,10.4076328125,6.61683203125,9.58169921875,7.79279296875,6.81677734375,2.99266796875
5.8363828125,7.70005859375,11.65944921875,4.74779296875,2.67909375,5.3163828125,10.1958515625,11.01541015625,5.71919140625,9.19490625,10.1618984375,12.5683046875,0.8269453125,8.3093203125,8.25699609375,15.23434765625,0.689437499999999,6.011203125,9.580921875,12.42740625,10.038125,3.5787265625,5.86944921875,11.07548046875,10.1216328125,5.88083203125,8.74669921875,7.46679296875,5.72477734375,2.47666796875
4.8823828125,6.70705859375,11.35644921875,5.17079296875,1.20809375,4.9773828125,7.0028515625,10.35741015625,4.55719140625,8.89890625,9.1108984375,10.5613046875,-1.0110546875,8.3533203125,8.13899609375,13.66334765625,0.00843749999999943,5.473203125,8.443921875,11.83940625,8.336125,2.2847265625,6.03944921875,11.76548046875,9.7086328125,5.72183203125,7.89069921875,7.19679296875,5.24777734375,2.69466796875
6.6133828125,7.93905859375,11.46444921875,7.04079296875,0.810093750000001,5.7473828125,4.9328515625,9.43241015625,4.68819140625,9.20490625,8.4068984375,8.6933046875,-1.9900546875,8.8143203125,8.16299609375,12.24234765625,1.2514375,5.464203125,7.528921875,11.56140625,7.134125,1.8777265625,6.76844921875,12.61748046875,9.5136328125,6.13083203125,7.52569921875,7.16279296875,5.52177734375,3.59866796875
10.3093828125,10.94805859375,11.94344921875,9.55479296875,1.62209375,7.2413828125,4.3228515625,8.35441015625,5.98919140625,9.95790625,8.1368984375,7.2963046875,-1.6080546875,9.3933203125,8.30599609375,11.43534765625,3.9764375,5.920203125,6.982921875,11.73840625,6.853125,2.6497265625,7.95244921875,13.54048046875,9.6406328125,6.90483203125,7.80869921875,7.40379296875,6.41277734375,4.88966796875
14.1603828125,14.23605859375,12.32344921875,11.36579296875,3.01209375,8.4863828125,4.7038515625,7.09041015625,7.69519140625,10.50590625,7.9288984375,6.2633046875,-0.3750546875,9.5083203125,8.18399609375,11.22234765625,7.0364375,6.435203125,6.601921875,12.07840625,7.415125,4.2837265625,9.12644921875,14.17948046875,9.9116328125,7.73383203125,8.48869921875,7.76579296875,7.57577734375,6.15966796875
16.2153828125,16.00305859375,11.96844921875,11.24679296875,3.98409375,8.4843828125,5.1958515625,5.57441015625,8.81819140625,10.09690625,7.2618984375,5.2933046875,0.521945312500001,8.6593203125,7.33299609375,11.21134765625,8.9904375,6.507203125,6.033921875,12.05440625,8.354125,5.9867265625,9.68344921875,14.09948046875,10.0116328125,8.33683203125,9.10169921875,7.90079296875,8.58577734375,7.07066796875
15.3293828125,15.06405859375,10.50044921875,8.69379296875,3.75509375,6.7723828125,5.0198515625,3.86041015625,8.65019140625,8.36190625,5.8408984375,4.2123046875,0.078945312500001,6.7453203125,5.55499609375,10.95134765625,8.7284375,5.811203125,5.028921875,11.25440625,9.121125,6.8617265625,9.19044921875,13.06248046875,9.7086328125,8.56883203125,9.24669921875,7.39479296875,9.08777734375,7.48966796875
11.6073828125,11.44805859375,8.10844921875,4.19079296875,2.18509375,3.6863828125,3.8998515625,2.21641015625,7.14019140625,5.60990625,3.8288984375,3.1513046875,-1.7620546875,4.1813203125,3.14199609375,10.22034765625,6.0384375,4.367203125,3.586921875,9.67840625,9.375125,6.3527265625,7.65044921875,11.21148046875,8.9906328125,8.44183203125,8.78669921875,6.02079296875,8.91977734375,7.50166796875
6.2233828125,6.37505859375,5.53344921875,-0.92420703125,-0.11190625,0.2473828125,2.1888515625,1.07941015625,4.98219140625,2.75490625,1.8368984375,2.4933046875,-4.0370546875,1.7753203125,0.82799609375,9.14234765625,1.8254375,2.556203125,1.999921875,7.77440625,9.093125,4.5307265625,5.56844921875,9.07848046875,8.0416328125,8.04583203125,7.93769921875,3.97479296875,8.17977734375,7.30666796875
0.8663828125,1.69905859375,3.70544921875,-4.96220703125,-2.04790625,-2.2506171875,0.687851562500001,0.88841015625,3.30519140625,0.909906250000001,0.6618984375,2.6503046875,-5.4450546875,0.406320312500002,-0.51100390625,8.06834765625,-2.1895625,0.988203125,0.741921875000001,6.21640625,8.470125,2.0557265625,3.74744921875,7.36848046875,7.0886328125,7.44383203125,7.18669921875,1.88779296875,7.15977734375,7.07566796875
-2.8976171875,-0.901941406250001,3.26144921875,-6.57120703125,-2.59990625,-2.8046171875,0.2328515625,1.83841015625,3.07219140625,0.873906250000001,0.8908984375,3.8003046875,-5.2520546875,0.632320312500001,-0.26400390625,7.34934765625,-4.2345625,0.258203125,0.250921875000001,5.54840625,7.724125,-0.1812734375,2.93144921875,6.65348046875,6.2576328125,6.61183203125,7.00169921875,0.54279296875,6.19477734375,6.83366796875
-4.1236171875,-0.61894140625,4.20844921875,-5.32520703125,-1.33490625,-1.1456171875,1.2328515625,3.69341015625,4.55819140625,2.74990625,2.5758984375,5.7053046875,-3.7020546875,2.4323203125,1.60999609375,7.12934765625,-3.3885625,0.693203125,0.706921875000001,5.91240625,6.953125,-1.4862734375,3.47744921875,7.12948046875,5.5146328125,5.46583203125,7.50569921875,0.45779296875,5.49377734375,6.43966796875
-2.7826171875,2.14205859375,5.89644921875,-1.89120703125,1.37009375,2.1373828125,3.4048515625,5.79741015625,7.23119140625,5.89790625,5.1608984375,7.7183046875,-1.7190546875,5.2113203125,4.53799609375,7.28034765625,-0.1535625,2.221203125,1.973921875,7.01040625,6.116125,-1.6432734375,5.22044921875,8.56948046875,4.7336328125,3.94383203125,8.41269921875,1.58179296875,5.06177734375,5.67766796875
0.2523828125,5.92705859375,7.31844921875,2.30079296875,4.50309375,5.8533828125,5.8728515625,7.31141015625,10.08419140625,9.20390625,7.7198984375,9.0113046875,-0.2420546875,8.0623203125,7.58699609375,7.49234765625,3.7134375,4.397203125,3.709921875,8.28340625,5.131125,-0.9012734375,7.58844921875,10.47248046875,3.8196328125,2.09983203125,9.26669921875,3.30779296875,4.75877734375,4.42566796875
3.5713828125,8.87705859375,7.59744921875,5.68779296875,6.87209375,8.6953828125,7.5958515625,7.58141015625,12.12719140625,11.55190625,9.3598984375,8.9423046875,0.261945312500001,10.1373203125,9.84199609375,7.46134765625,6.1124375,6.595203125,5.515921875,9.18940625,4.003125,0.2367265625,9.86744921875,12.28948046875,2.8106328125,0.15283203125,9.77169921875,4.79679296875,4.44577734375,2.79966796875
5.8413828125,9.60105859375,6.42244921875,7.18479296875,7.60809375,9.7413828125,7.9058515625,6.45741015625,12.78319140625,12.26090625,9.6028984375,7.3863046875,-0.078054687499999,10.9513203125,10.73999609375,7.06734765625,5.7884375,8.250203125,7.030921875,9.43040625,2.883125,1.2807265625,11.47544921875,13.60648046875,1.8996328125,-1.56716796875,9.94569921875,5.39279296875,4.10277734375,1.16066796875
6.3813828125,7.82305859375,4.18744921875,6.56879296875,6.52209375,8.8053828125,6.8258515625,4.40041015625,12.04519140625,11.31590625,8.5568984375,4.8403046875,-0.7000546875,10.5063203125,10.21899609375,6.42534765625,3.0364375,9.070203125,7.986921875,9.01240625,2.032125,1.9437265625,12.13244921875,14.21748046875,1.3416328125,-2.74916796875,10.07369921875,4.90179296875,3.83977734375,-0.0403320312500002
5.3613828125,4.43505859375,1.77444921875,4.46479296875,4.17309375,6.4733828125,4.9938515625,2.29441015625,10.41619140625,9.30290625,6.8178984375,2.2303046875,-0.8910546875,9.2213203125,8.66699609375,5.78534765625,-0.5045625,9.103203125,8.284921875,8.16540625,1.699125,2.2097265625,11.88644921875,14.12048046875,1.3266328125,-3.22316796875,10.53869921875,3.63379296875,3.81377734375,-0.50133203125
3.5373828125,0.95805859375,0.10544921875,1.95979296875,1.61009375,3.8273828125,3.2788515625,1.04041015625,8.67619140625,7.11390625,5.1728984375,0.509304687499999,-0.1570546875,7.7163203125,6.72599609375,5.37534765625,-2.8305625,8.650203125,8.037921875,7.20140625,2.015125,2.2797265625,11.04044921875,13.47048046875,1.8846328125,-3.00816796875,11.59869921875,2.23279296875,4.13077734375,-0.20033203125
1.7133828125,-1.26594140625,-0.27855078125,0.0357929687500003,-0.0959062499999996,1.9453828125,2.3728515625,1.13141015625,7.55019140625,5.57990625,4.2478984375,0.2633046875,1.4399453125,6.5743203125,5.06399609375,5.30434765625,-2.6725625,8.071203125,7.518921875,6.39440625,2.927125,2.4157265625,10.02644921875,12.51248046875,2.8976328125,-2.23616796875,13.19469921875,1.40379296875,4.78977734375,0.62866796875
0.3013828125,-1.65694140625,0.58844921875,-0.83620703125,-0.27390625,1.4903828125,2.5788515625,2.44641015625,7.45219140625,5.19790625,4.2978984375,1.5103046875,3.2119453125,6.1563203125,4.18199609375,5.55734765625,-0.0855625,7.610203125,7.054921875,5.92340625,4.219125,2.7807265625,9.24944921875,11.50548046875,4.1636328125,-1.06316796875,14.91969921875,1.63879296875,5.67277734375,1.65566796875
-0.7406171875,-0.50194140625,2.20644921875,-0.72920703125,1.14609375,2.5363828125,3.8088515625,4.35841015625,8.37819140625,6.02390625,5.2048984375,3.7433046875,4.1749453125,6.5273203125,4.32299609375,6.03134765625,3.7364375,7.338203125,6.902921875,5.84940625,5.573125,3.3577265625,8.95444921875,10.63748046875,5.4696328125,0.35783203125,16.22169921875,3.02779296875,6.56777734375,2.60566796875
-1.6656171875,1.36805859375,3.88444921875,-0.0202070312499996,3.67609375,4.6623828125,5.6728515625,6.06641015625,9.97319140625,7.72690625,6.5968984375,6.1503046875,3.6109453125,7.4953203125,5.45399609375,6.58234765625,7.1844375,7.222203125,7.164921875,6.12640625,6.659125,4.0017265625,9.15844921875,9.98548046875,6.6186328125,1.82383203125,16.67569921875,5.22079296875,7.21077734375,3.31466796875
-2.6066171875,3.05405859375,5.03244921875,0.88379296875,6.48209375,7.1493828125,7.5918515625,6.95041015625,11.71719140625,9.74690625,8.0158984375,7.9223046875,1.4699453125,8.7263203125,7.30699609375,7.05034765625,8.9964375,7.250203125,7.739921875,6.63040625,7.229125,4.5707265625,9.68944921875,9.51848046875,7.4476328125,3.03983203125,16.12069921875,7.56879296875,7.35277734375,3.69666796875
-3.4006171875,3.95305859375,5.33944921875,1.70479296875,8.68509375,9.2403828125,8.9858515625,6.79741015625,13.14519140625,11.51690625,9.0608984375,8.5523046875,-1.5830546875,9.9003203125,9.46399609375,7.30434765625,8.6694375,7.499203125,8.376921875,7.20740625,7.182125,5.0227265625,10.29844921875,9.15748046875,7.8396328125,3.65483203125,14.64969921875,9.38479296875,6.85577734375,3.70266796875
-3.6276171875,3.93405859375,4.81144921875,2.34679296875,9.70509375,10.4443828125,9.5268515625,5.86741015625,14.03719140625,12.65590625,9.5358984375,8.0513046875,-4.4120546875,10.8353203125,11.49199609375,7.29834765625,6.4294375,8.115203125,8.833921875,7.73540625,6.584125,5.4227265625,10.77444921875,8.84148046875,7.7536328125,3.40683203125,12.58469921875,10.21579296875,5.78977734375,3.31766796875
-2.8216171875,3.30405859375,3.72844921875,2.86779296875,9.50309375,10.7383828125,9.3538515625,4.77241015625,14.50319140625,13.10090625,9.5408984375,6.9743046875,-5.8080546875,11.5313203125,13.08299609375,7.11534765625,2.9424375,9.193203125,9.042921875,8.16340625,5.657125,5.8647265625,11.01444921875,8.57648046875,7.2686328125,2.28383203125,10.42969921875,10.00179296875,4.46977734375,2.59966796875
-0.7696171875,2.63305859375,2.54444921875,3.36279296875,8.56409375,10.5343828125,9.0378515625,4.23241015625,14.86419140625,13.09390625,9.4198984375,6.1913046875,-4.9490546875,12.1253203125,14.13799609375,6.97134765625,-0.9655625,10.668203125,9.131921875,8.53740625,4.745125,6.3917265625,11.03044921875,8.43748046875,6.6046328125,0.60883203125,8.73269921875,9.03679296875,3.37477734375,1.70666796875
2.2473828125,2.46905859375,1.77144921875,3.84279296875,7.61309375,10.3893828125,9.2588515625,4.76441015625,15.42519140625,13.03190625,9.5618984375,6.4773046875,-1.7820546875,12.7783203125,14.74899609375,7.14634765625,-4.4375625,12.286203125,9.296921875,8.97740625,4.264125,6.9557265625,10.92144921875,8.52948046875,6.0906328125,-1.02516796875,7.87869921875,7.78879296875,2.94677734375,0.89266796875
5.4293828125,3.05105859375,1.81844921875,4.23279296875,7.21809375,10.6453828125,10.3688515625,6.45541015625,16.26519140625,13.23190625,10.1488984375,8.1063046875,2.8579453125,13.5663203125,15.08999609375,7.84034765625,-6.6115625,13.682203125,9.654921875,9.61440625,4.571125,7.4287265625,10.81744921875,8.93048046875,6.0486328125,-1.98016796875,7.97769921875,6.68479296875,3.38677734375,0.44466796875
7.7233828125,4.17505859375,2.83044921875,4.47279296875,7.51309375,11.2523828125,12.1158515625,8.90741015625,17.16219140625,13.74190625,11.0268984375,10.6703046875,7.5369453125,14.4173203125,15.29399609375,9.03034765625,-6.7795625,14.521203125,10.181921875,10.49740625,5.788125,7.6517265625,10.81044921875,9.62548046875,6.6376328125,-1.84616796875,8.89769921875,5.97179296875,4.54677734375,0.57066796875
8.2743828125,5.30705859375,4.60244921875,4.59779296875,8.18009375,11.8313828125,13.7408515625,11.37741015625,17.68319140625,14.32090625,11.7768984375,13.2453046875,10.8089453125,15.1253203125,15.38499609375,10.42834765625,-4.7715625,14.631203125,10.735921875,11.54240625,7.671125,7.4947265625,10.90744921875,10.49348046875,7.7296328125,-0.63416796875,10.33869921875,5.66279296875,6.00477734375,1.29566796875
6.7953828125,5.87305859375,6.63144921875,4.67579296875,8.68809375,11.9293828125,14.3948515625,13.05841015625,17.38619140625,14.60390625,11.9648984375,14.8143046875,11.8419453125,15.4313203125,15.31199609375,11.60634765625,-1.3305625,14.044203125,11.120921875,12.56240625,9.635125,6.9107265625,11.02344921875,11.33748046875,8.9286328125,1.20583203125,11.84069921875,5.56079296875,7.23977734375,2.40266796875
3.6563828125,5.54805859375,8.29344921875,4.70179296875,8.61809375,11.3163828125,13.6238515625,13.37441015625,16.07519140625,14.33290625,11.4208984375,14.7393046875,10.7159453125,15.1473203125,15.04199609375,12.18634765625,1.9904375,12.955203125,11.181921875,13.33840625,10.968125,5.9407265625,11.02044921875,11.94648046875,9.7056328125,2.95683203125,12.85069921875,5.34979296875,7.82877734375,3.48466796875
-0.2746171875,4.39605859375,9.07444921875,4.59179296875,7.90409375,10.1533828125,11.6408515625,12.19441015625,13.97019140625,13.51090625,10.3748984375,13.0273046875,8.2519453125,14.2823203125,14.62799609375,11.99734765625,3.5884375,11.625203125,10.908921875,13.68640625,11.117125,4.7017265625,10.75644921875,12.14848046875,9.6146328125,3.90283203125,12.89469921875,4.71679296875,7.55277734375,4.07766796875
-3.9116171875,2.82605859375,8.74544921875,4.29379296875,6.83409375,8.9193828125,9.2318515625,9.86441015625,11.70019140625,12.39490625,9.3388984375,10.3003046875,5.5099453125,13.0883203125,14.18699609375,11.09634765625,2.7774375,10.327203125,10.455921875,13.47340625,9.921125,3.3567265625,10.14344921875,11.83248046875,8.4526328125,3.61183203125,11.76169921875,3.47879296875,6.42177734375,3.84566796875
-6.2306171875,1.42205859375,7.41844921875,3.90179296875,5.83709375,8.1363828125,7.3598515625,7.06241015625,10.05619140625,11.34990625,8.8078984375,7.4943046875,3.3529453125,11.9743203125,13.80399609375,9.69134765625,0.2094375,9.322203125,10.053921875,12.63340625,7.658125,2.1107265625,9.19744921875,10.94248046875,6.3166328125,2.07083203125,9.54869921875,1.69179296875,4.62677734375,2.69966796875
-6.5656171875,0.65205859375,5.45144921875,3.64079296875,5.21309375,8.0513828125,6.6568515625,4.54041015625,9.62419140625,10.65190625,8.9588984375,5.4393046875,2.2769453125,11.3013203125,13.44199609375,8.01434765625,-2.5755625,8.827203125,9.849921875,11.16340625,4.917125,1.1697265625,8.02644921875,9.47248046875,3.5356328125,-0.35016796875,6.57869921875,-0.33620703125,2.47777734375,0.79566796875
-4.9126171875,0.571058593749999,3.25444921875,3.70679296875,4.96409375,8.4683828125,7.0628515625,2.86141015625,10.48019140625,10.32290625,9.5198984375,4.4953046875,2.4539453125,11.1673203125,12.91499609375,6.20834765625,-4.1365625,8.907203125,9.802921875,9.12940625,2.339125,0.6617265625,6.77144921875,7.46948046875,0.5286328125,-3.06816796875,3.29969921875,-2.14120703125,0.32577734375,-1.55933203125
-2.1096171875,0.690058593749999,1.13644921875,4.07179296875,4.80909375,8.8213828125,7.8438515625,2.22441015625,12.10919140625,10.09790625,9.9068984375,4.4403046875,3.7539453125,11.3053203125,11.96199609375,4.30834765625,-3.9655625,9.379203125,9.667921875,6.67240625,0.399125,0.5227265625,5.51744921875,5.06048046875,-2.3083671875,-5.46516796875,0.185699218749999,-3.30920703125,-1.49422265625,-4.00833203125
0.4033828125,0.233058593749999,-0.713550781249999,4.38779296875,4.35409375,8.4353828125,8.0268515625,2.46141015625,13.61619140625,9.55990625,9.5408984375,4.6913046875,5.7219453125,11.2153203125,10.39199609375,2.35534765625,-2.6365625,9.827203125,9.087921875,4.03140625,-0.672874999999999,0.4627265625,4.26044921875,2.47548046875,-4.6313671875,-7.00416796875,-2.39030078125,-3.68220703125,-2.73422265625,-6.18833203125
1.2863828125,-1.30894140625,-2.14355078125,4.15579296875,3.32509375,6.8873828125,7.0398515625,3.19241015625,14.13519140625,8.37690625,8.1948984375,4.7283046875,7.5959453125,10.4373203125,8.23199609375,0.55434765625,-1.3245625,9.770203125,7.770921875,1.56640625,-0.828875,0.0667265625,2.95044921875,0.0474804687500026,-6.1293671875,-7.31116796875,-4.25130078125,-3.46820703125,-3.31722265625,-7.78133203125
0.0973828125000002,-3.71794140625,-2.97555078125,3.06679296875,1.75709375,4.2853828125,5.1198515625,4.05641015625,13.25119140625,6.51990625,6.1678984375,4.4363046875,8.5159453125,8.8263203125,5.78499609375,-0.684652343749999,-1.0455625,8.900203125,5.704921875,-0.291593750000001,-0.102875000000001,-0.9742734375,1.58344921875,-1.84651953125,-6.5423671875,-6.28916796875,-5.37730078125,-3.14620703125,-3.37622265625,-8.58933203125
-2.3736171875,-6.03994140625,-3.03055078125,1.28879296875,0.0450937500000004,1.3083828125,3.2418515625,4.87741015625,11.21419140625,4.32190625,4.1738984375,4.1653046875,7.8999453125,6.6833203125,3.57399609375,-0.884652343749998,-2.0775625,7.267203125,3.285921875,-1.14559375,1.423125,-2.6372734375,0.28144921875,-2.86151953125,-5.7353671875,-4.20616796875,-5.76530078125,-3.17920703125,-3.18122265625,-8.61533203125
-4.5436171875,-7.04894140625,-2.19755078125,-0.54320703125,-1.19090625,-1.0466171875,2.6208515625,5.67241015625,8.81019140625,2.38590625,3.0388984375,4.4923046875,5.8559453125,4.6773203125,2.18199609375,0.282347656250002,-3.7815625,5.345203125,1.247921875,-0.749593750000001,3.611125,-4.4502734375,-0.656550781250001,-2.75151953125,-3.7753671875,-1.65716796875,-5.36030078125,-3.69520703125,-2.95322265625,-8.07333203125
-4.9496171875,-5.88094140625,-0.46155078125,-1.63120703125,-1.35790625,-1.8816171875,4.1078515625,6.54341015625,6.93719140625,1.38290625,3.3498984375,5.8773046875,3.3389453125,3.5913203125,2.06899609375,2.82934765625,-4.8825625,3.887203125,0.395921875000001,0.908406249999999,6.248125,-5.6132734375,-0.819550781250001,-1.41951953125,-0.934367187499999,0.66183203125,-4.10230078125,-4.36220703125,-2.73022265625,-7.27533203125
-3.0676171875,-2.49194140625,2.06444921875,-1.38020703125,-0.165906249999999,-0.7596171875,7.7628515625,7.56741015625,6.17319140625,1.78090625,5.2348984375,8.3793046875,1.7809453125,3.9643203125,3.38499609375,6.40034765625,-4.1335625,3.601203125,1.259921875,3.57240625,9.036125,-5.3632734375,0.104449218749998,1.00248046875,2.3386328125,2.23183203125,-2.03230078125,-4.58620703125,-2.37222265625,-6.49433203125
0.417382812500001,2.26205859375,5.07344921875,0.33479296875,2.17509375,2.1003828125,12.7478515625,8.74041015625,6.56519140625,3.58690625,8.2918984375,11.5593046875,2.2599453125,5.7843203125,5.83999609375,10.30134765625,-1.0965625,4.749203125,3.820921875,6.70540625,11.571125,-3.4172734375,2.06844921875,4.06048046875,5.4696328125,2.86083203125,0.63569921875,-3.89020703125,-1.72722265625,-5.86833203125
3.9883828125,6.92605859375,8.01144921875,3.07879296875,4.94109375,5.8483828125,17.5508515625,9.93841015625,7.71519140625,6.25690625,11.6898984375,14.5903046875,4.7079453125,8.4213203125,8.68799609375,13.62034765625,3.4184375,6.942203125,7.414921875,9.54240625,13.347125,-0.2302734375,4.53144921875,6.99548046875,7.8256328125,2.64383203125,3.46969921875,-2.22420703125,-0.79022265625,-5.40233203125
6.0793828125,10.01505859375,10.14444921875,5.98479296875,7.14209375,9.2453828125,20.4998515625,10.91541015625,9.04019140625,8.84490625,14.3978984375,16.5613046875,7.8229453125,10.8503203125,10.90999609375,15.44834765625,7.6094375,9.271203125,10.882921875,11.26040625,13.854125,3.1337265625,6.61644921875,8.92648046875,8.8336328125,1.80583203125,5.81869921875,-0.0232070312500001,0.24577734375,-5.04633203125
5.8203828125,10.58305859375,10.78644921875,8.09279296875,7.93609375,11.1083828125,20.4138515625,11.35641015625,10.02819140625,10.36290625,15.5328984375,16.8393046875,9.8379453125,12.0903203125,11.57999609375,15.14634765625,9.5814375,10.730203125,12.972921875,11.24240625,12.735125,5.4737265625,7.46744921875,9.17648046875,8.1446328125,0.54583203125,6.96069921875,1.96579296875,1.07177734375,-4.81033203125
3.3363828125,8.53305859375,9.58944921875,8.78279296875,7.01709375,10.7853828125,17.1018515625,10.99541015625,10.40119140625,10.16790625,14.6758984375,15.3313046875,9.6139453125,11.6153203125,10.23699609375,12.57234765625,8.3574375,10.673203125,12.823921875,9.30640625,9.960125,5.9837265625,6.61944921875,7.55348046875,5.7636328125,-1.04016796875,6.39369921875,2.97279296875,1.37977734375,-4.83433203125
-0.4446171875,4.56905859375,6.75944921875,8.05779296875,4.70509375,8.3933828125,11.4638515625,9.74041015625,10.10319140625,8.18390625,12.0278984375,12.5153046875,7.2889453125,9.5463203125,7.10499609375,8.18434765625,4.3874375,9.064203125,10.314921875,5.81640625,5.918125,4.5777265625,4.17844921875,4.44048046875,2.0976328125,-2.93016796875,4.08869921875,2.49379296875,0.99077734375,-5.35633203125
-4.2586171875,-0.0689414062500004,3.07044921875,6.51279296875,1.73709375,4.7213828125,5.1588515625,7.75441015625,9.16619140625,4.90290625,8.3208984375,9.2593046875,4.1039453125,6.5383203125,3.01799609375,2.97934765625,-0.7315625,6.430203125,6.091921875,1.61440625,1.380125,1.8537265625,0.77544921875,0.673480468750004,-2.1123671875,-5.06316796875,0.524699218749999,0.51079296875,-0.0732226562499996,-6.56433203125
-6.9516171875,-3.99094140625,-0.346550781249999,5.00579296875,-1.09290625,0.8843828125,-0.0121484375000005,5.45541015625,7.60019140625,1.18390625,4.5578984375,6.5073046875,1.6399453125,3.4613203125,-0.897003906249999,-1.73665234375,-5.1145625,3.583203125,1.302921875,-2.20959375,-2.651875,-1.2082734375,-2.67255078125,-2.74051953125,-5.9423671875,-7.23316796875,-3.46830078125,-2.45720703125,-1.56822265625,-8.41233203125
-7.8236171875,-6.09594140625,-2.44155078125,4.18479296875,-3.21790625,-2.0836171875,-2.7491484375,3.40041015625,5.45219140625,-2.05309375,1.6728984375,4.9603046875,0.976945312500001,1.0423203125,-3.65500390625,-4.73665234375,-7.4685625,1.272203125,-2.799078125,-4.65859375,-5.226875,-3.6722734375,-5.29655078125,-4.94051953125,-8.5163671875,-9.08816796875,-6.93030078125,-5.50620703125,-3.09522265625,-10.55133203125
-6.8466171875,-5.98994140625,-2.69755078125,4.04279296875,-4.43290625,-3.5486171875,-2.6991484375,2.06341015625,2.92719140625,-4.13309375,0.2288984375,4.8533046875,2.2119453125,-0.370679687499998,-4.76200390625,-5.28665234375,-7.5155625,-0.0837968750000009,-5.280078125,-5.17859375,-5.740875,-4.9552734375,-6.57055078125,-5.47251953125,-9.2733671875,-10.23816796875,-9.03230078125,-7.68320703125,-4.24522265625,-12.43733203125
-4.7246171875,-4.19494140625,-1.38455078125,3.68779296875,-4.88290625,-3.4556171875,-0.5231484375,1.61041015625,0.417191406250002,-4.80909375,0.2478984375,5.8883046875,4.5629453125,-0.847679687499999,-4.32700390625,-3.40565234375,-5.8345625,-0.460796875000002,-5.829078125,-3.84559375,-4.159875,-4.9372734375,-6.45155078125,-4.39151953125,-8.1633671875,-10.41216796875,-9.36730078125,-8.34720703125,-4.75622265625,-13.56533203125
-2.6646171875,-1.94794140625,0.55944921875,1.55479296875,-4.93090625,-2.2876171875,2.4358515625,1.82541015625,-1.65180859375,-4.26409375,1.2738984375,7.3843046875,6.9399453125,-0.724679687499998,-2.90400390625,0.16934765625,-3.3885625,-0.110796875,-4.800078125,-1.29059375,-1.049875,-3.8932734375,-5.30255078125,-2.18251953125,-5.6703671875,-9.58016796875,-8.11230078125,-7.39220703125,-4.58222265625,-13.68433203125
-1.8716171875,-0.632941406250001,1.95744921875,-3.88020703125,-4.93290625,-0.780617187500001,4.7628515625,2.23541015625,-2.98380859375,-2.94309375,2.6528984375,8.5773046875,8.5869453125,-0.374679687499999,-1.17000390625,4.28234765625,-1.0555625,0.632203124999998,-2.954078125,1.59640625,2.615125,-2.3392734375,-3.67455078125,0.453480468750001,-2.6313671875,-7.99116796875,-5.91030078125,-5.25120703125,-3.86422265625,-12.86833203125
-2.9856171875,-1.10694140625,1.92144921875,-13.17520703125,-4.99490625,0.4863828125,5.5888515625,2.39041015625,-3.46280859375,-1.31109375,3.8858984375,8.9673046875,9.3419453125,-0.0116796874999983,0.39899609375,7.79634765625,0.625437499999999,1.506203125,-1.022078125,4.04240625,5.811125,-0.8852734375,-2.05655078125,2.87048046875,0.0956328124999999,-6.09216796875,-3.49330078125,-2.71620703125,-2.83322265625,-11.44233203125
-5.7776171875,-3.27694140625,0.21444921875,-25.37220703125,-4.87890625,1.3663828125,4.9388515625,2.11141015625,-3.07280859375,0.34390625,4.8548984375,8.5473046875,9.4229453125,0.387320312500002,1.69299609375,9.98734765625,1.4864375,2.379203125,0.606921875000001,5.64940625,7.821125,-0.0742734375,-0.717550781250001,4.66948046875,1.9496328125,-4.38716796875,-1.33730078125,-0.66520703125,-1.72122265625,-9.84933203125
-9.3026171875,-6.18594140625,-2.71555078125,-38.23720703125,-4.14590625,2.1273828125,3.6388515625,1.60941015625,-1.82080859375,1.96290625,5.7778984375,7.7843046875,9.0109453125,1.0193203125,2.90599609375,10.73134765625,1.6194375,3.242203125,1.928921875,6.44840625,8.444125,-0.1932734375,0.336449218749999,5.76048046875,2.8116328125,-3.25216796875,0.442699218750001,0.25179296875,-0.71022265625,-8.52333203125
-12.4196171875,-8.59994140625,-6.04055078125,-49.22220703125,-2.49590625,3.1683828125,2.8018515625,1.39041015625,0.249191406250002,3.57990625,6.9498984375,7.3463046875,8.0709453125,2.0703203125,4.29299609375,10.38534765625,1.2614375,4.145203125,3.127921875,6.70840625,7.946125,-1.1492734375,1.25444921875,6.25848046875,2.9186328125,-2.82316796875,1.96569921875,-0.14120703125,0.0867773437500006,-7.78733203125
-14.4156171875,-9.75694140625,-9.00355078125,-56.59720703125,-0.0959062499999996,4.6303828125,3.1538515625,1.95341015625,2.90119140625,5.10790625,8.4228984375,7.6873046875,6.5249453125,3.5103203125,5.88399609375,9.44034765625,0.7344375,5.073203125,4.298921875,6.65040625,6.790125,-2.5172734375,2.13644921875,6.28848046875,2.6016328125,-2.99216796875,3.33169921875,-1.49720703125,0.61977734375,-7.79033203125
-15.4026171875,-9.87294140625,-11.26255078125,-60.15720703125,2.27709375,6.1133828125,4.5458515625,3.38741015625,5.45719140625,6.19590625,9.8058984375,8.7153046875,4.5449453125,4.9493203125,7.31399609375,8.16234765625,0.3714375,5.847203125,5.217921875,6.25140625,5.330125,-3.7752734375,2.85844921875,5.83848046875,2.0156328125,-3.54716796875,4.32369921875,-3.13020703125,0.855777343750001,-8.49533203125
-16.3196171875,-10.11994140625,-12.94055078125,-61.17020703125,3.39009375,6.6483828125,5.9378515625,5.10541015625,6.67819140625,6.27690625,10.3288984375,9.7383046875,2.6209453125,5.6893203125,7.88999609375,6.44434765625,0.3864375,6.111203125,5.291921875,5.24340625,3.637125,-4.5872734375,3.05844921875,4.73948046875,1.0266328125,-4.34616796875,4.22369921875,-4.33520703125,0.73177734375,-9.72933203125
-18.5536171875,-12.10294140625,-14.44255078125,-61.65520703125,1.97909375,5.0283828125,5.8658515625,5.98441015625,4.99919140625,4.77890625,9.1318984375,9.7693046875,1.3269453125,4.9503203125,6.86899609375,3.93234765625,0.7414375,5.437203125,3.746921875,3.28340625,1.554125,-4.9422734375,2.28444921875,2.78948046875,-0.6993671875,-5.40616796875,1.97669921875,-4.66620703125,0.142777343750001,-11.28633203125
-23.2876171875,-17.08094140625,-16.17155078125,-63.37720703125,-2.70990625,0.3903828125,3.1868515625,4.94641015625,-0.780808593749999,1.39490625,5.6818984375,8.0313046875,1.0019453125,2.2253203125,3.80799609375,0.309347656250001,1.1894375,3.528203125,0.0149218750000006,0.171406249999999,-1.122875,-5.0712734375,0.23944921875,-0.108519531249996,-3.4663671875,-6.85416796875,-3.27230078125,-4.04920703125,-1.00422265625,-13.00933203125
-30.8176171875,-25.26094140625,-18.32555078125,-67.05520703125,-10.48790625,-7.2366171875,-2.2851484375,1.65541015625,-10.68380859375,-3.71609375,0.0888984374999993,4.3973046875,1.5969453125,-2.4216796875,-1.16900390625,-4.45165234375,1.4754375,0.422203124999999,-5.872078125,-4.00959375,-4.449875,-5.2332734375,-3.02855078125,-3.84951953125,-7.3083671875,-8.75716796875,-11.54230078125,-2.71120703125,-2.69622265625,-14.82533203125
-40.2316171875,-35.54894140625,-20.83755078125,-72.17520703125,-20.14390625,-16.7486171875,-9.5921484375,-3.16658984375,-23.18380859375,-9.87509375,-6.8301015625,-0.474695312500001,2.7339453125,-8.2606796875,-7.32400390625,-9.98065234375,1.5494375,-3.432796875,-13.125078125,-8.86659375,-8.245875,-5.5202734375,-7.06755078125,-8.11251953125,-11.8703671875,-10.99016796875,-21.74230078125,-1.02720703125,-4.74122265625,-16.69433203125
-40.2316171875,-35.54894140625,-20.83755078125,-72.17520703125,-20.14390625,-16.7486171875,-9.5921484375,-3.16658984375,-23.18380859375,-9.87509375,-6.8301015625,-0.474695312500001,2.7339453125,-8.2606796875,-7.32400390625,-9.98065234375,1.5494375,-3.432796875,-13.125078125,-8.86659375,-8.245875,-5.5202734375,-7.06755078125,-8.11251953125,-11.8703671875,-10.99016796875,-21.74230078125,-1.02720703125,-4.74122265625,-16.69433203125
