"Fp1","Fpz","Fp2","F7","F3","Fz","F4","F8","FC5","FC1","FC2","FC6","T7","C3","Cz","C4","T8","CP5","CP1","CP2","CP6","P7","P3","Pz","P4","P8","POz","O1","Oz","O2"
2.08666015625,-7.38542578125,-4.6978203125,2.25901171875,-2.24132421875,-2.89506640625,2.04803125,-3.15065234375,4.42875,-1.0787890625,2.6826484375,-0.6051640625,0.65393359375,7.14225390625,0.5998125,-2.193015625,-3.07784375,5.50708203125,7.707703125,2.43767578125,0.8962421875,11.49101171875,9.56806640625,12.13500390625,6.32203125,6.326359375,5.95996484375,1.837765625,7.20267578125,7.713296875
-1.45033984375,-10.95242578125,-7.5698203125,-6.90598828125,-15.86432421875,-14.30306640625,-5.84796875,-6.01265234375,-6.99325,-10.5107890625,-4.2483515625,-4.5251640625,-3.55206640625,-2.30574609375,-7.8271875,-8.056015625,-5.36184375,-1.67691796875,1.108703125,-3.29032421875,-1.7247578125,3.66401171875,3.88606640625,6.81300390625,2.72303125,5.564359375,1.22196484375,-1.723234375,3.27467578125,3.701296875
-6.59433984375,-13.65742578125,-8.3418203125,-11.62298828125,-22.76032421875,-20.86706640625,-10.44596875,-6.37465234375,-13.16425,-16.1287890625,-7.8993515625,-5.7571640625,-5.51806640625,-8.17774609375,-12.6871875,-10.616015625,-5.49984375,-6.34291796875,-3.025296875,-6.83832421875,-2.5707578125,-0.72598828125,0.75506640625,3.84000390625,0.60803125,5.184359375,-1.26603515625,-2.685234375,1.24867578125,0.628296875
-12.85233984375,-15.37642578125,-7.1518203125,-12.25698828125,-23.01432421875,-22.66006640625,-11.81296875,-4.48365234375,-13.92725,-17.8357890625,-8.1533515625,-4.5411640625,-5.34706640625,-10.21774609375,-13.7841875,-9.891015625,-3.65084375,-8.08791796875,-4.439296875,-8.04532421875,-1.6887578125,-1.48898828125,0.50806640625,3.41700390625,0.16203125,5.165359375,-1.14903515625,-0.914234375,1.47767578125,-1.002703125
-18.79733984375,-16.12242578125,-4.8268203125,-10.52498828125,-18.85232421875,-21.14306640625,-10.85096875,-1.42165234375,-10.83625,-16.7007890625,-5.8763515625,-1.9551640625,-3.89906640625,-9.28574609375,-11.9961875,-6.955015625,-0.71784375,-7.24791796875,-3.626296875,-7.36632421875,0.3032421875,0.51301171875,2.63806640625,5.01600390625,1.14103125,5.404359375,1.25196484375,2.820765625,3.76067578125,-0.803703125
-22.60633984375,-15.92942578125,-2.3778203125,-8.36398828125,-13.36832421875,-18.19106640625,-8.57696875,1.52534765625,-6.30625,-14.3287890625,-2.4133515625,0.7738359375,-2.28906640625,-6.91774609375,-8.7851875,-3.323015625,2.15115625,-4.75791796875,-1.600296875,-5.60232421875,2.5682421875,3.80401171875,5.95706640625,7.61900390625,2.98403125,5.797359375,5.02696484375,7.142765625,7.37267578125,1.307296875
-22.87033984375,-14.80042578125,-0.5208203125,-6.97298828125,-9.14232421875,-15.22806640625,-5.66996875,3.49434765625,-2.53425,-12.1227890625,0.9846484375,2.8628359375,-1.36706640625,-4.69774609375,-5.5931875,-0.295015625,4.11215625,-1.86791796875,0.443703124999999,-3.59432421875,4.4132421875,6.83301171875,8.93406640625,10.05600390625,4.99003125,6.291359375,8.90396484375,10.503765625,11.20667578125,4.910296875
-19.28433984375,-12.77442578125,0.5451796875,-6.49498828125,-7.35232421875,-12.88206640625,-2.50196875,4.32934765625,-0.70625,-10.7847890625,3.5386484375,4.1768359375,-1.43206640625,-3.71074609375,-3.3971875,1.443984375,4.92315625,0.18408203125,1.483703125,-2.02032421875,5.4932421875,8.39401171875,10.14006640625,11.32200390625,6.49903125,6.885359375,11.57996484375,11.643765625,14.03267578125,9.068296875
-12.85733984375,-10.05342578125,1.0361796875,-6.33498828125,-7.66832421875,-11.11606640625,0.59103125,4.45134765625,-0.80325,-10.2507890625,5.0276484375,5.0188359375,-2.32106640625,-4.28174609375,-2.5401875,1.842984375,4.89715625,0.49008203125,0.931703125,-1.31832421875,5.7962421875,7.87901171875,8.66506640625,10.79500390625,7.03003125,7.585359375,12.08396484375,9.947765625,14.84067578125,12.547296875
-5.55833984375,-7.08342578125,1.2901796875,-5.79098828125,-8.83732421875,-9.59506640625,3.14503125,4.43334765625,-1.97925,-10.0267890625,5.5956484375,5.7228359375,-3.73706640625,-6.05174609375,-2.8381875,1.217984375,4.57615625,-1.32791796875,-1.271296875,-1.69932421875,5.4642421875,5.33001171875,4.38206640625,8.33900390625,6.33103125,8.308359375,10.03896484375,5.624765625,13.16167578125,14.202296875
0.434660156250001,-4.49942578125,1.5041796875,-4.61898828125,-9.63432421875,-8.10706640625,4.59303125,4.58334765625,-3.28525,-9.7067890625,5.4426484375,6.2998359375,-5.53506640625,-8.32774609375,-3.8761875,-0.0910156249999998,4.35015625,-5.05291796875,-4.742296875,-3.21632421875,4.5912421875,1.30601171875,-2.02693359375,4.26200390625,4.34303125,8.813359375,5.73296484375,-0.369234375,9.21367578125,13.364296875
3.51566015625,-2.94242578125,1.6371796875,-3.22298828125,-9.63532421875,-6.85306640625,4.42903125,4.78134765625,-4.28325,-9.3437890625,4.5936484375,6.3728359375,-7.72006640625,-10.49574609375,-5.3231875,-1.941015625,4.24315625,-9.96091796875,-8.885296875,-5.82532421875,3.1082421875,-3.35898828125,-9.31293359375,-0.84999609375,1.13703125,8.691359375,-0.04103515625,-6.667234375,3.79067578125,10.032296875
3.17766015625,-2.82042578125,1.5291796875,-2.34398828125,-9.35032421875,-6.39006640625,2.43703125,4.66434765625,-5.16325,-9.4307890625,2.9016484375,5.4568359375,-10.21606640625,-12.23474609375,-7.0861875,-4.365015625,3.96115625,-15.02491796875,-13.098296875,-9.39332421875,0.8362421875,-7.79898828125,-16.04593359375,-6.32899609375,-3.10496875,7.487359375,-6.27903515625,-11.959234375,-2.04432421875,4.852296875
0.0786601562500007,-4.12842578125,1.1091796875,-2.45798828125,-9.62532421875,-7.19806640625,-1.01496875,4.01734765625,-6.29025,-10.4897890625,0.3186484375,3.4228359375,-12.62906640625,-13.44974609375,-9.2011875,-7.342015625,3.16715625,-19.16291796875,-16.851296875,-13.58932421875,-2.2997578125,-11.26598828125,-20.99493359375,-11.53599609375,-8.01396875,4.950359375,-12.02603515625,-15.398234375,-7.28632421875,-1.067703125
-4.30833984375,-6.36942578125,0.5781796875,-3.31298828125,-10.77532421875,-9.15306640625,-4.84896875,3.09334765625,-7.55725,-12.5187890625,-2.7813515625,0.8328359375,-14.22706640625,-14.01474609375,-11.5461875,-10.520015625,1.81115625,-21.47591796875,-19.615296875,-17.76432421875,-6.0057578125,-13.19698828125,-23.35393359375,-15.83299609375,-12.91696875,1.300359375,-16.50003515625,-16.756234375,-11.19932421875,-6.401703125
-8.29833984375,-8.64042578125,0.4051796875,-3.98798828125,-12.09232421875,-11.32406640625,-7.53596875,2.60734765625,-8.13625,-14.7017890625,-5.4833515625,-1.1561640625,-14.18806640625,-13.57574609375,-13.6001875,-13.124015625,0.30715625,-21.40991796875,-20.776296875,-20.92532421875,-9.4977578125,-13.26398828125,-22.80993359375,-18.52599609375,-16.83096875,-2.669640625,-19.09503515625,-16.318234375,-13.34732421875,-9.895703125
-10.58333984375,-9.93942578125,1.1041796875,-3.46398828125,-12.12332421875,-12.29906640625,-7.74296875,3.34834765625,-6.88325,-15.6457890625,-6.6153515625,-1.3501640625,-12.00906640625,-11.63674609375,-14.5121875,-14.176015625,-0.58684375,-18.88291796875,-19.722296875,-21.96932421875,-11.6827578125,-11.46098828125,-19.52793359375,-18.93699609375,-18.66996875,-5.790640625,-19.39403515625,-14.601234375,-13.56632421875,-10.680703125
-10.65333984375,-9.60442578125,2.8821796875,-1.29498828125,-9.57132421875,-10.89106640625,-5.00096875,5.64034765625,-3.18525,-14.1157890625,-5.3433515625,0.7638359375,-7.86106640625,-7.91674609375,-13.5041875,-12.956015625,-0.16984375,-14.33991796875,-16.146296875,-20.12232421875,-11.6127578125,-8.13298828125,-14.12293359375,-16.65299609375,-17.65796875,-6.983640625,-17.27203515625,-12.103234375,-11.95132421875,-8.549703125
-8.89833984375,-7.68042578125,5.3761796875,2.03601171875,-4.26732421875,-6.86106640625,-0.03796875,8.99234765625,2.34175,-9.8517890625,-1.7343515625,4.5878359375,-2.66506640625,-2.76874609375,-10.4011875,-9.447015625,1.77415625,-8.70991796875,-10.388296875,-15.40332421875,-8.9807578125,-3.89298828125,-7.59193359375,-11.81499609375,-13.73596875,-5.740640625,-13.04503515625,-9.159234375,-8.87732421875,-4.092703125
-6.38533984375,-4.95442578125,7.6951796875,5.31101171875,2.42267578125,-1.25906640625,5.43203125,12.20334765625,7.82275,-3.9367890625,3.0826484375,8.5798359375,2.21593359375,2.69525390625,-5.9241875,-4.494015625,4.76015625,-3.19391796875,-3.549296875,-8.77732421875,-4.3647578125,0.55701171875,-1.14293359375,-5.23399609375,-7.71096875,-2.378640625,-7.49303515625,-5.951234375,-4.97032421875,1.435296875
-4.39633984375,-2.62542578125,8.7891796875,7.18301171875,8.09467578125,3.89193359375,9.38803125,13.90034765625,10.94175,1.5642109375,7.3376484375,10.9528359375,5.51093359375,6.93725390625,-1.5041875,0.465984375000001,7.76215625,1.09108203125,2.805703125,-1.88332421875,0.9532421875,4.60001171875,4.08606640625,1.78900390625,-1.03196875,2.064359375,-1.68203515625,-2.586234375,-0.97032421875,6.527296875
-3.91833984375,-1.79042578125,7.9811796875,6.84901171875,10.46867578125,6.50793359375,10.38603125,13.19534765625,10.16775,4.5572109375,9.4176484375,10.5298359375,6.51493359375,8.67925390625,1.3468125,3.986984375,9.63815625,3.47408203125,7.229703125,3.57967578125,5.4842421875,7.80401171875,7.33506640625,7.87300390625,4.71803125,6.225359375,3.34396484375,0.805765625,2.48567578125,9.961296875
-5.26333984375,-3.01642578125,5.3301796875,4.37701171875,8.54467578125,5.47193359375,8.20303125,10.10334765625,5.62175,3.9202109375,8.6106484375,7.2768359375,5.30193359375,7.50525390625,1.7408125,5.197984375,9.61215625,3.90108203125,8.935703125,6.47767578125,8.1082421875,9.94501171875,8.39206640625,11.98300390625,8.36803125,8.946359375,6.85496484375,4.010765625,5.04967578125,11.221296875
-7.97133984375,-6.14842578125,1.6241796875,0.54901171875,3.02267578125,1.15793359375,3.87003125,5.50134765625,-1.04025,0.00721093749999824,5.3766484375,2.2368359375,2.59193359375,4.03425390625,-0.205187500000001,4.086984375,7.57415625,2.84608203125,8.011703125,6.57867578125,8.4352421875,10.96301171875,7.55706640625,13.67200390625,9.49403125,9.706359375,8.57396484375,6.726765625,6.72167578125,10.628296875
-11.00633984375,-10.40642578125,-1.9938203125,-3.62398828125,-4.16832421875,-4.85406640625,-0.92396875,0.689347656249999,-7.60025,-5.6257890625,1.0256484375,-3.0311640625,-0.57406640625,-0.46074609375,-3.5431875,1.345984375,4.08015625,1.01408203125,5.213703125,4.44867578125,6.8262421875,10.90301171875,5.42206640625,13.05400390625,8.41703125,8.771359375,8.61796484375,8.622765625,7.75567578125,9.114296875
-13.23933984375,-14.70942578125,-4.5558203125,-7.35998828125,-10.89832421875,-10.62906640625,-4.65996875,-3.19865234375,-12.41425,-11.0897890625,-3.0163515625,-7.1851640625,-3.24106640625,-4.72974609375,-7.0741875,-2.079015625,0.07915625,-0.999917968749999,1.497703125,1.03767578125,4.0882421875,9.86401171875,2.58106640625,10.58900390625,5.88803125,6.982359375,7.31096484375,9.406765625,8.42867578125,7.734296875
-14.00133984375,-18.10542578125,-5.6828203125,-10.27498828125,-15.75832421875,-14.76306640625,-6.61596875,-5.62765234375,-14.99425,-15.1007890625,-5.9033515625,-9.6251640625,-4.84806640625,-8.09674609375,-9.9811875,-5.457015625,-3.49284375,-2.92391796875,-2.408296875,-2.80132421875,1.0592421875,7.98701171875,-0.57893359375,6.83200390625,2.67503125,5.281359375,4.97996484375,8.885765625,8.81367578125,7.151296875
-13.41933984375,-20.08742578125,-5.6548203125,-12.26998828125,-18.40932421875,-16.86606640625,-7.03396875,-6.73865234375,-15.83425,-17.4267890625,-7.6483515625,-10.5801640625,-5.33906640625,-10.56674609375,-12.1251875,-8.482015625,-6.02684375,-4.77991796875,-6.160296875,-6.57632421875,-1.7047578125,5.48601171875,-3.88593359375,2.31000390625,-0.72396875,4.257359375,1.86096484375,7.043765625,8.69067578125,7.341296875
-12.28733984375,-20.64942578125,-5.1288203125,-13.28598828125,-19.29732421875,-17.47906640625,-6.82996875,-7.06865234375,-15.74325,-18.6367890625,-8.8633515625,-10.7851640625,-5.04806640625,-12.47974609375,-13.8691875,-11.167015625,-7.33484375,-6.63791796875,-9.652296875,-10.11732421875,-3.9947578125,2.68901171875,-7.21693359375,-2.48099609375,-4.11696875,3.939359375,-1.82403515625,4.102765625,7.68567578125,7.681296875
-11.50733984375,-20.09142578125,-4.7028203125,-13.12598828125,-19.02432421875,-17.51706640625,-6.99096875,-7.10865234375,-15.20325,-19.4277890625,-10.1903515625,-10.9531640625,-4.44306640625,-14.04274609375,-15.6221875,-13.575015625,-7.56584375,-8.38791796875,-12.751296875,-13.36732421875,-5.8307578125,0.02401171875,-10.33293359375,-7.03899609375,-7.46396875,3.884359375,-5.75503515625,0.544765625,5.53667578125,7.313296875
-11.44933984375,-18.73742578125,-4.5908203125,-11.50198828125,-17.86532421875,-17.60806640625,-7.95596875,-6.98765234375,-14.12325,-20.0537890625,-11.8153515625,-11.3531640625,-3.88806640625,-15.10074609375,-17.4471875,-15.616015625,-7.03084375,-9.71191796875,-15.198296875,-16.21732421875,-7.3157578125,-2.08398828125,-12.88093359375,-10.89799609375,-10.70896875,3.464359375,-9.49003515625,-2.999234375,2.30567578125,5.593296875
-11.67033984375,-16.75642578125,-4.5718203125,-8.32498828125,-15.75832421875,-17.75406640625,-9.33396875,-6.43865234375,-12.14125,-20.2187890625,-13.3533515625,-11.6991640625,-3.54306640625,-15.28774609375,-19.0021875,-17.039015625,-6.04684375,-10.30591796875,-16.716296875,-18.51332421875,-8.5357578125,-3.36398828125,-14.56293359375,-13.75899609375,-13.71296875,2.205359375,-12.58503515625,-5.948234375,-1.57432421875,2.407296875
-11.22633984375,-14.20242578125,-4.2058203125,-4.06298828125,-12.71432421875,-17.49106640625,-10.17996875,-5.06365234375,-9.20725,-19.4357890625,-14.1343515625,-11.3981640625,-3.42206640625,-14.42074609375,-19.7981875,-17.599015625,-4.83784375,-10.16891796875,-17.249296875,-20.16032421875,-9.5347578125,-3.84198828125,-15.35093359375,-15.61199609375,-16.27496875,0.0393593750000001,-14.75403515625,-7.963234375,-5.43032421875,-1.741703125
-9.39933984375,-11.22442578125,-3.1568203125,0.12901171875,-9.23932421875,-16.37006640625,-9.62196875,-2.69965234375,-5.98925,-17.5497890625,-13.6623515625,-10.0001640625,-3.55406640625,-12.82174609375,-19.5731875,-17.241015625,-3.52784375,-9.74291796875,-17.115296875,-21.23532421875,-10.3127578125,-3.85698828125,-15.55893359375,-16.74699609375,-18.21596875,-2.606640625,-15.96803515625,-9.019234375,-8.57332421875,-5.891703125
-6.37833984375,-8.26242578125,-1.4518203125,2.73701171875,-6.38732421875,-14.36006640625,-7.43296875,0.317347656249999,-3.73225,-15.0407890625,-11.9893515625,-7.5811640625,-4.12606640625,-11.32274609375,-18.5271875,-16.206015625,-2.22584375,-9.77891796875,-16.935296875,-21.98932421875,-10.8577578125,-3.93198828125,-15.72393359375,-17.61899609375,-19.46496875,-4.964640625,-16.44403515625,-9.348234375,-10.51832421875,-8.975703125
-3.36133984375,-6.02242578125,0.4651796875,2.56001171875,-5.33432421875,-11.93606640625,-4.20196875,3.17034765625,-3.63525,-12.9027890625,-9.7813515625,-4.8311640625,-5.42506640625,-10.90674609375,-17.2661875,-14.965015625,-1.11784375,-10.95591796875,-17.350296875,-22.73132421875,-11.1757578125,-4.53198828125,-16.32993359375,-18.60999609375,-20.08896875,-6.239640625,-16.55203515625,-9.290234375,-11.13732421875,-10.231703125
-1.92033984375,-5.18242578125,1.9131796875,-0.62898828125,-6.74232421875,-9.87606640625,-1.08996875,4.88034765625,-6.13225,-12.1367890625,-8.0133515625,-2.7721640625,-7.58406640625,-12.16874609375,-16.4951875,-14.018015625,-0.46484375,-13.44491796875,-18.662296875,-23.63532421875,-11.2897578125,-5.82298828125,-17.51893359375,-19.80699609375,-20.22296875,-5.956640625,-16.64603515625,-9.132234375,-10.66032421875,-9.510703125
-3.01133984375,-5.99742578125,2.3181796875,-5.83098828125,-10.28532421875,-8.89006640625,0.72003125,4.80734765625,-10.54225,-13.1627890625,-7.4533515625,-2.2101640625,-10.28406640625,-14.89474609375,-16.6181875,-13.639015625,-0.46084375,-16.66291796875,-20.587296875,-24.56632421875,-11.1937578125,-7.55198828125,-18.95293359375,-20.90699609375,-19.94696875,-4.146640625,-16.89203515625,-9.014234375,-9.55232421875,-7.325703125
-6.28433984375,-8.06342578125,1.5441796875,-11.11098828125,-14.62432421875,-9.21306640625,0.65903125,3.06334765625,-15.24325,-15.5167890625,-8.2013515625,-3.2001640625,-12.71206640625,-18.04374609375,-17.4641875,-13.661015625,-1.04284375,-19.43091796875,-22.290296875,-25.03332421875,-10.7787578125,-9.13098828125,-19.92793359375,-21.31699609375,-19.16696875,-1.306640625,-17.17903515625,-8.909234375,-8.31032421875,-4.607703125
-10.15533984375,-10.38642578125,0.0691796875000003,-14.33798828125,-17.88732421875,-10.36706640625,-0.82696875,0.612347656249999,-18.29425,-17.9967890625,-9.5483515625,-4.8561640625,-13.88106640625,-20.15074609375,-18.2911875,-13.457015625,-1.77984375,-20.48191796875,-22.712296875,-24.32832421875,-9.8207578125,-9.89698828125,-19.67793359375,-20.39699609375,-17.63796875,1.820359375,-17.15603515625,-8.686234375,-7.27832421875,-2.299703125
-12.57933984375,-11.75342578125,-1.1528203125,-14.09298828125,-18.47832421875,-11.29306640625,-2.40796875,-1.06565234375,-18.26125,-19.1907890625,-10.2533515625,-5.6761640625,-13.13406640625,-19.97574609375,-18.1011875,-12.175015625,-1.98484375,-19.06491796875,-21.033296875,-21.83232421875,-8.0657578125,-9.42298828125,-17.72693359375,-17.74399609375,-15.11396875,4.503359375,-16.39403515625,-8.186234375,-6.55032421875,-0.982703125
-12.07233984375,-11.22942578125,-1.0868203125,-10.31198828125,-15.81232421875,-10.85906640625,-2.55296875,-0.63565234375,-14.88525,-18.0867890625,-9.1393515625,-4.2971640625,-10.52706640625,-17.05674609375,-16.1081875,-9.164015625,-1.01184375,-15.29491796875,-17.060296875,-17.33732421875,-5.3987578125,-7.71398828125,-14.08793359375,-13.39499609375,-11.54896875,6.213359375,-14.57903515625,-7.278234375,-5.98732421875,-0.701703125
-8.43533984375,-8.59242578125,0.8551796875,-4.28898828125,-10.57632421875,-8.43506640625,-0.36196875,2.42234765625,-9.23025,-14.4797890625,-5.6913515625,-0.2771640625,-6.82206640625,-11.89474609375,-12.1311875,-4.401015625,1.38115625,-10.06891796875,-11.333296875,-11.23132421875,-2.0057578125,-5.17398828125,-9.26393359375,-7.85199609375,-7.22396875,6.724359375,-11.66603515625,-5.902234375,-5.31432421875,-1.047703125
-2.85533984375,-4.48942578125,4.4411796875,1.95701171875,-4.34432421875,-4.20606640625,3.95103125,7.46234765625,-3.16725,-9.0337890625,-0.3703515625,5.5428359375,-3.12706640625,-5.70674609375,-6.7021875,1.360984375,4.80915625,-4.63291796875,-4.925296875,-4.44932421875,1.5952421875,-2.36198828125,-4.05293359375,-1.93299609375,-2.70496875,6.135359375,-7.91503515625,-4.091234375,-4.28132421875,-1.409703125
2.60266015625,-0.238425781250001,8.6101796875,6.56001171875,1.16967578125,0.87893359375,9.12003125,12.86534765625,1.49175,-3.0117890625,5.5186484375,11.3108359375,-0.39806640625,0.0802539062499998,-0.893187500000001,6.791984375,8.32415625,-0.0699179687499996,0.948703124999999,1.78267578125,4.6832421875,0.26401171875,0.70306640625,3.47200390625,1.32203125,4.820359375,-3.83703515625,-1.985234375,-2.80232421875,-1.271703125
5.84366015625,2.67557421875,11.8871796875,8.44901171875,4.79367578125,5.42293359375,13.34903125,16.70534765625,3.69575,2.1552109375,10.3276484375,14.9558359375,0.91193359375,4.30025390625,4.0528125,10.473984375,10.76015625,3.01208203125,5.294703125,6.30267578125,6.5832421875,2.42501171875,4.31106640625,7.61700390625,4.25403125,3.323359375,-0.07603515625,0.147765625,-1.04232421875,-0.448703125000001
5.54566015625,3.20257421875,13.0431796875,7.55701171875,6.22067578125,8.09993359375,15.07603125,17.61034765625,3.37075,5.3332109375,12.7176484375,15.1518359375,0.90393359375,6.30525390625,7.1238125,11.465984375,11.23215625,4.48008203125,7.547703125,8.35967578125,6.9162421875,3.90901171875,6.32606640625,10.03500390625,5.72203125,2.201359375,2.72296484375,1.943765625,0.59767578125,0.839296875
1.67166015625,1.18757421875,11.6911796875,4.65801171875,5.94467578125,8.24193359375,13.73403125,15.41734765625,1.21275,6.0402109375,12.2226484375,11.9738359375,0.0389335937499999,6.02125390625,7.8918125,9.709984375,9.56415625,4.50408203125,7.635703125,7.86567578125,5.7742421875,4.49201171875,6.59906640625,10.61600390625,5.68503125,1.883359375,4.08596484375,3.037765625,1.62967578125,2.103296875
-4.49133984375,-2.53342578125,8.4971796875,0.98701171875,4.90167578125,6.21093359375,10.10803125,11.26134765625,-1.72325,4.6042109375,9.4656484375,6.9048359375,-1.15506640625,3.87225390625,6.6758125,6.093984375,6.42915625,3.39408203125,5.950703125,5.43967578125,3.7172421875,4.00001171875,5.32006640625,9.63600390625,4.44503125,2.576359375,3.86796484375,3.224765625,1.70167578125,2.854296875
-10.79533984375,-6.50542578125,4.8351796875,-2.28098828125,3.95467578125,3.22693359375,5.96103125,6.98534765625,-4.47725,1.9972109375,5.8776484375,2.1138359375,-2.30906640625,0.62925390625,4.3938125,2.077984375,3.04615625,1.53008203125,3.227703125,2.15867578125,1.5412421875,2.47601171875,2.99506640625,7.67600390625,2.55603125,4.191359375,2.32196484375,2.554765625,0.76867578125,2.843296875
-15.08833984375,-9.35042578125,2.0791796875,-4.47698828125,3.44967578125,0.72193359375,3.09703125,4.18234765625,-6.53325,-0.619789062500001,2.9996484375,-0.6521640625,-3.30206640625,-2.84574609375,2.1178125,-0.965015625,0.56515625,-0.67091796875,0.300703125,-0.906324218749999,-0.0987578125000002,0.24801171875,0.29706640625,5.40300390625,0.58503125,6.296359375,0.00296484375,1.277765625,-0.92632421875,2.093296875
-16.13133984375,-10.41442578125,0.9271796875,-5.58998828125,3.12567578125,-0.37306640625,2.43203125,3.42534765625,-7.90825,-2.4257890625,1.7626484375,-0.8871640625,-4.21206640625,-5.88174609375,0.565812499999999,-2.330015625,-0.49184375,-2.83591796875,-2.180296875,-3.13132421875,-0.9847578125,-2.16298828125,-2.16893359375,3.32300390625,-1.11596875,8.185359375,-2.46703515625,-0.304234375,-3.01232421875,0.767296875
-14.10233984375,-9.98042578125,1.2111796875,-6.03698828125,2.41467578125,0.0519335937500003,3.67703125,4.17734765625,-8.93325,-3.2097890625,2.1456484375,0.6358359375,-5.15806640625,-8.15374609375,-0.128187500000001,-2.147015625,-0.36384375,-4.69691796875,-3.912296875,-4.45832421875,-1.3307578125,-4.23198828125,-4.05893359375,1.66500390625,-2.47296875,9.124359375,-4.61803515625,-1.982234375,-5.16532421875,-0.969703125000001
-10.41033984375,-8.94142578125,2.2191796875,-6.23798828125,0.92667578125,1.43693359375,5.70303125,5.37334765625,-9.87225,-3.2507890625,3.4186484375,2.5518359375,-6.14106640625,-9.61974609375,-0.2781875,-1.073015625,0.30915625,-6.09691796875,-4.913296875,-5.17432421875,-1.4857578125,-5.60098828125,-5.31793359375,0.44800390625,-3.54296875,8.723359375,-6.21703515625,-3.656234375,-7.16532421875,-2.975703125
-6.91633984375,-8.18842578125,3.2721796875,-6.30498828125,-1.21232421875,2.97993359375,7.26203125,6.20034765625,-10.61325,-2.9397890625,4.7236484375,3.8068359375,-6.97106640625,-10.31874609375,-0.273187500000001,0.214984375,1.00715625,-6.94691796875,-5.346296875,-5.55732421875,-1.6057578125,-6.17298828125,-6.08593359375,-0.37499609375,-4.31496875,7.172359375,-7.23603515625,-5.300234375,-8.86932421875,-5.085703125
-5.04033984375,-8.11542578125,4.1101796875,-6.00898828125,-3.34932421875,4.08393359375,7.63103125,6.53034765625,-10.61825,-2.4597890625,5.5946484375,4.1598359375,-7.32606640625,-10.21474609375,-0.2591875,1.374984375,1.62115625,-7.20191796875,-5.348296875,-5.67832421875,-1.5577578125,-6.12498828125,-6.55893359375,-0.82699609375,-4.65096875,5.153359375,-7.76803515625,-6.895234375,-10.17832421875,-7.077703125
-5.22333984375,-8.51042578125,4.8861796875,-5.00298828125,-4.56732421875,4.60593359375,6.86403125,6.78334765625,-9.18225,-1.7007890625,6.1116484375,4.0818359375,-6.91506640625,-9.19274609375,-0.0701875000000003,2.421984375,2.34415625,-6.86991796875,-4.950296875,-5.44732421875,-1.0927578125,-5.81298828125,-6.86593359375,-0.90599609375,-4.40696875,3.472359375,-7.96003515625,-8.401234375,-11.03132421875,-8.717703125
-6.92533984375,-8.78942578125,5.8721796875,-3.14298828125,-4.11132421875,4.79593359375,5.57803125,7.46134765625,-5.88725,-0.439789062500001,6.6626484375,4.2418359375,-5.64106640625,-7.19874609375,0.5758125,3.506984375,3.34915625,-6.02491796875,-4.107296875,-4.80332421875,-0.1177578125,-5.62298828125,-6.99893359375,-0.62899609375,-3.59496875,2.648359375,-7.94003515625,-9.718234375,-11.40632421875,-9.848703125
-9.03833984375,-8.39842578125,7.1401796875,-0.69998828125,-1.76932421875,4.99693359375,4.46903125,8.72634765625,-1.01825,1.3972109375,7.5426484375,5.0168359375,-3.67406640625,-4.40074609375,1.7938125,4.672984375,4.51115625,-4.79591796875,-2.813296875,-3.87232421875,1.1582421875,-5.79698828125,-6.83293359375,-0.0739960937499999,-2.44996875,2.688359375,-7.76903515625,-10.682234375,-11.32132421875,-10.454703125
-10.46533984375,-7.12442578125,8.4531796875,1.72201171875,1.99967578125,5.39393359375,3.94803125,10.30834765625,4.35875,3.5692109375,8.6966484375,6.3228359375,-1.42206640625,-1.26374609375,3.3538125,5.786984375,5.39915625,-3.35291796875,-1.203296875,-2.94732421875,2.3112421875,-6.34498828125,-6.22793359375,0.60200390625,-1.34096875,3.153359375,-7.43103515625,-11.123234375,-10.85332421875,-10.677703125
-10.60633984375,-5.19342578125,9.4081796875,3.52901171875,6.28567578125,6.00893359375,4.12103125,11.71934765625,8.78675,5.5882109375,9.7956484375,7.7938359375,0.61193359375,1.55725390625,4.7808125,6.677984375,5.51515625,-1.88591796875,0.440703125,-2.29832421875,2.9572421875,-7.05398828125,-5.15893359375,1.23100390625,-0.56596875,3.444359375,-6.87003515625,-10.954234375,-10.14532421875,-10.749703125
-9.52333984375,-3.11942578125,9.7111796875,4.50801171875,10.13267578125,6.86993359375,4.97803125,12.54734765625,11.09175,7.0032109375,10.5556484375,9.0938359375,2.02293359375,3.48125390625,5.6668125,7.348984375,4.64815625,-0.568917968749999,1.818703125,-1.94632421875,3.0122421875,-7.59598828125,-3.74893359375,1.73500390625,-0.15696875,3.158359375,-6.01703515625,-10.208234375,-9.36132421875,-10.866703125
-7.71133984375,-1.43742578125,9.3501796875,4.91301171875,12.87267578125,8.08993359375,6.47603125,12.63134765625,10.92675,7.6802109375,11.0026484375,10.0808359375,2.66993359375,4.27625390625,5.9728125,8.035984375,3.08415625,0.49808203125,2.787703125,-1.58332421875,2.7982421875,-7.66698828125,-2.19893359375,2.21700390625,0.17403125,2.312359375,-4.79603515625,-8.998234375,-8.56932421875,-11.045703125
-5.65233984375,-0.464425781250001,8.5711796875,5.23601171875,14.23367578125,9.76693359375,8.47803125,12.04734765625,8.88375,7.8722109375,11.4416484375,10.7618359375,2.68993359375,4.16025390625,6.0588125,9.048984375,1.53415625,1.31008203125,3.442703125,-0.732324218749999,2.8812421875,-7.08598828125,-0.66993359375,2.92600390625,0.87503125,1.318359375,-3.13403515625,-7.422234375,-7.66732421875,-11.074703125
-3.54333984375,-0.217425781250002,7.7171796875,5.84701171875,14.28967578125,11.82093359375,10.70403125,11.02434765625,6.15575,8.0132109375,12.1616484375,11.1758359375,2.37093359375,3.66425390625,6.4278125,10.496984375,0.79715625,1.91008203125,4.033703125,0.935675781250001,3.7512421875,-5.84398828125,0.75906640625,4.12000390625,2.29003125,0.739359375,-1.01703515625,-5.512234375,-6.41032421875,-10.598703125
-1.37033984375,-0.449425781250001,7.0721796875,6.79901171875,13.37367578125,13.92093359375,12.82303125,9.90234765625,3.94175,8.4212109375,13.1426484375,11.3748359375,1.95093359375,3.35125390625,7.3878125,12.160984375,1.36415625,2.32308203125,4.787703125,3.36767578125,5.5392421875,-4.10998828125,2.07106640625,5.89600390625,4.44803125,0.988359375,1.45096484375,-3.281234375,-4.55532421875,-9.296703125
0.828660156250001,-0.743425781250001,6.8301796875,7.84601171875,12.00067578125,15.56693359375,14.61103125,9.12234765625,2.93675,9.1322109375,14.0546484375,11.5148359375,1.50393359375,3.57425390625,8.8738125,13.607984375,3.18915625,2.53408203125,5.781703125,6.13467578125,7.9302421875,-2.22898828125,3.23906640625,8.12000390625,7.04703125,2.124359375,4.03996484375,-0.828234375,-2.04732421875,-7.065703125
2.86366015625,-0.635425781250001,7.1351796875,8.65201171875,10.77267578125,16.33893359375,16.08403125,9.17534765625,3.15675,9.9842109375,14.5376484375,11.9278359375,0.96893359375,4.38625390625,10.5618125,14.499984375,5.72515625,2.54408203125,6.936703125,8.68667578125,10.3202421875,-0.65998828125,4.21106640625,10.48500390625,9.61903125,3.813359375,6.45396484375,1.602765625,0.89267578125,-4.132703125
4.53866015625,0.24457421875,8.1241796875,9.03501171875,10.23567578125,16.20293359375,17.56003125,10.43934765625,4.15075,10.8252109375,14.5706484375,13.0568359375,0.29293359375,5.61425390625,12.1428125,14.864984375,8.20015625,2.44208203125,8.120703125,10.66367578125,12.1142421875,0.20601171875,4.95506640625,12.65700390625,11.75303125,5.471359375,8.43396484375,3.679765625,3.83667578125,-0.994703125
5.81966015625,2.03257421875,9.8861796875,9.09601171875,10.71767578125,15.65393359375,19.56703125,12.98934765625,5.38575,11.6682109375,14.6036484375,15.2408359375,-0.43206640625,6.99125390625,13.5528125,15.147984375,9.98915625,2.43008203125,9.275703125,12.08567578125,13.0232421875,0.29101171875,5.54206640625,14.43200390625,13.27703125,6.550359375,9.86296484375,5.172765625,6.36167578125,1.789296875
6.76066015625,4.55057421875,12.3751796875,9.13001171875,12.15667578125,15.47293359375,22.50703125,16.47834765625,6.49475,12.6412109375,15.3176484375,18.4638359375,-0.93406640625,8.24825390625,14.9558125,15.960984375,10.87115625,2.75608203125,10.443703125,13.25967578125,13.1882421875,-0.0539882812500001,6.15706640625,15.79200390625,14.28303125,6.834359375,10.80196484375,6.114765625,8.25867578125,3.844296875
7.27766015625,7.31157421875,15.2891796875,9.36401171875,14.01967578125,16.16993359375,26.19203125,20.14634765625,7.26975,13.7642109375,17.1006484375,22.1658359375,-0.86506640625,9.11525390625,16.4658125,17.637984375,11.01815625,3.56908203125,11.650703125,14.46367578125,13.0292421875,-0.18698828125,6.98006640625,16.79800390625,14.97403125,6.532359375,11.40396484375,6.786765625,9.58667578125,5.111296875
7.02566015625,9.62557421875,18.0081796875,9.77101171875,15.43967578125,17.53393359375,29.60703125,22.97534765625,7.54375,14.7482109375,19.6016484375,25.2828359375,-0.01406640625,9.31725390625,17.8458125,19.874984375,10.72515625,4.78908203125,12.760703125,15.61067578125,12.9242421875,0.47301171875,8.01906640625,17.42200390625,15.42703125,6.094359375,11.76696484375,7.512765625,10.53667578125,5.775296875
5.63066015625,10.79557421875,19.7131796875,10.13001171875,15.61867578125,18.67093359375,31.23203125,23.99534765625,7.22275,15.0422109375,21.7276484375,26.5938359375,1.55593359375,8.67825390625,18.4998125,21.740984375,10.13715625,6.14208203125,13.473703125,16.19867578125,12.9372421875,2.16301171875,9.06106640625,17.48200390625,15.48403125,5.911359375,11.86596484375,8.465765625,11.27367578125,6.123296875
3.13766015625,10.40157421875,19.7041796875,10.27801171875,14.28467578125,18.54993359375,29.81403125,22.69434765625,6.45775,14.2082109375,22.1976484375,25.2918359375,3.54693359375,7.33825390625,17.8268125,22.153984375,9.21515625,7.37708203125,13.542703125,15.61367578125,12.8372421875,4.73301171875,9.85906640625,16.79300390625,14.90303125,6.123359375,11.66696484375,9.647765625,11.89667578125,6.441296875
0.29866015625,8.53657421875,17.7671796875,10.29601171875,11.92967578125,16.66693359375,25.12203125,19.33934765625,5.73175,12.3262109375,20.3046484375,21.4838359375,5.61993359375,5.86825390625,15.6878125,20.524984375,7.92915625,8.49508203125,13.025703125,13.61467578125,12.3532421875,7.79901171875,10.37706640625,15.41000390625,13.66203125,6.664359375,11.30396484375,11.003765625,12.52167578125,6.991296875
-1.67833984375,5.83757421875,14.3691796875,10.45401171875,9.60367578125,13.38693359375,18.24203125,14.97534765625,5.69075,10.0802109375,16.3696484375,16.2828359375,7.54293359375,5.09725390625,12.6048125,17.164984375,6.48615625,9.75208203125,12.309703125,10.59867578125,11.4452421875,10.91801171875,10.85906640625,13.70600390625,12.10903125,7.405359375,11.11196484375,12.515765625,13.30567578125,7.976296875
-1.83733984375,3.20357421875,10.5171796875,10.93601171875,8.34667578125,9.77393359375,11.17903125,11.01134765625,6.75775,8.3772109375,11.5916484375,11.3628359375,9.15793359375,5.66725390625,9.5268125,13.158984375,5.34515625,11.37308203125,11.856703125,7.45767578125,10.3752421875,13.67401171875,11.60806640625,12.19500390625,10.81503125,8.249359375,11.42196484375,14.136765625,14.35567578125,9.443296875
-0.14933984375,1.36757421875,7.3551796875,11.54301171875,8.56567578125,7.01093359375,5.97703125,8.60934765625,8.75175,7.7642109375,7.4286484375,8.2148359375,10.23493359375,7.57325390625,7.3178125,9.825984375,5.00715625,13.21108203125,11.825703125,5.10367578125,9.5282421875,15.67301171875,12.64006640625,11.20300390625,10.21103125,9.107359375,12.25396484375,15.655765625,15.57567578125,11.187296875
2.37366015625,0.574574218749998,5.7211796875,11.62201171875,9.75467578125,5.76393359375,3.80003125,8.20134765625,10.78675,8.0862109375,4.9466484375,7.5048359375,10.40193359375,10.02425390625,6.3538125,8.096984375,5.72215625,14.62008203125,11.885703125,4.00567578125,9.1682421875,16.54201171875,13.49806640625,10.65000390625,10.29803125,9.828359375,13.17096484375,16.647765625,16.60767578125,12.743296875
4.27166015625,0.578574218749999,5.8791796875,10.40001171875,10.77367578125,5.93893359375,4.54403125,9.39334765625,11.60275,8.6412109375,4.5066484375,8.9008359375,9.28693359375,11.75825390625,6.4718125,8.180984375,7.29915625,14.68608203125,11.377703125,4.01367578125,9.2842421875,15.98801171875,13.41406640625,10.08400390625,10.63503125,10.185359375,13.43396484375,16.578765625,16.94367578125,13.535296875
4.56166015625,0.916574218749998,7.5111796875,7.55701171875,10.57967578125,6.97493359375,7.18903125,11.25834765625,10.22275,8.7182109375,5.8736484375,11.3968359375,6.81693359375,11.67425390625,7.2678125,9.645984375,9.14115625,12.71508203125,9.739703125,4.57267578125,9.6152421875,13.91401171875,11.74606640625,8.98800390625,10.61803125,9.954359375,12.39096484375,15.055765625,16.18167578125,13.116296875
3.36666015625,1.25757421875,9.9091796875,3.68001171875,8.93367578125,8.38093359375,10.56703125,12.82034765625,6.59675,8.1352109375,8.5486484375,13.8758359375,3.44993359375,9.45825390625,8.4648125,11.791984375,10.46715625,8.71408203125,6.960703125,5.14167578125,9.8212421875,10.56701171875,8.47106640625,7.18300390625,9.88403125,9.042359375,9.91496484375,12.104765625,14.28167578125,11.415296875
1.81166015625,1.59657421875,12.2701796875,0.19201171875,6.62367578125,10.04893359375,13.93103125,13.47534765625,1.83875,7.4122109375,12.0496484375,15.5938359375,0.18993359375,5.85725390625,10.1028125,14.036984375,10.64015625,3.61508203125,3.783703125,5.56367578125,9.6982421875,6.60701171875,4.43406640625,5.08900390625,8.60103125,7.595359375,6.64396484375,8.341765625,11.71467578125,8.884296875
1.21666015625,2.18857421875,13.9721796875,-1.27698828125,5.07567578125,12.15993359375,17.01003125,13.17934765625,-2.12125,7.4892109375,15.9636484375,16.3518359375,-1.72606640625,2.44325390625,12.4028125,16.105984375,9.45615625,-0.93791796875,1.507703125,6.14367578125,9.3022421875,3.02501171875,1.14206640625,3.65800390625,7.45503125,6.009359375,3.85096484375,4.909765625,9.39067578125,6.429296875
2.14266015625,3.26357421875,14.7061796875,0.28701171875,5.58367578125,14.82993359375,19.67103125,12.31434765625,-3.32525,9.1232109375,19.8066484375,16.3498359375,-1.36706640625,0.92725390625,15.4418125,17.939984375,7.24015625,-3.22591796875,1.409703125,7.38267578125,8.8972421875,0.87401171875,0.14406640625,3.95000390625,7.29803125,4.778359375,2.91896484375,3.109765625,8.31867578125,5.083296875
4.00866015625,4.72457421875,14.4501796875,4.72801171875,8.58367578125,17.80993359375,21.60003125,11.35034765625,-0.70125,12.3472109375,22.9056484375,15.8838359375,1.39693359375,2.34525390625,18.8718125,19.492984375,4.68315625,-2.23691796875,4.069703125,9.55967578125,8.7682421875,0.86901171875,2.27406640625,6.54700390625,8.63803125,4.256359375,4.65396484375,3.827765625,9.13467578125,5.545296875
5.54566015625,6.06657421875,13.3421796875,10.68901171875,13.34667578125,20.43693359375,22.25603125,10.51434765625,5.31175,16.3042109375,24.5066484375,15.1068359375,5.73093359375,6.51825390625,21.9248125,20.591984375,2.52615625,1.80808203125,8.972703125,12.43967578125,9.0242421875,3.02501171875,7.17706640625,11.14200390625,11.30503125,4.442359375,8.80796484375,7.052765625,11.72467578125,7.798296875
5.67066015625,6.62357421875,11.5981796875,16.11901171875,18.26067578125,21.86793359375,21.15103125,9.69734765625,12.79675,19.6022109375,24.0996484375,14.0018359375,10.14293359375,12.09025390625,23.7308125,20.987984375,1.25215625,7.52008203125,14.675703125,15.31467578125,9.5322421875,6.55401171875,13.41906640625,16.58300390625,14.49103125,4.980359375,14.12396484375,11.784765625,15.19067578125,11.073296875
4.12966015625,5.96657421875,9.4921796875,19.11401171875,21.54667578125,21.53493359375,18.25503125,8.63734765625,19.13575,20.9952109375,21.7706484375,12.5488359375,13.11793359375,17.15525390625,23.7828125,20.542984375,0.95215625,12.98008203125,19.467703125,17.37067578125,10.0272421875,10.16201171875,19.15906640625,21.37700390625,17.16403125,5.364359375,18.91896484375,16.447765625,18.23567578125,14.184296875
1.55666015625,4.21857421875,7.3721796875,18.72701171875,22.04767578125,19.54293359375,14.24903125,7.20534765625,22.18375,19.9942109375,18.3036484375,10.9078359375,13.77993359375,20.13525390625,22.2598125,19.402984375,1.38615625,16.61408203125,22.169703125,18.12867578125,10.2882421875,12.65401171875,22.99306640625,24.39200390625,18.60203125,5.243359375,21.87196484375,19.595765625,19.76967578125,16.076296875
-0.85333984375,2.07557421875,5.6141796875,15.35501171875,19.65967578125,16.70993359375,10.37503125,5.57534765625,21.18075,17.1062109375,14.9316484375,9.4598359375,12.26493359375,20.46725390625,19.9868125,18.021984375,2.17315625,17.84508203125,22.618703125,17.68967578125,10.2802421875,13.51101171875,24.51906640625,25.36300390625,18.72103125,4.619359375,22.58996484375,20.559765625,19.41667578125,16.275296875
-1.78933984375,0.537574218749999,4.5331796875,10.51601171875,15.28067578125,14.18393359375,7.90803125,4.16934765625,16.93975,13.5772109375,12.8466484375,8.6618359375,9.62493359375,18.75325390625,18.0418125,16.988984375,2.98415625,17.19608203125,21.596703125,16.64967578125,10.1522421875,13.07501171875,24.32406640625,24.88800390625,18.02803125,3.832359375,21.63896484375,19.655765625,17.63467578125,15.021296875
-0.288339843749999,0.458574218749998,4.2941796875,6.17201171875,10.42067578125,12.90293359375,7.60503125,3.45134765625,11.34775,10.8212109375,12.7196484375,8.8348359375,7.30693359375,16.34325390625,17.2438125,16.768984375,3.66215625,15.83208203125,20.291703125,15.74267578125,10.1152421875,12.22201171875,23.43806640625,23.96200390625,17.24903125,3.344359375,20.04896484375,17.865765625,15.39767578125,13.050296875
3.79766015625,2.13657421875,4.8741796875,3.93601171875,6.70967578125,13.25293359375,9.43903125,3.67434765625,6.54275,9.8162109375,14.4356484375,9.9778359375,6.43193359375,14.62525390625,17.7858125,17.469984375,4.22115625,14.81708203125,19.606703125,15.42367578125,10.2892421875,11.73401171875,22.62906640625,23.30900390625,16.86003125,3.475359375,18.61596484375,16.179765625,13.61267578125,11.165296875
9.51166015625,5.11757421875,6.0831796875,4.46501171875,5.37967578125,14.99993359375,12.67503125,4.75534765625,4.13475,10.7452109375,17.1386484375,11.7268359375,7.24293359375,14.37425390625,19.1878125,18.754984375,4.76215625,14.50708203125,19.697703125,15.60967578125,10.6002421875,11.75201171875,21.93406640625,22.94200390625,16.82603125,4.232359375,17.42996484375,15.014765625,12.62867578125,9.855296875
14.96166015625,8.35857421875,7.6021796875,7.26401171875,6.82167578125,17.41593359375,16.13503125,6.30834765625,4.67975,12.9922109375,19.5416484375,13.4418359375,9.01393359375,15.44125390625,20.5248125,19.940984375,5.37415625,14.41008203125,19.934703125,15.71767578125,10.8082421875,11.64101171875,20.70706640625,22.18900390625,16.66903125,5.334359375,15.90196484375,14.017765625,12.09767578125,9.133296875
18.02966015625,10.68057421875,9.0531796875,10.96201171875,10.38867578125,19.51793359375,18.55003125,7.82834765625,7.53775,15.4552109375,20.3876484375,14.4338359375,10.47493359375,16.88825390625,20.8358125,20.254984375,6.07015625,13.54008203125,19.310703125,14.99567578125,10.6572421875,10.35101171875,18.11206640625,20.16000390625,15.81303125,6.388359375,13.24396484375,12.370765625,11.25067578125,8.652296875
17.34366015625,11.31157421875,10.0801796875,13.97001171875,14.62567578125,20.40193359375,18.98703125,8.91334765625,11.20575,17.0242109375,18.9096484375,14.2608359375,10.49093359375,17.49225390625,19.5358125,19.166984375,6.79015625,11.06308203125,17.055703125,12.96867578125,10.0442421875,7.10101171875,13.77306640625,16.38600390625,13.98503125,7.102359375,9.09996484375,9.383765625,9.41767578125,7.996296875
13.00966015625,10.24257421875,10.4271796875,15.18901171875,17.84767578125,19.57593359375,17.20703125,9.40534765625,13.98975,17.0062109375,15.1396484375,12.9528359375,8.63093359375,16.37325390625,16.6758125,16.659984375,7.44615625,6.87708203125,13.145703125,9.77067578125,9.1182421875,1.98501171875,8.20306640625,11.25600390625,11.45303125,7.412359375,3.92196484375,5.033765625,6.47667578125,6.980296875
6.67266015625,8.19157421875,9.9971796875,14.38101171875,18.80567578125,17.10193359375,13.74803125,9.38534765625,14.67475,15.3332109375,9.9296484375,11.0178359375,5.35793359375,13.44025390625,12.9308125,13.284984375,7.97515625,1.82008203125,8.417703125,6.15967578125,8.2252421875,-3.85698828125,2.73906640625,5.98600390625,8.95003125,7.471359375,-1.09303515625,0.132765625,2.98567578125,5.772296875
0.821660156250001,6.20457421875,8.8551796875,12.09401171875,17.11667578125,13.49893359375,9.66303125,9.04834765625,12.91375,12.4812109375,4.6486484375,9.1968359375,1.79693359375,9.42925390625,9.3048125,9.941984375,8.35115625,-2.63091796875,4.224703125,3.18767578125,7.7152421875,-8.66398828125,-0.99293359375,2.09300390625,7.32703125,7.499359375,-4.51003515625,-3.995234375,-0.08432421875,4.771296875
-2.31333984375,5.08957421875,7.1731796875,9.27401171875,13.32567578125,9.54093359375,6.08003125,8.52234765625,9.26975,9.1872109375,0.6446484375,8.0668359375,-0.79406640625,5.52025390625,6.6858125,7.465984375,8.52115625,-5.03291796875,1.795703125,1.68267578125,7.7102421875,-10.84898828125,-1.84293359375,0.65400390625,7.06203125,7.597359375,-5.33403515625,-6.147234375,-1.87232421875,4.324296875
-1.69733984375,5.05757421875,5.1601796875,6.83501171875,8.60267578125,6.03793359375,3.81803125,7.76234765625,4.97775,6.1282109375,-1.2713515625,7.7178359375,-1.57106640625,2.79025390625,5.4808125,6.225984375,8.34415625,-4.65191796875,1.667703125,1.81567578125,7.9492421875,-9.74298828125,0.30306640625,1.75100390625,7.92703125,7.601359375,-3.50903515625,-5.845234375,-2.08032421875,4.461296875
2.12566015625,5.73557421875,3.0561796875,5.33701171875,4.25167578125,3.62493359375,3.14903125,6.61434765625,1.47275,3.7482109375,-1.0883515625,7.7098359375,-0.41906640625,1.77925390625,5.4898125,5.963984375,7.57715625,-1.78091796875,3.466703125,2.98167578125,7.8362421875,-5.87998828125,4.46206640625,4.40900390625,9.00503125,7.099359375,0.02396484375,-3.540234375,-1.09732421875,4.819296875
7.31866015625,6.51357421875,1.1551796875,4.87101171875,1.27767578125,2.58293359375,3.80403125,5.00834765625,-0.14625,2.2452109375,0.5186484375,7.3498359375,2.08893359375,2.37625390625,6.0838125,5.962984375,5.99115625,2.45308203125,6.144703125,4.06767578125,6.6862421875,-0.71998828125,9.01206640625,7.05200390625,9.10503125,5.623359375,3.74596484375,-0.358234375,0.24667578125,4.822296875
11.50366015625,6.92357421875,-0.1638203125,5.17601171875,0.240675781249999,2.83893359375,5.22803125,3.18634765625,0.51475,1.6762109375,2.6116484375,6.1478359375,5.01293359375,4.03025390625,6.5788125,5.482984375,3.54815625,6.64508203125,8.497703125,4.00267578125,4.0992421875,4.02601171875,12.42706640625,8.23100390625,7.36803125,2.957359375,6.22696484375,2.479765625,1.15167578125,4.014296875
12.72166015625,6.85457421875,-0.4978203125,5.89101171875,1.30667578125,4.13693359375,6.95203125,1.73434765625,3.11975,2.0462109375,4.4646484375,4.1758359375,7.46293359375,6.10025390625,6.5968125,4.227984375,0.54915625,9.69708203125,9.702703125,2.30867578125,0.2642421875,7.11201171875,13.88206640625,7.25900390625,3.76403125,-0.628640625,6.70296484375,4.206765625,1.24767578125,2.346296875
10.26466015625,6.54057421875,0.4351796875,6.74501171875,4.30867578125,6.21193359375,8.82003125,1.37434765625,6.82975,3.3222109375,5.8336484375,2.1088359375,8.91093359375,8.12525390625,6.2238125,2.565984375,-2.36784375,11.15808203125,9.580703125,-0.638324218749999,-3.9817578125,8.16701171875,13.46406640625,4.45100390625,-0.82496875,-4.365640625,5.29896484375,4.756765625,0.70767578125,0.239296875
5.06166015625,6.39957421875,2.6231796875,7.57601171875,8.66667578125,8.78893359375,10.85703125,2.57634765625,10.60975,5.3832109375,6.8886484375,0.8748359375,9.26993359375,9.88425390625,5.8738125,1.343984375,-4.40584375,11.19308203125,8.527703125,-3.78632421875,-7.4267578125,7.63201171875,11.91106640625,0.89000390625,-4.96696875,-7.265640625,2.82096484375,4.598765625,0.0536757812499999,-1.627703125
-0.63633984375,6.80657421875,5.6561796875,8.23301171875,13.34067578125,11.46893359375,12.95703125,5.23334765625,13.51275,7.9232109375,7.8966484375,1.1388359375,8.77693359375,11.26825390625,5.9678125,1.394984375,-4.91284375,10.29008203125,7.184703125,-5.93032421875,-8.9727578125,6.33301171875,10.09806640625,-2.14399609375,-7.33796875,-8.551640625,0.26996484375,4.300765625,-0.24132421875,-2.701703125
-4.24733984375,7.87857421875,8.7641796875,8.52201171875,17.00167578125,13.67993359375,14.68603125,8.58534765625,14.92475,10.4092109375,8.8876484375,2.8948359375,7.74693359375,12.14025390625,6.6228125,3.014984375,-3.68084375,8.91808203125,6.076703125,-6.31332421875,-8.1397578125,4.97501171875,8.57106640625,-3.76499609375,-7.32096875,-8.010640625,-1.64803515625,4.108765625,-0.0933242187499999,-2.884703125
-4.09233984375,9.33157421875,11.0181796875,8.23201171875,18.45267578125,14.77493359375,15.36003125,11.46534765625,14.71175,12.1482109375,9.5276484375,5.4088359375,6.38093359375,12.28925390625,7.5408125,5.727984375,-1.06984375,7.34308203125,5.405703125,-4.98232421875,-5.3107578125,3.83901171875,7.38106640625,-3.81899609375,-5.25396875,-6.096640625,-2.78003515625,3.792765625,0.0886757812500001,-2.605703125
-0.19333984375,10.51957421875,11.6521796875,7.22001171875,17.07967578125,14.22493359375,14.34703125,12.75734765625,13.16075,12.5112109375,9.2906484375,7.5208359375,4.74193359375,11.52725390625,8.1408125,8.469984375,2.10115625,5.64308203125,5.074703125,-2.71232421875,-1.5767578125,2.79201171875,6.25206640625,-2.82399609375,-2.21596875,-3.709640625,-3.44403515625,2.841765625,-0.35832421875,-2.586703125
5.82566015625,10.69857421875,10.3651796875,5.52301171875,13.13567578125,11.85393359375,11.43503125,11.87634765625,10.78375,11.2132109375,7.8236484375,8.1878359375,2.89093359375,9.83025390625,7.8618125,10.104984375,4.86715625,3.85708203125,4.859703125,-0.575324218749999,1.7462421875,1.53001171875,4.90906640625,-1.60499609375,0.53903125,-1.780640625,-4.09403515625,0.863765625,-1.92732421875,-3.405703125
11.62966015625,9.42057421875,7.4781796875,3.46801171875,7.71167578125,8.05393359375,7.13403125,9.02934765625,8.13875,8.4992109375,5.2636484375,6.9748359375,1.04593359375,7.44225390625,6.4948125,9.992984375,6.49415625,2.12408203125,4.600703125,0.619675781250001,3.6892421875,-0.12298828125,3.34406640625,-0.81999609375,2.15903125,-0.865640625,-4.96803515625,-2.074234375,-4.56832421875,-5.120703125
15.26866015625,6.82757421875,3.8421796875,1.64801171875,2.36367578125,3.80893359375,2.66403125,5.14734765625,5.70475,5.1052109375,2.2966484375,4.2708359375,-0.40306640625,4.84325390625,4.3358125,8.303984375,6.74315625,0.686082031250001,4.284703125,0.670675781250001,3.9912421875,-2.05898828125,1.85206640625,-0.67699609375,2.50103125,-0.949640625,-5.92403515625,-5.372234375,-7.62632421875,-7.193703125
15.90266015625,3.66157421875,0.5351796875,0.66801171875,-1.49332421875,0.355933593750001,-0.51596875,1.48734765625,3.76475,1.9592109375,-0.1223515625,1.0758359375,-1.06806640625,2.58225390625,2.0388125,5.879984375,5.90415625,-0.225917968749999,3.962703125,-0.0463242187499988,3.0902421875,-3.96398828125,0.81406640625,-0.97799609375,2.01603125,-1.557640625,-6.57503515625,-8.167234375,-10.13132421875,-8.777703125
13.91466015625,0.942574218749998,-1.5508203125,0.76801171875,-3.17932421875,-1.38906640625,-1.44096875,-0.899652343750001,2.27975,-0.218789062500001,-1.2513515625,-1.4941640625,-0.80906640625,1.01825390625,0.260812499999999,3.755984375,4.58315625,-0.57091796875,3.595703125,-0.945324218749999,1.7632421875,-5.54098828125,0.38706640625,-1.41799609375,1.34003125,-2.090640625,-6.59203515625,-9.769234375,-11.28032421875,-9.181703125
10.51166015625,-0.512425781250001,-2.0558203125,1.62001171875,-2.97632421875,-1.25706640625,-0.15696875,-1.57265234375,0.91375,-1.2217890625,-0.9593515625,-2.7231640625,0.13593359375,0.14925390625,-0.700187500000001,2.606984375,3.37715625,-0.58591796875,2.962703125,-1.65332421875,0.6702421875,-6.70398828125,0.34406640625,-1.88199609375,0.87703125,-2.155640625,-5.93803515625,-9.976234375,-10.79932421875,-8.230703125
7.10966015625,-0.432425781250002,-1.2688203125,2.49401171875,-1.84932421875,0.16793359375,2.33803125,-0.81065234375,-0.69825,-1.3717890625,0.2236484375,-2.5571640625,1.23493359375,-0.34174609375,-1.0101875,2.448984375,2.61415625,-0.688917968749999,1.772703125,-2.19632421875,0.0472421874999999,-7.55998828125,0.20906640625,-2.49199609375,0.63203125,-1.737640625,-4.87103515625,-9.076234375,-8.97332421875,-6.286703125
4.79766015625,0.865574218749998,0.0401796875000003,2.71401171875,-0.83532421875,1.92593359375,4.65203125,0.62234765625,-2.62825,-1.2477890625,1.4166484375,-1.5121640625,1.94993359375,-0.82074609375,-1.1011875,2.750984375,2.27915625,-1.20491796875,-0.0802968750000006,-2.85732421875,-0.2927578125,-8.22498828125,-0.35593359375,-3.40099609375,0.35803125,-1.122640625,-3.70603515625,-7.562234375,-6.37032421875,-3.987703125
4.03066015625,2.72557421875,0.9921796875,2.12401171875,-0.46232421875,3.15193359375,5.66303125,1.86634765625,-4.49625,-1.2847890625,1.8746484375,-0.3551640625,2.04093359375,-1.40274609375,-1.3451875,2.819984375,2.11515625,-2.09691796875,-2.285296875,-3.85532421875,-0.7317578125,-8.63698828125,-1.22093359375,-4.53899609375,-0.15096875,-0.691640625,-2.56303515625,-5.810234375,-3.50732421875,-1.891703125
4.60466015625,4.49957421875,0.9771796875,1.27301171875,-0.50332421875,3.44493359375,4.97903125,2.31434765625,-5.59725,-1.5047890625,1.3396484375,0.2678359375,1.69493359375,-1.81374609375,-1.8111875,2.219984375,1.80715625,-2.89591796875,-4.127296875,-5.11432421875,-1.5657578125,-8.52898828125,-1.76693359375,-5.54399609375,-0.86796875,-0.718640625,-1.30803515625,-3.942234375,-0.69632421875,-0.289703125
5.81466015625,5.78157421875,-0.1338203125,1.16301171875,-0.19232421875,2.97493359375,2.99103125,1.74934765625,-5.20325,-1.5357890625,0.0836484375000004,0.0578359374999997,1.39893359375,-1.54874609375,-2.2581875,0.975984375,1.14515625,-2.92291796875,-4.782296875,-6.26932421875,-2.8207578125,-7.58098828125,-1.24193359375,-5.93099609375,-1.55096875,-1.247640625,0.26996484375,-1.927234375,1.89667578125,0.779296875
6.73166015625,6.45157421875,-2.0468203125,2.62001171875,1.20367578125,2.26593359375,0.52503125,0.26634765625,-2.98525,-0.940789062500001,-1.3373515625,-0.9121640625,1.61993359375,-0.24674609375,-2.3541875,-0.502015625,0.10315625,-1.68191796875,-3.757296875,-6.89032421875,-4.2517578125,-5.64098828125,0.74706640625,-5.37999609375,-1.91596875,-2.091640625,2.22096484375,0.227765625,4.10567578125,1.390296875
6.55266015625,6.55857421875,-4.2858203125,5.62201171875,3.75567578125,1.74893359375,-1.73296875,-1.91465234375,0.62975,0.365210937499999,-2.4743515625,-2.3741640625,2.48893359375,1.92825390625,-1.9811875,-1.725015625,-1.16184375,0.792082031250001,-1.228296875,-6.77232421875,-5.4797578125,-2.88498828125,3.89806640625,-3.96099609375,-1.82396875,-2.911640625,4.30696484375,2.338765625,5.70167578125,1.615296875
4.93766015625,6.15457421875,-6.4798203125,9.07001171875,6.61167578125,1.39293359375,-3.65096875,-4.60865234375,4.38975,1.8722109375,-3.2533515625,-4.0791640625,3.67393359375,4.17925390625,-1.3951875,-2.440015625,-2.39284375,3.84808203125,1.941703125,-6.08132421875,-6.1907578125,0.18501171875,7.26506640625,-2.16399609375,-1.37496875,-3.374640625,6.07396484375,4.072765625,6.45567578125,1.486296875
2.23566015625,5.23757421875,-8.5018203125,11.27601171875,8.35367578125,0.729933593749999,-5.57896875,-7.68865234375,6.64775,2.6472109375,-3.9623515625,-5.9071640625,4.52693359375,5.37125390625,-1.1111875,-2.776015625,-3.33584375,6.46208203125,4.548703125,-5.26332421875,-6.2817578125,2.90901171875,9.67506640625,-0.68399609375,-0.86096875,-3.305640625,7.06796484375,5.093765625,6.27667578125,1.029296875
-0.57433984375,3.82757421875,-10.3978203125,10.90101171875,7.78267578125,-0.75706640625,-7.88796875,-10.99565234375,6.14575,1.8332109375,-4.9893515625,-7.8161640625,4.45393359375,4.62325390625,-1.5621875,-3.130015625,-3.83184375,7.69908203125,5.610703125,-4.79032421875,-5.8937578125,4.71901171875,10.27606640625,-0.0949960937499998,-0.63396875,-2.774640625,7.03296484375,5.231765625,5.28467578125,0.301296875
-2.28233984375,2.09357421875,-12.1878203125,7.75701171875,4.63067578125,-3.22106640625,-10.54796875,-14.22965234375,2.71075,-0.800789062500001,-6.4863515625,-9.7101640625,3.28593359375,1.84425390625,-2.8001875,-3.903015625,-3.86684375,7.14708203125,4.824703125,-4.90132421875,-5.3327578125,5.32501171875,8.91506640625,-0.58199609375,-0.94196875,-2.068640625,5.99896484375,4.543765625,3.77767578125,-0.625703125
-2.08433984375,0.40157421875,-13.7318203125,2.98401171875,-0.19432421875,-6.28706640625,-13.05196875,-16.96665234375,-2.53325,-4.6227890625,-8.2233515625,-11.3781640625,1.43093359375,-2.12674609375,-4.4321875,-5.262015625,-3.60084375,5.08908203125,2.677703125,-5.50532421875,-4.9437578125,4.77401171875,6.13406640625,-1.91199609375,-1.84196875,-1.585640625,4.21996484375,3.243765625,2.08467578125,-1.718703125
-0.0933398437499999,-0.796425781250002,-14.7558203125,-1.47198828125,-4.95332421875,-9.18406640625,-14.66496875,-18.80265234375,-7.56825,-8.3767890625,-9.7013515625,-12.5411640625,-0.32806640625,-5.86174609375,-5.8461875,-7.036015625,-3.32484375,2.34108203125,0.152703124999999,-6.27932421875,-4.9847578125,3.37901171875,2.85306640625,-3.59199609375,-3.19596875,-1.672640625,2.05096484375,1.564765625,0.43667578125,-3.000703125
2.63666015625,-1.14342578125,-15.0358203125,-3.77098828125,-7.82232421875,-11.06806640625,-14.79596875,-19.54565234375,-10.33125,-10.7607890625,-10.4423515625,-12.9841640625,-1.26206640625,-8.00674609375,-6.5551875,-8.794015625,-3.35584375,-0.15591796875,-1.776296875,-6.86032421875,-5.5387578125,1.59701171875,-0.0659335937499999,-5.12299609375,-4.72196875,-2.468640625,-0.15503515625,-0.302234375,-1.05732421875,-4.467703125
4.66966015625,-0.504425781250001,-14.5808203125,-3.05198828125,-7.73732421875,-11.41906640625,-13.32996875,-19.33265234375,-9.65225,-11.0537890625,-10.2713515625,-12.6981640625,-1.10106640625,-7.92874609375,-6.4651875,-10.052015625,-3.87984375,-1.75291796875,-2.607296875,-7.03232421875,-6.4867578125,-0.13298828125,-2.12693359375,-6.19399609375,-6.07496875,-3.822640625,-2.08003515625,-2.182234375,-2.32732421875,-5.972703125
4.99666015625,1.00057421875,-13.7038203125,0.14101171875,-4.93732421875,-10.33106640625,-10.78696875,-18.59165234375,-5.85625,-9.4567890625,-9.4443515625,-11.9391640625,-0.15906640625,-6.02474609375,-5.9121875,-10.533015625,-4.85084375,-2.33991796875,-2.489296875,-6.81232421875,-7.5647578125,-1.55798828125,-3.29393359375,-6.76699609375,-6.95196875,-5.334640625,-3.46703515625,-3.839234375,-3.24832421875,-7.175703125
3.59266015625,3.02557421875,-12.9198203125,4.14301171875,-0.89832421875,-8.49306640625,-8.16696875,-17.87765234375,-0.66025,-6.9937890625,-8.5433515625,-11.1671640625,0.86893359375,-3.52474609375,-5.4491875,-10.318015625,-6.00584375,-2.31291796875,-2.067296875,-6.41532421875,-8.4787578125,-2.67798828125,-3.85893359375,-7.01499609375,-7.17396875,-6.515640625,-4.14603515625,-4.959234375,-3.62832421875,-7.632703125
1.39266015625,5.06557421875,-12.7228203125,7.00101171875,2.37367578125,-6.83406640625,-6.52096875,-17.65665234375,3.61675,-4.9947890625,-8.1993515625,-10.8631640625,1.32193359375,-1.88074609375,-5.5051875,-9.783015625,-6.97384375,-2.26491796875,-2.051296875,-6.08532421875,-8.9917578125,-3.64498828125,-4.16093359375,-7.14599609375,-6.71196875,-6.952640625,-4.05203515625,-5.214234375,-3.26832421875,-6.987703125
-0.211339843749999,6.57157421875,-13.3798203125,7.39901171875,3.28767578125,-6.07406640625,-6.49696875,-18.13665234375,5.13775,-4.4447890625,-8.7703515625,-11.3031640625,0.91993359375,-2.01774609375,-6.1351875,-9.364015625,-7.42784375,-2.56891796875,-2.769296875,-5.90632421875,-8.9537578125,-4.50398828125,-4.30593359375,-7.18799609375,-5.63696875,-6.415640625,-3.21103515625,-4.382234375,-2.06932421875,-5.154703125
-0.0123398437499995,7.12757421875,-14.8408203125,5.17501171875,1.36567578125,-6.45706640625,-8.12196875,-19.20465234375,3.35475,-5.5447890625,-10.1643515625,-12.4081640625,-0.13006640625,-3.87674609375,-7.0341875,-9.295015625,-7.22384375,-3.09691796875,-3.956296875,-5.73732421875,-8.2907578125,-5.01698828125,-4.05793359375,-6.91399609375,-4.05396875,-4.914640625,-1.71603515625,-2.480234375,-0.14032421875,-2.434703125
2.49366015625,6.59157421875,-16.7808203125,1.26301171875,-2.64732421875,-7.76806640625,-10.85896875,-20.50365234375,-0.83625,-7.7227890625,-11.9103515625,-13.7651640625,-1.29606640625,-6.50774609375,-7.7901875,-9.516015625,-6.48584375,-3.30191796875,-4.935296875,-5.32732421875,-7.0587578125,-4.75598828125,-3.01193359375,-5.99599609375,-2.12896875,-2.745640625,0.25396484375,0.160765625,2.12967578125,0.497296875
6.82266015625,5.13657421875,-18.7478203125,-2.78898828125,-7.22032421875,-9.51906640625,-13.83896875,-21.59865234375,-5.63125,-10.0507890625,-13.4463515625,-14.8221640625,-2.03706640625,-8.64674609375,-8.1971875,-9.783015625,-5.58384375,-2.63791796875,-5.072296875,-4.56332421875,-5.5107578125,-3.44598828125,-0.98193359375,-4.30099609375,-0.17296875,-0.512640625,2.36196484375,2.907765625,4.09267578125,2.738296875
11.54466015625,3.15757421875,-20.3038203125,-5.47098828125,-10.72932421875,-11.20806640625,-16.17796875,-22.14865234375,-9.20425,-11.7487890625,-14.4303515625,-15.1601640625,-2.08006640625,-9.41474609375,-8.3851875,-9.904015625,-4.97684375,-1.03191796875,-4.224296875,-3.63332421875,-4.1107578125,-1.31398828125,1.67806640625,-2.11299609375,1.33703125,0.986359375,4.09996484375,4.980765625,5.00867578125,3.435296875
14.75366015625,1.14357421875,-21.1328203125,-5.87898828125,-12.07632421875,-12.53306640625,-17.29996875,-22.01465234375,-10.48425,-12.4737890625,-14.8923515625,-14.7051640625,-1.52406640625,-8.70974609375,-8.6841875,-9.901015625,-4.98384375,0.952082031250001,-2.849296875,-2.97632421875,-3.3847578125,0.86601171875,4.07206640625,-0.0949960937499998,1.88603125,1.046359375,4.90696484375,5.716765625,4.33667578125,2.132296875
14.95566015625,-0.430425781250001,-21.0978203125,-4.00698828125,-11.00632421875,-13.44906640625,-17.13396875,-21.26465234375,-9.44325,-12.2967890625,-15.1393515625,-13.7571640625,-0.74806640625,-7.12374609375,-9.3411875,-9.989015625,-5.60884375,2.37408203125,-1.746296875,-3.03532421875,-3.6807578125,2.07701171875,5.13006640625,1.00200390625,1.17003125,-0.584640625,4.39196484375,4.841765625,2.01267578125,-0.980703125
11.98966015625,-1.18842578125,-20.2778203125,-0.67498828125,-8.11332421875,-14.05206640625,-16.06196875,-20.12065234375,-6.89025,-11.5137890625,-15.5163515625,-12.8221640625,-0.22606640625,-5.53474609375,-10.3071875,-10.408015625,-6.56584375,2.42408203125,-1.598296875,-3.97632421875,-4.9727578125,1.56601171875,4.15406640625,0.71200390625,-0.71596875,-3.503640625,2.53496484375,2.578765625,-1.45332421875,-5.062703125
7.43366015625,-0.918425781250002,-18.9538203125,2.81001171875,-4.65632421875,-14.44106640625,-14.66796875,-18.87565234375,-4.04125,-10.4857890625,-16.2013515625,-12.3631640625,-0.35906640625,-4.66474609375,-11.2561875,-11.226015625,-7.45084375,0.840082031250001,-2.613296875,-5.55832421875,-6.8307578125,-0.76398828125,1.22606640625,-0.89799609375,-3.25296875,-6.756640625,-0.25803515625,-0.434234375,-5.12832421875,-8.900703125
4.07166015625,0.378574218749998,-17.5308203125,5.09901171875,-2.22232421875,-14.69506640625,-13.48096875,-17.81365234375,-2.11025,-9.5757890625,-17.1173515625,-12.5931640625,-1.35606640625,-4.82074609375,-11.8101875,-12.253015625,-7.94084375,-1.93691796875,-4.428296875,-7.21532421875,-8.5727578125,-4.26898828125,-2.73093359375,-3.22499609375,-5.66696875,-9.210640625,-3.23703515625,-3.381234375,-7.97732421875,-11.345703125
4.46166015625,2.45057421875,-16.3978203125,5.22101171875,-2.23632421875,-14.95006640625,-12.83896875,-17.13765234375,-1.98825,-9.1257890625,-18.0043515625,-13.4221640625,-3.15806640625,-5.85274609375,-11.7911875,-13.116015625,-7.90584375,-4.93391796875,-6.294296875,-8.29632421875,-9.5087578125,-7.81098828125,-6.29293359375,-5.35899609375,-7.18696875,-10.003640625,-5.53703515625,-5.532234375,-9.21232421875,-11.721703125
9.34566015625,4.75657421875,-15.7978203125,2.91201171875,-5.34732421875,-15.39306640625,-12.85296875,-16.95465234375,-3.93325,-9.3877890625,-18.5633515625,-14.5411640625,-5.41906640625,-7.26774609375,-11.3191875,-13.451015625,-7.41284375,-7.04591796875,-7.416296875,-8.34032421875,-9.1947578125,-10.19298828125,-8.12693359375,-6.44699609375,-7.30496875,-8.858640625,-6.45403515625,-6.441234375,-8.54032421875,-10.016703125
16.94466015625,6.51857421875,-15.7708203125,-1.26598828125,-10.98532421875,-16.12406640625,-13.42496875,-17.27865234375,-7.36325,-10.4107890625,-18.5933515625,-15.5961640625,-7.57506640625,-8.42074609375,-10.7001875,-13.086015625,-6.65784375,-7.47291796875,-7.287296875,-7.26032421875,-7.6037578125,-10.60198828125,-7.54293359375,-6.01999609375,-5.94196875,-6.129640625,-5.68303515625,-6.030234375,-6.22032421875,-6.805703125
23.73366015625,6.97257421875,-16.1688203125,-6.09598828125,-17.44632421875,-17.03506640625,-14.33696875,-18.02265234375,-10.95025,-11.9397890625,-18.0493515625,-16.3301640625,-9.01506640625,-8.73074609375,-10.2041875,-12.110015625,-5.85784375,-6.02091796875,-5.866296875,-5.34932421875,-5.1227578125,-8.88198828125,-4.74193359375,-4.13699609375,-3.45496875,-2.604640625,-3.41903515625,-4.536234375,-2.92432421875,-2.972703125
26.28066015625,5.75357421875,-16.7128203125,-10.14798828125,-22.54432421875,-17.81106640625,-15.38196875,-18.97365234375,-13.13725,-13.4107890625,-16.9993515625,-16.6291640625,-9.29606640625,-7.87774609375,-9.8681875,-10.797015625,-5.16784375,-3.13991796875,-3.552296875,-3.11632421875,-2.4127578125,-5.56298828125,-0.66793359375,-1.30499609375,-0.50196875,0.798359375,-0.25603515625,-2.386234375,0.51467578125,0.614296875
22.98166015625,3.14957421875,-17.0848203125,-12.26398828125,-24.49832421875,-18.05606640625,-16.40996875,-19.80165234375,-12.83025,-14.1137890625,-15.5553515625,-16.4931640625,-8.34606640625,-5.92774609375,-9.4591875,-9.463015625,-4.65184375,0.25908203125,-0.999296875,-1.06232421875,-0.1907578125,-1.62198828125,3.42506640625,1.73600390625,2.17903125,3.282359375,3.01196484375,-0.0582343750000001,3.35367578125,3.308296875
14.71066015625,0.0305742187499991,-17.0378203125,-11.91898828125,-22.59232421875,-17.45106640625,-17.27296875,-20.15165234375,-9.90925,-13.4767890625,-13.8383515625,-15.9861640625,-6.52506640625,-3.34374609375,-8.6101875,-8.329015625,-4.34184375,3.13608203125,1.145703125,0.501675781250001,0.9832421875,1.90501171875,6.46506640625,4.26400390625,3.97403125,4.340359375,5.63196484375,2.007765625,5.09467578125,4.739296875
4.19266015625,-2.51342578125,-16.4778203125,-9.35798828125,-17.39632421875,-15.92606640625,-17.75396875,-19.78165234375,-5.34025,-11.3577890625,-11.9863515625,-15.1951640625,-4.50006640625,-0.85174609375,-7.0671875,-7.468015625,-4.28584375,4.66008203125,2.459703125,1.50167578125,0.8662421875,4.28501171875,7.89206640625,5.75700390625,4.55303125,3.852359375,7.07996484375,3.472765625,5.53867578125,4.796296875
-5.31833984375,-3.62742578125,-15.4608203125,-5.50198828125,-10.50932421875,-13.77706640625,-17.61696875,-18.65165234375,-0.83025,-8.1717890625,-10.1793515625,-14.2021640625,-2.94706640625,0.78625390625,-4.8851875,-6.819015625,-4.50584375,4.48308203125,2.845703125,2.03767578125,-0.3747578125,5.27901171875,7.74406640625,5.99400390625,3.94503125,2.125359375,7.17796484375,4.142765625,4.78267578125,3.624296875
-11.30433984375,-3.00742578125,-14.1178203125,-1.62298828125,-3.97932421875,-11.59206640625,-16.71796875,-16.89565234375,1.85975,-4.7827890625,-8.6123515625,-13.0591640625,-2.24906640625,1.04125390625,-2.4781875,-6.236015625,-4.91484375,2.83008203125,2.487703125,2.25567578125,-2.1987578125,5.09301171875,6.48006640625,5.04400390625,2.50703125,-0.174640625,6.07696484375,3.983765625,3.16267578125,1.618296875
-12.71133984375,-0.965425781250001,-12.5578203125,1.14401171875,0.42367578125,-9.98506640625,-15.07196875,-14.74665234375,1.69375,-2.1677890625,-7.4503515625,-11.7851640625,-2.35506640625,-0.15674609375,-0.462187500000001,-5.577015625,-5.28684375,0.370082031250001,1.696703125,2.24567578125,-3.9037578125,4.15201171875,4.68706640625,3.19600390625,0.75703125,-2.275640625,4.14096484375,3.092765625,1.10967578125,-0.668703125
-10.07233984375,1.72957421875,-10.8528203125,2.21401171875,1.80567578125,-9.28706640625,-12.85696875,-12.47365234375,-1.11125,-1.0017890625,-6.7693515625,-10.3981640625,-2.87706640625,-2.31374609375,0.619812499999999,-4.791015625,-5.37384375,-2.04891796875,0.763703125,2.01167578125,-4.9307578125,2.83801171875,2.83306640625,0.85400390625,-0.83396875,-3.619640625,1.77296484375,1.638765625,-1.00232421875,-2.711703125
-5.10533984375,4.17157421875,-9.0778203125,1.70001171875,0.40767578125,-9.42706640625,-10.40496875,-10.35565234375,-5.12525,-1.3377890625,-6.5373515625,-8.9611640625,-3.31706640625,-4.46774609375,0.565812499999999,-3.953015625,-5.04284375,-3.69691796875,-0.0762968750000006,1.56567578125,-5.0707578125,1.36601171875,1.20506640625,-1.51499609375,-1.96096875,-4.054640625,-0.65703515625,-0.170234375,-2.93332421875,-4.183703125
0.0306601562500006,5.65057421875,-7.3698203125,0.27601171875,-2.56232421875,-10.02406640625,-8.11696875,-8.63765234375,-8.31625,-2.5697890625,-6.6053515625,-7.5521640625,-3.28606640625,-5.51974609375,-0.3521875,-3.191015625,-4.33684375,-4.14391796875,-0.608296875,1.05567578125,-4.4517578125,-0.13998828125,-0.00293359374999969,-3.40799609375,-2.45896875,-3.779640625,-2.78403515625,-2.065234375,-4.52632421875,-4.994703125
3.53066015625,5.88257421875,-5.9178203125,-1.14798828125,-5.43532421875,-10.55006640625,-6.30696875,-7.45265234375,-8.96925,-3.7147890625,-6.7333515625,-6.1901640625,-2.63706640625,-4.68674609375,-1.4851875,-2.549015625,-3.40484375,-3.32991796875,-0.595296875,0.821675781250001,-3.3407578125,-1.47798828125,-0.58193359375,-4.33199609375,-2.20696875,-3.105640625,-4.19903515625,-3.689234375,-5.59932421875,-5.194703125
4.50966015625,5.04657421875,-4.8838203125,-1.80498828125,-6.77032421875,-10.50906640625,-5.04296875,-6.75865234375,-6.45825,-3.9047890625,-6.6593515625,-4.7711640625,-1.49706640625,-1.88574609375,-2.0911875,-1.893015625,-2.36684375,-1.52591796875,0.144703124999999,1.27567578125,-1.9297578125,-2.28398828125,-0.31693359375,-3.94299609375,-1.09396875,-2.228640625,-4.51503515625,-4.640234375,-5.90632421875,-4.838703125
3.18366015625,3.67657421875,-4.2988203125,-1.40198828125,-5.96132421875,-9.62206640625,-4.17196875,-6.34265234375,-1.54925,-2.8247890625,-6.1973515625,-3.1371640625,-0.18606640625,2.15925390625,-1.6991875,-0.976015625,-1.23884375,0.77308203125,1.594703125,2.65567578125,-0.2767578125,-2.16298828125,0.87106640625,-2.24099609375,0.87703125,-1.168640625,-3.52103515625,-4.594234375,-5.21432421875,-3.935703125
0.702660156249999,2.45557421875,-4.0338203125,-0.24798828125,-3.48632421875,-7.96106640625,-3.51196875,-5.92265234375,3.93075,-0.857789062500001,-5.3293515625,-1.2451640625,0.95193359375,6.16425390625,-0.343187500000001,0.358984375,0.0211562499999998,3.00008203125,3.421703125,4.79667578125,1.5672421875,-0.96798828125,2.74406640625,0.29400390625,3.42303125,0.0983593749999994,-1.36603515625,-3.467234375,-3.46232421875,-2.507703125
-1.28433984375,1.99257421875,-3.8918203125,0.95501171875,-0.60532421875,-5.92006640625,-3.01396875,-5.33065234375,7.92175,1.1492109375,-4.2283515625,0.6538359375,1.71793359375,8.81325390625,1.4688125,1.953984375,1.34715625,4.66308203125,5.020703125,7.08867578125,3.3502421875,0.99401171875,4.70706640625,2.75800390625,5.89603125,1.422359375,1.38596484375,-1.526234375,-0.91232421875,-0.723703125
-1.27733984375,2.61457421875,-3.7438203125,1.56401171875,1.35667578125,-3.99106640625,-2.75896875,-4.66365234375,9.10775,2.3852109375,-3.1843515625,2.0038359375,2.13693359375,9.33525390625,3.0708125,3.277984375,2.41715625,5.45408203125,5.768703125,8.67867578125,4.5012421875,3.00201171875,5.98406640625,4.12200390625,7.38003125,2.337359375,3.88996484375,0.652765625,1.83867578125,1.012296875
1.39166015625,4.27557421875,-3.5948203125,1.40501171875,1.77967578125,-2.49506640625,-2.83196875,-4.25965234375,7.51575,2.5712109375,-2.4343515625,2.1838359375,2.40493359375,7.86025390625,4.0468125,3.645984375,2.67815625,5.33108203125,5.357703125,8.86467578125,4.2882421875,4.23601171875,5.99106640625,3.69700390625,7.03903125,2.163359375,5.34296484375,2.393765625,4.02767578125,2.130296875
6.17066015625,6.60457421875,-3.4998203125,0.87801171875,1.08967578125,-1.45306640625,-3.17596875,-4.45565234375,4.45375,2.1532109375,-1.9993515625,0.8958359375,2.76193359375,5.37725390625,4.4788125,2.639984375,1.61415625,4.55508203125,4.045703125,7.47167578125,2.2172421875,4.18001171875,4.69306640625,1.52000390625,4.56403125,0.354359375,5.35896484375,3.221765625,5.03767578125,2.144296875
11.42166015625,9.08157421875,-3.4128203125,0.73501171875,0.48967578125,-0.62906640625,-3.50596875,-5.26965234375,1.85775,2.0592109375,-1.6373515625,-1.5081640625,3.36993359375,3.28625390625,4.8878125,0.471984375,-0.87784375,3.62908203125,2.624703125,5.03867578125,-1.5497578125,2.90501171875,2.71406640625,-1.55799609375,0.47303125,-3.083640625,4.17296484375,3.109765625,4.70267578125,0.963296875
15.05766015625,11.20057421875,-3.1268203125,1.63001171875,1.19067578125,0.27093359375,-3.37396875,-6.26865234375,1.37475,3.0902109375,-0.9813515625,-4.0521640625,4.21893359375,2.73625390625,5.8458125,-2.002015625,-4.27384375,3.10308203125,2.037703125,2.61567578125,-6.0877578125,1.04801171875,1.07006640625,-4.21399609375,-3.98796875,-7.405640625,2.53596484375,2.497765625,3.39167578125,-0.979703125
15.42766015625,12.58457421875,-2.4118203125,3.65101171875,3.56467578125,1.31193359375,-2.45796875,-6.78665234375,3.57775,5.3292109375,0.1616484375,-5.6001640625,5.09793359375,4.04925390625,7.5078125,-3.694015625,-7.54884375,3.29608203125,2.846703125,1.25767578125,-10.0207578125,-0.51698828125,0.63906640625,-5.28999609375,-7.35796875,-11.334640625,1.29596484375,2.033765625,1.79267578125,-2.905703125
12.09666015625,13.01157421875,-1.2668203125,6.10201171875,6.72967578125,2.11093359375,-0.95096875,-6.36365234375,7.62375,7.9352109375,1.5496484375,-5.5131640625,5.64393359375,6.53725390625,9.3508125,-3.909015625,-9.61584375,4.10208203125,4.831703125,1.44067578125,-12.1427578125,-1.13198828125,1.65606640625,-4.39999609375,-8.64396875,-13.598640625,0.92196484375,2.171765625,0.50767578125,-4.108703125
6.15966015625,12.40257421875,-0.0768203124999997,7.74401171875,8.89867578125,1.91393359375,0.30703125,-5.11965234375,11.60175,9.5122109375,2.4886484375,-4.0721640625,5.49593359375,8.82125390625,10.3458125,-2.765015625,-9.82984375,4.99608203125,7.015703125,2.77567578125,-11.9717578125,-0.70398828125,3.52106640625,-2.17499609375,-7.77496875,-13.516640625,1.23796484375,2.847765625,-0.29432421875,-4.349703125
-0.16133984375,10.81157421875,0.4961796875,7.44401171875,8.35567578125,0.0359335937500003,0.19803125,-3.76965234375,13.46175,8.8692109375,2.1216484375,-2.3661640625,4.47893359375,9.52525390625,9.5098125,-1.139015625,-8.29584375,5.27508203125,8.124703125,4.19767578125,-9.9507578125,0.25601171875,5.06106640625,0.0380039062500002,-5.59196875,-11.317640625,1.52396484375,3.463765625,-0.94432421875,-3.976703125
-4.51833984375,8.45157421875,-0.1188203125,4.87001171875,4.48567578125,-3.60406640625,-1.97396875,-3.23165234375,12.06375,5.7352109375,-0.0663515624999995,-1.6931640625,2.72493359375,7.97125390625,6.5238125,-0.156015625,-5.79984375,4.40508203125,7.251703125,4.54967578125,-7.1777578125,0.91901171875,5.11106640625,0.84200390625,-3.36996875,-8.029640625,0.94596484375,3.191765625,-2.00932421875,-3.687703125
-5.53333984375,5.70357421875,-2.0118203125,0.74901171875,-1.77032421875,-8.27606640625,-5.96196875,-4.07265234375,7.75375,0.9822109375,-3.8423515625,-2.8161640625,0.65193359375,4.51425390625,2.0288125,-0.563015625,-3.41984375,2.30108203125,4.334703125,3.21767578125,-4.8517578125,0.56001171875,3.10406640625,-0.50599609375,-2.17296875,-4.989640625,-0.92303515625,1.457765625,-3.85832421875,-4.070703125
-3.38133984375,3.06857421875,-4.6468203125,-3.47798828125,-8.32032421875,-12.69706640625,-10.58796875,-6.13165234375,2.15075,-3.7827890625,-8.1893515625,-5.5481640625,-1.20506640625,0.31625390625,-2.6171875,-2.370015625,-2.03084375,-0.61291796875,0.190703125,0.437675781250001,-3.7347578125,-1.09298828125,-0.65493359375,-3.75599609375,-2.39796875,-3.242640625,-3.80103515625,-1.678234375,-6.33832421875,-5.230703125
0.397660156250001,0.999574218749999,-7.0968203125,-6.36998828125,-12.93132421875,-15.57506640625,-14.24996875,-8.59965234375,-2.68325,-7.0227890625,-11.7403515625,-8.8741640625,-2.44106640625,-3.27274609375,-5.9891875,-4.946015625,-1.97884375,-3.62591796875,-3.906296875,-2.89532421875,-3.9367578125,-3.73698828125,-5.15493359375,-7.85099609375,-3.73996875,-3.142640625,-6.81703515625,-5.474234375,-8.78732421875,-6.732703125
3.65466015625,-0.270425781250001,-8.5248203125,-7.19198828125,-14.26832421875,-16.13706640625,-15.66596875,-10.48765234375,-5.23425,-8.0057890625,-13.4333515625,-11.5491640625,-2.97306640625,-5.37274609375,-7.2741875,-7.465015625,-3.06384375,-6.07191796875,-6.836296875,-5.75232421875,-5.0797578125,-6.61898828125,-9.17593359375,-11.48999609375,-5.53396875,-4.321640625,-8.98703515625,-8.819234375,-10.38032421875,-7.888703125
4.54166015625,-0.820425781250001,-8.6068203125,-6.24798828125,-12.44832421875,-14.41906640625,-14.47796875,-11.18865234375,-5.19325,-7.0437890625,-13.0103515625,-12.7911640625,-3.06906640625,-5.91074609375,-6.5961875,-9.371015625,-4.76284375,-7.59691796875,-8.110296875,-7.50532421875,-6.6507578125,-8.84998828125,-11.80193359375,-13.75899609375,-7.19396875,-5.999640625,-9.74603515625,-10.744234375,-10.59132421875,-8.202703125
2.26366015625,-0.952425781250001,-7.6578203125,-4.68598828125,-8.84332421875,-11.21006640625,-11.42796875,-10.77865234375,-3.45725,-5.1647890625,-11.0743515625,-12.6491640625,-3.17206640625,-5.49074609375,-4.8291875,-10.585015625,-6.52584375,-8.20691796875,-7.966296875,-8.14732421875,-8.2977578125,-9.75098828125,-12.70293359375,-14.46999609375,-8.48396875,-7.400640625,-9.21503515625,-10.856234375,-9.48932421875,-7.673703125
-2.55033984375,-0.987425781250002,-6.3908203125,-3.84798828125,-5.32432421875,-7.66406640625,-7.93396875,-9.86265234375,-1.53625,-3.4927890625,-8.6833515625,-11.8361640625,-3.60806640625,-4.95774609375,-3.0441875,-11.352015625,-7.95284375,-8.13191796875,-7.100296875,-8.11832421875,-9.8797578125,-9.08498828125,-12.10693359375,-14.07699609375,-9.49896875,-8.072640625,-8.05303515625,-9.453234375,-7.68132421875,-6.762703125
-8.04233984375,-1.06942578125,-5.4848203125,-4.52698828125,-3.37032421875,-4.79406640625,-5.31396875,-9.12165234375,-0.70025,-2.7347890625,-6.7783515625,-11.1651640625,-4.35606640625,-4.90174609375,-1.9651875,-11.883015625,-8.82184375,-7.61591796875,-6.236296875,-7.91732421875,-11.3067578125,-7.07498828125,-10.54093359375,-13.27399609375,-10.41296875,-7.980640625,-7.02703515625,-7.300234375,-5.96632421875,-6.081703125
-11.89333984375,-1.10942578125,-5.2258203125,-6.57698828125,-3.51832421875,-3.14106640625,-4.15996875,-8.86865234375,-1.37725,-2.9937890625,-5.7763515625,-10.9901640625,-5.01806640625,-5.37374609375,-1.7291875,-12.101015625,-9.01284375,-6.77091796875,-5.764296875,-7.76532421875,-12.3527578125,-4.25698828125,-8.53193359375,-12.54499609375,-11.21996875,-7.389640625,-6.56203515625,-5.217234375,-4.91932421875,-6.010703125
-12.36333984375,-0.890425781250001,-5.4148203125,-9.07098828125,-5.31532421875,-2.72906640625,-4.22296875,-8.89565234375,-3.06525,-3.8947890625,-5.5193515625,-11.0151640625,-5.01606640625,-5.92074609375,-2.0251875,-11.665015625,-8.44984375,-5.55391796875,-5.631296875,-7.52732421875,-12.6207578125,-1.26398828125,-6.41893359375,-11.94899609375,-11.65296875,-6.660640625,-6.54203515625,-3.721234375,-4.65232421875,-6.477703125
-9.08633984375,-0.269425781250002,-5.5708203125,-10.81698828125,-7.64032421875,-3.16606640625,-4.75196875,-8.69265234375,-4.70725,-4.8317890625,-5.5153515625,-10.5601640625,-3.91906640625,-5.87174609375,-2.4101875,-10.247015625,-7.11884375,-3.87291796875,-5.465296875,-6.88932421875,-11.7227578125,1.35601171875,-4.31193359375,-11.20099609375,-11.32996875,-6.068640625,-6.44203515625,-2.875234375,-4.85132421875,-7.025703125
-3.16933984375,0.681574218749999,-5.2988203125,-10.91298828125,-9.19432421875,-3.78506640625,-4.99296875,-7.85365234375,-5.27625,-5.2187890625,-5.2893515625,-9.0651640625,-1.72806640625,-4.72674609375,-2.5831875,-7.843015625,-5.14784375,-1.74691796875,-4.840296875,-5.64732421875,-9.5577578125,3.26201171875,-2.19693359375,-9.95699609375,-10.02396875,-5.710640625,-5.68803515625,-2.395234375,-5.03232421875,-7.101703125
3.38866015625,1.67257421875,-4.5768203125,-9.10198828125,-9.02232421875,-3.88006640625,-4.59496875,-6.41365234375,-4.29925,-4.6897890625,-4.6643515625,-6.5251640625,1.03093359375,-2.46974609375,-2.4951875,-4.910015625,-2.87984375,0.564082031250001,-3.540296875,-3.90932421875,-6.4917578125,4.32301171875,-0.0959335937499998,-8.11699609375,-7.87596875,-5.537640625,-4.03403515625,-1.922234375,-4.86632421875,-6.397703125
8.57266015625,2.34157421875,-3.7658203125,-5.85298828125,-6.94232421875,-3.06606640625,-3.79196875,-4.85265234375,-2.10125,-3.2517890625,-3.8353515625,-3.5541640625,3.47393359375,0.35125390625,-2.3141875,-2.233015625,-0.82484375,2.55208203125,-1.708296875,-2.10332421875,-3.2957578125,4.53801171875,1.80806640625,-5.94499609375,-5.39596875,-5.445640625,-1.74203515625,-1.282234375,-4.36332421875,-5.045703125
11.01366015625,2.44457421875,-3.3168203125,-2.14398828125,-3.66132421875,-1.52106640625,-3.20696875,-3.76765234375,0.36575,-1.3127890625,-3.2143515625,-1.0351640625,4.73193359375,2.84625390625,-2.2721875,-0.565015625,0.52915625,3.63708203125,0.227703125,-0.740324218749999,-0.7987578125,3.95201171875,3.18906640625,-3.94299609375,-3.22296875,-5.338640625,0.55296484375,-0.583234375,-3.81132421875,-3.524703125
10.22366015625,1.96657421875,-3.3828203125,0.96901171875,-0.43832421875,0.121933593750001,-3.32796875,-3.41165234375,2.06075,0.483210937499999,-3.1173515625,0.4328359375,4.32893359375,4.20525390625,-2.4831875,-0.202015625,0.97715625,3.44308203125,1.795703125,-0.0683242187499991,0.5622421875,2.68701171875,3.74006640625,-2.54399609375,-1.75996875,-5.100640625,2.21796484375,-0.0662343750000001,-3.50032421875,-2.328703125
6.51466015625,1.09157421875,-3.6468203125,2.76101171875,1.54867578125,1.18293359375,-4.05196875,-3.48465234375,2.40275,1.5572109375,-3.5013515625,0.9008359375,2.35693359375,4.08325390625,-2.8401875,-0.792015625,0.74415625,2.01308203125,2.742703125,0.140675781250001,1.0152421875,1.01001171875,3.38106640625,-1.83499609375,-0.92796875,-4.535640625,2.98196484375,0.124765625,-3.46132421875,-1.641703125
0.85866015625,0.0905742187499978,-3.5208203125,3.00701171875,1.75467578125,1.31193359375,-4.69496875,-3.33465234375,1.48575,1.6762109375,-3.9383515625,0.9788359375,-0.61606640625,2.71525390625,-3.0771875,-1.520015625,0.37415625,-0.17691796875,3.117703125,0.486675781250001,1.3032421875,-0.67998828125,2.32106640625,-1.54399609375,-0.23896875,-3.401640625,3.03496484375,0.0717656250000001,-3.43332421875,-1.259703125
-5.22333984375,-0.772425781250002,-2.5698203125,1.94401171875,0.509675781249999,0.659933593750001,-4.47996875,-2.44065234375,-0.11225,1.0802109375,-3.8533515625,1.3538359375,-3.80706640625,0.74425390625,-2.9381875,-1.593015625,0.41215625,-2.42891796875,3.157703125,1.55667578125,2.2002421875,-2.00198828125,0.95206640625,-1.27299609375,0.82903125,-1.608640625,2.81796484375,0.005765625,-3.09632421875,-0.821703125
-9.92633984375,-1.25942578125,-0.8178203125,0.17901171875,-1.12832421875,-0.14306640625,-3.03496875,-0.77865234375,-1.66325,0.419210937499999,-2.8253515625,2.3308359375,-6.46406640625,-1.08674609375,-2.2931875,-0.690015625,1.08615625,-4.10391796875,3.105703125,3.53167578125,3.9982421875,-2.75298828125,-0.33893359375,-0.80599609375,2.43403125,0.578359375,2.68296484375,0.098765625,-2.35932421875,-0.116703125
-11.69833984375,-1.13942578125,1.2851796875,-1.41398828125,-1.81232421875,-0.19306640625,-0.54196875,1.17934765625,-2.55425,0.503210937499999,-0.778351562499999,3.7038359375,-8.01606640625,-2.20474609375,-1.1331875,0.912984375000001,2.23115625,-4.82091796875,3.091703125,6.04467578125,6.3202421875,-2.95698828125,-1.30793359375,-0.23799609375,4.22003125,2.551359375,2.67596484375,0.310765625,-1.47532421875,0.747296875
-9.93933984375,-0.236425781250002,3.1741796875,-1.93598828125,-0.538324218750001,1.27093359375,2.40603125,2.79134765625,-2.44525,1.9312109375,1.9886484375,4.9698359375,-8.14506640625,-2.35974609375,0.462812499999999,2.550984375,3.45015625,-4.51291796875,3.121703125,8.34967578125,8.3612421875,-2.79398828125,-1.87993359375,0.11100390625,5.51203125,3.635359375,2.55996484375,0.396765625,-0.91032421875,1.432296875
-5.38833984375,1.44257421875,4.4781796875,-0.85498828125,2.76867578125,4.35993359375,5.04803125,3.62434765625,-1.35825,4.7292109375,4.8846484375,5.6618359375,-6.83506640625,-1.66774609375,2.3208125,3.528984375,4.36115625,-3.38091796875,3.130703125,9.67267578125,9.3432421875,-2.49998828125,-2.12393359375,-0.10699609375,5.70303125,3.450359375,2.01796484375,0.059765625,-1.06632421875,1.584296875
0.15666015625,3.60657421875,5.1291796875,1.66901171875,7.07367578125,8.29093359375,6.67803125,3.62834765625,0.32675,8.2032109375,7.1756484375,5.5548359375,-4.40006640625,-0.54974609375,4.1318125,3.421984375,4.74415625,-1.80291796875,3.019703125,9.55267578125,8.9022421875,-2.28198828125,-2.20993359375,-1.07399609375,4.58703125,2.105359375,0.86596484375,-0.874234375,-2.06832421875,1.027296875
4.68766015625,5.69857421875,5.2681796875,4.77301171875,10.62167578125,11.67593359375,6.87103125,3.07434765625,2.00975,11.1592109375,8.2056484375,4.6898359375,-1.44606640625,0.451253906249999,5.4998125,2.214984375,4.53315625,-0.22691796875,2.705703125,8.03567578125,7.2012421875,-2.26698828125,-2.33593359375,-2.71899609375,2.45003125,0.0943593749999998,-0.83403515625,-2.358234375,-3.73132421875,-0.183703125
6.88466015625,7.09557421875,5.0891796875,7.25401171875,11.77867578125,13.18793359375,5.66003125,2.37034765625,3.10275,12.4512109375,7.6676484375,3.3048359375,1.28793359375,0.930253906249999,6.1068125,0.284984375,3.75615625,0.96108203125,2.179703125,5.66767578125,4.7952421875,-2.46298828125,-2.61593359375,-4.70699609375,-0.0529687499999999,-1.972640625,-2.78303515625,-4.116234375,-5.65832421875,-1.809703125
6.56566015625,7.37357421875,4.7481796875,8.13101171875,9.90767578125,12.24493359375,3.56103125,1.90534765625,3.29875,11.6152109375,5.8066484375,1.7638359375,3.19393359375,0.85325390625,5.9398125,-1.717015625,2.51815625,1.60508203125,1.592703125,3.33167578125,2.3872421875,-2.72398828125,-2.94993359375,-6.48699609375,-2.13296875,-3.606640625,-4.48103515625,-5.695234375,-7.37132421875,-3.495703125
4.52866015625,6.48157421875,4.3721796875,7.11301171875,5.80767578125,9.34593359375,1.43103125,1.96134765625,2.74775,9.2042109375,3.4206484375,0.5048359375,4.04393359375,0.62525390625,5.3848125,-3.065015625,1.04515625,1.87808203125,1.280703125,1.98067578125,0.6022421875,-2.74498828125,-2.97893359375,-7.41099609375,-3.11596875,-4.531640625,-5.32903515625,-6.540234375,-8.40632421875,-4.817703125
2.01366015625,4.71857421875,4.0681796875,4.73101171875,1.40667578125,5.88193359375,0.18903125,2.65434765625,2.02375,6.5582109375,1.5756484375,-0.0581640624999999,4.05293359375,0.87225390625,5.0968125,-3.201015625,-0.32084375,2.19408203125,1.644703125,2.30967578125,-0.1707578125,-2.13698828125,-2.24393359375,-6.93799609375,-2.65096875,-4.686640625,-4.80603515625,-6.153234375,-8.41132421875,-5.362703125
0.102660156250001,2.54757421875,3.8821796875,1.99601171875,-1.26332421875,3.44493359375,0.40303125,3.85434765625,1.77675,5.0702109375,1.1196484375,0.2678359375,3.71793359375,2.00725390625,5.6278125,-1.985015625,-1.23384375,2.93308203125,2.876703125,4.44367578125,0.1112421875,-0.61198828125,-0.48493359375,-4.90899609375,-0.85196875,-4.200640625,-2.73403515625,-4.328234375,-7.27532421875,-4.872703125
-0.75833984375,0.365574218749998,3.7371796875,-0.22798828125,-1.25332421875,2.95193359375,1.90503125,5.13334765625,2.24075,5.3712109375,2.2296484375,1.2648359375,3.49593359375,3.83625390625,7.0188125,0.171984375,-1.51784375,4.14008203125,4.711703125,7.78967578125,1.1282421875,1.78201171875,2.07006640625,-1.74099609375,1.69003125,-3.362640625,0.50396484375,-1.354234375,-5.24532421875,-3.411703125
-0.93333984375,-1.65742578125,3.4281796875,-1.72898828125,0.69967578125,4.11793359375,3.69103125,5.85134765625,2.96675,6.9252109375,4.2466484375,2.2788359375,3.54193359375,5.50625390625,8.6458125,2.393984375,-1.28484375,5.42908203125,6.399703125,11.16667578125,2.2952421875,4.56701171875,4.68906640625,1.60700390625,4.08103125,-2.551640625,3.98196484375,1.967765625,-2.92532421875,-1.427703125
-1.39033984375,-3.56842578125,2.7001796875,-2.96198828125,2.59967578125,5.62193359375,4.33003125,5.38634765625,3.06075,8.3012109375,5.9246484375,2.4648359375,3.65893359375,5.91625390625,9.4618125,3.681984375,-0.89784375,6.19308203125,7.016703125,13.25567578125,2.9972421875,6.98501171875,6.43706640625,3.98500390625,5.44003125,-2.102640625,6.55496484375,4.590765625,-1.07932421875,0.390296875
-3.10333984375,-5.47642578125,1.4111796875,-4.59998828125,2.38867578125,5.88393359375,2.70803125,3.46134765625,1.81275,7.9832109375,6.0016484375,1.2148359375,3.49993359375,4.36925390625,8.5338125,3.363984375,-0.76184375,5.99408203125,5.960703125,13.16767578125,2.8752421875,8.34701171875,6.66006640625,4.56600390625,5.26403125,-2.164640625,7.35996484375,5.671765625,-0.29232421875,1.420296875
-6.35133984375,-7.32242578125,-0.3368203125,-6.97798828125,-0.82332421875,3.93193359375,-1.33296875,0.36734765625,-0.77225,5.2422109375,3.8176484375,-1.4611640625,2.86993359375,1.04625390625,5.5668125,1.421984375,-1.07284375,4.85108203125,3.309703125,10.84767578125,2.0092421875,8.33901171875,5.31406640625,3.24800390625,3.64403125,-2.613640625,6.23296484375,4.949765625,-0.68832421875,1.402296875
-10.36033984375,-8.77042578125,-2.1838203125,-9.77798828125,-6.24432421875,-0.0850664062500002,-6.83896875,-3.06165234375,-3.93225,0.573210937499999,-0.3443515625,-4.8591640625,1.89893359375,-3.03674609375,1.0908125,-1.504015625,-1.70584375,3.21908203125,-0.189296875000001,7.07867578125,0.8612421875,7.09201171875,2.93406640625,0.68400390625,1.19803125,-3.108640625,3.76496484375,2.814765625,-1.88732421875,0.537296875
-13.60633984375,-9.33042578125,-3.6498203125,-12.12898828125,-11.78632421875,-4.92606640625,-12.11396875,-5.77165234375,-6.54525,-4.5187890625,-5.3543515625,-7.8761640625,0.95093359375,-6.52974609375,-3.7531875,-4.445015625,-2.31584375,1.67008203125,-3.517296875,3.08567578125,-0.0257578125000001,5.00701171875,0.26306640625,-2.07099609375,-1.25496875,-3.300640625,0.96696484375,0.051765625,-3.25332421875,-0.677703125
-14.62033984375,-8.65442578125,-4.3568203125,-13.00698828125,-15.09932421875,-8.78606640625,-15.42596875,-6.94665234375,-7.67225,-8.2307890625,-9.7203515625,-9.5441640625,0.36593359375,-8.39174609375,-7.6761875,-6.580015625,-2.59384375,0.527082031250001,-5.869296875,-0.0323242187499986,-0.3857578125,2.50301171875,-2.15193359375,-4.07799609375,-3.10496875,-3.075640625,-1.23203515625,-2.563234375,-4.24932421875,-1.747703125
-12.79233984375,-6.77342578125,-4.1948203125,-11.77998828125,-14.68132421875,-10.10406640625,-15.76996875,-6.34865234375,-6.94125,-9.2577890625,-12.2053515625,-9.4981640625,0.23693359375,-8.27274609375,-9.7171875,-7.590015625,-2.48084375,-0.26491796875,-6.940296875,-1.69632421875,-0.3997578125,-0.11298828125,-4.12993359375,-4.87399609375,-4.17796875,-2.664640625,-2.36103515625,-4.540234375,-4.66032421875,-2.411703125
-8.66133984375,-4.11342578125,-3.3458203125,-8.59498828125,-10.52732421875,-8.28506640625,-13.32196875,-4.37065234375,-4.62725,-7.2787890625,-12.2573515625,-8.1371640625,0.39193359375,-6.48674609375,-9.4941875,-7.685015625,-2.19884375,-0.96691796875,-6.865296875,-1.91232421875,-0.5537578125,-2.60798828125,-5.70193359375,-4.51499609375,-4.66596875,-2.513640625,-2.44203515625,-5.705234375,-4.57532421875,-2.686703125
-3.56633984375,-1.30342578125,-2.1788203125,-4.38898828125,-4.04232421875,-3.94606640625,-9.29096875,-1.79465234375,-1.46125,-2.9697890625,-10.1043515625,-6.3591640625,0.53593359375,-3.68374609375,-7.2081875,-7.313015625,-2.08684375,-1.73591796875,-5.936296875,-1.01232421875,-1.2767578125,-4.68598828125,-6.81793359375,-3.33999609375,-4.85096875,-2.970640625,-1.76803515625,-6.039234375,-4.17532421875,-2.715703125
1.05366015625,1.07957421875,-1.0778203125,-0.49598828125,2.65367578125,1.43493359375,-5.22596875,0.56134765625,1.67175,2.3452109375,-6.5163515625,-5.0361640625,0.44293359375,-0.50774609375,-3.4661875,-6.780015625,-2.35984375,-2.41791796875,-4.360296875,0.675675781250001,-2.5897578125,-5.91498828125,-7.19193359375,-1.65999609375,-4.81096875,-3.996640625,-0.60803515625,-5.498234375,-3.54132421875,-2.580703125
4.24066015625,2.65757421875,-0.3108203125,1.91101171875,7.58767578125,6.17293359375,-2.24496875,2.15134765625,3.96675,7.1692109375,-2.4573515625,-4.5461640625,0.0649335937499997,2.55425390625,0.900812499999999,-6.040015625,-2.94984375,-2.61091796875,-2.233296875,2.98967578125,-4.0107578125,-5.83998828125,-6.40593359375,0.39800390625,-4.34896875,-5.113640625,0.94396484375,-3.970234375,-2.60632421875,-2.205703125
5.69566015625,3.27657421875,0.0501796875000003,2.24601171875,9.58467578125,8.97293359375,-0.65796875,2.83034765625,4.81375,10.2752109375,1.2096484375,-4.6011640625,-0.45706640625,5.12825390625,4.9778125,-4.799015625,-3.50884375,-1.91991796875,0.298703124999999,5.85667578125,-4.7717578125,-4.21998828125,-4.21393359375,2.82200390625,-3.15896875,-5.626640625,2.91396484375,-1.396234375,-1.26032421875,-1.418703125
5.60566015625,2.99057421875,0.1411796875,0.69201171875,8.55767578125,9.31193359375,-0.04296875,2.82434765625,3.96475,11.0272109375,3.9016484375,-4.4441640625,-0.83906640625,6.89725390625,7.9338125,-2.794015625,-3.58084375,-0.20891796875,2.876703125,9.09167578125,-4.2317578125,-1.24198828125,-0.82793359375,5.50400390625,-1.11896875,-5.024640625,5.25896484375,2.039765625,0.49267578125,-0.117703125
4.39566015625,2.04557421875,0.2441796875,-1.86998828125,5.44967578125,7.56393359375,0.37903125,2.56134765625,1.77275,9.5652109375,5.3976484375,-3.2861640625,-0.75906640625,7.66125390625,9.2488125,-0.037015625,-2.83284375,2.27308203125,4.943703125,12.26767578125,-2.2377578125,2.47301171875,3.02806640625,8.07900390625,1.50003125,-3.294640625,7.68796484375,5.791765625,2.42967578125,1.563296875
2.56066015625,0.848574218749999,0.6341796875,-4.18798828125,1.85067578125,4.80693359375,1.27403125,2.42734765625,-0.75625,6.7502109375,5.7896484375,-0.7801640625,0.00593359375000002,7.44725390625,8.9038125,3.086984375,-1.24884375,4.95608203125,5.932703125,14.75867578125,0.7342421875,6.04301171875,6.30506640625,9.93100390625,4.03003125,-0.991640625,9.62796484375,8.982765625,4.10167578125,3.190296875
0.549660156250001,-0.140425781250002,1.3981796875,-5.14398828125,-0.63332421875,2.31093359375,2.76803125,2.53134765625,-2.30025,3.8402109375,5.3326484375,2.6668359375,1.45293359375,6.53825390625,7.3538125,5.887984375,0.79015625,7.13208203125,5.493703125,15.91767578125,3.7382421875,8.58301171875,7.98506640625,10.38500390625,5.63903125,0.990359375,10.38496484375,10.655765625,4.95967578125,4.142296875
-1.31933984375,-0.563425781250001,2.3231796875,-4.23498828125,-0.98632421875,0.947933593749999,4.29203125,2.63334765625,-1.82925,1.9892109375,4.2496484375,5.9488359375,3.30793359375,5.36925390625,5.2948125,7.559984375,2.60715625,8.20508203125,3.654703125,15.32867578125,5.7572421875,9.46701171875,7.45406640625,9.01800390625,5.69303125,1.831359375,9.45796484375,10.164765625,4.58767578125,3.906296875
-2.85733984375,-0.289425781250001,2.9671796875,-1.75798828125,0.916675781249999,0.90793359375,4.88403125,2.30034765625,0.92675,1.8282109375,2.6666484375,7.7208359375,5.12293359375,4.38925390625,3.3748125,7.479984375,3.48215625,7.93308203125,0.864703125,13.03167578125,6.1522421875,8.54101171875,4.79606640625,5.95100390625,4.09103125,1.178359375,6.86996484375,7.553765625,2.96667578125,2.411296875
-3.88833984375,0.585574218749999,2.9081796875,1.37401171875,4.40667578125,1.83193359375,3.82803125,1.23834765625,5.40375,3.3202109375,0.7316484375,7.0738359375,6.47293359375,3.98025390625,2.0308125,5.536984375,2.98715625,6.56808203125,-2.065296875,9.62067578125,4.9682421875,6.23701171875,0.85906640625,1.96900390625,1.41803125,-0.678640625,3.32696484375,3.689765625,0.61967578125,0.200296875
-4.10833984375,1.84857421875,2.0241796875,4.03801171875,8.35267578125,3.17993359375,1.18903125,-0.42265234375,10.43475,5.9232109375,-1.1853515625,4.0788359375,7.12493359375,4.39825390625,1.5118125,2.303984375,1.23115625,4.80008203125,-4.180296875,6.12667578125,2.9082421875,3.47401171875,-2.98193359375,-1.66999609375,-1.21896875,-2.932640625,0.05296484375,0.009765625,-1.50932421875,-1.731703125
-3.11433984375,3.29957421875,0.6431796875,5.31901171875,11.55267578125,4.54593359375,-2.09396875,-2.06965234375,14.59675,8.8722109375,-2.4443515625,-0.1501640625,7.07893359375,5.68125390625,1.9208125,-1.094015625,-1.16684375,3.45008203125,-4.720296875,3.64767578125,0.9592421875,1.28601171875,-5.36593359375,-3.72399609375,-2.65996875,-4.659640625,-1.69603515625,-2.081234375,-2.45532421875,-2.415703125
-0.62933984375,4.81057421875,-0.5578203125,4.80401171875,13.05367578125,5.80893359375,-4.58996875,-2.85065234375,16.60075,11.4352109375,-2.3673515625,-3.9241640625,6.45993359375,7.52525390625,3.2018125,-3.431015625,-3.35784375,3.02508203125,-3.484296875,2.87367578125,-0.1427578125,0.32601171875,-5.57093359375,-3.56699609375,-2.28796875,-5.280640625,-1.25203515625,-1.867234375,-1.73832421875,-1.445703125
3.17866015625,6.27957421875,-0.8628203125,2.68501171875,12.38467578125,7.09193359375,-5.02696875,-2.10765234375,15.67375,13.0542109375,-0.6383515625,-5.7681640625,5.38393359375,9.27125390625,5.0438125,-3.947015625,-4.67584375,3.41708203125,-1.003296875,3.73267578125,-0.3117578125,0.52901171875,-3.88693359375,-1.54899609375,-0.40996875,-4.850640625,1.05496484375,0.333765625,0.32567578125,0.753296875
7.52466015625,7.54857421875,0.1231796875,-0.37498828125,9.66567578125,8.54793359375,-2.93396875,0.24334765625,11.86975,13.4092109375,2.3616484375,-5.1001640625,3.91893359375,10.08825390625,6.8378125,-2.730015625,-4.92484375,3.95208203125,1.612703125,5.39267578125,-0.1267578125,1.17401171875,-1.49593359375,1.10400390625,1.82303125,-4.009640625,3.96296484375,3.320765625,2.71767578125,3.114296875
11.10966015625,8.32957421875,2.2311796875,-3.55798828125,5.57267578125,10.05993359375,1.00503125,3.56234765625,6.09675,12.4102109375,5.5276484375,-2.4901640625,2.14493359375,9.30925390625,7.7598125,-0.701015625,-4.41484375,3.78908203125,3.107703125,6.62567578125,-0.4637578125,1.33801171875,0.10606640625,2.81700390625,2.95503125,-3.631640625,5.79496484375,5.580765625,4.17667578125,4.431296875
12.51866015625,8.20657421875,4.6941796875,-6.24798828125,1.12667578125,11.07593359375,5.09703125,6.62334765625,-0.19825,10.1202109375,7.3536484375,0.5908359375,0.22193359375,6.68625390625,7.0048125,0.783984375,-3.79984375,2.38608203125,2.557703125,6.34867578125,-1.9897578125,0.43701171875,-0.21993359375,2.33500390625,1.90003125,-4.373640625,5.17496484375,5.952765625,3.76867578125,3.900296875
10.75966015625,6.74157421875,6.3921796875,-8.24298828125,-2.63832421875,10.76893359375,7.32203125,8.01034765625,-5.58225,6.6662109375,6.5156484375,2.4118359375,-1.60306640625,2.44425390625,4.0938125,0.534984375000001,-3.79184375,-0.24591796875,-0.299296875,4.08667578125,-4.7917578125,-1.47698828125,-2.80493359375,-0.76099609375,-1.55796875,-6.366640625,1.60396484375,4.064765625,1.29367578125,1.432296875
5.77066015625,3.73457421875,6.3111796875,-9.73298828125,-5.03532421875,8.46693359375,6.23703125,6.65434765625,-9.17825,2.2642109375,2.5046484375,1.7278359375,-3.07006640625,-2.82474609375,-0.8201875,-1.905015625,-4.84284375,-3.57691796875,-4.957296875,0.191675781250001,-8.2957578125,-3.80098828125,-7.09493359375,-5.87799609375,-6.64896875,-9.140640625,-4.29303515625,0.430765625,-2.61332421875,-2.318703125
-1.30433984375,-0.474425781250002,4.0681796875,-11.10398828125,-5.94932421875,4.12893359375,1.67803125,2.34534765625,-10.89825,-2.6447890625,-3.9703515625,-1.6441640625,-3.98006640625,-8.30774609375,-6.8251875,-5.983015625,-6.89584375,-6.77791796875,-10.280296875,-4.23632421875,-11.4587578125,-5.76498828125,-11.90893359375,-11.60299609375,-11.88196875,-11.798640625,-10.93603515625,-3.794234375,-6.70332421875,-6.173703125
-8.25733984375,-4.89642578125,0.1981796875,-12.64698828125,-5.80732421875,-1.41706640625,-5.07596875,-4.02565234375,-11.28725,-7.2757890625,-11.0723515625,-6.6901640625,-4.22406640625,-13.11074609375,-12.4251875,-10.303015625,-9.34184375,-9.01991796875,-14.841296875,-7.75032421875,-13.1707578125,-6.84398828125,-15.90393359375,-16.21299609375,-15.60096875,-13.371640625,-16.35303515625,-7.297234375,-9.58932421875,-8.834703125
-12.48633984375,-8.15642578125,-3.9808203125,-14.30798828125,-5.30332421875,-6.60206640625,-11.74496875,-10.67765234375,-11.07725,-10.6017890625,-16.4853515625,-11.5881640625,-3.78106640625,-16.41174609375,-16.0361875,-13.189015625,-11.25084375,-9.75191796875,-17.415296875,-9.12932421875,-12.7107578125,-6.95198828125,-18.07893359375,-18.33599609375,-16.62796875,-13.222640625,-18.93003515625,-9.129234375,-10.30732421875,-9.362703125
-12.06233984375,-9.06642578125,-6.8968203125,-15.60398828125,-5.01532421875,-9.66906640625,-15.96396875,-15.54265234375,-10.74625,-11.6937890625,-18.3693515625,-14.4631640625,-2.69106640625,-17.64474609375,-16.6251875,-13.411015625,-11.78884375,-8.87691796875,-17.427296875,-7.90432421875,-10.0647578125,-6.36398828125,-18.11493359375,-17.48099609375,-14.72996875,-11.298640625,-18.04303515625,-9.026234375,-8.68832421875,-7.540703125
-6.71833984375,-7.19342578125,-7.4038203125,-15.82198828125,-5.14232421875,-9.43406640625,-16.31396875,-17.05065234375,-10.34925,-10.1417890625,-16.1663515625,-14.1811640625,-1.06306640625,-16.67074609375,-14.1911875,-10.713015625,-10.60484375,-6.75191796875,-15.167296875,-4.58232421875,-5.9597578125,-5.45798828125,-16.41693359375,-14.20699609375,-10.68896875,-8.137640625,-14.24903515625,-7.398234375,-5.38132421875,-3.955703125
1.82366015625,-3.11642578125,-5.2708203125,-14.40298828125,-5.45232421875,-5.87506640625,-12.93996875,-14.71865234375,-9.62225,-6.3257890625,-10.8463515625,-10.8021640625,0.913933593749999,-13.84474609375,-9.8191875,-5.910015625,-7.99384375,-4.02891796875,-11.653296875,-0.426324218749999,-1.5727578125,-4.49898828125,-13.85693359375,-9.84299609375,-5.94496875,-4.624640625,-8.97503515625,-5.032234375,-1.50632421875,0.245296875
10.49066015625,1.77857421875,-1.2548203125,-11.27598828125,-5.42432421875,-0.17306640625,-7.37796875,-9.30165234375,-8.20025,-1.3327890625,-4.4683515625,-5.4701640625,2.96993359375,-9.91774609375,-5.2291875,-0.507015625,-4.73684375,-1.40491796875,-8.167296875,3.13067578125,1.9632421875,-3.56598828125,-11.34993359375,-5.88299609375,-1.95296875,-1.614640625,-3.87403515625,-2.686234375,1.84067578125,3.828296875
16.14066015625,5.84257421875,3.2531796875,-6.99498828125,-4.54132421875,5.81293359375,-1.73196875,-2.46465234375,-5.83725,3.4202109375,0.7276484375,0.1328359375,4.78093359375,-5.78774609375,-2.0411875,3.952984375,-1.72884375,0.598082031250001,-5.711296875,5.11767578125,4.0292421875,-2.62398828125,-9.46993359375,-3.35299609375,0.42303125,0.415359375,-0.19003515625,-0.810234375,4.00867578125,5.972296875
16.81166015625,7.78957421875,6.8181796875,-2.61598828125,-2.62332421875,10.28093359375,2.25803125,3.85434765625,-2.63125,6.6852109375,3.1986484375,4.4788359375,5.98493359375,-2.25874609375,-1.1491875,6.473984375,0.40215625,1.72508203125,-4.682296875,5.36767578125,4.7102421875,-1.65898828125,-8.31693359375,-2.48699609375,1.19103125,1.502359375,1.58796484375,0.500765625,4.93167578125,6.547296875
12.34366015625,7.12457421875,8.4971796875,0.61401171875,-0.0483242187500004,12.08793359375,3.74603125,8.09734765625,0.82775,7.7552109375,2.5646484375,6.6818359375,6.19993359375,0.11725390625,-2.4961875,6.842984375,1.47715625,1.95808203125,-4.883296875,4.40567578125,4.6142421875,-0.79698828125,-7.65593359375,-2.85199609375,1.03303125,2.060359375,1.66596484375,1.338765625,4.95567578125,6.032296875
4.23066015625,4.24957421875,8.1171796875,1.72801171875,2.38167578125,11.07393359375,2.83303125,9.54234765625,3.60075,6.6252109375,-0.4683515625,6.6578359375,5.09793359375,1.12125390625,-5.2761875,5.517984375,1.70115625,1.42408203125,-5.789296875,3.02167578125,4.4472421875,-0.28698828125,-7.19593359375,-3.75999609375,0.79603125,2.557359375,0.61296484375,1.765765625,4.51967578125,5.150296875
-5.02533984375,0.26057421875,6.2101796875,0.46801171875,3.87967578125,8.04493359375,0.28503125,8.42234765625,4.85575,3.9442109375,-4.5613515625,4.9688359375,2.60693359375,0.91525390625,-8.3551875,3.299984375,1.44215625,0.362082031250001,-6.839296875,1.83567578125,4.6122421875,-0.36498828125,-6.79693359375,-4.66799609375,0.99603125,3.214359375,-0.98303515625,1.718765625,3.88867578125,4.454296875
-12.71033984375,-3.45142578125,3.7041796875,-2.55698828125,4.13567578125,4.39593359375,-2.93496875,5.70134765625,4.33975,0.8222109375,-8.2893515625,2.4928359375,-0.84006640625,0.0512539062499999,-10.6811875,0.966984375,1.00915625,-0.84391796875,-7.597296875,1.09067578125,5.0462421875,-1.07998828125,-6.48693359375,-5.33199609375,1.60303125,3.895359375,-2.70803515625,1.064765625,3.08467578125,4.095296875
-16.58033984375,-5.64842578125,1.5361796875,-6.10498828125,3.46667578125,1.47293359375,-6.14896875,2.62934765625,2.50575,-1.4667890625,-10.5863515625,0.0378359374999997,-4.23006640625,-0.62874609375,-11.5651875,-0.980015625,0.53315625,-1.65091796875,-7.771296875,0.706675781250001,5.3322421875,-2.24098828125,-6.33993359375,-5.74299609375,2.17003125,4.216359375,-4.31803515625,-0.251234375,1.98567578125,3.869296875
-15.35133984375,-5.59342578125,0.3381796875,-8.81998828125,2.57567578125,0.0459335937500001,-9.21896875,0.27134765625,0.21475,-1.8637890625,-10.9703515625,-1.9191640625,-6.25106640625,-0.26274609375,-10.7761875,-2.404015625,-0.0228437500000003,-1.45391796875,-7.201296875,0.465675781250001,4.9752421875,-3.50098828125,-6.35893359375,-5.98499609375,2.15803125,3.765359375,-5.67003515625,-2.133234375,0.48467578125,3.434296875
-8.95033984375,-3.21842578125,0.3051796875,-9.78498828125,2.13167578125,0.156933593750001,-12.41696875,-0.822652343750001,-1.73925,0.125210937499999,-9.5493515625,-3.2901640625,-5.88806640625,1.68925390625,-8.5021875,-3.452015625,-0.76784375,0.167082031250001,-5.862296875,0.182675781250001,3.6662421875,-4.53498828125,-6.46793359375,-6.13699609375,1.23103125,2.310359375,-6.70103515625,-4.373234375,-1.42632421875,2.539296875
1.52066015625,0.946574218749999,1.2191796875,-8.87498828125,2.42667578125,1.34793359375,-16.04396875,-0.718652343750001,-2.99025,4.2452109375,-6.8553515625,-4.2631640625,-3.00106640625,5.19125390625,-5.2081875,-4.373015625,-1.77284375,3.19208203125,-3.901296875,-0.233324218749999,1.4192421875,-5.20098828125,-6.58493359375,-6.26399609375,-0.60796875,-0.0876406250000006,-7.45203515625,-6.774234375,-3.66232421875,1.138296875
14.07166015625,5.99357421875,2.6011796875,-6.78398828125,3.28667578125,2.99093359375,-20.11996875,0.0433476562499995,-3.69725,9.5582109375,-3.6163515625,-5.1161640625,1.48793359375,9.61325390625,-1.4781875,-5.358015625,-2.99884375,7.06908203125,-1.632296875,-0.793324218749999,-1.4367578125,-5.59498828125,-6.70293359375,-6.43599609375,-3.04796875,-3.079640625,-8.08803515625,-9.235234375,-6.10432421875,-0.621703125
14.07166015625,5.99357421875,2.6011796875,-6.78398828125,3.28667578125,2.99093359375,-20.11996875,0.0433476562499995,-3.69725,9.5582109375,-3.6163515625,-5.1161640625,1.48793359375,9.61325390625,-1.4781875,-5.358015625,-2.99884375,7.06908203125,-1.632296875,-0.793324218749999,-1.4367578125,-5.59498828125,-6.70293359375,-6.43599609375,-3.04796875,-3.079640625,-8.08803515625,-9.235234375,-6.10432421875,-0.621703125
