"Fp1","Fpz","Fp2","F7","F3","Fz","F4","F8","FC5","FC1","FC2","FC6","T7","C3","Cz","C4","T8","CP5","CP1","CP2","CP6","P7","P3","Pz","P4","P8","POz","O1","Oz","O2"
11.5720234375,9.28507421875,19.392953125,0.0891171874999999,1.39023046875,11.7532265625,8.78299609375,11.163890625,7.74982421875,15.30178125,9.59520703125,10.6691015625,7.893875,8.21233203125,12.98258984375,21.06846484375,18.56517578125,4.7096484375,8.07915234375,10.27914453125,16.523578125,11.50562109375,9.31742578125,12.14459765625,12.954390625,11.75951171875,22.7412109375,4.03381640625,35.64863671875,15.49827734375
10.8640234375,14.19007421875,23.285953125,5.5311171875,10.02023046875,13.3542265625,16.29599609375,16.439890625,9.95082421875,16.33978125,12.70120703125,12.2621015625,4.178875,5.41133203125,14.29458984375,25.13146484375,18.49917578125,2.4506484375,7.76415234375,12.34014453125,18.159578125,8.10162109375,8.05142578125,10.50059765625,12.946390625,10.52751171875,20.7642109375,0.79881640625,35.45063671875,16.93727734375
9.5730234375,15.78307421875,24.361953125,7.2911171875,14.27623046875,13.2862265625,19.26899609375,18.966890625,9.57782421875,15.95678125,13.19920703125,12.4601015625,1.679875,2.84133203125,14.21258984375,26.56646484375,18.04017578125,0.7186484375,7.16415234375,12.74214453125,18.394578125,5.88462109375,6.99442578125,9.24959765625,12.541390625,10.09551171875,19.2992109375,-1.44718359375,34.96463671875,17.11127734375
7.5880234375,14.03307421875,22.286953125,5.3531171875,14.06023046875,11.3092265625,17.44699609375,18.407890625,6.71082421875,14.07278125,10.85020703125,11.0271015625,0.269875,0.60433203125,12.63658984375,25.28946484375,17.15417578125,-0.3843515625,6.34015234375,11.40514453125,17.285578125,4.82462109375,6.22842578125,8.35959765625,11.774390625,10.34051171875,18.3952109375,-2.64718359375,34.19063671875,15.99427734375
5.0570234375,9.98807421875,17.625953125,0.8971171875,10.60023046875,7.7812265625,12.00399609375,15.269890625,2.35682421875,11.09778125,6.29520703125,8.1471015625,-0.455125,-1.11166796875,9.94958984375,22.06646484375,15.94217578125,-0.8183515625,5.49715234375,8.80914453125,15.366578125,4.58262109375,5.86842578125,7.76159765625,10.877390625,10.82951171875,18.0392109375,-2.93218359375,33.33263671875,14.06327734375
2.4080234375,5.27607421875,11.678953125,-4.2838828125,5.80023046875,3.6332265625,5.02599609375,10.726890625,-1.99817578125,7.79578125,0.83620703125,4.3941015625,-0.812125,-1.98466796875,6.90258984375,18.13846484375,14.58317578125,-0.5193515625,4.93715234375,5.81614453125,13.373578125,4.80162109375,6.09942578125,7.51359765625,10.207390625,11.02451171875,18.2852109375,-2.41218359375,32.79863671875,12.13227734375
0.271023437500001,1.54407421875,6.140953125,-8.4258828125,1.60923046875,0.1592265625,-1.13600390625,6.272890625,-4.96817578125,5.08678125,-3.92679296875,0.5941015625,-0.876125,-1.63866796875,4.44958984375,14.78046484375,13.24317578125,0.6116484375,4.99115234375,3.43814453125,11.910578125,5.30662109375,7.13442578125,7.85459765625,10.113390625,10.50451171875,19.2722109375,-1.10618359375,33.05063671875,10.99027734375
-0.707976562499999,-0.0159257812499991,2.633953125,-10.3238828125,-0.43276953125,-1.3887734375,-4.51200390625,3.254890625,-5.77917578125,3.81078125,-6.53579296875,-2.3818984375,-0.607125,0.11833203125,3.51358984375,12.94646484375,12.01017578125,2.5796484375,5.91515234375,2.56014453125,11.236578125,6.07062109375,9.06742578125,9.06059765625,10.787390625,9.11651171875,21.0922109375,0.91881640625,34.32463671875,11.01727734375
-0.098976562499999,1.02207421875,2.170953125,-9.6688828125,0.43623046875,-0.272773437500001,-4.07500390625,2.421890625,-4.53517578125,4.48278125,-6.10579296875,-3.8638984375,-0.0951249999999999,3.07933203125,4.70758984375,13.07746484375,10.90217578125,5.1336484375,7.74015234375,3.66414453125,11.238578125,7.04162109375,11.70242578125,11.20759765625,12.159390625,7.04351171875,23.5962109375,3.35881640625,36.40963671875,11.99927734375
2.1120234375,4.24107421875,4.758953125,-7.0648828125,3.97623046875,3.4052265625,-0.06000390625,3.698890625,-2.08717578125,7.09078125,-2.63079296875,-3.5628984375,0.350875,6.59033203125,8.07558984375,15.03646484375,9.95217578125,7.7356484375,10.17515234375,6.66014453125,11.598578125,8.00362109375,14.52242578125,13.99159765625,13.901390625,4.75951171875,26.2902109375,5.62781640625,38.65463671875,13.26727734375
5.4320234375,8.57307421875,9.372953125,-3.6998828125,9.03623046875,8.6802265625,6.14699609375,6.296890625,0.41582421875,11.02278125,2.96720703125,-1.6688984375,0.306875,9.71233203125,12.98058984375,18.19346484375,9.23017578125,9.6926484375,12.62115234375,10.88614453125,11.994578125,8.60662109375,16.82042578125,16.75959765625,15.518390625,2.84451171875,28.4202109375,7.03981640625,40.22863671875,14.04627734375
8.9550234375,12.70607421875,14.350953125,-0.7988828125,14.00023046875,14.0242265625,12.55299609375,9.093890625,2.04482421875,15.19078125,9.08320703125,1.1841015625,-0.544125,11.51333203125,18.20458984375,21.60146484375,8.77117578125,10.4086484375,14.32315234375,15.29514453125,12.224578125,8.51662109375,17.95342578125,18.69559765625,16.499390625,1.76151171875,29.2152109375,7.10481640625,40.46663671875,13.82027734375
11.6540234375,15.51507421875,18.045953125,0.8301171875,17.38123046875,17.8682265625,17.26399609375,11.063890625,2.40082421875,18.31978125,13.92420703125,4.0821015625,-2.233125,11.37533203125,22.28058984375,24.24246484375,8.47017578125,9.6166484375,14.59915234375,18.75914453125,12.208578125,7.61362109375,17.54842578125,19.10759765625,16.464390625,1.69151171875,28.1682109375,5.75681640625,39.12463671875,12.52027734375
12.7850234375,16.37407421875,19.440953125,0.9951171875,18.27923046875,19.1392265625,19.06199609375,11.580890625,1.62582421875,19.33978125,16.07020703125,6.0821015625,-4.474125,9.17933203125,23.94158984375,25.26646484375,8.07017578125,7.4716484375,13.03815234375,20.38914453125,11.911578125,6.08862109375,15.59742578125,17.66959765625,15.277390625,2.50251171875,25.2362109375,3.38481640625,36.44463671875,10.47627734375
12.1980234375,15.28407421875,18.448953125,0.0411171874999998,16.60323046875,17.5902265625,17.71399609375,10.526890625,0.19782421875,17.72678125,14.91620703125,6.4711015625,-6.773125,5.31233203125,22.52858984375,24.19146484375,7.28917578125,4.4606484375,9.62015234375,19.75614453125,11.283578125,4.36162109375,12.39142578125,14.52259765625,13.057390625,3.77951171875,20.8422109375,0.61381640625,32.98063671875,8.19627734375
10.3570234375,12.78507421875,15.778953125,-1.4018828125,13.04223046875,13.7822265625,13.93399609375,8.219890625,-1.36717578125,13.68378125,10.80120703125,4.9411015625,-8.622125,0.48433203125,18.23258984375,21.02246484375,5.98817578125,1.1706484375,4.73515234375,16.97314453125,10.239578125,2.85262109375,8.38142578125,10.19659765625,10.103390625,4.92651171875,15.6972109375,-2.03518359375,29.33363671875,6.09027734375
8.0570234375,9.66807421875,12.445953125,-2.7338828125,8.75723046875,8.8002265625,9.01599609375,5.238890625,-2.75217578125,8.08278125,4.82320703125,1.7091015625,-9.630125,-4.50066796875,12.03958984375,16.28246484375,4.29017578125,-1.9153515625,-0.873847656250001,12.62314453125,8.716578125,1.78462109375,4.07942578125,5.43659765625,6.786390625,5.34251171875,10.5802109375,-4.34818359375,25.94863671875,4.31627734375
5.9960234375,6.61907421875,9.229953125,-3.6538828125,4.87823046875,3.8332265625,4.25799609375,2.197890625,-3.91817578125,2.19178125,-1.58579296875,-2.4698984375,-9.557125,-8.88066796875,5.40958984375,10.89146484375,2.58417578125,-4.4663515625,-6.24284765625,7.58014453125,6.777578125,1.16362109375,0.0504257812499986,1.00959765625,3.479390625,4.66351171875,6.1712109375,-6.34818359375,23.09663671875,2.80727734375
4.4320234375,3.97807421875,6.362953125,-4.2318828125,2.07723046875,-0.2107734375,0.45399609375,-0.439109374999999,-4.97917578125,-2.73821875,-7.17079296875,-6.5098984375,-8.309125,-12.02966796875,-0.23741015625,5.88246484375,1.38417578125,-6.2373515625,-10.37984765625,2.76014453125,4.664578125,0.900621093750001,-3.09457421875,-2.45140234375,0.520390625,2.94851171875,2.9622109375,-8.04918359375,20.96863671875,1.43927734375
3.1000234375,1.73607421875,3.613953125,-4.7388828125,0.448230468749999,-2.9747734375,-2.30300390625,-2.446109375,-6.01517578125,-5.89121875,-11.26479296875,-9.4278984375,-5.990125,-13.54966796875,-3.99741015625,2.01946484375,1.11017578125,-7.0153515625,-12.51384765625,-1.13985546875,2.713578125,0.915621093750001,-4.78757421875,-4.57840234375,-1.837609375,0.65551171875,1.1822109375,-9.28218359375,19.73763671875,0.179277343750001
1.4900234375,-0.27592578125,0.668953125,-5.3708828125,-0.29176953125,-4.6867734375,-4.45800390625,-3.811109375,-6.92017578125,-7.11721875,-13.92979296875,-10.7928984375,-2.925125,-13.35666796875,-5.70841015625,-0.469535156249998,1.93817578125,-6.6603515625,-12.30784765625,-3.78985546875,1.211578125,1.13562109375,-4.70257421875,-5.33240234375,-3.451609375,-1.58948828125,0.759210937499999,-9.75018359375,19.50163671875,-0.882722656249999
-0.694976562499999,-2.16992578125,-2.463046875,-6.0548828125,-0.52176953125,-5.9027734375,-6.59700390625,-4.639109375,-7.39417578125,-6.86721875,-15.72579296875,-10.8278984375,0.413875,-11.67066796875,-5.83041015625,-1.87853515625,3.78217578125,-5.1973515625,-9.95984765625,-5.21185546875,0.295578124999999,1.46162109375,-2.92457421875,-4.96340234375,-4.279609375,-3.25448828125,1.3472109375,-9.25618359375,20.15963671875,-1.63772265625
-3.1849765625,-3.85592578125,-5.293046875,-6.4508828125,-0.51576953125,-7.1007734375,-9.02500390625,-5.020109375,-7.04817578125,-5.88221875,-17.23079296875,-10.1378984375,3.567875,-8.93466796875,-5.08541015625,-2.72753515625,6.36717578125,-2.8893515625,-6.15384765625,-5.62885546875,-0.0344218750000014,1.75362109375,-0.00957421875000097,-3.91940234375,-4.362609375,-4.06648828125,2.4182109375,-7.93418359375,21.32263671875,-2.09772265625
-5.1909765625,-5.03992578125,-7.066046875,-6.1458828125,-0.34376953125,-8.3737734375,-11.52500390625,-4.954109375,-5.61017578125,-4.84621875,-18.62979296875,-9.2948984375,6.153875,-5.75066796875,-4.10441015625,-3.40353515625,9.26717578125,-0.2813515625,-1.91684765625,-5.29785546875,0.142578124999998,1.82862109375,3.11342578125,-2.75240234375,-3.842609375,-4.03748828125,3.3792109375,-6.34418359375,22.34663671875,-2.49572265625
-5.8289765625,-5.36392578125,-7.210046875,-4.9338828125,0.0912304687500001,-9.4207734375,-13.43200390625,-4.370109375,-3.14517578125,-4.17321875,-19.59679296875,-8.5738984375,7.834875,-2.85966796875,-3.23141015625,-3.93753515625,11.92517578125,1.8586484375,1.62915234375,-4.42685546875,0.706578124999998,1.48662109375,5.37942578125,-2.02640234375,-3.007609375,-3.39848828125,3.6982109375,-5.30718359375,22.52663671875,-3.21172265625
-4.6219765625,-4.61792578125,-5.709046875,-2.9938828125,0.895230468749999,-9.7507734375,-13.98300390625,-3.203109375,-0.16017578125,-3.95421875,-19.50679296875,-7.9038984375,8.314875,-1.03166796875,-2.51941015625,-4.02553515625,13.75717578125,2.7616484375,3.56215234375,-3.15685546875,1.530578125,0.569621093750001,5.94042578125,-2.14040234375,-2.229609375,-2.44848828125,3.0802109375,-5.50518359375,21.45063671875,-4.50072265625
-1.7699765625,-2.89592578125,-3.148046875,-0.8478828125,2.00123046875,-8.9507734375,-12.72300390625,-1.469109375,2.51382421875,-4.02121875,-17.83679296875,-6.9978984375,7.469875,-0.83566796875,-1.85241015625,-3.26753515625,14.35017578125,1.9856484375,3.46515234375,-1.59785546875,2.499578125,-0.920378906249999,4.52042578125,-3.15440234375,-1.793609375,-1.42148828125,1.6462109375,-7.01918359375,19.32763671875,-6.18472265625
1.9040234375,-0.592925781249999,-0.423046875000001,0.8871171875,3.13023046875,-6.9097734375,-9.74700390625,0.720890625000001,4.01182421875,-4.09621875,-14.52879296875,-5.5948984375,5.488875,-2.44366796875,-1.13141015625,-1.47653515625,13.65017578125,-0.3613515625,1.55115234375,0.0861445312499995,3.492578125,-2.75937890625,1.54242578125,-4.74640234375,-1.762609375,-0.43948828125,-0.0607890625000014,-9.16718359375,17.03363671875,-7.56672265625
5.2850234375,1.71407421875,1.656953125,1.7721171875,3.93623046875,-3.9467734375,-5.67700390625,3.148890625,3.73182421875,-3.99321875,-10.18279296875,-3.7198984375,2.870875,-5.59666796875,-0.426410156250001,1.05946484375,11.96717578125,-3.7003515625,-1.46384765625,1.57914453125,4.309578125,-4.62037890625,-2.10357421875,-6.42840234375,-2.010609375,0.39351171875,-1.3377890625,-10.83518359375,15.72163671875,-7.76972265625
7.4280234375,3.43107421875,2.654953125,1.6641171875,4.15923046875,-0.7607734375,-1.46400390625,5.468890625,1.50682421875,-3.76721875,-5.91479296875,-1.7818984375,0.233875,-9.72166796875,-0.0124101562500005,3.55846484375,9.81117578125,-7.2873515625,-4.69184765625,2.39714453125,4.637578125,-6.26837890625,-5.50757421875,-7.86340234375,-2.383609375,0.89651171875,-1.7317890625,-11.13018359375,16.15763671875,-6.30972265625
7.9660234375,4.12407421875,2.594953125,0.6741171875,3.70523046875,1.8402265625,1.91999609375,7.239890625,-2.32517578125,-3.67921875,-2.91779296875,-0.3828984375,-1.943125,-14.04066796875,-0.21141015625,5.05346484375,7.66717578125,-10.4993515625,-7.37784765625,2.06614453125,4.168578125,-7.69337890625,-8.11457421875,-9.02140234375,-2.818609375,0.83851171875,-1.2987890625,-9.92718359375,18.24263671875,-3.50472265625
7.2530234375,3.70507421875,1.873953125,-0.9178828125,2.68323046875,3.3022265625,3.82599609375,8.054890625,-6.93517578125,-3.97521875,-1.92279296875,0.0371015624999999,-3.468125,-17.65166796875,-1.11641015625,4.90546484375,5.84717578125,-12.9203515625,-9.03284765625,0.43714453125,2.845578125,-9.02637890625,-9.78557421875,-10.06340234375,-3.305609375,0.0975117187499999,-0.529789062500001,-7.90818359375,21.02163671875,-0.399722656249999
6.1270234375,2.50407421875,1.049953125,-2.7378828125,1.42723046875,3.5412265625,4.14999609375,7.724890625,-11.16517578125,-4.64221875,-2.86179296875,-0.5298984375,-4.430125,-19.65766796875,-2.39741015625,3.22246484375,4.46217578125,-14.2673515625,-9.39784765625,-2.07385546875,1.033578125,-10.33537890625,-10.58157421875,-11.07140234375,-3.770609375,-1.19648828125,-0.000789062500000881,-6.10318359375,23.22263671875,1.76727734375
5.4450234375,1.15307421875,0.584953124999998,-4.4138828125,0.395230468749999,2.8722265625,3.28699609375,6.375890625,-13.87017578125,-5.33721875,-4.92979296875,-1.6788984375,-5.045125,-19.38066796875,-3.36241015625,0.875464843750002,3.49117578125,-14.2903515625,-8.38284765625,-4.55585546875,-0.541421875000001,-11.43937890625,-10.51357421875,-11.84940234375,-4.009609375,-2.65648828125,0.028210937499999,-5.22918359375,23.95863671875,2.25427734375
5.6880234375,0.29907421875,0.694953125,-5.6768828125,-0.0777695312500004,1.7742265625,1.83999609375,4.420890625,-14.31317578125,-5.55921875,-7.00579296875,-2.8468984375,-5.439125,-16.60666796875,-3.28841015625,-0.929535156249999,2.91017578125,-12.7723515625,-6.07084765625,-5.97585546875,-1.090421875,-11.86937890625,-9.43957421875,-11.95240234375,-3.730609375,-3.75348828125,-0.205789062500001,-5.26018359375,23.20663671875,1.23827734375
6.8280234375,0.329074218750001,1.347953125,-6.4138828125,0.00823046874999989,0.6372265625,0.31399609375,2.416890625,-12.43717578125,-4.94421875,-8.17579296875,-3.6328984375,-5.543125,-11.74866796875,-1.82741015625,-1.27953515625,2.74517578125,-9.6743515625,-2.79084765625,-5.67985546875,-0.147421875000003,-11.06937890625,-7.20057421875,-10.94240234375,-2.702609375,-4.00448828125,-0.128789062500001,-5.51418359375,21.75163671875,-0.28572265625
8.4240234375,1.23407421875,2.366953125,-6.6428828125,0.33723046875,-0.3687734375,-1.01500390625,0.875890625000001,-8.88717578125,-3.52921875,-8.12379296875,-3.9958984375,-5.188125,-5.84966796875,0.747589843749999,-0.0365351562499985,3.00417578125,-5.3453515625,0.848152343749999,-3.73585546875,2.140578125,-8.76037890625,-3.89957421875,-8.72240234375,-0.951609375,-3.19248828125,0.753210937499999,-5.18318359375,20.65763671875,-1.08372265625
9.8380234375,2.63307421875,3.502953125,-6.4708828125,0.48923046875,-1.2807734375,-2.06600390625,0.112890625000001,-4.80717578125,-1.79721875,-7.18979296875,-4.2348984375,-4.346125,-0.36166796875,3.61958984375,2.08046484375,3.53217578125,-0.6353515625,4.02215234375,-0.936855468750001,4.981578125,-5.24937890625,-0.0965742187500016,-5.73140234375,1.126390625,-1.54848828125,2.4692109375,-3.92518359375,20.61763671875,-0.402722656249999
10.4860234375,3.94307421875,4.475953125,-6.0578828125,0.17223046875,-2.2067734375,-2.83700390625,0.186890625000001,-1.46417578125,-0.455218749999999,-6.08279296875,-4.7428984375,-3.276125,3.29233203125,5.80158984375,3.85946484375,3.99317578125,3.2556484375,5.92115234375,1.56214453125,7.225578125,-1.44237890625,3.25342578125,-2.83240234375,2.862390625,0.25051171875,4.5002109375,-2.09518359375,21.62263671875,1.64127734375
10.0740234375,4.64507421875,5.036953125,-5.5608828125,-0.62376953125,-3.1177734375,-3.29600390625,0.968890625000001,0.18482421875,-0.05021875,-5.41279296875,-5.6778984375,-2.441125,4.21233203125,6.61858984375,4.21946484375,4.01917578125,5.1826484375,6.02615234375,2.76414453125,7.882578125,1.51062109375,5.14542578125,-0.945402343750001,3.589390625,1.34951171875,6.0552109375,-0.50318359375,23.09763671875,4.21727734375
8.7190234375,4.52807421875,5.050953125,-5.0608828125,-1.58976953125,-3.7887734375,-3.32300390625,2.245890625,-0.18217578125,-0.68021875,-5.35179296875,-6.8088984375,-2.269125,2.29133203125,5.99158984375,2.75746484375,3.45117578125,4.4876484375,4.29115234375,2.24814453125,6.580578125,2.69662109375,4.92242578125,-0.680402343750001,2.936390625,1.13951171875,6.4642109375,0.0608164062500001,24.29963671875,6.28127734375
6.8650234375,3.73107421875,4.532953125,-4.5358828125,-2.22876953125,-3.9557734375,-2.80000390625,3.732890625,-2.22317578125,-2.01621875,-5.66179296875,-7.6558984375,-2.938125,-1.86866796875,4.37058984375,-0.0925351562499976,2.44217578125,1.2196484375,1.10015234375,0.239144531249999,3.694578125,1.78562109375,2.49442578125,-2.17740234375,0.940390625000001,-0.43148828125,5.4342109375,-0.80218359375,24.66563671875,7.06727734375
5.0430234375,2.56307421875,3.592953125,-3.9448828125,-2.17876953125,-3.5897734375,-1.83000390625,5.024890625,-5.17517578125,-3.58421875,-6.01379296875,-7.8148984375,-4.292125,-7.26866796875,2.38758984375,-3.32253515625,1.38517578125,-3.8993515625,-2.91284765625,-2.63885546875,0.0965781249999988,-0.890378906249999,-1.66857421875,-5.14840234375,-2.043609375,-2.83448828125,3.0992109375,-2.99118359375,23.95563671875,6.32327734375
3.6340234375,1.25707421875,2.376953125,-3.2978828125,-1.50676953125,-3.0197734375,-0.83800390625,5.643890625,-8.19617578125,-5.05521875,-6.28179296875,-7.1798984375,-5.886125,-12.81566796875,0.52058984375,-5.84353515625,0.718175781250002,-9.6763515625,-7.05384765625,-5.68585546875,-3.240421875,-4.48537890625,-6.68957421875,-8.99940234375,-5.470609375,-5.19148828125,-0.0607890625000014,-5.97918359375,22.27563671875,4.30027734375
2.7340234375,-0.109925781249999,1.050953125,-2.6378828125,-0.68576953125,-2.7687734375,-0.38300390625,5.260890625,-10.59717578125,-6.34221875,-6.58679296875,-5.9428984375,-7.131125,-17.52366796875,-1.01441015625,-6.88153515625,0.738175781250002,-14.7573515625,-10.65384765625,-8.33085546875,-5.575421875,-7.94537890625,-11.48557421875,-12.92840234375,-8.716609375,-6.63448828125,-3.3497890625,-9.00718359375,20.02663671875,1.60427734375
2.1500234375,-1.53992578125,-0.232046875000002,-1.9648828125,-0.269769531250001,-3.2737734375,-0.809003906250001,3.926890625,-11.96417578125,-7.52521875,-7.13079296875,-4.4298984375,-7.536125,-20.65866796875,-2.17341015625,-6.16853515625,1.48817578125,-18.0233515625,-13.13284765625,-10.19485546875,-6.536421875,-10.39837890625,-15.03857421875,-16.08240234375,-11.154609375,-6.63348828125,-6.0487890625,-11.33318359375,17.78763671875,-1.03372265625
1.5190234375,-3.01392578125,-1.378046875,-1.2678828125,-0.59276953125,-4.6517734375,-2.04000390625,2.101890625,-12.22817578125,-8.69921875,-7.99379296875,-2.9438984375,-6.969125,-21.85066796875,-2.95441015625,-3.94553515625,2.78617578125,-18.9563515625,-14.10084765625,-11.08185546875,-6.118421875,-11.47037890625,-16.68557421875,-17.75940234375,-12.282609375,-5.17848828125,-7.6237890625,-12.49518359375,16.12063671875,-3.00272265625
0.5400234375,-4.44992578125,-2.370046875,-0.6338828125,-1.67476953125,-6.6327734375,-3.65300390625,0.451890625000001,-11.65417578125,-9.86621875,-9.04879296875,-1.6918984375,-5.749125,-21.12366796875,-3.31441015625,-0.844535156249998,4.38317578125,-17.7693515625,-13.47284765625,-10.96985546875,-4.598421875,-11.33537890625,-16.31657421875,-17.61040234375,-11.859609375,-2.75748828125,-7.8677890625,-12.43018359375,15.40363671875,-3.98172265625
-0.798976562499999,-5.67592578125,-3.173046875,-0.2738828125,-3.27076953125,-8.6447734375,-5.10000390625,-0.389109374999999,-10.68117578125,-10.85621875,-10.00679296875,-0.7728984375,-4.486125,-18.82366796875,-3.15741015625,2.31346484375,6.11417578125,-15.2183515625,-11.49384765625,-10.01085546875,-2.431421875,-10.49037890625,-14.34757421875,-15.73540234375,-10.012609375,-0.16148828125,-6.9057890625,-11.39118359375,15.77563671875,-3.94872265625
-2.1389765625,-6.42092578125,-3.611046875,-0.3638828125,-4.88576953125,-10.0107734375,-5.87700390625,0.0188906250000009,-9.68217578125,-11.33821875,-10.53279296875,-0.1968984375,-3.786125,-15.48266796875,-2.38441015625,4.77346484375,7.94317578125,-12.2013515625,-8.63984765625,-8.49985546875,-0.150421875000001,-9.41137890625,-11.49257421875,-12.63740234375,-7.238609375,1.79651171875,-5.0937890625,-9.74518359375,17.16163671875,-3.07772265625
-2.9159765625,-6.38892578125,-3.399046875,-0.8448828125,-5.83276953125,-10.2097734375,-5.66400390625,1.829890625,-8.77917578125,-10.92621875,-10.38379296875,0.1221015625,-3.988125,-11.68066796875,-0.96041015625,6.10446484375,9.87217578125,-9.4033515625,-5.45684765625,-6.81285546875,1.745578125,-8.32337890625,-8.47757421875,-9.05740234375,-4.274609375,2.56651171875,-2.9017890625,-7.81718359375,19.29163671875,-1.64572265625
-2.6509765625,-5.40792578125,-2.324046875,-1.3678828125,-5.44676953125,-9.0587734375,-4.41500390625,4.860890625,-7.81817578125,-9.35221875,-9.49779296875,0.3991015625,-5.073125,-7.92966796875,1.01658984375,6.33746484375,11.83117578125,-7.1403515625,-2.41784765625,-5.29185546875,2.948578125,-7.20337890625,-5.82957421875,-5.73840234375,-1.840609375,2.08751171875,-0.827789062500003,-5.89318359375,21.66963671875,-0.00672265624999913
-1.1699765625,-3.52492578125,-0.425046875000001,-1.4148828125,-3.36376953125,-6.7487734375,-2.39000390625,8.598890625,-6.49217578125,-6.61821875,-7.99179296875,0.9361015625,-6.730125,-4.60066796875,3.31158984375,5.92646484375,13.63517578125,-5.4113515625,0.171152343749999,-4.12285546875,3.469578125,-5.93237890625,-3.80357421875,-3.20040234375,-0.364609375,0.81951171875,0.683210937499998,-4.29318359375,23.57463671875,1.40327734375
1.3480234375,-0.98092578125,1.998953125,-0.5378828125,0.32523046875,-3.7417734375,-0.0180039062500001,12.313890625,-4.54517578125,-3.03721875,-6.09179296875,1.9751015625,-8.516125,-1.91266796875,5.63858984375,5.52346484375,15.02417578125,-4.0553515625,2.20115234375,-3.27285546875,3.626578125,-4.44937890625,-2.40057421875,-1.60540234375,0.162390625,-0.49748828125,1.3342109375,-3.36018359375,24.21763671875,2.12527734375
4.4910234375,1.87807421875,4.534953125,1.4161171875,5.07623046875,-0.5967734375,2.29799609375,15.243890625,-1.99317578125,0.84478125,-4.03879296875,3.5071015625,-9.984125,0.02033203125,7.77358984375,5.68746484375,15.73717578125,-2.8993515625,3.75715234375,-2.52385546875,3.875578125,-2.79037890625,-1.43857421875,-0.75340234375,0.147390625000001,-1.24948828125,1.0932109375,-3.29418359375,23.03063671875,1.83627734375
7.7770234375,4.69407421875,6.831953125,4.1761171875,9.99423046875,2.2142265625,4.30199609375,16.793890625,0.79282421875,4.42278125,-1.99479296875,5.2421015625,-10.733125,1.19333203125,9.64858984375,6.67646484375,15.59717578125,-1.7873515625,5.05615234375,-1.58285546875,4.581578125,-0.993378906249999,-0.604574218750002,-0.19240234375,0.199390625,-1.25248828125,0.276210937499998,-3.92318359375,19.97163671875,0.549277343750001
10.7880234375,7.16507421875,8.699953125,7.1531171875,14.03323046875,4.4582265625,5.90699609375,16.696890625,3.23982421875,7.23578125,0.00820703125000011,6.7711015625,-10.382125,1.76033203125,11.33758984375,8.41646484375,14.58217578125,-0.5433515625,6.38415234375,-0.198855468750001,5.872578125,0.996621093750001,0.480425781249998,0.614597656249999,0.893390625,-0.74148828125,-0.5087890625,-4.64418359375,15.63563671875,-1.28172265625
13.2280234375,9.10407421875,10.092953125,9.7271171875,16.34123046875,6.1632265625,7.13699609375,15.113890625,4.87682421875,9.08378125,2.01120703125,7.7831015625,-8.640125,2.05133203125,12.94358984375,10.60746484375,12.81617578125,1.0546484375,7.98115234375,1.72814453125,7.622578125,3.31062109375,2.14842578125,2.07659765625,2.551390625,-0.13048828125,-0.6107890625,-4.65918359375,11.03563671875,-2.89172265625
14.9330234375,10.45507421875,11.008953125,11.5381171875,16.60523046875,7.4762265625,8.03599609375,12.570890625,5.56682421875,9.98478125,3.98120703125,8.1571015625,-5.539125,2.44733203125,14.43358984375,12.83246484375,10.51617578125,3.1746484375,9.92015234375,4.06214453125,9.503578125,5.97162109375,4.51542578125,4.26759765625,5.072390625,0.24451171875,0.292210937499998,-3.42218359375,7.14563671875,-3.54172265625
15.8880234375,11.21407421875,11.396953125,12.5731171875,15.12923046875,8.4532265625,8.53199609375,9.735890625,5.50382421875,10.01878125,5.64020703125,7.8911015625,-1.623125,3.17633203125,15.51558984375,14.60746484375,7.93517578125,5.7556484375,11.97215234375,6.37514453125,11.047578125,8.72462109375,7.32242578125,6.79759765625,7.891390625,0.23351171875,1.9342109375,-1.02018359375,4.45763671875,-2.91372265625
16.2730234375,11.36207421875,11.174953125,13.0641171875,12.63423046875,8.9642265625,8.40699609375,7.170890625,5.04082421875,9.20978125,6.48020703125,6.9861015625,2.151875,4.14933203125,15.68258984375,15.39346484375,5.34617578125,8.3956484375,13.57115234375,8.00414453125,11.739578125,11.02562109375,9.91042578125,8.86359765625,10.103390625,-0.16248828125,3.4802109375,1.78681640625,2.81463671875,-1.30172265625
16.4400234375,10.91907421875,10.375953125,13.3621171875,9.99423046875,8.8182265625,7.46999609375,5.237890625,4.53782421875,7.58778125,6.00320703125,5.4171015625,4.862875,4.96933203125,14.46058984375,14.68946484375,3.03317578125,10.4186484375,13.97315234375,8.24214453125,11.134578125,12.23662109375,11.40142578125,9.50459765625,10.759390625,-0.87348828125,3.8772109375,3.91081640625,1.61663671875,0.508277343750001
16.7930234375,10.08607421875,9.275953125,13.8611171875,8.07023046875,7.9972265625,5.83499609375,4.142890625,4.29882421875,5.35878125,4.07920703125,3.2031015625,6.112875,5.11233203125,11.73058984375,12.23146484375,1.26217578125,11.1116484375,12.55715234375,6.64014453125,9.013578125,11.90962109375,11.02642578125,7.99659765625,9.223390625,-1.82048828125,2.3552109375,4.48181640625,0.24063671875,1.61027734375
17.5570234375,9.26207421875,8.328953125,14.8981171875,7.54123046875,6.7932265625,4.03899609375,4.008890625,4.55282421875,3.00378125,1.14520703125,0.5561015625,6.233875,4.20633203125,7.89558984375,8.20246484375,0.216175781250001,10.0386484375,9.15115234375,3.24414453125,5.523578125,9.99862109375,8.46142578125,4.20259765625,5.439390625,-2.93148828125,-1.1687890625,3.27781640625,-1.58236328125,1.39627734375
18.5930234375,8.86307421875,7.904953125,16.5971171875,8.64423046875,5.7382265625,2.82599609375,4.835890625,5.40182421875,1.15278125,-1.91679296875,-2.0298984375,6.062875,2.24333203125,3.77458984375,3.28846484375,-0.0578242187499995,7.2616484375,4.17515234375,-1.36185546875,1.214578125,6.89362109375,3.99642578125,-1.26340234375,0.0113906250000007,-4.13648828125,-6.0007890625,0.79781640625,-3.63736328125,-0.195722656249998
19.3950234375,9.04407421875,8.032953125,18.7341171875,11.01123046875,5.3512265625,2.75299609375,6.414890625,6.76182421875,0.27978125,-4.16779296875,-3.8628984375,6.427875,-0.39166796875,0.26758984375,-1.50653515625,0.303175781250001,3.3646484375,-1.47284765625,-6.25285546875,-3.080421875,3.26262109375,-1.52357421875,-7.21240234375,-5.978609375,-5.37948828125,-10.9507890625,-2.03118359375,-5.37936328125,-2.67972265625
19.3100234375,9.58807421875,8.384953125,20.7591171875,13.79723046875,5.8492265625,3.90599609375,8.314890625,8.32882421875,0.42878125,-5.05079296875,-4.3548984375,7.618875,-3.10566796875,-2.00141015625,-5.20053515625,0.977175781250001,-0.7673515625,-6.71784765625,-10.49785546875,-6.543421875,-0.222378906249999,-6.98857421875,-12.31240234375,-11.331609375,-6.64048828125,-14.8357890625,-4.31218359375,-6.23536328125,-5.24572265625
17.8940234375,10.01007421875,8.497953125,22.0021171875,16.05323046875,7.0102265625,5.85899609375,9.995890625,9.61682421875,1.18678125,-4.61279296875,-3.3378984375,9.163875,-5.34766796875,-2.87541015625,-7.16953515625,1.58117578125,-4.2623515625,-10.64484765625,-13.45985546875,-8.670421875,-3.10937890625,-11.36957421875,-15.57940234375,-15.121609375,-7.92348828125,-16.9237890625,-5.50718359375,-5.88136328125,-7.07372265625
15.1820234375,9.82107421875,8.071953125,21.9331171875,17.09123046875,8.2872265625,7.87299609375,10.991890625,10.11382421875,1.93078125,-3.39379296875,-1.1538984375,10.085875,-6.74166796875,-2.61041015625,-7.29553515625,1.88417578125,-6.5063515625,-12.71584765625,-14.90885546875,-9.384421875,-5.22937890625,-13.98457421875,-16.66140234375,-16.921609375,-9.17448828125,-17.0937890625,-5.50318359375,-4.35936328125,-7.59672265625
11.7500234375,8.80107421875,7.155953125,20.3961171875,16.70023046875,9.1282265625,9.23599609375,11.105890625,9.50082421875,2.21178125,-2.08979296875,1.5361015625,9.475875,-7.09266796875,-1.65041015625,-5.90453515625,1.97317578125,-7.2483515625,-12.81984765625,-14.96085546875,-8.926421875,-6.61637890625,-14.60657421875,-15.81440234375,-16.812609375,-10.18848828125,-15.7017890625,-4.48218359375,-2.02536328125,-6.68372265625
8.5360234375,7.16707421875,6.123953125,17.7211171875,15.22423046875,9.2832265625,9.60799609375,10.509890625,7.86182421875,2.02578125,-1.20279296875,4.0391015625,7.012875,-6.34866796875,-0.38041015625,-3.59453515625,2.19017578125,-6.5983515625,-11.19584765625,-13.92285546875,-7.663421875,-7.40837890625,-13.42957421875,-13.67040234375,-15.259609375,-10.65148828125,-13.3327890625,-2.77618359375,0.584636718750001,-4.68872265625
6.5330234375,5.52507421875,5.466953125,14.6461171875,13.47723046875,8.9412265625,9.16999609375,9.670890625,5.71882421875,1.80778125,-0.86879296875,5.8611015625,3.144875,-4.59566796875,1.01258984375,-1.03353515625,2.86717578125,-4.9503515625,-8.30084765625,-12.16485546875,-5.944421875,-7.76237890625,-10.98057421875,-10.95940234375,-12.926609375,-10.30848828125,-10.5917890625,-0.77918359375,2.91663671875,-2.34372265625
6.4650234375,4.62807421875,5.518953125,12.0731171875,12.46223046875,8.6432265625,8.49799609375,9.149890625,3.87482421875,2.19278125,-0.87179296875,6.8401015625,-1.071125,-2.04066796875,2.55158984375,1.21946484375,4.09717578125,-2.8253515625,-4.67884765625,-10.03685546875,-4.045421875,-7.77637890625,-7.93457421875,-8.28440234375,-10.458609375,-9.13648828125,-7.9677890625,1.13181640625,4.57463671875,-0.448722656249998
8.5370234375,5.04307421875,6.297953125,10.7611171875,12.96123046875,9.0422265625,8.24399609375,9.368890625,3.13882421875,3.67078125,-0.78779296875,7.1931015625,-4.337125,1.02033203125,4.35258984375,2.82746484375,5.67817578125,-0.6633515625,-0.86484765625,-7.83085546875,-2.152421875,-7.42037890625,-4.92157421875,-6.00740234375,-8.305609375,-7.36948828125,-5.7507890625,2.67981640625,5.45763671875,0.482277343750001
12.2870234375,6.90607421875,7.553953125,11.0861171875,15.21223046875,10.5642265625,8.82699609375,10.459890625,4.01982421875,6.28378125,-0.21279296875,7.3791015625,-5.594125,4.19633203125,6.44258984375,3.69946484375,7.20817578125,1.2846484375,2.65715234375,-5.78685546875,-0.393421875000001,-6.57437890625,-2.38257421875,-4.28240234375,-6.666609375,-5.41748828125,-4.0407890625,3.72481640625,5.75563671875,0.42027734375
16.6330234375,9.83207421875,8.954953125,12.9141171875,18.79723046875,13.1072265625,10.26899609375,12.220890625,6.49182421875,9.49678125,0.99520703125,7.8211015625,-4.482125,6.97533203125,8.60758984375,3.91146484375,8.22317578125,2.9196484375,5.46715234375,-4.13185546875,1.093578125,-5.19537890625,-0.567574218750002,-3.17440234375,-5.578609375,-3.74648828125,-2.8187890625,4.22681640625,5.78663671875,-0.286722656249999
20.1630234375,13.00707421875,10.273953125,15.5901171875,22.72323046875,15.9782265625,12.17399609375,14.157890625,9.91582421875,12.32678125,2.60020703125,8.6511015625,-1.551125,8.77733203125,10.40858984375,3.62046484375,8.33717578125,4.1836484375,7.25415234375,-3.05285546875,2.124578125,-3.45737890625,0.420425781249999,-2.72440234375,-5.010609375,-2.75048828125,-2.0127890625,4.22181640625,5.83563671875,-1.16072265625
21.6430234375,15.46507421875,11.455953125,18.1071171875,25.71223046875,18.1832265625,13.88499609375,15.654890625,13.22982421875,13.77778125,4.10920703125,9.6831015625,1.994875,9.19333203125,11.39258984375,3.05946484375,7.42717578125,5.0536484375,7.96115234375,-2.55485546875,2.567578125,-1.68337890625,0.655425781249999,-2.84940234375,-4.836609375,-2.60848828125,-1.4607890625,3.89681640625,6.12463671875,-1.77272265625
20.5280234375,16.48407421875,12.567953125,19.4731171875,26.69823046875,18.9432265625,14.81499609375,16.213890625,15.38382421875,13.35578125,5.06320703125,10.6221015625,4.919875,8.26533203125,11.41358984375,2.57846484375,5.76017578125,5.6156484375,7.91315234375,-2.31585546875,2.515578125,-0.124378906249999,0.453425781249998,-3.20040234375,-4.736609375,-3.17148828125,-0.8457890625,3.67881640625,6.88663671875,-1.79072265625
17.2330234375,15.91907421875,13.670953125,19.1381171875,25.38023046875,18.1142265625,14.76299609375,15.669890625,15.79182421875,11.39978125,5.32320703125,11.2991015625,6.540875,6.57733203125,10.81058984375,2.63346484375,3.95417578125,6.1046484375,7.79115234375,-1.71185546875,2.353578125,1.20862109375,0.352425781249998,-3.17140234375,-4.219609375,-3.95848828125,0.260210937499998,4.14781640625,8.35963671875,-1.00272265625
13.0360234375,14.26707421875,14.714953125,17.2481171875,22.45723046875,16.2582265625,14.01599609375,14.250890625,14.55782421875,8.97478125,5.13220703125,11.7551015625,6.921875,5.06833203125,10.30158984375,3.62246484375,2.73717578125,6.8056484375,8.38015234375,-0.0908554687500009,2.621578125,2.50162109375,0.932425781249998,-2.13540234375,-2.815609375,-4.30748828125,2.2102109375,5.74181640625,10.63863671875,0.601277343750001
9.6400234375,12.41807421875,15.549953125,14.5671171875,19.31623046875,14.3742265625,13.15799609375,12.468890625,12.38482421875,7.41478125,4.98720703125,12.1791015625,6.651875,4.66333203125,10.65658984375,5.64846484375,2.66217578125,7.9166484375,10.21415234375,2.85514453125,3.743578125,3.96462109375,2.55542578125,0.249597656249999,-0.337609375,-3.63748828125,5.0732109375,8.47081640625,13.52363671875,2.76727734375
8.5360234375,11.28707421875,16.070953125,12.1661171875,17.39123046875,13.4812265625,12.78699609375,10.942890625,10.26782421875,7.76678125,5.42520703125,12.7981015625,6.407875,5.93433203125,12.37958984375,8.40346484375,3.92917578125,9.4656484375,13.34515234375,6.88014453125,5.798578125,5.67362109375,5.20442578125,3.87359765625,2.996390625,-1.71848828125,8.5532109375,11.86481640625,16.52563671875,5.05427734375
10.4060234375,11.49907421875,16.405953125,11.0391171875,17.58923046875,14.2372265625,13.32499609375,10.215890625,9.11082421875,10.39778125,6.82920703125,13.7771015625,6.555875,8.87033203125,15.52258984375,11.27946484375,6.34217578125,11.3266484375,17.33915234375,11.29014453125,8.479578125,7.52262109375,8.49642578125,8.22459765625,6.641390625,1.16751171875,12.0992109375,15.19081640625,19.06663671875,7.01127734375
14.8160234375,13.20007421875,16.938953125,11.7331171875,19.97623046875,16.7002265625,14.92299609375,10.595890625,9.37682421875,14.86378125,9.29720703125,15.1481015625,6.999875,12.85633203125,19.66458984375,13.63546484375,9.37017578125,13.2606484375,21.44815234375,15.27214453125,11.223578125,9.26662109375,11.83642578125,12.59959765625,9.945390625,4.31151171875,15.1422109375,17.78681640625,20.72863671875,8.34327734375
20.3430234375,15.95607421875,18.060953125,14.0701171875,23.70423046875,20.2852265625,17.35399609375,11.991890625,10.88082421875,20.03178125,12.53620703125,16.7411015625,7.313875,16.84033203125,23.98358984375,15.04646484375,12.27917578125,14.9716484375,24.83815234375,18.22514453125,13.421578125,10.60962109375,14.61242578125,16.33859765625,12.367390625,6.89751171875,17.3132109375,19.29381640625,21.39663671875,8.94327734375
25.0620234375,18.80307421875,19.747953125,17.0791171875,27.22123046875,23.8822265625,19.94199609375,13.845890625,12.82482421875,24.38278125,15.82720703125,18.1561015625,7.045875,19.66233203125,27.40458984375,15.36846484375,14.32117578125,16.1376484375,26.80315234375,19.91514453125,14.585578125,11.30462109375,16.36442578125,18.97559765625,13.610390625,8.34051171875,18.5262109375,19.68681640625,21.20663671875,8.83427734375
27.2030234375,20.52707421875,21.316953125,19.2921171875,28.80623046875,26.1652265625,21.69599609375,15.258890625,14.12582421875,26.46978125,18.15120703125,18.8251015625,5.995875,20.44833203125,28.88858984375,14.69046484375,14.96417578125,16.4916484375,26.96015234375,20.45914453125,14.470578125,11.22862109375,16.89442578125,20.30559765625,13.649390625,8.48851171875,18.9152109375,19.17781640625,20.40963671875,8.13027734375
25.7740234375,20.14907421875,21.632953125,19.3671171875,27.31723046875,26.0482265625,21.69699609375,15.343890625,13.92482421875,25.45178125,18.54520703125,18.2471015625,4.297875,18.95933203125,27.84458984375,13.29246484375,14.08117578125,15.9416484375,25.41715234375,20.22414453125,13.163578125,10.48062109375,16.34942578125,20.43359765625,12.766390625,7.60951171875,18.7422109375,18.12881640625,19.28463671875,7.09827734375
20.9900234375,17.40907421875,19.772953125,16.7481171875,22.76923046875,23.1982265625,19.56099609375,13.674890625,12.02682421875,21.50878125,16.59520703125,16.3371015625,2.334875,15.78833203125,24.50458984375,11.65846484375,12.05217578125,14.7156484375,22.84915234375,19.75414453125,11.147578125,9.44262109375,15.23342578125,19.80659765625,11.566390625,6.28351171875,18.3642109375,17.02881640625,18.17463671875,6.24527734375
14.2860234375,12.97807421875,15.726953125,12.0051171875,16.39923046875,18.3182265625,15.71099609375,10.575890625,9.05082421875,15.90178125,12.77320703125,13.6411015625,0.569875,12.22733203125,19.99258984375,10.43646484375,9.67317578125,13.3776484375,20.33415234375,19.65614453125,9.235578125,8.72062109375,14.28542578125,19.13959765625,10.888390625,5.24251171875,18.2152109375,16.43881640625,17.51563671875,6.24527734375
7.8170234375,8.26707421875,10.599953125,6.6501171875,10.18723046875,12.9542265625,11.28799609375,7.051890625,6.16182421875,10.52878125,8.32820703125,11.1451015625,-0.610125,9.75233203125,15.91458984375,10.22746484375,7.85117578125,12.6056484375,18.92815234375,20.39314453125,8.269578125,8.88162109375,14.17342578125,19.13359765625,11.485390625,5.14551171875,18.6592109375,16.77881640625,17.71663671875,7.62527734375
3.6070234375,4.84107421875,6.134953125,2.4921171875,6.06523046875,8.8092265625,7.68499609375,4.339890625,4.48782421875,7.12878125,4.70220703125,9.7181015625,-1.023125,9.30933203125,13.62658984375,11.21946484375,7.20317578125,12.7946484375,19.15415234375,22.02514453125,8.664578125,10.08962109375,15.11742578125,20.05959765625,13.569390625,6.28251171875,19.7422109375,18.03681640625,18.86863671875,10.35027734375
2.7390234375,3.71507421875,3.820953125,0.8211171875,5.10123046875,6.9412265625,5.89899609375,3.301890625,4.52282421875,6.51878125,2.80620703125,9.5691015625,-0.759125,10.83033203125,13.58158984375,12.92846484375,7.80517578125,13.7696484375,20.69315234375,24.03414453125,10.089578125,11.90762109375,16.70442578125,21.50959765625,16.525390625,8.37351171875,21.0302109375,19.63781640625,20.53463671875,13.63427734375
4.9730234375,4.88707421875,4.193953125,1.8401171875,7.03423046875,7.3152265625,6.06599609375,4.004890625,5.87882421875,8.27978125,2.60620703125,10.1231015625,-0.139125,13.28433203125,15.12758984375,14.28146484375,9.21717578125,14.8356484375,22.49515234375,25.45114453125,11.538578125,13.44362109375,18.02542578125,22.51259765625,19.064390625,10.65151171875,21.7172109375,20.63781640625,21.82863671875,16.18627734375
8.9250234375,7.39507421875,6.691953125,4.6421171875,10.42723046875,8.9312265625,7.46599609375,5.733890625,7.51382421875,11.02878125,3.25720703125,10.4031015625,0.420875,15.21833203125,16.88258984375,14.09146484375,10.72617578125,15.1606484375,23.28915234375,25.26014453125,11.827578125,13.77462109375,18.12342578125,22.01859765625,19.782390625,12.22451171875,20.9922109375,20.17181640625,21.80163671875,16.79827734375
12.6930234375,9.85007421875,10.066953125,7.7341171875,13.39923046875,10.4062265625,8.99999609375,7.409890625,8.30682421875,13.11478125,3.66420703125,9.6031015625,0.604875,15.46333203125,17.45158984375,11.68446484375,11.61417578125,14.2416484375,22.23115234375,22.94314453125,10.213578125,12.41562109375,16.47542578125,19.47559765625,17.852390625,12.51851171875,18.4712109375,17.91381640625,19.92863671875,14.94127734375
14.6460234375,11.11307421875,12.985953125,9.7711171875,14.50523046875,10.6562265625,9.77399609375,8.137890625,7.62682421875,13.35978125,3.10920703125,7.5241015625,0.372875,13.67133203125,16.11258984375,7.33746484375,11.38817578125,12.1886484375,19.34715234375,18.82714453125,6.810578125,9.58162109375,13.28542578125,15.20159765625,13.487390625,11.50751171875,14.4722109375,14.28181640625,16.43863671875,11.07027734375
14.0640234375,10.73507421875,14.488953125,10.1311171875,13.26523046875,9.3472265625,9.42299609375,7.566890625,5.63782421875,11.50678125,1.60520703125,4.6461015625,0.0248750000000001,10.45033203125,13.09158984375,2.26046484375,9.94017578125,9.6896484375,15.53615234375,14.04614453125,2.570578125,6.11962109375,9.41542578125,10.32359765625,7.923390625,9.62751171875,9.9792109375,10.28281640625,12.28663671875,6.47027734375
11.3210234375,8.98907421875,14.149953125,9.0621171875,10.18123046875,6.9042265625,8.07999609375,5.935890625,3.18382421875,8.17978125,-0.20479296875,1.8641015625,0.0428750000000001,7.01433203125,9.35258984375,-1.90053515625,7.59717578125,7.6526484375,12.10315234375,10.06514453125,-1.146421875,3.13562109375,6.00242578125,6.29859765625,2.917390625,7.44451171875,6.2502109375,7.06181640625,8.74463671875,2.70827734375
7.5590234375,6.56807421875,12.042953125,7.4091171875,6.38123046875,4.1472265625,6.13799609375,3.845890625,1.32482421875,4.44078125,-1.50279296875,0.0141015624999999,0.749875,4.51733203125,6.02558984375,-3.81053515625,5.01917578125,6.6996484375,10.08515234375,7.99614453125,-3.215421875,1.46862109375,3.92442578125,4.21259765625,-0.0326093749999998,5.32151171875,4.2502109375,5.35781640625,6.79863671875,0.939277343750001
4.0630234375,4.17707421875,8.636953125,6.0911171875,3.09523046875,1.7952265625,3.99799609375,1.946890625,0.75682421875,1.23578125,-1.80579296875,-0.5308984375,2.020875,3.44933203125,3.84358984375,-3.07353515625,2.95317578125,6.8246484375,9.73815234375,8.07614453125,-3.244421875,1.30062109375,3.39642578125,4.26459765625,-0.329609375,3.32151171875,4.1942109375,5.18781640625,6.67763671875,1.39827734375
1.6990234375,2.23007421875,4.683953125,5.6131171875,1.13523046875,0.1612265625,1.89699609375,0.705890625000001,1.42582421875,-0.97821875,-1.24279296875,0.0271015624999999,3.292875,3.44933203125,2.84158984375,-0.421535156249998,1.97817578125,7.4256484375,10.45515234375,9.57314453125,-1.674421875,2.14962109375,3.93342578125,5.71259765625,1.541390625,1.38751171875,5.4762109375,5.93081640625,7.78963671875,3.34527734375
0.626023437500001,0.75307421875,1.029953125,5.8261171875,0.57223046875,-0.8727734375,-0.12900390625,0.285890625000001,2.54982421875,-2.27121875,-0.46579296875,1.0941015625,3.865875,3.61533203125,2.44258984375,2.60046484375,2.30117578125,7.6636484375,11.11815234375,11.13114453125,0.511578124999998,3.18662109375,4.63942578125,7.26959765625,4.330390625,-0.40448828125,6.9862109375,6.69881640625,9.04963671875,5.46727734375
0.3140234375,-0.513925781249999,-1.691046875,6.0331171875,0.76523046875,-1.6967734375,-2.17000390625,0.518890625000001,3.00982421875,-3.05321875,-0.33079296875,1.9671015625,3.260875,3.02333203125,1.80158984375,4.28646484375,3.66317578125,6.8596484375,10.64715234375,11.35914453125,2.231578125,3.62762109375,4.61442578125,7.68259765625,6.566390625,-1.80648828125,7.5662109375,6.72181640625,9.36963671875,6.47127734375
-0.147976562499999,-1.90192578125,-3.316046875,5.3661171875,0.754230468749999,-2.7497734375,-4.30900390625,0.958890625000001,1.90682421875,-3.77821875,-1.48579296875,2.0641015625,1.432875,1.18733203125,0.23858984375,3.46546484375,5.38917578125,4.7446484375,8.47115234375,9.38214453125,2.671578125,3.00262109375,3.29942578125,6.21159765625,7.098390625,-2.60048828125,6.4242109375,5.56581640625,8.06963671875,5.60827734375
-1.5199765625,-3.57592578125,-4.133046875,3.2631171875,-0.21876953125,-4.2647734375,-6.48100390625,1.075890625,-0.97017578125,-4.66221875,-4.00579296875,1.1161015625,-1.186125,-1.69966796875,-2.37941015625,0.0224648437500008,6.66817578125,1.5396484375,4.78515234375,5.23014453125,1.524578125,1.29762109375,0.674425781249998,2.89859765625,5.475390625,-2.80648828125,3.4102109375,3.24581640625,5.11763671875,2.93227734375
-3.9009765625,-5.38192578125,-4.575046875,-0.1708828125,-2.33476953125,-6.0887734375,-8.41400390625,0.537890625000001,-4.95017578125,-5.54521875,-7.25179296875,-0.6998984375,-3.807125,-4.81366796875,-5.49741015625,-4.98553515625,6.95117578125,-2.0903515625,0.50415234375,-0.104855468750001,-0.919421875000001,-1.03137890625,-2.72157421875,-1.44240234375,2.091390625,-2.68048828125,-0.904789062500001,0.24781640625,1.14363671875,-0.765722656249999
-6.6069765625,-6.88492578125,-4.886046875,-4.1128828125,-5.13176953125,-7.7137734375,-9.69300390625,-0.590109374999999,-8.72917578125,-6.00721875,-10.09079296875,-2.8068984375,-5.553125,-7.07666796875,-8.09941015625,-9.73453515625,6.23617578125,-5.2653515625,-3.13084765625,-5.02085546875,-3.889421875,-3.23337890625,-6.01557421875,-5.56340234375,-2.012609375,-2.56248828125,-5.4497890625,-2.62718359375,-2.83236328125,-4.36072265625
-8.5899765625,-7.61592578125,-5.064046875,-7.3548828125,-7.76576953125,-8.6167734375,-9.97600390625,-1.941109375,-10.97117578125,-5.72921875,-11.46179296875,-4.5128984375,-5.826125,-7.74566796875,-9.25941015625,-12.43553515625,5.01317578125,-7.2693515625,-5.14584765625,-7.99485546875,-6.461421875,-4.62937890625,-8.41457421875,-8.35640234375,-5.630609375,-2.73548828125,-9.1157890625,-4.62418359375,-5.86636328125,-6.92472265625
-9.0959765625,-7.40692578125,-5.064046875,-8.8748828125,-9.49676953125,-8.6427734375,-9.27300390625,-3.146109375,-10.96417578125,-4.82021875,-10.94479296875,-5.3648984375,-4.584125,-6.83266796875,-8.69241015625,-12.14853515625,3.91517578125,-7.8653515625,-5.32684765625,-8.29385546875,-7.964421875,-4.94037890625,-9.56857421875,-9.35340234375,-7.914609375,-3.35848828125,-11.2227890625,-5.40118359375,-7.48636328125,-8.09472265625
-8.1209765625,-6.55992578125,-4.998046875,-8.3138828125,-10.12176953125,-8.1487734375,-8.05600390625,-4.107109375,-8.93317578125,-3.85421875,-8.98679296875,-5.3398984375,-2.351125,-5.06466796875,-6.95741015625,-9.18653515625,3.34917578125,-7.3123515625,-4.28184765625,-6.27585546875,-8.216421875,-4.33537890625,-9.63657421875,-8.85840234375,-8.626609375,-4.41448828125,-11.6967890625,-5.12318359375,-7.76936328125,-8.07272265625
-6.3899765625,-5.68892578125,-5.138046875,-6.1208828125,-10.03976953125,-7.7927734375,-7.07600390625,-5.004109375,-5.85017578125,-3.56021875,-6.64279296875,-4.7758984375,0.039875,-3.41966796875,-5.17741015625,-4.91153515625,3.30017578125,-6.1113515625,-3.03684765625,-3.15485546875,-7.496421875,-3.22437890625,-9.04557421875,-7.66340234375,-8.055609375,-5.67548828125,-10.9217890625,-4.25018359375,-7.12336328125,-7.32472265625
-4.9669765625,-5.36292578125,-5.765046875,-3.3258828125,-9.93176953125,-8.1567734375,-6.97100390625,-6.088109375,-2.91517578125,-4.40221875,-5.05079296875,-4.1928984375,1.790875,-2.60266796875,-4.44541015625,-1.09053515625,3.39217578125,-4.6873515625,-2.42784765625,-0.391855468750001,-6.347421875,-1.97637890625,-8.16257421875,-6.56640234375,-6.731609375,-6.71848828125,-9.4397890625,-3.21818359375,-5.98636328125,-6.25372265625
-4.7219765625,-5.80092578125,-7.003046875,-1.1108828125,-10.31976953125,-9.4527734375,-7.97600390625,-7.447109375,-1.04617578125,-6.29621875,-4.92679296875,-4.0788984375,2.450875,-2.73466796875,-5.26841015625,0.849464843750001,3.16217578125,-3.2143515625,-2.65284765625,0.943144531249999,-5.302421875,-0.759378906249999,-7.08857421875,-5.96940234375,-5.143609375,-7.05248828125,-7.6907890625,-2.22018359375,-4.62236328125,-5.01772265625
-5.9069765625,-6.80192578125,-8.721046875,-0.3518828125,-11.30276953125,-11.4177734375,-9.86300390625,-8.903109375,-0.58817578125,-8.60721875,-6.28779296875,-4.6568984375,2.080875,-3.35766796875,-7.30841015625,0.366464843750002,2.40717578125,-1.6093515625,-3.19784765625,0.572144531249999,-4.662421875,0.476621093750001,-5.66457421875,-5.72340234375,-3.553609375,-6.29948828125,-5.8707890625,-1.15418359375,-3.07936328125,-3.53572265625
-8.0239765625,-7.88692578125,-10.507046875,-1.2858828125,-12.55076953125,-13.3887734375,-12.09400390625,-10.060109375,-1.29717578125,-10.40221875,-8.48679296875,-5.7478984375,1.188875,-3.72366796875,-9.53641015625,-2.06553515625,1.37517578125,0.3286484375,-3.17684765625,-0.959855468750001,-4.383421875,1.88262109375,-3.64457421875,-5.26940234375,-1.970609375,-4.35148828125,-3.9507890625,0.23681640625,-1.28036328125,-1.63872265625
-10.0649765625,-8.50892578125,-11.778046875,-3.4418828125,-13.47376953125,-14.5877734375,-14.02600390625,-10.490109375,-2.57017578125,-10.84221875,-10.53179296875,-6.8468984375,0.385875,-3.25566796875,-10.74441015625,-5.26253515625,0.633175781250001,2.6566484375,-1.90384765625,-2.62985546875,-4.166421875,3.48862109375,-0.983574218750001,-4.03940234375,-0.275609374999999,-1.43948828125,-1.8577890625,2.09581640625,0.773636718750002,0.692277343750001
-11.0479765625,-8.29792578125,-12.041046875,-5.8938828125,-13.51276953125,-14.4857734375,-15.11100390625,-9.972109375,-3.81617578125,-9.58721875,-11.55679296875,-7.4188984375,-0.027125,-1.95366796875,-10.16441015625,-7.92953515625,0.702175781250002,5.0506484375,0.601152343749999,-3.47785546875,-3.703421875,5.00262109375,1.93442578125,-1.90340234375,1.558390625,1.91651171875,0.2862109375,4.19781640625,2.80163671875,3.12627734375
-10.5269765625,-7.22892578125,-11.179046875,-7.7208828125,-12.48376953125,-13.0777734375,-15.08400390625,-8.653109375,-4.74217578125,-6.99021875,-11.17979296875,-7.1708984375,-0.220125,-0.45866796875,-7.86841015625,-9.20053515625,1.76117578125,6.7996484375,3.50215234375,-3.06385546875,-2.894421875,5.83562109375,4.30442578125,0.643597656249999,3.349390625,5.08651171875,2.0882109375,5.94581640625,4.25663671875,5.01527734375
-8.7779765625,-5.66192578125,-9.565046875,-8.3848828125,-10.75876953125,-10.8747734375,-14.03200390625,-6.994109375,-5.38917578125,-3.98121875,-9.59379296875,-6.1308984375,-0.602125,0.30533203125,-4.70941015625,-8.88453515625,3.60117578125,7.1186484375,5.53115234375,-1.59785546875,-1.893421875,5.41462109375,5.22642578125,2.68759765625,4.751390625,7.56551171875,3.0502109375,6.67181640625,4.59063671875,5.69127734375
-6.5649765625,-4.17792578125,-7.891046875,-7.8678828125,-9.10176953125,-8.6487734375,-12.33100390625,-5.547109375,-5.95117578125,-1.66321875,-7.38579296875,-4.5628984375,-1.450125,-0.33266796875,-1.87441015625,-7.37953515625,5.74017578125,5.5806484375,5.66115234375,0.251144531249999,-1.015421875,3.55962109375,4.16142578125,3.36759765625,5.415390625,9.10851171875,2.8632109375,6.02781640625,3.57363671875,4.83227734375
-4.6779765625,-3.31192578125,-6.805046875,-6.5278828125,-8.22976953125,-7.0917734375,-10.45700390625,-4.691109375,-6.54017578125,-0.830218749999999,-5.23879296875,-2.8508984375,-2.689125,-2.40066796875,-0.303410156250001,-5.37853515625,7.61217578125,2.4036484375,3.66515234375,1.71614453125,-0.585421875000002,0.648621093750001,1.24642578125,2.32559765625,5.142390625,9.70251171875,1.6102109375,4.19481640625,1.45363671875,2.66327734375
-3.4869765625,-3.28492578125,-6.547046875,-4.8218828125,-8.37776953125,-6.5017734375,-8.79800390625,-4.469109375,-7.03617578125,-1.56721875,-3.63079296875,-1.3598984375,-3.912125,-5.18766796875,-0.233410156250001,-3.52153515625,8.75917578125,-1.5363515625,0.30615234375,2.32014453125,-0.783421875000002,-2.48037890625,-2.65457421875,-0.0464023437500005,4.032390625,9.46851171875,-0.1977890625,1.83881640625,-1.11936328125,-0.0927226562499994
-2.7559765625,-3.86392578125,-6.777046875,-3.0168828125,-9.14676953125,-6.6217734375,-7.52900390625,-4.574109375,-7.02917578125,-3.12921875,-2.63779296875,-0.2738984375,-4.521125,-7.44166796875,-1.09641015625,-2.11053515625,9.00017578125,-4.9173515625,-2.91984765625,2.11614453125,-1.520421875,-4.79437890625,-6.17657421875,-2.65540234375,2.543390625,8.61251171875,-1.7377890625,-0.12118359375,-3.28136328124999,-2.43872265625
-1.8599765625,-4.43692578125,-6.713046875,-1.0458828125,-9.68676953125,-6.7657734375,-6.59000390625,-4.510109375,-5.93717578125,-4.22921875,-1.95979296875,0.4631015625,-3.915125,-7.82466796875,-1.81341015625,-1.04353515625,8.46817578125,-6.3733515625,-4.39784765625,1.64714453125,-2.433421875,-5.37637890625,-7.88957421875,-4.12440234375,1.380390625,7.37851171875,-2.1527890625,-0.82418359375,-4.23436328125,-3.44672265625
-0.284976562499999,-4.31492578125,-5.577046875,1.3581171875,-9.12876953125,-6.2197734375,-5.78600390625,-3.869109375,-3.30917578125,-3.68121875,-1.18979296875,1.0431015625,-1.749125,-5.51466796875,-1.40341015625,0.0134648437500022,7.49317578125,-5.0183515625,-3.11184765625,1.60514453125,-3.065421875,-3.75937890625,-6.85757421875,-3.43540234375,1.156390625,5.97751171875,-0.932789062499999,0.19881640625,-3.54936328125,-2.66172265625
1.9080234375,-3.14492578125,-3.106046875,4.3061171875,-7.10176953125,-4.6997734375,-4.96600390625,-2.618109375,0.79982421875,-1.06221875,-0.13879296875,1.6161015625,1.820875,-0.65866796875,0.455589843749999,1.33246484375,6.41717578125,-0.8733515625,0.843152343749999,2.37714453125,-3.102421875,-0.160378906249999,-3.06257421875,-0.48740234375,2.042390625,4.53051171875,1.7972109375,2.82081640625,-1.37736328125,-0.33772265625
4.0370234375,-1.17592578125,0.174953124999998,7.4471171875,-4.05576953125,-2.5327734375,-4.16600390625,-1.166109375,5.65282421875,3.00478125,1.01520703125,2.2091015625,6.117875,5.61633203125,3.23658984375,2.89746484375,5.49317578125,5.0616484375,6.25115234375,3.78914453125,-2.507421875,4.55162109375,2.53242578125,3.80659765625,3.655390625,3.09551171875,5.2862109375,6.37481640625,1.59263671875,2.64227734375
5.1960234375,0.82507421875,3.108953125,9.9811171875,-1.13376953125,-0.4697734375,-3.58700390625,-0.169109374999999,10.01982421875,7.13978125,1.85820703125,2.7481015625,10.162875,11.63133203125,5.84358984375,4.36346484375,4.84917578125,11.1496484375,11.26215234375,5.17414453125,-1.531421875,9.14062109375,8.32842578125,7.92159765625,5.235390625,1.73251171875,8.4422109375,9.91281640625,4.41263671875,5.14427734375
4.7970234375,1.96407421875,4.420953125,11.0411171875,0.395230468749999,0.7072265625,-3.43700390625,-0.175109374999999,12.64082421875,9.84778125,1.98620703125,3.0631015625,13.015875,15.74233203125,7.13058984375,5.17346484375,4.43617578125,15.6796484375,14.09915234375,5.68214453125,-0.649421875000002,12.38562109375,12.62242578125,10.34559765625,5.938390625,0.50851171875,10.2102109375,12.48581640625,6.17763671875,6.19927734375
2.9210234375,1.68707421875,3.347953125,10.1581171875,-0.216769531250001,0.5442265625,-3.78700390625,-1.368109375,12.71282421875,10.17578125,1.21220703125,2.8651015625,14.034875,16.85833203125,6.37458984375,4.76746484375,3.98817578125,17.3886484375,13.67215234375,4.64014453125,-0.466421875000002,13.38762109375,14.11042578125,10.11759765625,5.114390625,-0.56048828125,9.8592109375,13.32681640625,6.24463671875,5.26527734375
0.289023437500001,0.0560742187500001,0.0649531249999988,7.5481171875,-2.84376953125,-0.8807734375,-4.54200390625,-3.500109375,10.21082421875,8.08178125,-0.35279296875,1.8131015625,13.003875,14.74733203125,3.54958984375,2.82546484375,3.11117578125,15.8026484375,9.90915234375,1.85214453125,-1.522421875,11.77362109375,12.23942578125,7.11559765625,2.518390625,-1.52848828125,7.1772109375,11.98681640625,4.35663671875,2.33427734375
-2.0809765625,-2.25992578125,-4.324046875,4.0741171875,-6.52476953125,-2.9647734375,-5.48500390625,-6.021109375,5.93982421875,4.44278125,-2.32079296875,-0.2768984375,10.162875,10.10733203125,-0.65541015625,-0.529535156249999,1.52617578125,11.3266484375,3.74815234375,-2.24885546875,-4.007421875,7.78862109375,7.34842578125,2.08159765625,-1.533609375,-2.44348828125,2.5772109375,8.48081640625,0.736636718750002,-2.06372265625
-3.3459765625,-4.27092578125,-8.256046875,0.9441171875,-9.81776953125,-4.8237734375,-6.34000390625,-8.311109375,1.27982421875,0.69178125,-4.15979296875,-3.2288984375,6.126875,4.34433203125,-5.05741015625,-4.68353515625,-0.700824218749998,5.0756484375,-3.15584765625,-6.67885546875,-7.555421875,2.25862109375,0.589425781249998,-3.61440234375,-6.187609375,-3.27148828125,-2.9367890625,3.40481640625,-3.90536328125,-6.94572265625
-3.1889765625,-5.12192578125,-10.405046875,-0.7558828125,-11.33976953125,-5.6907734375,-6.86100390625,-9.901109375,-2.31317578125,-1.75721875,-5.40579296875,-6.4868984375,1.719875,-0.89766796875,-8.40341015625,-8.72353515625,-3.13882421875,-1.4683515625,-8.94484765625,-10.25885546875,-11.300421875,-3.59637890625,-6.39057421875,-8.40540234375,-10.288609375,-3.88948828125,-8.0037890625,-2.09518359375,-8.51736328125,-11.10372265625
-1.8779765625,-4.50492578125,-10.256046875,-0.5048828125,-10.38276953125,-5.2877734375,-6.97400390625,-10.630109375,-3.86217578125,-2.08821875,-5.87579296875,-9.3208984375,-2.204125,-4.26966796875,-9.85741015625,-11.81953515625,-5.18482421875,-6.8513515625,-12.15184765625,-12.10285546875,-14.209421875,-8.44937890625,-11.91157421875,-11.02440234375,-12.788609375,-4.15948828125,-11.3057890625,-6.58018359375,-11.99836328125,-13.45072265625
-0.0359765624999993,-2.81492578125,-8.286046875,1.4531171875,-7.30876953125,-3.9507734375,-6.85600390625,-10.639109375,-3.19617578125,-0.42421875,-5.75579296875,-11.1468984375,-4.905125,-5.12066796875,-9.34641015625,-13.58953515625,-6.34682421875,-9.9813515625,-12.18384765625,-12.01785546875,-15.501421875,-11.19537890625,-14.72257421875,-10.92240234375,-13.137609375,-4.00648828125,-12.0067890625,-8.77118359375,-13.54336328125,-13.37472265625
1.6970234375,-0.92792578125,-5.695046875,4.2751171875,-3.40976953125,-2.4717734375,-6.85900390625,-10.260109375,-0.91217578125,2.23078125,-5.51279296875,-11.7788984375,-5.896125,-3.68066796875,-7.59441015625,-14.20853515625,-6.44982421875,-10.3743515625,-9.52684765625,-10.56785546875,-14.944421875,-11.27537890625,-14.37357421875,-8.44540234375,-11.479609375,-3.44848828125,-10.0677890625,-8.07618359375,-12.92236328125,-10.96072265625
2.8940234375,0.239074218750001,-3.883046875,6.9171171875,-0.29776953125,-1.7477734375,-7.30800390625,-9.864109375,1.94982421875,4.40778125,-5.68479296875,-11.4988984375,-5.091125,-0.98166796875,-5.83441015625,-14.23553515625,-5.69282421875,-8.3133515625,-5.58484765625,-8.81285546875,-12.906421875,-8.90637890625,-11.37757421875,-4.73140234375,-8.584609375,-2.58848828125,-6.3157890625,-4.93618359375,-10.60236328125,-6.97472265625
3.3850234375,0.12307421875,-3.887046875,8.5241171875,0.791230468749999,-2.4077734375,-8.34900390625,-9.790109375,4.29182421875,4.76078125,-6.64779296875,-10.9298984375,-2.887125,1.47033203125,-5.31541015625,-14.28853515625,-4.57582421875,-4.8253515625,-2.20684765625,-7.86485546875,-10.207421875,-5.06637890625,-7.09757421875,-1.33740234375,-5.564609375,-1.61348828125,-2.2057890625,-0.73418359375,-7.62036328125,-2.61772265625
3.1540234375,-1.32492578125,-6.013046875,8.6381171875,-0.59476953125,-4.5557734375,-9.94100390625,-10.310109375,5.27382421875,2.57778125,-8.47279296875,-10.7628984375,-0.0471249999999999,2.22633203125,-6.82441015625,-14.78953515625,-3.72482421875,-1.3783515625,-1.04684765625,-8.46385546875,-7.825421875,-1.15737890625,-3.32457421875,0.300597656249999,-3.489609375,-0.77748828125,0.670210937499998,2.75181640625,-5.21536328125,0.884277343750001
2.2660234375,-3.65292578125,-9.716046875,7.2561171875,-4.04976953125,-7.7077734375,-11.86900390625,-11.569109375,4.53982421875,-1.92721875,-10.86679296875,-11.4658984375,2.590875,0.45033203125,-10.36141015625,-15.85353515625,-3.67482421875,0.6556484375,-2.95584765625,-10.70085546875,-6.554421875,1.55762109375,-1.60357421875,-0.62040234375,-3.039609375,-0.33748828125,1.1502109375,4.11081640625,-4.35436328125,2.71627734375
0.901023437500001,-6.01692578125,-13.758046875,4.8241171875,-8.44276953125,-10.9157734375,-13.72400390625,-13.458109375,2.32982421875,-7.62821875,-13.20879296875,-13.0828984375,4.403875,-3.69566796875,-15.05041015625,-17.29253515625,-4.66882421875,0.5726484375,-7.59184765625,-13.95085546875,-6.697421875,2.46462109375,-2.57957421875,-3.94040234375,-4.278609375,-0.42748828125,-1.0467890625,2.89381640625,-5.32236328125,2.77527734375
-0.5209765625,-7.40392578125,-16.600046875,2.1291171875,-12.24576953125,-13.0347734375,-14.90000390625,-15.521109375,-0.56017578125,-12.78021875,-14.67979296875,-15.1718984375,5.176875,-8.99466796875,-19.34241015625,-18.68053515625,-6.52482421875,-1.3343515625,-13.44184765625,-17.03485546875,-7.919421875,1.82262109375,-5.64157421875,-8.53340234375,-6.616609375,-0.94748828125,-5.1707890625,-0.21018359375,-7.58736328125,1.71527734375
-1.3449765625,-6.97692578125,-16.937046875,0.0671171875000001,-14.06976953125,-13.0647734375,-14.75500390625,-17.020109375,-3.02417578125,-15.56321875,-14.49379296875,-16.9008984375,5.139875,-13.54866796875,-21.52141015625,-19.47653515625,-8.63582421875,-3.8983515625,-18.33884765625,-18.61885546875,-9.374421875,0.568621093750001,-9.13657421875,-12.67640234375,-8.993609375,-1.57448828125,-9.6957890625,-3.71218359375,-10.01336328125,0.661277343750001
-0.955976562499999,-4.45692578125,-14.230046875,-0.6628828125,-13.19576953125,-10.5227734375,-12.91400390625,-17.205109375,-4.05017578125,-14.75521875,-12.23679296875,-17.3388984375,4.842875,-15.52566796875,-20.40541015625,-19.24253515625,-10.16582421875,-5.6643515625,-20.34884765625,-17.77485546875,-10.090421875,-0.213378906249999,-11.14757421875,-14.75040234375,-10.290609375,-1.95448828125,-12.9687890625,-6.02318359375,-11.40836328125,0.66227734375
0.787023437500001,-0.361925781249999,-9.013046875,0.1721171875,-9.85776953125,-5.7607734375,-9.54400390625,-15.677109375,-3.17417578125,-10.32821875,-8.18079296875,-15.9058984375,4.846875,-14.03666796875,-15.98441015625,-17.91553515625,-10.39782421875,-5.7053515625,-18.68184765625,-14.48985546875,-9.490421875,0.0776210937500013,-10.50957421875,-13.99840234375,-9.872609375,-1.95748828125,-13.9937890625,-6.22418359375,-11.14736328125,2.10927734375
3.3140234375,4.06307421875,-2.813046875,2.2211171875,-5.16776953125,-0.0357734375000005,-5.45500390625,-12.667109375,-0.74617578125,-3.64621875,-3.39979296875,-12.7668984375,5.386875,-9.67666796875,-9.64441015625,-15.98953515625,-9.08082421875,-4.1853515625,-14.14184765625,-9.86285546875,-7.744421875,1.18662109375,-7.50357421875,-10.98040234375,-7.964609375,-1.81348828125,-12.9507890625,-4.51718359375,-9.53436328124999,4.46527734375
5.5250234375,7.24907421875,2.370953125,4.6531171875,-0.75976953125,4.8272265625,-1.92100390625,-9.048109375,2.16882421875,2.91878125,0.49020703125,-8.9038984375,6.222875,-4.32066796875,-3.75441015625,-14.43753515625,-6.58782421875,-2.2853515625,-8.80884765625,-5.75985546875,-5.735421875,2.14462109375,-3.76757421875,-7.37740234375,-5.603609375,-1.96648828125,-11.0807890625,-2.08618359375,-7.65936328124999,6.48627734375
6.3050234375,7.91407421875,4.823953125,6.4791171875,1.75623046875,7.1032265625,-0.22100390625,-6.029109375,4.30382421875,6.88578125,1.94920703125,-5.7238984375,6.794875,-0.24666796875,-0.73341015625,-14.30653515625,-3.79982421875,-1.5043515625,-5.08084765625,-4.03485546875,-4.630421875,1.85662109375,-1.44957421875,-5.20240234375,-4.161609375,-2.76748828125,-9.9997890625,-0.45918359375,-6.82936328125,6.83527734375
5.0360234375,5.62207421875,3.787953125,6.9751171875,1.41123046875,5.8742265625,-1.07900390625,-4.650109375,4.82582421875,6.68478125,0.19920703125,-4.4308984375,6.573875,0.92533203125,-2.02141015625,-16.16953515625,-1.78782421875,-2.7833515625,-4.58684765625,-5.68985546875,-5.289421875,-0.253378906249999,-2.08557421875,-5.84440234375,-4.690609375,-4.22748828125,-10.8657890625,-0.76818359375,-7.91936328125,4.73627734375
1.8580234375,0.978074218750001,-0.259046875000001,6.0091171875,-1.69576953125,1.3952265625,-4.29900390625,-5.341109375,3.72782421875,2.30378125,-4.37779296875,-5.4708984375,5.360875,-1.08166796875,-7.46241015625,-19.74653515625,-1.41182421875,-5.9673515625,-7.52384765625,-10.40285546875,-7.847421875,-3.89637890625,-5.83457421875,-9.45140234375,-7.438609375,-6.02148828125,-13.8537890625,-3.26718359375,-10.98336328125,0.334277343750001
-2.4019765625,-4.64392578125,-5.837046875,4.0571171875,-6.45076953125,-5.0287734375,-8.83400390625,-7.720109375,1.76482421875,-4.73721875,-10.35679296875,-8.3308984375,3.426875,-5.17066796875,-15.37041015625,-23.92253515625,-2.96582421875,-9.8673515625,-12.68884765625,-16.65485546875,-11.636421875,-8.00137890625,-11.41557421875,-14.87240234375,-11.737609375,-7.68848828125,-18.1257890625,-7.27318359375,-15.24436328125,-5.34072265625
-6.5529765625,-9.68692578125,-11.087046875,1.9461171875,-11.25076953125,-11.5437734375,-13.23500390625,-10.720109375,0.0158242187499998,-12.04721875,-15.80979296875,-11.7448984375,1.417875,-9.43166796875,-23.21941015625,-27.16453515625,-6.01682421875,-12.8063515625,-18.09884765625,-22.35785546875,-15.456421875,-11.13537890625,-16.70657421875,-20.16740234375,-16.267609375,-8.86948828125,-22.2267890625,-11.44218359375,-19.38836328125,-10.76072265625
-9.5459765625,-13.01092578125,-14.535046875,0.4281171875,-14.68476953125,-16.4307734375,-16.20800390625,-13.004109375,-0.67817578125,-17.35421875,-19.03379296875,-14.1978984375,0.0628750000000001,-12.02566796875,-28.62741015625,-28.14553515625,-9.53682421875,-13.4013515625,-21.86484765625,-25.70085546875,-18.059421875,-12.09437890625,-19.70157421875,-23.42140234375,-19.588609375,-9.44048828125,-24.6977890625,-14.30018359375,-22.04936328125,-14.45772265625
-10.9539765625,-14.27692578125,-15.694046875,-0.1808828125,-16.04276953125,-18.7127734375,-17.04900390625,-13.538109375,-0.13317578125,-19.39121875,-19.17579296875,-14.5418984375,-0.195125,-12.00866796875,-30.22341015625,-26.28253515625,-12.32382421875,-11.2413515625,-22.95884765625,-25.85685546875,-18.645421875,-10.45837890625,-19.40257421875,-23.54640234375,-20.726609375,-9.51448828125,-24.6667890625,-14.83818359375,-22.34336328125,-15.56772265625
-11.1629765625,-13.98292578125,-15.192046875,-0.1528828125,-15.49676953125,-18.4347734375,-15.84700390625,-12.082109375,1.09682421875,-18.29421875,-16.48279296875,-12.4358984375,0.582875,-9.69366796875,-28.07441015625,-21.98553515625,-13.48682421875,-7.1443515625,-21.54084765625,-23.23785546875,-17.163421875,-6.83537890625,-16.22557421875,-20.68840234375,-19.532609375,-9.32148828125,-22.1787890625,-12.94818359375,-20.23736328125,-14.12372265625
-11.1179765625,-13.15392578125,-14.345046875,-0.1628828125,-13.92976953125,-16.4927734375,-13.38800390625,-9.324109375,2.05382421875,-15.36321875,-12.12179296875,-8.4478984375,1.889875,-6.38266796875,-23.50441015625,-16.51053515625,-12.72082421875,-2.8223515625,-18.74484765625,-19.19085546875,-14.255421875,-2.63537890625,-11.72657421875,-16.07540234375,-16.644609375,-9.02348828125,-18.1237890625,-9.46718359375,-16.57336328125,-10.97672265625
-11.7799765625,-12.79892578125,-14.380046875,-0.8528828125,-12.44976953125,-14.1377734375,-10.80900390625,-6.531109375,1.95382421875,-12.34921875,-7.66179296875,-3.7938984375,3.046875,-3.66866796875,-18.45841015625,-11.52353515625,-10.30682421875,-0.1423515625,-16.06784765625,-15.34785546875,-10.913421875,0.516621093750001,-7.83157421875,-11.40040234375,-13.115609375,-8.60848828125,-13.8357890625,-5.80718359375,-12.73236328125,-7.39372265625
-13.6009765625,-13.41392578125,-15.774046875,-2.4028828125,-11.79676953125,-12.4397734375,-9.11600390625,-4.922109375,0.64382421875,-10.64521875,-4.49679296875,0.1041015625,3.485875,-2.71766796875,-14.70841015625,-8.52953515625,-6.91882421875,-0.3263515625,-14.68284765625,-12.95185546875,-8.061421875,1.42062109375,-5.98257421875,-8.11740234375,-9.961609375,-7.91448828125,-10.5897890625,-3.36018359375,-10.11136328125,-4.57372265625
-16.3039765625,-14.78692578125,-18.060046875,-4.4118828125,-11.99076953125,-11.9227734375,-8.82700390625,-5.089109375,-1.32617578125,-10.74421875,-3.40379296875,2.1271015625,2.949875,-3.83966796875,-13.24441015625,-8.37353515625,-3.36682421875,-3.4573515625,-15.00084765625,-12.47785546875,-6.252421875,-0.257378906249999,-6.59657421875,-6.95440234375,-7.836609375,-6.75148828125,-9.1867890625,-2.94218359375,-9.63936328125,-3.28072265625
-19.0039765625,-16.18892578125,-20.158046875,-6.1578828125,-12.43776953125,-12.4467734375,-9.84700390625,-6.766109375,-3.01917578125,-12.15121875,-4.35179296875,1.8931015625,1.597875,-6.45866796875,-14.02241015625,-10.95553515625,-0.350824218749999,-8.4433515625,-16.61384765625,-13.61185546875,-5.566421875,-3.87237890625,-9.02357421875,-7.78540234375,-6.928609375,-4.98848828125,-9.7497890625,-4.48318359375,-11.47936328125,-3.67772265625
-20.5869765625,-16.76992578125,-20.946046875,-7.0228828125,-12.33576953125,-13.3267734375,-11.55200390625,-8.993109375,-3.58917578125,-13.72621875,-6.57879296875,-0.0848984375000001,-0.0371249999999999,-9.43066796875,-16.12341015625,-15.25753515625,1.70917578125,-13.4543515625,-18.58184765625,-15.51385546875,-5.704421875,-8.04937890625,-11.94257421875,-9.82440234375,-7.041609375,-2.62248828125,-11.7657890625,-7.11518359375,-15.03436328125,-5.37572265625
-20.1759765625,-15.94492578125,-19.776046875,-6.8048828125,-11.06776953125,-13.6417734375,-12.97700390625,-10.577109375,-2.68117578125,-14.25721875,-8.88979296875,-2.6168984375,-1.264125,-11.57666796875,-18.20641015625,-19.69153515625,2.70017578125,-16.6773515625,-19.90684765625,-17.20085546875,-6.214421875,-11.24237890625,-14.01257421875,-12.03640234375,-7.783609375,0.14651171875,-14.3497890625,-9.61318359375,-19.23236328125,-7.64172265625
-17.4739765625,-13.61892578125,-16.704046875,-5.7538828125,-8.41676953125,-12.6287734375,-13.10900390625,-10.616109375,-0.56517578125,-12.98021875,-10.07279296875,-4.3548984375,-1.544125,-12.14366796875,-19.02941015625,-22.62553515625,2.73517578125,-17.0373515625,-19.92784765625,-17.88085546875,-6.707421875,-12.34737890625,-14.42357421875,-13.52140234375,-8.735609375,2.85551171875,-16.5687890625,-10.93618359375,-22.91336328125,-9.65672265625
-12.8509765625,-10.19692578125,-12.405046875,-4.3718828125,-4.61576953125,-9.9587734375,-11.23400390625,-8.865109375,2.04582421875,-9.82621875,-9.25579296875,-4.3118984375,-0.694125,-10.95466796875,-17.83641015625,-22.88353515625,2.07717578125,-14.5013515625,-18.45984765625,-17.10185546875,-6.937421875,-11.05037890625,-13.06457421875,-13.69440234375,-9.488609375,4.85851171875,-17.6557890625,-10.56418359375,-25.15836328125,-10.70372265625
-7.1609765625,-6.37892578125,-7.843046875,-3.1268828125,-0.26876953125,-5.8217734375,-7.24000390625,-5.777109375,4.38182421875,-5.32921875,-6.13479296875,-2.1798984375,1.101875,-8.23766796875,-14.50341015625,-20.05453515625,1.07317578125,-9.8543515625,-15.68684765625,-14.76285546875,-6.760421875,-7.78437890625,-10.29857421875,-12.27540234375,-9.607609375,5.59751171875,-17.0997890625,-8.50218359375,-25.46836328125,-10.29972265625
-1.4419765625,-2.86092578125,-3.880046875,-2.2468828125,3.84323046875,-0.8477734375,-1.70500390625,-2.274109375,5.95282421875,-0.36121875,-1.05579296875,1.5781015625,3.380875,-4.38566796875,-9.48641015625,-14.58353515625,0.0671757812500005,-4.2033515625,-11.95684765625,-11.05985546875,-6.071421875,-3.42137890625,-6.60557421875,-9.26240234375,-8.674609375,4.93851171875,-14.7167890625,-5.13518359375,-23.87836328125,-8.33272265625
3.3480234375,-0.0679257812499996,-1.005046875,-1.7118828125,7.01423046875,4.0462265625,4.24699609375,0.628890625000001,6.67282421875,4.14978125,5.04520703125,5.8611015625,5.522875,0.14733203125,-3.66441015625,-7.64053515625,-0.747824218749999,1.4576484375,-7.65084765625,-6.45285546875,-4.819421875,1.05662109375,-2.38557421875,-4.96140234375,-6.449609375,3.33551171875,-10.7457890625,-1.08018359375,-20.97136328125,-5.14272265625
6.5290234375,1.91707421875,0.739953125,-1.3788828125,8.78923046875,7.8792265625,9.27999609375,2.177890625,6.76882421875,7.47078125,10.88820703125,9.3041015625,6.925875,4.87433203125,1.89558984375,-0.783535156249998,-1.41482421875,6.4606484375,-3.14084765625,-1.59785546875,-3.034421875,4.84462109375,2.05542578125,0.0195976562499993,-3.007609375,1.69451171875,-5.8217890625,2.95881640625,-17.68136328125,-1.42172265625
7.8280234375,3.25707421875,1.657953125,-1.0898828125,9.03323046875,9.9092265625,12.25899609375,2.122890625,6.63782421875,9.24878125,15.25020703125,10.8211015625,7.271875,9.30733203125,6.22658984375,4.50746484375,-2.11782421875,10.4856484375,1.23015234375,2.80614453125,-0.824421875000002,7.50762109375,6.41542578125,4.91759765625,1.260390625,0.97551171875,-0.7787890625,6.36181640625,-14.90936328125,2.08627734375
7.4310234375,4.19907421875,2.219953125,-0.6638828125,7.96823046875,9.8792265625,12.63899609375,0.792890625000001,6.71282421875,9.58478125,17.35820703125,10.0561015625,6.691875,13.00433203125,8.69458984375,7.26646484375,-2.96382421875,13.4456484375,5.15115234375,6.18614453125,1.654578125,9.01862109375,10.33242578125,9.02459765625,5.759390625,1.74151171875,3.6162109375,8.74581640625,-13.17936328125,4.88127734375
5.9130234375,4.93607421875,2.857953125,0.1381171875,6.17323046875,8.0702265625,10.65799609375,-1.047109375,7.30282421875,8.91378125,17.08620703125,7.4471015625,5.665875,15.56433203125,9.08958984375,7.24446484375,-3.82482421875,15.2876484375,8.31515234375,8.18214453125,4.157578125,9.58962109375,13.34842578125,11.82359765625,9.807390625,3.88051171875,6.8172109375,9.97081640625,-12.56436328125,6.76927734375
4.0350234375,5.49507421875,3.775953125,1.5171171875,4.39523046875,5.1482265625,7.19599609375,-2.548109375,8.41682421875,7.73778125,14.87920703125,3.9151015625,4.699875,16.59333203125,7.55258984375,4.83846484375,-4.37982421875,15.8256484375,10.34915234375,8.60814453125,6.298578125,9.40862109375,14.92342578125,13.00459765625,12.697390625,6.65251171875,8.4762109375,10.02681640625,-12.90536328125,7.68727734375
2.4420234375,5.67407421875,4.814953125,3.4311171875,3.19323046875,1.8882265625,3.36399609375,-3.170109375,9.65982421875,6.35978125,11.51320703125,0.4471015625,4.028875,15.74133203125,4.43958984375,0.850464843750002,-4.31582421875,14.7476484375,10.80515234375,7.39514453125,7.564578125,8.46462109375,14.54542578125,12.42859765625,13.818390625,9.04651171875,8.3932109375,8.93181640625,-14.06436328125,7.53827734375
1.3960234375,5.13307421875,5.480953125,5.4731171875,2.65823046875,-1.0557734375,0.0909960937499998,-2.880109375,10.35082421875,4.78378125,7.83220703125,-2.2058984375,3.549875,12.84633203125,0.22758984375,-3.77653515625,-3.54482421875,11.8096484375,9.27215234375,4.59314453125,7.481578125,6.61462109375,11.93342578125,10.14359765625,12.839390625,10.26051171875,6.5332109375,6.76481640625,-15.98336328125,6.23627734375
0.709023437500001,3.60107421875,5.176953125,6.9941171875,2.43023046875,-3.2927734375,-2.05700390625,-2.040109375,9.83982421875,2.83078125,4.56520703125,-3.6368984375,3.012875,8.09933203125,-4.49941015625,-8.15853515625,-2.29182421875,7.1336484375,5.62615234375,0.460144531249999,5.837578125,3.82962109375,7.25442578125,6.43659765625,9.901390625,10.01751171875,3.1302109375,3.80081640625,-18.53636328125,3.90227734375
-0.0979765624999995,1.07907421875,3.537953125,7.3711171875,1.94723046875,-4.7397734375,-2.91000390625,-1.133109375,7.81882421875,0.35178125,2.19320703125,-3.7948984375,2.308875,2.13133203125,-9.10241015625,-11.63653515625,-1.02482421875,1.3696484375,0.232152343749999,-4.49185546875,2.800578125,0.427621093750001,1.21542578125,1.83659765625,5.634390625,8.56451171875,-1.2657890625,0.57781640625,-21.40036328125,0.974277343750001
-1.5219765625,-2.15492578125,0.627953124999999,6.2331171875,0.64823046875,-5.5897734375,-2.69500390625,-0.555109374999999,4.44482421875,-2.64321875,0.84020703125,-2.9658984375,1.619875,-4.09266796875,-13.01341015625,-13.92953515625,-0.288824218749999,-4.4053515625,-6.06384765625,-9.58985546875,-1.136421875,-2.90837890625,-5.08857421875,-2.99440234375,0.936390625,6.42451171875,-5.9007890625,-2.24518359375,-24.12736328125,-1.95272265625
-3.7989765625,-5.67192578125,-3.082046875,3.5551171875,-1.86576953125,-6.2197734375,-2.01200390625,-0.572109374999999,0.24282421875,-5.96821875,0.23920703125,-1.7188984375,1.311875,-9.53766796875,-15.90741015625,-15.22753515625,-0.542824218749999,-9.0573515625,-12.20584765625,-14.18285546875,-5.343421875,-5.38637890625,-10.51757421875,-7.44940234375,-3.370609375,4.10051171875,-10.0537890625,-4.18118359375,-26.36936328125,-4.42772265625
-6.7609765625,-9.00492578125,-6.897046875,-0.2818828125,-5.62176953125,-7.0157734375,-1.63800390625,-1.330109375,-4.06417578125,-9.29221875,-0.14479296875,-0.7788984375,1.623875,-13.39866796875,-17.74541015625,-16.06553515625,-2.04482421875,-11.8153515625,-17.24084765625,-17.79085546875,-9.246421875,-6.49037890625,-14.24057421875,-11.11140234375,-6.797609375,1.92151171875,-13.2577890625,-5.14918359375,-28.05336328125,-6.33072265625
-9.8169765625,-11.67492578125,-10.084046875,-4.4718828125,-10.05976953125,-8.1527734375,-2.17400390625,-2.814109375,-7.70317578125,-12.14021875,-0.81879296875,-0.7798984375,2.406875,-15.27866796875,-18.64641015625,-16.99153515625,-4.77382421875,-12.5003515625,-20.52484765625,-20.11185546875,-12.420421875,-6.20937890625,-15.90557421875,-13.73840234375,-9.206609375,0.0605117187499999,-15.3277890625,-5.42418359375,-29.32036328125,-7.78572265625
-12.1339765625,-13.20892578125,-12.021046875,-7.9218828125,-14.07076953125,-9.4437734375,-3.73300390625,-4.777109375,-9.97717578125,-13.91221875,-1.95779296875,-1.9668984375,3.146875,-15.14366796875,-18.68241015625,-18.19353515625,-8.36382421875,-11.4333515625,-21.74284765625,-20.94385546875,-14.562421875,-4.96337890625,-15.56857421875,-15.14240234375,-10.637609375,-1.36548828125,-16.2467890625,-5.36018359375,-30.30236328125,-8.89672265625
-12.9689765625,-13.23492578125,-12.330046875,-9.5968828125,-16.38676953125,-10.3547734375,-5.85900390625,-6.769109375,-10.40817578125,-14.02621875,-3.27179296875,-4.0258984375,3.274875,-13.20366796875,-17.78041015625,-19.34953515625,-12.11682421875,-9.1553515625,-20.86584765625,-20.15285546875,-15.456421875,-3.30937890625,-13.51357421875,-15.11040234375,-11.102609375,-2.24648828125,-16.0337890625,-5.12418359375,-30.96236328125,-9.58572265625
-12.0509765625,-11.63792578125,-11.031046875,-8.9508828125,-16.11176953125,-10.2567734375,-7.71200390625,-8.289109375,-8.90417578125,-12.15821875,-4.14779296875,-6.1988984375,2.526875,-9.82766796875,-15.81541015625,-19.81453515625,-15.18482421875,-6.1813515625,-18.12984765625,-17.74085546875,-15.004421875,-1.67337890625,-10.11357421875,-13.48340234375,-10.556609375,-2.55448828125,-14.7447890625,-4.67518359375,-31.14936328125,-9.65472265625
-9.7769765625,-8.67092578125,-8.633046875,-6.1898828125,-13.09176953125,-8.7687734375,-8.43700390625,-9.025109375,-5.86317578125,-8.48221875,-3.97379296875,-7.6528984375,1.105875,-5.54366796875,-12.81141015625,-19.01753515625,-16.86682421875,-2.9153515625,-14.05484765625,-13.97185546875,-13.319421875,-0.258378906249999,-5.81457421875,-10.33840234375,-9.012609375,-2.45148828125,-12.5597890625,-3.93818359375,-30.79036328125,-8.99172265625
-7.0609765625,-4.97592578125,-6.054046875,-2.2438828125,-8.03176953125,-6.0007734375,-7.54900390625,-9.038109375,-2.13817578125,-3.72521875,-2.44979296875,-7.8638984375,-0.413125,-1.00966796875,-9.10241015625,-16.82053515625,-16.85882421875,0.3056484375,-9.40484765625,-9.40385546875,-10.766421875,0.895621093750001,-1.16257421875,-6.10340234375,-6.675609375,-2.25548828125,-9.8257890625,-2.98418359375,-30.00636328125,-7.71972265625
-4.8899765625,-1.45692578125,-4.331046875,1.5721171875,-2.34776953125,-2.5607734375,-5.19400390625,-8.756109375,1.18182421875,1.00278125,0.25820703125,-6.8048984375,-1.353125,3.05633203125,-5.33841015625,-13.62553515625,-15.29682421875,3.1426484375,-5.08384765625,-4.77985546875,-7.859421875,1.78062109375,3.18742578125,-1.50640234375,-3.953609375,-2.24848828125,-6.9937890625,-2.04118359375,-29.06536328125,-6.15672265625
-3.9059765625,0.970074218750001,-4.244046875,4.0311171875,2.24023046875,0.6522265625,-2.09600390625,-8.778109375,3.09982421875,4.52278125,3.54920703125,-4.8918984375,-1.251125,5.97933203125,-2.32941015625,-10.19953515625,-12.61082421875,5.2036484375,-1.94484765625,-0.819855468750001,-5.081421875,2.31862109375,6.53142578125,2.62559765625,-1.340609375,-2.43548828125,-4.4887890625,-1.36018359375,-28.22736328125,-4.65672265625
-4.2579765625,1.64707421875,-6.059046875,4.3961171875,4.25723046875,2.7302265625,0.73399609375,-9.592109375,3.01382421875,5.92678125,6.56820703125,-2.7868984375,-0.115125,7.19533203125,-0.779410156250001,-7.33753515625,-9.31182421875,6.0486484375,-0.594847656250001,1.95914453125,-2.751421875,2.30562109375,8.24842578125,5.59959765625,0.737390625000001,-2.51548828125,-2.6067890625,-1.06518359375,-27.63436328125,-3.44372265625
-5.7409765625,0.337074218750001,-9.500046875,2.5691171875,2.94423046875,3.0112265625,2.35599609375,-11.378109375,0.87082421875,4.83978125,8.45920703125,-1.1658984375,1.537875,6.35733203125,-1.02741015625,-5.58353515625,-5.84382421875,5.2716484375,-1.23784765625,3.34214453125,-1.005421875,1.46262109375,7.98342578125,7.05059765625,2.054390625,-2.08548828125,-1.4647890625,-1.10718359375,-27.31236328125,-2.55672265625
-8.0059765625,-2.74592578125,-13.878046875,-1.0088828125,-1.52576953125,1.2882265625,2.14499609375,-13.943109375,-2.84617578125,1.54478125,8.61720703125,-0.5358984375,2.896875,3.48633203125,-2.92341015625,-5.13653515625,-2.53482421875,2.6596484375,-3.60784765625,3.39714453125,0.114578124999998,-0.414378906249999,5.79742578125,7.02359765625,2.644390625,-0.92948828125,-1.0017890625,-1.33518359375,-27.23336328125,-1.90472265625
-10.6529765625,-6.97192578125,-18.257046875,-5.5578828125,-8.06576953125,-2.0707734375,-0.05200390625,-16.773109375,-7.23817578125,-3.06721875,6.89320703125,-1.1358984375,3.228875,-0.91266796875,-5.86241015625,-5.92953515625,0.338175781250001,-1.6363515625,-7.03484765625,2.40914453125,0.559578124999998,-3.25337890625,2.21642578125,5.90059765625,2.738390625,0.81251171875,-1.0167890625,-1.60518359375,-27.35236328125,-1.37472265625
-13.2239765625,-11.37492578125,-21.601046875,-10.0978828125,-14.84576953125,-6.1567734375,-3.81200390625,-19.156109375,-11.18817578125,-7.73121875,3.66820703125,-2.9118984375,2.204875,-5.89066796875,-8.98541015625,-7.72653515625,2.42217578125,-6.9953515625,-10.62684765625,0.800144531249999,0.240578124999999,-6.57837890625,-1.86857421875,4.22559765625,2.620390625,2.68551171875,-1.2467890625,-1.82018359375,-27.56636328125,-0.880722656249999
-15.2109765625,-14.83692578125,-22.971046875,-13.5968828125,-19.72976953125,-9.7567734375,-8.17300390625,-20.351109375,-13.63717578125,-11.16221875,-0.22379296875,-5.5328984375,0.036875,-10.26766796875,-11.45141015625,-10.16253515625,3.20117578125,-12.3893515625,-13.51584765625,-0.957855468750001,-0.945421875000001,-9.51937890625,-5.41657421875,2.48659765625,2.447390625,4.09151171875,-1.4527890625,-1.86418359375,-27.66436328125,-0.352722656249998
-16.1659765625,-16.42192578125,-21.790046875,-15.1738828125,-20.99676953125,-11.7537734375,-11.91500390625,-19.821109375,-13.87517578125,-12.45421875,-3.74979296875,-8.4528984375,-2.604125,-12.95266796875,-12.69941015625,-12.75553515625,2.03217578125,-16.5973515625,-15.11484765625,-2.46185546875,-3.041421875,-11.02637890625,-7.54657421875,0.978597656249999,2.149390625,4.50251171875,-1.4957890625,-1.54018359375,-27.34736328125,0.261277343750001
-15.8889765625,-15.71992578125,-18.082046875,-14.3708828125,-18.07676953125,-11.5387734375,-14.02200390625,-17.455109375,-11.75917578125,-11.36221875,-6.03379296875,-11.0588984375,-4.861125,-13.27466796875,-12.61741015625,-15.00953515625,-1.67982421875,-18.5803515625,-15.29384765625,-3.51085546875,-5.979421875,-10.26937890625,-7.82257421875,-0.259402343750001,1.440390625,3.62351171875,-1.4127890625,-0.63718359375,-26.40636328125,0.908277343750001
-14.5459765625,-12.98592578125,-12.532046875,-11.3128828125,-11.79776953125,-9.2467734375,-14.05300390625,-13.661109375,-7.74817578125,-8.36321875,-6.67579296875,-12.8778984375,-6.008125,-11.23166796875,-11.55441015625,-16.57953515625,-8.20482421875,-17.8713515625,-14.39184765625,-4.17285546875,-9.559421875,-7.05837890625,-6.44457421875,-1.40940234375,-0.0536093749999997,1.48551171875,-1.4427890625,0.86681640625,-24.95036328125,1.33827734375
-12.6049765625,-9.02192578125,-6.299046875,-6.6508828125,-3.98176953125,-5.7077734375,-12.27800390625,-9.270109375,-2.74817578125,-4.45021875,-5.86979296875,-13.7228984375,-5.691125,-7.51566796875,-10.13441015625,-17.39953515625,-17.19882421875,-14.7753515625,-13.05684765625,-4.72485546875,-13.434421875,-2.03637890625,-4.19557421875,-2.77040234375,-2.571609375,-1.56848828125,-1.9527890625,2.63981640625,-23.48436328125,1.13627734375
-10.5739765625,-4.89292578125,-0.683046875,-1.3518828125,3.32123046875,-2.1097734375,-9.54100390625,-5.286109375,2.16582421875,-0.76021875,-4.28979296875,-13.6668984375,-3.986125,-3.26366796875,-8.98741015625,-17.65853515625,-27.51482421875,-10.2513515625,-11.97284765625,-5.47085546875,-17.108421875,3.49662109375,-2.14257421875,-4.58040234375,-6.010609375,-4.96448828125,-3.2527890625,4.04881640625,-22.74236328125,-0.0787226562499992
-8.7459765625,-1.61092578125,3.207953125,3.5751171875,8.53223046875,0.4332265625,-6.94400390625,-2.599109375,6.04782421875,1.80378125,-2.79779296875,-12.8888984375,-1.302125,0.38133203125,-8.52341015625,-17.64853515625,-37.28482421875,-5.5293515625,-11.61084765625,-6.56485546875,-19.956421875,8.05662109375,-1.21157421875,-6.86240234375,-9.836609375,-8.01448828125,-5.4167890625,4.39981640625,-23.35736328125,-2.41572265625
-7.1419765625,0.130074218750001,4.703953125,7.2941171875,10.91323046875,1.2222265625,-5.43500390625,-1.737109375,8.29682421875,2.79478125,-2.11979296875,-11.5468984375,1.770875,2.66633203125,-8.82541015625,-17.57253515625,-44.34982421875,-1.6703515625,-12.08684765625,-7.92185546875,-21.333421875,10.48362109375,-1.83557421875,-9.38040234375,-13.219609375,-10.09048828125,-8.2347890625,3.21581640625,-25.58336328125,-5.61072265625
-5.6649765625,0.11807421875,3.675953125,9.3001171875,10.55723046875,0.1132265625,-5.44500390625,-2.740109375,8.74082421875,2.24578125,-2.59379296875,-9.7728984375,4.623875,3.40233203125,-9.68541015625,-17.44153515625,-46.94782421875,0.7116484375,-13.15684765625,-9.25485546875,-20.776421875,10.27862109375,-3.82557421875,-11.71940234375,-15.348609375,-10.80548828125,-11.2987890625,0.41581640625,-29.20136328125,-9.12672265625
-4.3219765625,-1.38692578125,0.512953124999999,9.4581171875,8.05523046875,-2.5217734375,-6.76300390625,-5.166109375,7.59182421875,0.55478125,-4.03079296875,-7.7208984375,6.820875,2.91433203125,-10.70141015625,-17.08353515625,-44.35082421875,1.5246484375,-14.33484765625,-10.18685546875,-18.256421875,7.69262109375,-6.50257421875,-13.44040234375,-15.772609375,-10.15648828125,-14.1527890625,-3.62218359375,-33.60036328125,-12.35972265625
-3.3419765625,-3.80892578125,-4.002046875,7.9641171875,4.04023046875,-5.9327734375,-8.68500390625,-8.220109375,5.32782421875,-1.70721875,-5.77179296875,-5.5628984375,8.259875,1.84833203125,-11.39941015625,-16.25253515625,-37.11282421875,1.1116484375,-15.09384765625,-10.37585546875,-14.303421875,3.59962109375,-8.99157421875,-14.22340234375,-14.587609375,-8.54648828125,-16.4057890625,-8.11618359375,-37.94036328125,-14.82072265625
-3.1369765625,-6.47492578125,-8.885046875,5.2431171875,-1.07176953125,-9.2117734375,-10.31100390625,-10.952109375,2.53382421875,-3.99421875,-6.91779296875,-3.4328984375,9.175875,0.88233203125,-11.38541015625,-14.76053515625,-26.84882421875,0.0406484375,-15.07984765625,-9.62485546875,-9.907421875,-0.81037890625,-10.58157421875,-13.97340234375,-12.391609375,-6.65648828125,-17.8127890625,-12.07718359375,-41.36236328125,-16.21972265625
-4.1389765625,-8.81592578125,-13.173046875,1.8121171875,-6.99776953125,-11.5627734375,-10.84400390625,-12.492109375,-0.28217578125,-5.95021875,-6.70179296875,-1.3978984375,9.874875,0.40933203125,-10.48841015625,-12.56653515625,-15.68182421875,-1.1763515625,-14.27384765625,-7.95185546875,-6.201421875,-4.46437890625,-11.01057421875,-12.86040234375,-10.032609375,-5.21048828125,-18.3337890625,-14.63918359375,-43.22136328125,-16.50372265625
-6.5539765625,-10.49192578125,-16.092046875,-1.8798828125,-13.35976953125,-12.5517734375,-9.84300390625,-12.300109375,-2.86317578125,-7.47621875,-4.82079296875,0.4951015625,10.362875,0.36533203125,-8.84441015625,-9.79053515625,-5.63182421875,-2.3293515625,-12.99884765625,-5.57885546875,-4.040421875,-6.79837890625,-10.55157421875,-11.25240234375,-8.226609375,-4.69448828125,-18.1217890625,-15.39818359375,-43.26736328125,-15.83472265625
-10.1439765625,-11.43992578125,-17.154046875,-5.5798828125,-19.55276953125,-12.1937734375,-7.37000390625,-10.337109375,-5.24917578125,-8.64821875,-1.54779296875,2.1441015625,10.180875,0.31233203125,-6.83441015625,-6.65553515625,1.87917578125,-3.5783515625,-11.74484765625,-2.82085546875,-3.651421875,-7.90137890625,-9.80157421875,-9.51440234375,-7.176609375,-5.12348828125,-17.3687890625,-14.52818359375,-41.65736328125,-14.48972265625
-14.2099765625,-11.80792578125,-16.207046875,-9.2318828125,-24.80576953125,-10.8717734375,-3.96800390625,-7.073109375,-7.65417578125,-9.55921875,2.41220703125,3.3801015625,8.586875,-0.26566796875,-4.88941015625,-3.39853515625,6.28417578125,-5.2913515625,-10.87484765625,0.0701445312499995,-4.509421875,-8.35437890625,-9.28457421875,-7.78340234375,-6.420609375,-5.95548828125,-16.1007890625,-12.61418359375,-38.79636328125,-12.69672265625
-17.8679765625,-11.84292578125,-13.503046875,-12.8498828125,-28.34776953125,-9.1717734375,-0.44400390625,-3.319109375,-10.23517578125,-10.20121875,6.21120703125,4.0301015625,4.963875,-1.66166796875,-3.29341015625,-0.210535156249998,7.86517578125,-7.7943515625,-10.39684765625,2.98814453125,-5.547421875,-8.87137890625,-9.13557421875,-5.87940234375,-5.051609375,-6.28148828125,-14.0977890625,-10.30518359375,-35.09936328125,-10.49872265625
-20.4599765625,-11.82092578125,-9.732046875,-16.3958828125,-29.63676953125,-7.6957734375,2.42799609375,0.0558906250000009,-12.94417578125,-10.47921875,9.13320703125,4.0421015625,-0.836125,-3.80366796875,-2.10741015625,2.76846484375,7.48517578125,-11.1733515625,-9.95184765625,5.92014453125,-5.632421875,-9.94437890625,-9.06557421875,-3.47040234375,-2.261609375,-5.24648828125,-11.0567890625,-8.02218359375,-30.85536328125,-7.76872265625
-21.7829765625,-12.00892578125,-5.897046875,-19.7408828125,-28.57976953125,-6.8747734375,4.12699609375,2.431890625,-15.52117578125,-10.28821875,10.77220703125,3.6371015625,-8.349125,-6.26966796875,-1.23741015625,5.42246484375,6.20217578125,-15.1873515625,-9.02784765625,8.81514453125,-4.053421875,-11.63837890625,-8.62357421875,-0.358402343750001,2.122390625,-2.49148828125,-6.8987890625,-5.88918359375,-26.23836328125,-4.36272265625
-22.0089765625,-12.58792578125,-2.979046875,-22.7108828125,-25.60076953125,-6.7707734375,4.50699609375,3.668890625,-17.60817578125,-9.57921875,11.10420703125,3.3241015625,-16.614125,-8.41566796875,-0.552410156250001,7.64346484375,4.88217578125,-19.2903515625,-7.26484765625,11.50514453125,-0.801421875000003,-13.59637890625,-7.53957421875,3.28059765625,7.445390625,1.64851171875,-1.9887890625,-3.86118359375,-21.41536328125,-0.329722656249999
-21.3909765625,-13.48892578125,-1.517046875,-25.1098828125,-21.43376953125,-7.0127734375,3.83999609375,4.117890625,-18.89217578125,-8.35721875,10.45220703125,3.6961015625,-24.475125,-9.59966796875,0.0465898437499996,9.34946484375,3.91217578125,-22.7573515625,-4.66484765625,13.72814453125,3.500578125,-15.22537890625,-5.90557421875,6.89259765625,12.497390625,6.29251171875,2.8852109375,-1.92518359375,-16.63336328125,3.98827734375
-20.0229765625,-14.28792578125,-1.365046875,-26.7398828125,-16.76376953125,-6.9117734375,2.74699609375,4.400890625,-19.22717578125,-6.65021875,9.36920703125,5.0831015625,-30.909125,-9.40566796875,0.64058984375,10.51746484375,3.10917578125,-24.8513515625,-1.55884765625,15.25714453125,7.904578125,-15.94237890625,-4.06857421875,9.79259765625,16.102390625,10.41851171875,6.8122109375,-0.17218359375,-12.20436328125,8.04127734375
-17.7899765625,-14.28392578125,-1.766046875,-27.4078828125,-11.99976953125,-5.7287734375,2.00699609375,5.051890625,-18.66617578125,-4.46521875,8.49320703125,7.3121015625,-35.207125,-7.74266796875,1.35458984375,11.21946484375,1.87517578125,-24.9653515625,1.61415234375,16.02714453125,11.534578125,-15.32137890625,-2.32757421875,11.54959765625,17.683390625,13.29451171875,9.1842109375,1.29581640625,-8.40936328124999,11.30527734375
-14.5359765625,-12.78092578125,-1.747046875,-26.9488828125,-7.31776953125,-2.9787734375,2.28199609375,6.238890625,-17.38417578125,-1.78421875,8.39020703125,9.7651015625,-36.987125,-4.79266796875,2.36458984375,11.61446484375,-0.445824218749999,-22.7153515625,4.55415234375,16.16714453125,13.860578125,-13.13937890625,-0.660574218750002,12.23559765625,17.464390625,14.73051171875,9.9862109375,2.54081640625,-5.40836328125,13.47727734375
-10.3589765625,-9.43992578125,-0.629046875,-25.2738828125,-2.82376953125,1.3212265625,3.87999609375,7.694890625,-15.56217578125,1.35778125,9.39520703125,11.6791015625,-36.156125,-0.93266796875,3.80558984375,11.89146484375,-4.17782421875,-18.0403515625,7.17215234375,15.87814453125,14.757578125,-9.41037890625,1.24742578125,12.33659765625,16.187390625,14.99851171875,9.7322109375,3.81381640625,-3.26036328125,14.48727734375
-5.8399765625,-4.52992578125,1.592953125,-22.4618828125,1.28923046875,6.5342265625,6.64799609375,8.837890625,-13.32017578125,4.73678125,11.46320703125,12.4841015625,-32.933125,3.29533203125,5.60358984375,12.17546484375,-9.13882421875,-11.3233515625,9.45715234375,15.26914453125,14.365578125,-4.45037890625,3.70842578125,12.36959765625,14.562390625,14.53351171875,9.0982109375,5.36981640625,-2.03636328125,14.33627734375
-1.9809765625,1.06607421875,4.266953125,-18.8638828125,4.67823046875,11.5332265625,10.00299609375,9.005890625,-10.73417578125,7.87678125,14.14220703125,12.0251015625,-27.850125,7.25033203125,7.41858984375,12.48546484375,-14.69282421875,-3.3973515625,11.31815234375,14.29914453125,12.941578125,1.10662109375,6.71542578125,12.52159765625,12.891390625,13.64151171875,8.5302109375,7.23881640625,-1.85536328125,12.96527734375
0.2020234375,6.15807421875,6.502953125,-15.1058828125,6.89023046875,15.1092265625,13.10199609375,7.732890625,-7.84917578125,10.15778125,16.71120703125,10.5771015625,-21.617125,10.37133203125,8.77058984375,12.74946484375,-19.96182421875,4.6316484375,12.57615234375,12.90414453125,10.817578125,6.45562109375,9.86742578125,12.60359765625,11.105390625,12.43551171875,8.1052109375,9.13081640625,-2.76336328125,10.33827734375
0.172023437500001,9.72307421875,7.704953125,-11.9238828125,7.55223046875,16.4582265625,15.15499609375,5.001890625,-4.67717578125,11.07478125,18.44720703125,8.6851015625,-14.924125,12.38133203125,9.29058984375,12.87246484375,-24.08782421875,11.6746484375,13.09615234375,11.18814453125,8.436578125,10.84962109375,12.55842578125,12.27559765625,9.092390625,10.95451171875,7.6582109375,10.54581640625,-4.54636328125,6.67827734375
-1.8659765625,11.32007421875,7.865953125,-9.8708828125,6.66123046875,15.5062265625,15.74299609375,1.323890625,-1.21917578125,10.50078125,18.91020703125,6.8981015625,-8.307125,13.34433203125,8.92658984375,12.80146484375,-26.48382421875,16.8696484375,12.91415234375,9.48914453125,6.323578125,13.75062109375,14.25042578125,11.33959765625,6.990390625,9.29551171875,7.0152109375,10.98481640625,-6.66636328125,2.62227734375
-5.0409765625,11.18607421875,7.480953125,-9.0988828125,4.73823046875,12.9072265625,14.98399609375,-2.384109375,2.46382421875,8.81278125,18.12020703125,5.5841015625,-2.161125,13.56033203125,7.98658984375,12.58346484375,-26.97482421875,19.6586484375,12.25015234375,8.27814453125,4.981578125,14.87662109375,14.67042578125,9.88759765625,5.240390625,7.65051171875,6.1682109375,10.16481640625,-8.40936328124999,-0.88572265625
-8.1349765625,10.00007421875,7.230953125,-9.3188828125,2.68723046875,9.7942265625,13.45099609375,-5.080109375,6.16882421875,6.79578125,16.57820703125,4.9361015625,3.207875,13.40233203125,7.01458984375,12.38046484375,-25.74582421875,19.8286484375,11.41215234375,7.96314453125,4.747578125,14.21562109375,13.89542578125,8.29659765625,4.390390625,6.26451171875,5.3412109375,8.19081640625,-9.14436328125,-2.92472265625
-9.9699765625,8.51207421875,7.636953125,-9.9238828125,1.45023046875,7.3672265625,11.91999609375,-5.905109375,9.55082421875,5.36078125,15.07420703125,5.0891015625,7.550875,13.17733203125,6.56558984375,12.42446484375,-23.15782421875,17.5766484375,10.69215234375,8.72214453125,5.708578125,12.04562109375,12.31942578125,7.09459765625,4.819390625,5.37951171875,4.9172109375,5.58881640625,-8.52036328125,-2.95372265625
-9.7699765625,7.22807421875,8.829953125,-10.1988828125,1.65623046875,6.4552265625,11.06499609375,-4.432109375,12.20582421875,5.13478125,14.32220703125,6.1531015625,10.671875,13.00433203125,6.94758984375,12.89646484375,-19.57382421875,13.5416484375,10.28315234375,10.41414453125,7.661578125,8.90462109375,10.50942578125,6.73659765625,6.487390625,5.14751171875,5.2442109375,3.12881640625,-6.55636328125,-1.02872265625
-7.4119765625,6.26007421875,10.437953125,-9.5858828125,3.38823046875,7.1722265625,11.18499609375,-0.828109374999999,13.75982421875,6.13378125,14.57620703125,8.1021015625,12.431875,12.77133203125,8.04158984375,13.75246484375,-15.34982421875,8.7116484375,10.24215234375,12.56514453125,10.091578125,5.45862109375,8.98342578125,7.38959765625,8.853390625,5.50951171875,6.4092109375,1.48881640625,-3.62736328125,2.19827734375
-3.4849765625,5.33507421875,11.663953125,-7.9098828125,6.09323046875,8.8672265625,12.01499609375,4.130890625,13.96082421875,7.70478125,15.45220703125,10.6191015625,12.800875,12.24033203125,9.29458984375,14.63946484375,-10.90582421875,4.2406484375,10.49415234375,14.46414453125,12.234578125,2.35562109375,8.05242578125,8.82459765625,11.019390625,6.12651171875,8.1202109375,0.96581640625,-0.37836328125,5.68927734375
0.892023437500001,4.00607421875,11.587953125,-5.4718828125,8.72223046875,10.4352265625,12.77599609375,9.253890625,12.77182421875,8.80678125,16.08320703125,13.0531015625,11.970875,11.26933203125,9.93258984375,14.97546484375,-6.76582421875,1.2086484375,10.86315234375,15.35714453125,13.250578125,0.129621093750001,7.79142578125,10.49759765625,12.043390625,6.44651171875,9.7872109375,1.41581640625,2.45263671875,8.36327734375
4.4300234375,1.95407421875,9.594953125,-2.9108828125,10.15523046875,10.8202265625,12.51399609375,13.300890625,10.44382421875,8.51478125,15.52820703125,14.5691015625,10.411875,9.97733203125,9.28558984375,14.16246484375,-3.51182421875,0.3776484375,11.12515234375,14.67814453125,12.475578125,-0.875378906249999,8.08642578125,11.74759765625,11.271390625,5.88851171875,10.7342109375,2.39681640625,4.22263671875,9.44327734375
6.0630234375,-0.77092578125,5.710953125,-0.9068828125,9.71523046875,9.4552265625,10.55199609375,15.337890625,7.48182421875,6.44178125,13.20220703125,14.4051015625,8.761875,8.69533203125,7.06158984375,11.84146484375,-1.63982421875,1.9586484375,11.03115234375,12.19714453125,9.638578125,-0.600378906249999,8.68942578125,11.99159765625,8.534390625,4.06851171875,10.4132109375,3.36181640625,4.52963671875,8.63827734375
5.2510234375,-3.75992578125,0.639953124999998,0.0861171874999997,7.42723046875,6.4292265625,6.78199609375,14.951890625,4.48182421875,2.89278125,9.13420703125,12.1801015625,7.623875,7.76533203125,3.43058984375,8.06146484375,-1.38282421875,5.4956484375,10.31815234375,8.07114453125,4.990578125,0.667621093750001,9.24342578125,10.87959765625,4.152390625,0.99751171875,8.5582109375,3.82281640625,3.27063671875,6.13427734375
2.1360234375,-6.44492578125,-4.494046875,-0.00388281250000011,3.89823046875,2.4022265625,1.68199609375,12.259890625,1.95282421875,-1.29621875,3.97820703125,8.1201015625,7.372875,7.34633203125,-1.03941015625,3.32946484375,-2.56282421875,9.9946484375,8.77215234375,2.79214453125,-0.715421875000002,2.37562109375,9.36842578125,8.39459765625,-1.178609375,-2.85648828125,5.2872109375,3.48981640625,0.668636718750001,2.44827734375
-2.5139765625,-8.29892578125,-8.503046875,-0.8428828125,0.0132304687499998,-1.6717734375,-3.84100390625,7.806890625,0.23482421875,-5.08821875,-1.18379296875,3.0341015625,8.086875,7.36233203125,-5.52841015625,-1.48953515625,-4.59782421875,14.2956484375,6.38015234375,-2.86485546875,-6.373421875,3.96162109375,8.84342578125,4.92159765625,-6.564609375,-6.71048828125,1.1462109375,2.40881640625,-2.72536328125,-1.71572265625
-7.5149765625,-8.93992578125,-10.443046875,-1.7968828125,-3.32176953125,-4.8617734375,-8.66900390625,2.425890625,-0.47617578125,-7.58621875,-5.14979296875,-1.9758984375,9.570875,7.61033203125,-9.12341015625,-5.35253515625,-6.70682421875,17.5366484375,3.51915234375,-7.92385546875,-10.807421875,5.13662109375,7.79542578125,1.24559765625,-11.070609375,-9.80048828125,-2.9387890625,1.01681640625,-6.07436328125,-5.57772265625
-11.5769765625,-8.15492578125,-9.807046875,-2.1768828125,-5.38676953125,-6.5077734375,-11.73700390625,-2.914109375,-0.0891757812500001,-8.26421875,-6.92179296875,-5.8908984375,11.440875,7.96033203125,-10.97441015625,-7.28653515625,-8.18682421875,19.4636484375,1.01015234375,-11.30885546875,-13.065421875,6.02862109375,6.74342578125,-1.55540234375,-13.826609375,-11.65248828125,-5.8257890625,0.0498164062499999,-8.39036328125,-8.36272265625
-13.6349765625,-5.92592578125,-6.609046875,-1.5478828125,-5.84276953125,-6.3247734375,-12.29700390625,-7.263109375,1.37882421875,-7.04221875,-5.94679296875,-8.0328984375,13.224875,8.51033203125,-10.47341015625,-6.60953515625,-8.59982421875,20.4316484375,-0.0808476562500005,-12.05685546875,-12.619421875,7.05162109375,6.42142578125,-2.37840234375,-14.113609375,-12.14948828125,-6.4607890625,0.26981640625,-8.81236328125,-9.43272265625
-13.1679765625,-2.47392578125,-1.412046875,0.0371171874999998,-4.83776953125,-4.3907734375,-10.10300390625,-9.849109375,3.74582421875,-4.24921875,-2.24179296875,-8.1158984375,14.399875,9.53533203125,-7.45041015625,-3.12353515625,-7.82082421875,21.0416484375,1.09615234375,-9.62185546875,-9.450421875,8.53862109375,7.39142578125,-0.510402343750001,-11.543609375,-11.39648828125,-4.2907890625,2.07881640625,-6.95736328125,-8.50072265625
-10.4199765625,1.69607421875,4.715953125,2.0191171875,-2.91676953125,-1.1127734375,-5.47200390625,-10.268109375,6.57982421875,-0.54921875,3.57120703125,-6.2058984375,14.372875,11.22233203125,-2.32541015625,2.75946484375,-6.01182421875,21.6236484375,4.67415234375,-4.20085546875,-4.062421875,10.34462109375,9.65042578125,3.94459765625,-6.321609375,-9.57548828125,0.3702109375,5.21081640625,-3.21236328125,-5.84472265625
-6.3829765625,5.80407421875,10.359953125,3.5061171875,-0.82476953125,2.7962265625,0.75199609375,-8.633109375,9.18182421875,3.18178125,10.34720703125,-2.6928984375,12.548875,13.36733203125,3.86858984375,10.01246484375,-3.54282421875,21.8806484375,9.81715234375,3.11214453125,2.594578125,11.71462109375,12.46942578125,9.90659765625,0.600390625,-6.90248828125,6.2762109375,8.69781640625,1.26263671875,-2.33972265625
-2.4359765625,8.90007421875,14.086953125,3.6051171875,0.67123046875,6.4332265625,7.32199609375,-5.587109375,10.70182421875,6.01878125,16.65320703125,1.7601015625,8.592875,15.30833203125,9.69358984375,17.16946484375,-0.873824218749998,20.9926484375,14.93615234375,10.54014453125,9.306578125,11.59862109375,14.62042578125,15.62559765625,7.687390625,-3.65348828125,11.6272109375,11.23481640625,4.93563671875,0.827277343750001
0.196023437500001,10.13207421875,14.890953125,1.7921171875,0.93023046875,8.9192265625,12.83499609375,-2.105109375,10.42382421875,7.21078125,21.13720703125,6.2931015625,2.779875,16.16733203125,13.72858984375,22.68946484375,1.56417578125,18.1326484375,18.30615234375,16.18114453125,14.870578125,9.27562109375,14.91142578125,19.36059765625,13.300390625,-0.20848828125,14.7622109375,11.77881640625,6.55563671875,2.64327734375
0.852023437500001,9.06807421875,12.531953125,-1.8248828125,-0.418769531250001,9.6422265625,16.10299609375,0.830890625000001,8.05582421875,6.37978125,22.89920703125,9.9761015625,-3.873125,15.22933203125,15.03458984375,25.40246484375,3.42017578125,13.0436484375,18.78315234375,18.67114453125,18.370578125,4.84962109375,12.73042578125,20.07659765625,16.238390625,2.90851171875,14.7902109375,10.02281640625,5.68063671875,2.67727734375
-0.4919765625,5.87007421875,7.569953125,-6.5048828125,-3.38476953125,8.3912265625,16.46199609375,2.499890625,3.86382421875,3.60578125,21.69820703125,11.9671015625,-9.893125,12.24933203125,13.45858984375,24.84246484375,4.37517578125,6.3046484375,16.24315234375,17.61914453125,19.331578125,-0.704378906249999,8.32642578125,17.78459765625,16.076390625,5.02451171875,11.8442109375,6.49081640625,2.79263671875,1.18127734375
-3.3909765625,1.22507421875,1.097953125,-11.1578828125,-7.64076953125,5.3772265625,13.90599609375,2.581890625,-1.41917578125,-0.61421875,17.94420703125,11.7261015625,-13.935125,7.59833203125,9.62758984375,21.35846484375,4.14617578125,-0.8283515625,11.56815234375,13.64914453125,17.757578125,-5.96637890625,2.69742578125,13.41759765625,13.195390625,5.42251171875,6.8902109375,2.23581640625,-1.00636328125,-1.13172265625
-7.1329765625,-3.89792578125,-5.617046875,-14.7178828125,-12.60976953125,1.1972265625,9.05299609375,1.186890625,-6.80317578125,-5.47921875,12.55520703125,9.2441015625,-15.311125,2.19033203125,4.69358984375,15.99146484375,2.59517578125,-6.9063515625,6.23015234375,8.09514453125,14.100578125,-9.69737890625,-2.80957421875,8.37459765625,8.580390625,3.62251171875,1.2872109375,-1.64618359375,-4.50236328125,-3.44272265625
-10.8909765625,-8.49892578125,-11.439046875,-16.4458828125,-17.47976953125,-3.2817734375,3.03799609375,-1.188109375,-11.29917578125,-10.04721875,6.74920703125,5.1291015625,-14.194125,-2.79966796875,-0.0344101562500008,10.18546484375,-0.128824218749999,-10.8553515625,1.71515234375,2.52914453125,9.180578125,-11.37037890625,-6.99657421875,3.96959765625,3.476390625,-0.28348828125,-3.7167890625,-4.46718359375,-6.84836328124999,-5.14772265625
-13.8609765625,-11.77292578125,-15.571046875,-16.0708828125,-21.23576953125,-7.1447734375,-2.71200390625,-3.819109375,-14.17117578125,-13.43721875,1.76920703125,0.4321015625,-11.464125,-6.35366796875,-3.46641015625,5.40146484375,-3.57082421875,-12.3803515625,-0.97184765625,-1.72185546875,4.004578125,-11.36037890625,-9.21357421875,1.00659765625,-0.978609375,-5.46848828125,-7.3497890625,-6.17418359375,-7.82636328125,-6.04572265625
-15.4299765625,-13.30392578125,-17.685046875,-13.7988828125,-22.90476953125,-9.7207734375,-6.89400390625,-6.019109375,-15.14117578125,-15.05521875,-1.43379296875,-3.7478984375,-8.297125,-7.95766796875,-4.99841015625,2.72546484375,-7.13182421875,-11.9933515625,-1.53784765625,-3.91885546875,-0.512421875000001,-10.71037890625,-9.48157421875,-0.356402343750001,-4.048609375,-10.59748828125,-9.4417890625,-7.26418359375,-7.80336328125,-6.32772265625
-15.3549765625,-13.14892578125,-17.942046875,-10.1768828125,-21.96376953125,-10.7897734375,-8.80500390625,-7.392109375,-14.42017578125,-14.76521875,-2.47279296875,-6.6788984375,-5.669125,-7.68666796875,-4.60841015625,2.56746484375,-10.32682421875,-10.6313515625,-0.31084765625,-4.00885546875,-3.832421875,-10.53237890625,-8.31757421875,-0.461402343750001,-5.536609375,-14.40448828125,-10.2937890625,-8.41718359375,-7.40636328124999,-6.38772265625
-13.8569765625,-11.75792578125,-16.865046875,-5.8338828125,-18.66276953125,-10.6007734375,-8.60500390625,-7.954109375,-12.54017578125,-12.91221875,-1.63079296875,-8.2548984375,-3.976125,-6.04566796875,-2.76141015625,4.56946484375,-12.98082421875,-9.1013515625,2.05115234375,-2.51085546875,-5.957421875,-11.41537890625,-6.37957421875,0.149597656249999,-5.747609375,-16.36748828125,-10.4137890625,-10.07418359375,-7.13436328125,-6.54872265625
-11.5839765625,-9.78892578125,-15.172046875,-1.2578828125,-14.00376953125,-9.7507734375,-7.22000390625,-8.063109375,-10.14317578125,-10.22921875,0.23020703125,-8.9978984375,-2.964125,-3.74666796875,-0.217410156250001,7.73246484375,-15.26982421875,-7.7463515625,4.84715234375,-0.268855468750001,-7.400421875,-13.16237890625,-4.21057421875,0.967597656249999,-5.333609375,-17.03348828125,-10.3017890625,-12.22318359375,-7.14136328125,-6.91672265625
-11.5839765625,-9.78892578125,-15.172046875,-1.2578828125,-14.00376953125,-9.7507734375,-7.22000390625,-8.063109375,-10.14317578125,-10.22921875,0.23020703125,-8.9978984375,-2.964125,-3.74666796875,-0.217410156250001,7.73246484375,-15.26982421875,-7.7463515625,4.84715234375,-0.268855468750001,-7.400421875,-13.16237890625,-4.21057421875,0.967597656249999,-5.333609375,-17.03348828125,-10.3017890625,-12.22318359375,-7.14136328125,-6.91672265625
