"Fp1","Fpz","Fp2","F7","F3","Fz","F4","F8","FC5","FC1","FC2","FC6","T7","C3","Cz","C4","T8","CP5","CP1","CP2","CP6","P7","P3","Pz","P4","P8","POz","O1","Oz","O2"
-12.74183984375,-6.9774140625,-9.4431171875,-14.80901953125,-10.07682421875,-10.94365234375,-5.7598046875,-10.30854296875,-9.75166015625,-4.3351171875,-7.4594921875,-13.67017578125,-0.0883281249999999,-17.8917890625,-2.41972265625,-8.788296875,-1.9767265625,0.97947265625,-4.9326640625,-1.27073046875,-2.46136328125,-6.39460546875,-1.42187890625,-5.72702734375,-5.57490625,2.40549609375,16.46549609375,-6.65886328125,1.3050546875,-10.937671875
-12.01483984375,-4.9004140625,-7.1741171875,-14.65801953125,-8.05482421875,-9.06565234375,-2.4298046875,-7.97254296875,-7.01966015625,-1.1681171875,-5.7044921875,-10.00417578125,0.940671875,-14.9477890625,-0.96472265625,-6.492296875,-3.3257265625,3.50547265625,-2.2346640625,1.27326953125,-1.64336328125,-2.79060546875,0.33612109375,-2.71302734375,-2.92690625,3.28749609375,17.27049609375,-2.38986328125,4.3630546875,-8.673671875
-11.78083984375,-3.7954140625,-5.8151171875,-14.08501953125,-7.37782421875,-8.04865234375,-0.547804687499999,-6.96854296875,-6.35566015625,0.5408828125,-4.7884921875,-8.25717578125,1.377671875,-13.3487890625,0.0162773437499997,-5.228296875,-4.3327265625,4.66247265625,-0.7086640625,2.60926953125,-1.51936328125,-0.418605468749999,1.19012109375,-1.05702734375,-1.29790625,2.97149609375,17.44449609375,0.18313671875,6.2300546875,-7.454671875
-12.22383984375,-3.8254140625,-5.5861171875,-13.18401953125,-8.26982421875,-8.12165234375,-0.2958046875,-6.84654296875,-7.62866015625,0.5638828125,-4.7454921875,-8.41417578125,0.899671875,-13.1847890625,0.48427734375,-4.938296875,-5.0257265625,4.22847265625,-0.3706640625,2.75026953125,-2.08036328125,0.495394531250001,1.06012109375,-0.76502734375,-0.80890625,1.48649609375,16.89349609375,1.03213671875,6.9040546875,-7.231671875
-13.35383984375,-4.9134140625,-6.4491171875,-12.33501953125,-10.57382421875,-9.31265234375,-1.4868046875,-6.75054296875,-10.03666015625,-0.9551171875,-5.3894921875,-9.87317578125,-0.676328125,-14.1797890625,0.48727734375,-5.281296875,-5.5087265625,2.38647265625,-0.9306640625,2.04126953125,-3.10436328125,0.0273945312500006,0.0751210937500009,-1.49202734375,-1.31590625,-0.737503906250001,15.62749609375,0.59813671875,6.7070546875,-7.636671875
-14.97983984375,-6.7974140625,-8.1251171875,-12.09901953125,-13.82682421875,-11.44565234375,-3.6908046875,-6.03154296875,-12.60366015625,-3.5911171875,-6.4604921875,-11.79817578125,-3.262328125,-15.8837890625,0.0712773437499998,-5.879296875,-5.8547265625,-0.34652734375,-2.0166640625,0.92226953125,-4.28636328125,-1.49860546875,-1.54487890625,-2.79602734375,-2.50890625,-3.08150390625,13.72049609375,-0.49586328125,6.0740546875,-8.212671875
-16.78283984375,-9.0754140625,-10.1731171875,-12.91501953125,-17.36882421875,-14.13265234375,-6.3428046875,-4.71254296875,-14.63166015625,-6.7401171875,-7.7174921875,-13.44317578125,-6.452328125,-17.8717890625,-0.74472265625,-6.490296875,-6.0807265625,-3.26252734375,-3.3216640625,-0.26073046875,-5.36036328125,-3.62960546875,-3.55587890625,-4.30902734375,-3.99690625,-4.98150390625,11.32349609375,-1.66386328125,5.3760546875,-8.620671875
-18.37383984375,-11.2634140625,-12.0791171875,-14.78001953125,-20.44482421875,-16.78765234375,-8.8248046875,-3.49354296875,-15.86266015625,-9.6911171875,-8.9744921875,-14.28717578125,-9.616328125,-19.7957890625,-1.91072265625,-7.039296875,-6.2277265625,-5.64452734375,-4.6376640625,-1.31373046875,-6.17236328125,-5.88960546875,-5.68687890625,-5.77802734375,-5.39390625,-6.11550390625,8.69749609375,-2.47386328125,4.8220546875,-8.728671875
-19.31883984375,-12.8764140625,-13.3681171875,-17.14801953125,-22.33082421875,-18.70465234375,-10.5768046875,-3.32754296875,-16.34666015625,-11.7291171875,-10.0714921875,-14.07617578125,-12.066328125,-21.3637890625,-3.26572265625,-7.554296875,-6.4297265625,-6.94452734375,-5.8096640625,-2.16773046875,-6.67736328125,-7.87860546875,-7.63387890625,-7.01902734375,-6.39790625,-6.47350390625,6.18049609375,-2.70786328125,4.4360546875,-8.594671875
-19.25583984375,-13.5604140625,-13.7221171875,-19.16701953125,-22.51782421875,-19.27965234375,-11.2448046875,-4.83354296875,-16.23166015625,-12.3101171875,-10.8754921875,-12.85217578125,-13.246328125,-22.3327890625,-4.53872265625,-8.090296875,-6.8627265625,-6.95952734375,-6.6876640625,-2.81373046875,-6.90436328125,-9.33460546875,-9.10187890625,-7.87002734375,-6.85790625,-6.29450390625,4.07249609375,-2.40586328125,4.0710546875,-8.374671875
-18.09383984375,-13.2094140625,-13.0961171875,-20.09701953125,-20.89882421875,-18.27465234375,-10.8108046875,-7.84754296875,-15.62566015625,-11.2601171875,-11.2964921875,-10.98317578125,-12.893328125,-22.5807890625,-5.45172265625,-8.672296875,-7.5767265625,-5.88352734375,-7.0996640625,-3.25573046875,-6.90336328125,-10.13760546875,-9.88087890625,-8.18202734375,-6.78190625,-5.91050390625,2.53849609375,-1.82886328125,3.5000546875,-8.211671875
-16.09383984375,-11.9884140625,-11.7231171875,-19.63601953125,-17.85182421875,-15.94765234375,-9.5858046875,-11.33554296875,-14.57966015625,-8.8611171875,-11.3044921875,-9.07117578125,-11.127328125,-22.1447890625,-5.79872265625,-9.262296875,-8.3417265625,-4.19152734375,-6.8726640625,-3.46673046875,-6.69336328125,-10.25160546875,-9.88387890625,-7.84202734375,-6.27290625,-5.57450390625,1.60549609375,-1.30286328125,2.5720546875,-8.144671875
-13.73783984375,-10.2614140625,-10.0131171875,-18.00101953125,-14.13382421875,-12.94365234375,-8.0488046875,-13.73954296875,-13.15266015625,-5.7631171875,-10.9294921875,-7.69817578125,-8.421328125,-21.1987890625,-5.46872265625,-9.756296875,-8.6787265625,-2.40852734375,-5.9076640625,-3.37873046875,-6.25236328125,-9.66060546875,-9.14587890625,-6.81802734375,-5.45090625,-5.38250390625,1.23149609375,-1.02686328125,1.3750546875,-8.091671875
-11.51183984375,-8.4504140625,-8.3961171875,-15.77201953125,-10.63282421875,-10.02665234375,-6.6218046875,-13.74154296875,-11.47766015625,-2.7681171875,-10.2644921875,-7.13317578125,-5.440328125,-19.9857890625,-4.47072265625,-10.018296875,-8.1037265625,-0.92452734375,-4.2826640625,-2.92473046875,-5.56936328125,-8.40060546875,-7.82787890625,-5.22802734375,-4.41090625,-5.30950390625,1.38049609375,-0.99786328125,0.2490546875,-7.930671875
-9.79183984375,-6.9044140625,-7.1971171875,-13.63401953125,-8.07182421875,-7.80965234375,-5.5098046875,-11.04054296875,-9.76666015625,-0.5681171875,-9.4744921875,-7.19417578125,-2.810328125,-18.7617890625,-2.98872265625,-9.938296875,-6.4507265625,0.0454726562500001,-2.3056640625,-2.12473046875,-4.73036328125,-6.66660546875,-6.22787890625,-3.37002734375,-3.25190625,-5.31950390625,1.98549609375,-1.11286328125,-0.401945312500001,-7.622671875
-8.81583984375,-5.8074140625,-6.5751171875,-12.08001953125,-6.78082421875,-6.59165234375,-4.6958046875,-6.62854296875,-8.24766015625,0.4408828125,-8.8064921875,-7.39417578125,-0.924328125,-17.7327890625,-1.41872265625,-9.514296875,-4.0437265625,0.40947265625,-0.4856640625,-1.14873046875,-3.96236328125,-4.88560546875,-4.77787890625,-1.70202734375,-2.13590625,-5.46650390625,2.87449609375,-1.35186328125,-0.372945312500001,-7.277671875
-8.64083984375,-5.1664140625,-6.5031171875,-11.18601953125,-6.62982421875,-6.32865234375,-4.0708046875,-2.26654296875,-7.05766015625,0.2368828125,-8.5264921875,-7.25317578125,0.126671875,-16.9857890625,-0.29272265625,-8.880296875,-1.5507265625,0.16247265625,0.6413359375,-0.30473046875,-3.58436328125,-3.61960546875,-3.94087890625,-0.72802734375,-1.31390625,-5.89750390625,3.74849609375,-1.82686328125,0.2100546875,-7.071671875
-9.10983984375,-4.8434140625,-6.7881171875,-10.59401953125,-7.13082421875,-6.70565234375,-3.5508046875,0.47345703125,-6.19066015625,-0.8511171875,-8.8084921875,-6.56217578125,0.502671875,-16.4447890625,-0.06372265625,-8.267296875,0.3622734375,-0.59152734375,0.7343359375,0.0822695312500001,-3.84436328125,-3.32760546875,-4.02387890625,-0.80302734375,-1.04690625,-6.75650390625,4.28849609375,-2.63786328125,0.9830546875,-7.074671875
-9.90183984375,-4.6314140625,-7.1431171875,-9.75001953125,-7.66882421875,-7.28865234375,-3.1258046875,0.96845703125,-5.52466015625,-2.2851171875,-9.6124921875,-5.41617578125,0.505671875,-15.9117890625,-0.88772265625,-7.882296875,1.3442734375,-1.61152734375,-0.1646640625,-0.16873046875,-4.77336328125,-4.14160546875,-5.00587890625,-1.95402734375,-1.45590625,-8.05350390625,4.31649609375,-3.67486328125,1.5760546875,-7.160671875
-10.68083984375,-4.3484140625,-7.3241171875,-8.30101953125,-7.76482421875,-7.69365234375,-2.8168046875,-0.32154296875,-4.90466015625,-3.5081171875,-10.6494921875,-4.06117578125,0.448671875,-15.1997890625,-2.51672265625,-7.799296875,1.4012734375,-2.55352734375,-1.6276640625,-0.99573046875,-6.15236328125,-5.82960546875,-6.51287890625,-3.83502734375,-2.44090625,-9.59950390625,3.87249609375,-4.60686328125,1.7810546875,-7.094671875
-11.21883984375,-3.9424140625,-7.2691171875,-6.38101953125,-7.27082421875,-7.71665234375,-2.6468046875,-2.28654296875,-4.24766015625,-4.1551171875,-11.4944921875,-2.70917578125,0.540671875,-14.2797890625,-4.39372265625,-7.958296875,0.7222734375,-3.07952734375,-3.0436640625,-2.13173046875,-7.62836328125,-7.95360546875,-8.00387890625,-5.88202734375,-3.71990625,-11.06950390625,3.14849609375,-5.07086328125,1.5660546875,-6.739671875
-11.46183984375,-3.5514140625,-7.1441171875,-4.59401953125,-6.43382421875,-7.39765234375,-2.6578046875,-3.84654296875,-3.62366015625,-4.2031171875,-11.8154921875,-1.46817578125,0.802671875,-13.3687890625,-5.91872265625,-8.244296875,-0.5317265625,-3.01052734375,-3.9326640625,-3.26573046875,-8.89536328125,-10.08160546875,-9.02187890625,-7.56902734375,-4.96390625,-12.14650390625,2.34449609375,-4.89286328125,1.0260546875,-6.187671875
-11.55683984375,-3.4594140625,-7.2681171875,-3.70701953125,-5.79382421875,-7.00765234375,-2.9388046875,-4.48254296875,-3.28166015625,-3.9761171875,-11.5644921875,-0.40917578125,1.094671875,-12.8807890625,-6.77072265625,-8.568296875,-2.2867265625,-2.41352734375,-4.1456640625,-4.18373046875,-9.79536328125,-11.90160546875,-9.36987890625,-8.59802734375,-5.89790625,-12.63150390625,1.61549609375,-4.11386328125,0.3750546875,-5.660671875
-11.80183984375,-3.9474140625,-7.9231171875,-4.27001953125,-5.94782421875,-6.93565234375,-3.6008046875,-4.37654296875,-3.56866015625,-3.9841171875,-11.0194921875,0.357824218749999,1.261671875,-13.2457890625,-7.06572265625,-8.872296875,-4.4487265625,-1.57152734375,-3.8716640625,-4.80673046875,-10.29236328125,-13.19960546875,-9.10787890625,-8.91502734375,-6.32390625,-12.46550390625,1.11249609375,-2.85186328125,-0.0259453125000002,-5.278671875
-12.46783984375,-5.1164140625,-9.1791171875,-6.34801953125,-7.25182421875,-7.48965234375,-4.6908046875,-4.13454296875,-4.73666015625,-4.6621171875,-10.6154921875,0.69682421875,1.291671875,-14.6557890625,-7.24772265625,-9.077296875,-6.7347265625,-0.81952734375,-3.4606640625,-5.12273046875,-10.36036328125,-13.79060546875,-8.41887890625,-8.61102734375,-6.09090625,-11.69750390625,1.04549609375,-1.17986328125,0.2660546875,-4.873671875
-13.57083984375,-6.7824140625,-10.8321171875,-9.49201953125,-9.61082421875,-8.70765234375,-6.0918046875,-4.32154296875,-6.74066015625,-6.1431171875,-10.6824921875,0.553824218750001,1.328671875,-16.8807890625,-7.77472265625,-9.048296875,-8.6177265625,-0.38552734375,-3.2196640625,-5.12173046875,-9.91836328125,-13.51460546875,-7.48487890625,-7.83402734375,-5.11690625,-10.45950390625,1.64849609375,0.83113671875,1.5730546875,-4.066671875
-14.82683984375,-8.5054140625,-12.4901171875,-12.88201953125,-12.45882421875,-10.27965234375,-7.5008046875,-5.10454296875,-9.15466015625,-8.1771171875,-11.2464921875,0.0548242187500003,1.534671875,-19.3167890625,-8.84972265625,-8.629296875,-9.4597265625,-0.31252734375,-3.2836640625,-4.78773046875,-8.88636328125,-12.33860546875,-6.43787890625,-6.75502734375,-3.45090625,-8.97350390625,3.02249609375,2.96413671875,3.8480546875,-2.556671875
-15.83383984375,-9.7554140625,-13.7421171875,-15.57501953125,-14.97882421875,-11.66665234375,-8.5068046875,-6.15054296875,-11.29566015625,-10.2391171875,-12.0084921875,-0.51217578125,1.909671875,-21.2477890625,-10.32972265625,-7.726296875,-8.7947265625,-0.51852734375,-3.6076640625,-4.14873046875,-7.30936328125,-10.47160546875,-5.39187890625,-5.58302734375,-1.33190625,-7.55150390625,4.98749609375,4.77713671875,6.5680546875,-0.394671875
-16.29783984375,-10.1234140625,-14.3091171875,-16.76501953125,-16.42282421875,-12.32465234375,-8.7518046875,-6.75054296875,-12.49766015625,-11.7371171875,-12.5004921875,-0.81717578125,2.246671875,-22.1617890625,-11.81072265625,-6.378296875,-6.6207265625,-0.88552734375,-4.0346640625,-3.30473046875,-5.42936328125,-8.38960546875,-4.49487890625,-4.56102734375,0.81809375,-6.54950390625,7.06749609375,5.71913671875,8.8970546875,1.953328125
-16.12683984375,-9.4924140625,-14.1161171875,-16.01601953125,-16.39782421875,-11.91965234375,-8.0778046875,-6.13054296875,-12.37666015625,-12.2271171875,-12.3154921875,-0.60817578125,2.223671875,-21.9477890625,-12.80972265625,-4.780296875,-3.5107265625,-1.32052734375,-4.3956640625,-2.41673046875,-3.63436328125,-6.69860546875,-3.91187890625,-3.90802734375,2.49809375,-6.26250390625,8.65049609375,5.40313671875,10.0510546875,3.824328125
-15.40683984375,-8.0814140625,-13.2681171875,-13.43601953125,-14.97982421875,-10.46365234375,-6.5908046875,-3.89654296875,-10.97366015625,-11.5571171875,-11.2934921875,0.23482421875,1.590671875,-20.8857890625,-12.96472265625,-3.234296875,-0.4597265625,-1.75652734375,-4.5746640625,-1.65473046875,-2.33036328125,-5.91460546875,-3.76687890625,-3.73602734375,3.28009375,-6.82750390625,9.25749609375,3.86713671875,9.6640546875,4.696328125
-14.34183984375,-6.3384140625,-11.9891171875,-9.67901953125,-12.63082421875,-8.31365234375,-4.6238046875,-0.42754296875,-8.72666015625,-9.9071171875,-9.5864921875,1.71382421875,0.352671875,-19.4987890625,-12.19072265625,-2.055296875,1.5032734375,-2.14452734375,-4.5166640625,-1.15073046875,-1.79436328125,-6.27460546875,-4.08187890625,-3.98402734375,2.95609375,-8.15650390625,8.74849609375,1.64613671875,7.9370546875,4.439328125
-13.18383984375,-4.7584140625,-10.5301171875,-5.73101953125,-9.97882421875,-6.05665234375,-2.6288046875,3.10345703125,-6.28566015625,-7.7181171875,-7.5924921875,3.72882421875,-1.174328125,-18.3137890625,-10.74172265625,-1.475296875,1.7212734375,-2.44852734375,-4.2206640625,-0.98473046875,-2.10436328125,-7.65960546875,-4.74487890625,-4.44402734375,1.61409375,-9.94850390625,7.37649609375,-0.42486328125,5.5140546875,3.327328125
-12.11683984375,-3.7204140625,-9.0981171875,-2.52301953125,-7.59982421875,-4.30065234375,-1.0578046875,5.24445703125,-4.27966015625,-5.5631171875,-5.8174921875,6.05082421875,-2.483328125,-17.6617890625,-9.11772265625,-1.596296875,0.1542734375,-2.65252734375,-3.7356640625,-1.17773046875,-3.12036328125,-9.63060546875,-5.53187890625,-4.86502734375,-0.39990625,-11.75550390625,5.66149609375,-1.56986328125,3.1770546875,1.870328125
-11.21583984375,-3.4074140625,-7.8601171875,-0.61001953125,-5.88582421875,-3.47465234375,-0.2748046875,5.02045703125,-3.12366015625,-4.0091171875,-4.7244921875,8.27382421875,-3.120328125,-17.6037890625,-7.88272265625,-2.392296875,-2.6527265625,-2.76252734375,-3.1856640625,-1.71173046875,-4.54036328125,-11.54160546875,-6.17787890625,-5.08702734375,-2.59990625,-13.08450390625,4.19449609375,-1.40186328125,1.5570546875,0.576328125
-10.54283984375,-3.8244140625,-6.9921171875,-0.0830195312500006,-5.01582421875,-3.73865234375,-0.490804687499999,2.46245703125,-2.94666015625,-3.4991171875,-4.6184921875,9.81382421875,-2.890328125,-18.0137890625,-7.49772265625,-3.737296875,-5.8337265625,-2.83152734375,-2.7716640625,-2.54873046875,-5.98036328125,-12.73560546875,-6.48687890625,-5.11102734375,-4.52590625,-13.48250390625,3.43449609375,-0.0528632812500001,0.9750546875,-0.209671875000001
-10.27483984375,-4.8564140625,-6.7321171875,-0.71901953125,-4.99382421875,-5.00165234375,-1.7288046875,-1.39954296875,-3.63366015625,-4.2651171875,-5.5864921875,10.00282421875,-1.905328125,-18.7427890625,-8.19572265625,-5.445296875,-8.5507265625,-2.95852734375,-2.7506640625,-3.65873046875,-7.09236328125,-12.76660546875,-6.43787890625,-5.08002734375,-5.89290625,-12.64250390625,3.57049609375,1.94413671875,1.4260546875,-0.366671875000001
-10.67883984375,-6.3314140625,-7.3361171875,-2.21501953125,-5.68482421875,-6.99165234375,-3.8238046875,-5.04454296875,-4.90766015625,-6.2641171875,-7.4714921875,8.34482421875,-0.502328125,-19.7037890625,-9.90372265625,-7.314296875,-10.3097265625,-3.27152734375,-3.3616640625,-5.01873046875,-7.68236328125,-11.58660546875,-6.25087890625,-5.23202734375,-6.69590625,-10.53550390625,4.43549609375,3.90713671875,2.6250546875,-0.0116718750000002
-11.91683984375,-8.0644140625,-8.9521171875,-4.35601953125,-6.86382421875,-9.35365234375,-6.4428046875,-7.17654296875,-6.41766015625,-9.1631171875,-9.8904921875,4.81482421875,0.875671875,-20.8457890625,-12.22872265625,-9.170296875,-11.0997265625,-3.89452734375,-4.7276640625,-6.59373046875,-7.80536328125,-9.59660546875,-6.32787890625,-5.82402734375,-7.19890625,-7.52950390625,5.53949609375,5.23513671875,4.0540546875,0.514328125
-13.88783984375,-9.8614140625,-11.4691171875,-7.03901953125,-8.26882421875,-11.72465234375,-9.1288046875,-7.25554296875,-7.80266015625,-12.3891171875,-12.3054921875,0.0338242187500004,1.794671875,-22.0587890625,-14.54572265625,-10.846296875,-11.2967265625,-4.89952734375,-6.7386640625,-8.27273046875,-7.73936328125,-7.49760546875,-7.06987890625,-7.01602734375,-7.78090625,-4.38250390625,6.23749609375,5.53713671875,5.0540546875,0.716328125
-16.19583984375,-11.4734140625,-14.4391171875,-10.13701953125,-9.62282421875,-13.76165234375,-11.3468046875,-5.59054296875,-8.74266015625,-15.2391171875,-14.1124921875,-4.85217578125,1.953671875,-23.1117890625,-16.15972265625,-12.123296875,-11.3457265625,-6.25752734375,-8.9796640625,-9.80573046875,-7.83336328125,-5.98960546875,-8.63587890625,-8.73302734375,-8.68990625,-2.01250390625,6.01749609375,4.66313671875,5.0210546875,0.125328124999999
-18.21283984375,-12.5704140625,-17.1361171875,-13.29801953125,-10.63982421875,-15.11565234375,-12.5638046875,-2.99354296875,-9.01266015625,-17.0321171875,-14.7534921875,-8.53517578125,1.296671875,-23.6647890625,-16.49572265625,-12.684296875,-11.4287265625,-7.77352734375,-10.7906640625,-10.80673046875,-8.27636328125,-5.46260546875,-10.76787890625,-10.59702734375,-9.84890625,-1.14750390625,4.77849609375,2.69013671875,3.6440546875,-1.454671875
-19.22183984375,-12.7964140625,-18.7611171875,-15.84001953125,-11.02982421875,-15.42665234375,-12.3598046875,-0.30754296875,-8.54466015625,-17.2931171875,-13.8474921875,-9.98417578125,0.0646718750000002,-23.3797890625,-15.26572265625,-12.179296875,-11.3507265625,-9.08252734375,-11.4946640625,-10.85373046875,-8.94036328125,-5.84360546875,-12.82087890625,-11.99102734375,-10.83590625,-2.00450390625,2.93449609375,-0.0918632812500002,1.0870546875,-3.781671875
-18.65183984375,-11.8984140625,-18.7351171875,-16.93301953125,-10.57382421875,-14.42265234375,-10.5748046875,1.85645703125,-7.45866015625,-15.9281171875,-11.3184921875,-8.73117578125,-1.256328125,-22.0977890625,-12.57872265625,-10.375296875,-10.7057265625,-9.73352734375,-10.6726640625,-9.65173046875,-9.40236328125,-6.65860546875,-13.99287890625,-12.27502734375,-11.05790625,-4.20150390625,1.28049609375,-3.17186328125,-1.9989453125,-6.201671875
-16.35783984375,-9.8614140625,-16.9461171875,-16.00601953125,-9.20082421875,-12.08365234375,-7.4008046875,3.11745703125,-6.01966015625,-13.2751171875,-7.4714921875,-4.96817578125,-2.073328125,-19.9567890625,-8.93972265625,-7.318296875,-9.1787265625,-9.34852734375,-8.3426640625,-7.16973046875,-9.14536328125,-7.24060546875,-13.64887890625,-11.01902734375,-10.00890625,-6.91950390625,0.68349609375,-5.82286328125,-4.6469453125,-7.861671875
-12.71283984375,-6.9614140625,-13.7981171875,-13.11501953125,-7.03182421875,-8.74565234375,-3.3798046875,3.28945703125,-4.48966015625,-9.9931171875,-2.9464921875,0.502824218750001,-1.895328125,-17.3527890625,-5.08772265625,-3.384296875,-6.7497265625,-7.77452734375,-4.9336640625,-3.65173046875,-7.81036328125,-6.98760546875,-11.57987890625,-8.17902734375,-7.49690625,-9.23350390625,1.75349609375,-7.20186328125,-5.8869453125,-8.043671875
-8.43383984375,-3.7124140625,-10.0491171875,-8.97901953125,-4.34782421875,-5.02765234375,0.719195312500001,2.47045703125,-3.02066015625,-6.8191171875,1.4545078125,6.44082421875,-0.545328125,-14.7677890625,-1.73372265625,0.782703124999999,-3.7267265625,-5.16352734375,-1.1166640625,0.45626953125,-5.40036328125,-5.56160546875,-8.07787890625,-4.13602734375,-3.75290625,-10.47150390625,4.60249609375,-6.60386328125,-5.1079453125,-6.470671875
-4.30183984375,-0.7264140625,-6.5491171875,-4.68301953125,-1.53282421875,-1.64065234375,4.0941953125,1.15045703125,-1.64866015625,-4.3201171875,4.9995078125,11.42682421875,1.745671875,-12.5747890625,0.66827734375,4.448703125,-0.6547265625,-1.96552734375,2.4013359375,4.61126953125,-2.32636328125,-2.98860546875,-3.84287890625,0.39397265625,0.603093749999999,-10.41650390625,8.78749609375,-3.81786328125,-2.3339453125,-3.457671875
-0.984839843750001,1.4575859375,-4.0051171875,-1.24401953125,1.00617578125,0.83034765625,6.1221953125,0.13045703125,-0.38466015625,-2.7501171875,7.2305078125,14.23582421875,4.410671875,-10.9587890625,2.00227734375,7.011703125,1.8392734375,1.17347265625,5.0613359375,8.28026953125,0.711636718749999,0.36639453125,0.240121093750001,4.56797265625,4.75809375,-9.30550390625,13.45949609375,0.64313671875,1.7140546875,0.184328125
1.05416015625,2.5345859375,-2.8231171875,0.71998046875,2.90917578125,2.08634765625,6.5501953125,0.16745703125,0.72133984375,-2.0301171875,8.0925078125,14.22782421875,6.754671875,-9.9107890625,2.44827734375,8.190703125,3.2092734375,3.60847265625,6.5763359375,11.03726953125,2.98563671875,3.91839453125,3.36812109375,7.68097265625,7.97009375,-7.62750390625,17.65049609375,5.60813671875,5.8510546875,3.468328125
1.66216015625,2.5195859375,-3.0361171875,1.09398046875,3.96017578125,2.19634765625,5.5801953125,1.54345703125,1.59433984375,-1.8321171875,7.9255078125,11.63882421875,8.188671875,-9.2717890625,2.37727734375,8.114703125,3.1422734375,4.92847265625,6.9643359375,12.64526953125,4.02363671875,7.03739453125,5.04012109375,9.36397265625,9.81209375,-5.87750390625,20.59049609375,9.65413671875,8.8690546875,5.615328125
1.04216015625,1.7075859375,-4.3341171875,0.18198046875,4.12717578125,1.54534765625,3.7911953125,3.83745703125,2.14933984375,-1.7591171875,7.3015078125,7.55682421875,8.413671875,-8.8317890625,2.20427734375,7.217703125,1.6482734375,5.09647265625,6.4893359375,13.08526953125,3.76263671875,9.20839453125,5.15312109375,9.65297265625,10.26309375,-4.38150390625,21.92149609375,11.67013671875,9.9920546875,6.313328125
-0.368839843750001,0.5175859375,-6.1931171875,-1.51701953125,3.54217578125,0.62734765625,1.8911953125,6.09645703125,2.26633984375,-1.5561171875,6.7345078125,3.50682421875,7.504671875,-8.4697890625,2.18227734375,6.007703125,-0.9257265625,4.40747265625,5.5123359375,12.50526953125,2.52063671875,10.13139453125,3.96312109375,8.89797265625,9.63509375,-3.25250390625,21.73349609375,11.29813671875,9.1450546875,5.756328125
-2.14383984375,-0.6874140625,-8.0671171875,-3.54401953125,2.41717578125,-0.203652343750001,0.425195312500001,7.31945703125,1.78233984375,-1.2531171875,6.4275078125,0.78982421875,5.888671875,-8.2587890625,2.27327734375,4.824703125,-3.9457265625,3.30547265625,4.3383359375,11.12826953125,0.80763671875,9.75739453125,1.94112109375,7.57397265625,8.38809375,-2.43250390625,20.44049609375,9.01613671875,6.9130546875,4.477328125
-3.98883984375,-1.7064140625,-9.5471171875,-5.60201953125,0.98517578125,-0.851652343750001,-0.393804687499999,6.96845703125,0.59033984375,-1.1101171875,6.2195078125,-0.0431757812500004,4.208671875,-8.4027890625,2.19627734375,3.746703125,-6.6217265625,2.18347265625,3.1303359375,9.19126953125,-0.868363281250001,8.27739453125,-0.38687890625,6.09597265625,6.93809375,-1.78450390625,18.58249609375,5.85913671875,4.2480546875,3.111328125
-5.68883984375,-2.4704140625,-10.4191171875,-7.54401953125,-0.50882421875,-1.37965234375,-0.639804687499999,5.18645703125,-1.20866015625,-1.4021171875,5.7875078125,0.72482421875,3.096671875,-9.0487890625,1.66727734375,2.702703125,-8.1957265625,1.28347265625,1.9433359375,6.94626953125,-2.12036328125,6.07039453125,-2.54787890625,4.71497265625,5.55809375,-1.17950390625,16.64649609375,2.94313671875,2.0560546875,2.175328125
-7.00483984375,-2.9304140625,-10.6381171875,-9.24401953125,-1.78482421875,-1.79765234375,-0.474804687499999,2.64045703125,-3.22866015625,-2.1531171875,4.9685078125,2.33982421875,2.954671875,-10.0967890625,0.65427734375,1.685703125,-8.2037265625,0.70247265625,0.836335937499999,4.70626953125,-2.70436328125,3.63039453125,-4.19287890625,3.53897265625,4.38709375,-0.55750390625,14.99649609375,1.03613671875,0.880054687499999,1.943328125
-7.66983984375,-2.9604140625,-10.2391171875,-10.46001953125,-2.51582421875,-1.92565234375,0.0281953125000003,0.16645703125,-4.87366015625,-3.0131171875,3.9605078125,4.09782421875,3.838671875,-11.1307890625,-0.51472265625,0.905703125,-6.6537265625,0.46447265625,-0.0306640625000005,2.86126953125,-2.49436328125,1.47239453125,-5.11387890625,2.63197265625,3.52009375,0.05149609375,13.88449609375,0.37513671875,0.7940546875,2.437328125
-7.43283984375,-2.3564140625,-9.2561171875,-10.78201953125,-2.37082421875,-1.41965234375,0.929195312500001,-1.52954296875,-5.51866015625,-3.3671171875,3.2775078125,5.66182421875,5.490671875,-11.5407890625,-1.24372265625,0.745703125,-4.0377265625,0.62447265625,-0.3876640625,1.82526953125,-1.46636328125,0.0693945312500004,-5.22887890625,2.10797265625,3.08709375,0.56649609375,13.51649609375,0.76113671875,1.5320546875,3.506328125
-6.12583984375,-0.9614140625,-7.7401171875,-9.77601953125,-1.12682421875,0.0233476562499995,2.3081953125,-2.03654296875,-4.73266015625,-2.6241171875,3.4755078125,7.02082421875,7.456671875,-10.7797890625,-0.93572265625,1.543703125,-1.1127265625,1.28347265625,0.0253359374999995,1.90426953125,0.284636718749999,-0.23760546875,-4.57487890625,2.12897265625,3.24409375,0.90549609375,14.05349609375,1.81013671875,2.7300546875,4.921328125
-3.82183984375,1.1555859375,-5.8751171875,-7.31301953125,1.14817578125,2.39934765625,4.0901953125,-1.30554296875,-2.51366015625,-0.5781171875,4.7945078125,8.21382421875,9.230671875,-8.6817890625,0.68827734375,3.337703125,1.3872734375,2.50047265625,1.2713359375,3.12526953125,2.50763671875,0.66539453125,-3.31087890625,2.79197265625,4.06309375,1.02149609375,15.53249609375,3.19213671875,4.1080546875,6.442328125
-1.02483984375,3.5755859375,-4.0941171875,-3.88601953125,3.96517578125,5.22134765625,5.9271953125,0.32145703125,0.585339843749999,2.3778828125,6.9325078125,9.07682421875,10.342671875,-5.6657890625,3.35127734375,5.726703125,2.9542734375,4.13047265625,3.0713359375,5.12626953125,4.78863671875,2.55539453125,-1.74087890625,3.99097265625,5.40309375,0.89849609375,17.74949609375,4.70213671875,5.5000546875,7.842328125
1.32216015625,5.5775859375,-3.0391171875,-0.60601953125,6.46517578125,7.57834765625,7.2481953125,2.19345703125,3.55833984375,5.3048828125,9.0865078125,9.21282421875,10.419671875,-2.6487890625,6.23027734375,7.964703125,3.3252734375,5.75947265625,4.8363359375,7.20826953125,6.62763671875,4.88839453125,-0.297878906249999,5.35297265625,6.85809375,0.515496093749999,20.22349609375,6.19513671875,6.7660546875,8.925328125
2.16216015625,6.3845859375,-3.3141171875,1.21698046875,7.69217578125,8.46334765625,7.4591953125,3.59745703125,5.32133984375,7.0498828125,10.2715078125,8.23182421875,9.244671875,-0.669789062499998,8.26127734375,9.235703125,2.4012734375,6.81147265625,5.8563359375,8.56526953125,7.58263671875,6.93839453125,0.558121093750001,6.33197265625,7.85709375,-0.17850390625,22.30749609375,7.46613671875,7.7100546875,9.544328125
0.823160156249999,5.4875859375,-5.1771171875,0.68598046875,6.98417578125,7.20034765625,6.1981953125,4.08345703125,5.17433984375,6.7288828125,9.7405078125,6.06382421875,6.829671875,-0.417789062499999,8.57227734375,9.000703125,0.2062734375,6.79147265625,5.6043359375,8.58526953125,7.42563671875,8.04639453125,0.48812109375,6.42797265625,7.89109375,-1.24150390625,23.42049609375,8.19513671875,8.0820546875,9.629328125
-2.65283984375,2.9075859375,-8.3661171875,-2.23701953125,4.28917578125,3.76534765625,3.5441953125,3.63745703125,3.12933984375,4.1328828125,7.3395078125,3.13882421875,3.494671875,-1.9137890625,6.85827734375,7.242703125,-3.0387265625,5.50647265625,3.9863359375,7.11126953125,6.24563671875,7.84639453125,-0.558878906249999,5.45597265625,6.77009375,-2.66950390625,23.29249609375,8.03213671875,7.7040546875,9.195328125
-7.46383984375,-0.7274140625,-12.1171171875,-6.67901953125,0.249175781250001,-1.13265234375,0.0661953125000005,2.57545703125,-0.0706601562499998,-0.1221171875,3.6155078125,0.264824218749999,-0.156328125,-4.5107890625,3.54127734375,4.506703125,-6.7627265625,3.19147265625,1.4323359375,4.53126953125,4.45063671875,6.40539453125,-2.28687890625,3.69397265625,4.75909375,-4.29850390625,22.09349609375,6.80913671875,6.6320546875,8.371328125
-12.27583984375,-4.3774140625,-15.3871171875,-11.18401953125,-4.00082421875,-6.25865234375,-3.3288046875,1.25145703125,-3.26466015625,-4.7861171875,-0.359492187499999,-1.74017578125,-3.393328125,-7.1587890625,-0.34672265625,1.675703125,-10.0317265625,0.46347265625,-1.2576640625,1.63926953125,2.64263671875,4.19539453125,-4.11787890625,1.82397265625,2.47909375,-5.78950390625,20.36249609375,4.74713671875,5.2420546875,7.395328125
-15.67783984375,-6.9844140625,-17.2091171875,-14.29001953125,-7.25782421875,-10.26765234375,-5.7368046875,-0.19654296875,-5.38366015625,-8.4621171875,-3.4094921875,-2.45717578125,-5.606328125,-8.8517890625,-3.53872265625,-0.434296875,-11.8137265625,-1.88352734375,-3.2446640625,-0.68473046875,1.38463671875,1.90439453125,-5.42087890625,0.63597265625,0.61209375,-6.74550390625,18.76649609375,2.46613671875,4.1160546875,6.548328125
-16.76583984375,-7.9014140625,-17.0691171875,-15.10501953125,-8.71082421875,-12.19665234375,-6.6318046875,-1.86054296875,-5.92266015625,-10.1491171875,-4.7324921875,-2.09817578125,-6.494328125,-9.0377890625,-5.04972265625,-1.429296875,-11.5017265625,-3.18252734375,-3.9956640625,-1.84473046875,0.944636718749999,0.134394531250001,-5.78487890625,0.65997265625,-0.42590625,-6.93250390625,17.80349609375,0.75213671875,3.7780546875,6.032328125
-15.53483984375,-7.1174140625,-15.1081171875,-13.62701953125,-8.19082421875,-11.78665234375,-6.0498046875,-3.80854296875,-5.07566015625,-9.5791171875,-4.1894921875,-1.36917578125,-6.107328125,-7.7807890625,-4.55972265625,-1.459296875,-9.3327265625,-3.12952734375,-3.4486640625,-1.74273046875,1.19163671875,-0.82460546875,-5.18387890625,1.92997265625,-0.643906250000001,-6.44050390625,17.63149609375,0.18813671875,4.4310546875,5.865328125
-12.76983984375,-5.1464140625,-12.0111171875,-10.64301953125,-6.07982421875,-9.46765234375,-4.4558046875,-5.77254296875,-3.49866015625,-7.1551171875,-2.2344921875,-1.01717578125,-4.744328125,-5.5707890625,-2.42872265625,-1.003296875,-6.3527265625,-1.82652734375,-1.9146640625,-0.72173046875,1.72463671875,-1.02460546875,-3.92287890625,4.00497265625,-0.34490625,-5.63750390625,18.09949609375,0.91813671875,5.8860546875,5.916328125
-9.48783984375,-2.6594140625,-8.6291171875,-7.25701953125,-2.98382421875,-6.01365234375,-2.3958046875,-7.08454296875,-1.85666015625,-3.6021171875,0.4465078125,-1.32817578125,-2.831328125,-2.9197890625,0.64927734375,-0.478296875,-3.8337265625,0.38547265625,0.2063359375,0.72926953125,2.18963671875,-0.677605468749999,-2.39187890625,6.25797265625,0.18209375,-4.91550390625,18.93749609375,2.66813671875,7.7320546875,6.070328125
-6.38183984375,-0.1324140625,-5.5761171875,-4.34801953125,0.563175781250001,-2.14365234375,-0.188804687499999,-6.99754296875,-0.47366015625,0.4138828125,3.3255078125,-1.93317578125,-0.805328125,-0.0617890625000008,4.05227734375,0.0577031249999997,-2.5507265625,3.12647265625,2.6723359375,2.28426953125,2.53163671875,0.0323945312500005,-0.808878906249999,8.21297265625,0.91109375,-4.40750390625,19.93749609375,4.96013671875,9.6070546875,6.386328125
-3.65883984375,2.2805859375,-3.0531171875,-2.26601953125,4.19617578125,1.68234765625,2.1161953125,-5.16354296875,0.752339843749999,4.4408828125,6.1825078125,-2.06917578125,0.938671875,3.0322109375,7.43627734375,0.892703125000001,-2.4417265625,6.06447265625,5.4233359375,3.89826953125,3.00663671875,0.98639453125,0.84512109375,9.74497265625,2.08109375,-3.91350390625,20.99749609375,7.30413671875,11.3190546875,7.065328125
-1.23583984375,4.5955859375,-0.960117187499999,-0.88801953125,7.63617578125,5.21934765625,4.5471953125,-1.90054296875,2.16533984375,8.1658828125,8.9805078125,-1.11717578125,2.095671875,6.3952109375,10.65727734375,2.381703125,-2.8567265625,8.88447265625,8.4013359375,5.69126953125,3.96563671875,2.00839453125,2.67312109375,11.00697265625,3.95109375,-3.08450390625,22.01249609375,9.22713671875,12.7620546875,8.235328125
0.99116015625,6.7835859375,0.858882812500001,0.109980468750001,10.59517578125,8.30534765625,6.9861953125,1.91745703125,4.08133984375,11.2728828125,11.6505078125,0.954824218750001,2.482671875,9.8272109375,13.57127734375,4.619703125,-3.1257265625,11.23947265625,11.3453359375,7.73326953125,5.58763671875,2.78239453125,4.62512109375,12.20697265625,6.52909375,-1.71450390625,22.77349609375,10.26613671875,13.7740546875,9.743328125
2.99016015625,8.6715859375,2.4428828125,0.97398046875,12.81317578125,10.80334765625,9.1411953125,5.20345703125,6.55833984375,13.4298828125,14.0005078125,3.56282421875,2.097671875,12.8652109375,15.91327734375,7.322703125,-2.9637265625,12.78747265625,13.7703359375,9.91926953125,7.77563671875,2.94039453125,6.40512109375,13.42797265625,9.49509375,0.0854960937499998,23.01749609375,10.08313671875,14.1230546875,11.165328125
4.58116015625,10.0665859375,3.7348828125,1.75998046875,14.17817578125,12.64934765625,10.7451953125,7.02745703125,9.31733984375,14.4288828125,15.8285078125,5.86082421875,1.159671875,14.9952109375,17.33027734375,9.971703125,-2.4867265625,13.32447265625,15.1823359375,11.99826953125,10.22563671875,2.27839453125,7.58012109375,14.60297265625,12.36609375,1.96549609375,22.62449609375,8.69713671875,13.6960546875,12.045328125
5.55016015625,10.9195859375,4.6998828125,2.42998046875,14.81517578125,13.92534765625,11.7751953125,6.95845703125,11.82433984375,14.3548828125,17.1045078125,7.22582421875,0.061671875,15.9282109375,17.55527734375,12.094703125,-1.9327265625,12.90747265625,15.3383359375,13.69326953125,12.57963671875,0.93639453125,7.82712109375,15.59097265625,14.71709375,3.54449609375,21.75349609375,6.60613671875,12.6650546875,12.156328125
5.81416015625,11.3925859375,5.3948828125,3.00198046875,15.03617578125,14.85834765625,12.4831953125,5.28545703125,13.49833984375,13.6108828125,18.0175078125,7.53082421875,-0.768328125,15.7542109375,16.57727734375,13.444703125,-1.4057265625,11.87247265625,14.3423359375,14.76226953125,14.52363671875,-0.620605468749999,7.08912109375,16.22197265625,16.28109375,4.56949609375,20.76149609375,4.60713671875,11.4410546875,11.569328125
5.48316015625,11.7235859375,5.8978828125,3.56198046875,15.17217578125,15.69134765625,13.1911953125,2.97945703125,13.95533984375,12.7338828125,18.8305078125,7.09182421875,-1.069328125,14.8552109375,14.66827734375,13.991703125,-0.8397265625,10.66947265625,12.5413359375,14.99026953125,15.78063671875,-1.83260546875,5.56112109375,16.28097265625,16.88709375,4.91449609375,19.92249609375,3.35313671875,10.3800546875,10.464328125
4.75316015625,12.0375859375,6.1818828125,4.14098046875,15.39317578125,16.49834765625,14.0211953125,1.28945703125,13.16833984375,12.1228828125,19.6385078125,6.37982421875,-0.876328125,13.6692109375,12.26327734375,13.791703125,-0.1317265625,9.63947265625,10.3293359375,14.18326953125,16.08663671875,-2.31460546875,3.54412109375,15.53097265625,16.37909375,4.49349609375,19.20749609375,2.96913671875,9.4960546875,8.900328125
3.78916015625,12.2655859375,6.1038828125,4.63298046875,15.65317578125,17.09834765625,14.7641953125,1.13945703125,11.48733984375,11.8608828125,20.2655078125,5.72882421875,-0.477328125,12.5002109375,9.82127734375,12.906703125,0.7172734375,8.88547265625,8.0443359375,12.27026953125,15.24963671875,-2.00860546875,1.32612109375,13.82897265625,14.67209375,3.25349609375,18.31749609375,3.02013671875,8.4470546875,6.772328125
2.77216015625,12.2295859375,5.5628828125,4.92598046875,15.79217578125,17.16934765625,15.0101953125,2.65845703125,9.49933984375,11.7768828125,20.3655078125,5.22382421875,-0.220328125,11.5032109375,7.76327734375,11.441703125,1.5712734375,8.33047265625,5.9693359375,9.46426953125,13.30963671875,-1.13160546875,-0.842878906249999,11.29197265625,11.92009375,1.26349609375,16.96049609375,2.84313671875,6.8250546875,3.997328125
2.01616015625,11.8175859375,4.6768828125,5.09698046875,15.69417578125,16.48034765625,14.4041953125,5.13345703125,7.80733984375,11.6288828125,19.6585078125,4.81382421875,-0.290328125,10.7782109375,6.46227734375,9.613703125,2.2522734375,7.87247265625,4.3713359375,6.33026953125,10.64663671875,-0.0336054687499994,-2.71687890625,8.36497265625,8.62309375,-1.17350390625,15.13349609375,1.98013671875,4.5020546875,0.753328124999999
1.90716015625,11.0895859375,3.8098828125,5.42398046875,15.36217578125,15.06834765625,12.8751953125,7.41345703125,6.80933984375,11.2848828125,18.1135078125,4.48482421875,-0.596328125,10.3922109375,6.16527734375,7.763703125,2.6552734375,7.46847265625,3.4683359375,3.63726953125,7.91763671875,0.92739453125,-4.06287890625,5.68297265625,5.54509375,-3.52850390625,13.17449609375,0.42313671875,1.7710546875,-2.470671875
2.65616015625,10.2345859375,3.3968828125,6.12698046875,14.87617578125,13.23534765625,10.6991953125,8.53645703125,6.57633984375,10.7638828125,15.9725078125,4.34182421875,-0.843328125,10.3202109375,6.86027734375,6.270703125,2.8302734375,7.09747265625,3.3273359375,2.05826953125,5.82663671875,1.43439453125,-4.74787890625,3.80997265625,3.42009375,-5.21150390625,11.56249609375,-1.43186328125,-0.8019453125,-5.042671875
4.10316015625,9.4565859375,3.7138828125,7.08698046875,14.30717578125,11.41534765625,8.4011953125,8.21845703125,6.87533984375,10.1698828125,13.6475078125,4.54082421875,-0.741328125,10.3842109375,8.21627734375,5.407703125,2.9612734375,6.70247265625,3.7843359375,1.86826953125,4.84063671875,1.26339453125,-4.82487890625,2.99997265625,2.64309375,-5.78850390625,10.62849609375,-3.01686328125,-2.6509453125,-6.477671875
5.77416015625,8.8685859375,4.7398828125,7.81898046875,13.66317578125,9.99234765625,6.5571953125,6.93745703125,7.32633984375,9.6078828125,11.5715078125,5.16682421875,-0.218328125,10.3132109375,9.68327734375,5.256703125,3.2732734375,6.18547265625,4.4683359375,2.83626953125,5.04263671875,0.363394531250001,-4.52887890625,3.11197265625,3.12309375,-5.13750390625,10.38649609375,-3.84886328125,-3.4389453125,-6.643671875
7.10316015625,8.4655859375,6.1858828125,7.72198046875,12.92017578125,9.17334765625,5.5881953125,5.58145703125,7.57833984375,9.1328828125,10.0765078125,6.14782421875,0.480671875,9.8782109375,10.70427734375,5.711703125,3.8932734375,5.47247265625,4.9363359375,4.34826953125,6.16663671875,-1.06460546875,-4.17987890625,3.71497265625,4.38609375,-3.44250390625,10.57149609375,-3.68986328125,-3.1359453125,-5.783671875
7.64816015625,8.1785859375,7.6388828125,6.47498046875,12.08217578125,8.93334765625,5.6121953125,4.90845703125,7.44633984375,8.7478828125,9.3275078125,7.25682421875,0.903671875,9.0052109375,10.89927734375,6.554703125,4.7692734375,4.56047265625,4.8533359375,5.68926953125,7.74763671875,-2.59860546875,-4.05187890625,4.28397265625,5.83309375,-1.08550390625,10.80649609375,-2.60586328125,-1.9899453125,-4.382671875
7.25516015625,7.9285859375,8.7328828125,4.28598046875,11.21217578125,9.06234765625,6.3961953125,5.14945703125,6.94633984375,8.4088828125,9.2905078125,8.17282421875,0.638671875,7.8002109375,10.16027734375,7.513703125,5.6562734375,3.53847265625,4.1073359375,6.32126953125,9.29363671875,-3.75160546875,-4.28687890625,4.38897265625,6.97409375,1.48449609375,10.75849609375,-0.96186328125,-0.4409453125,-2.991671875
6.11816015625,7.6515859375,9.2388828125,1.86298046875,10.41217578125,9.27434765625,7.4501953125,5.93345703125,6.23933984375,8.0338828125,9.7495078125,8.59482421875,-0.437328125,6.4832109375,8.63027734375,8.285703125,6.1852734375,2.56647265625,2.8193359375,6.04426953125,10.39663671875,-4.16760546875,-4.86087890625,3.80097265625,7.54109375,3.83749609375,10.23149609375,0.65213671875,0.9690546875,-2.069671875
4.67416015625,7.2915859375,9.0758828125,0.0509804687499997,9.75217578125,9.30334765625,8.2041953125,6.52445703125,5.54033984375,7.5008828125,10.3475078125,8.36082421875,-2.078328125,5.2672109375,6.61427734375,8.565703125,6.0052734375,1.83847265625,1.2673359375,4.98826953125,10.78663671875,-3.75160546875,-5.59687890625,2.53997265625,7.47109375,5.60549609375,9.18449609375,1.60413671875,1.7370546875,-1.879671875
3.34016015625,6.7815859375,8.2528828125,-0.64501953125,9.19317578125,8.95734765625,8.2281953125,6.22945703125,5.00633984375,6.6638828125,10.6685078125,7.54782421875,-3.785328125,4.2362109375,4.44927734375,8.120703125,4.9792734375,1.51347265625,-0.2126640625,3.49126953125,10.36063671875,-2.68160546875,-6.21587890625,0.86897265625,6.86409375,6.53849609375,7.74149609375,1.48013671875,1.5800546875,-2.409671875
2.28216015625,6.0555859375,6.8508828125,-0.32401953125,8.57717578125,8.12734765625,7.3661953125,4.78045703125,4.67333984375,5.3858828125,10.3575078125,6.44882421875,-5.056328125,3.3172109375,2.41327734375,6.909703125,3.3512734375,1.66647265625,-1.3356640625,1.95026953125,9.20263671875,-1.29760546875,-6.43287890625,-0.77402734375,5.93009375,6.56249609375,6.18349609375,0.31013671875,0.5700546875,-3.367671875
1.42416015625,5.0945859375,5.0418828125,0.439980468750001,7.69417578125,6.79834765625,5.7521953125,2.52945703125,4.44733984375,3.5898828125,9.2435078125,5.42982421875,-5.594328125,2.3622109375,0.69527734375,5.153703125,1.7332734375,2.27347265625,-1.9506640625,0.69326953125,7.57763671875,0.05239453125,-6.07187890625,-1.93202734375,4.93909375,5.79949609375,4.87949609375,-1.40686328125,-0.8629453125,-4.290671875
0.62916015625,3.9525859375,3.1118828125,0.987980468750001,6.39417578125,5.06234765625,3.7121953125,0.29545703125,4.16333984375,1.3058828125,7.4155078125,4.73982421875,-5.354328125,1.2842109375,-0.57972265625,3.283703125,0.8412734375,3.23647265625,-2.0766640625,-0.0957304687499998,5.86163671875,1.15639453125,-5.14087890625,-2.31202734375,4.14309375,4.53649609375,4.17149609375,-2.90686328125,-2.1109453125,-4.755671875
-0.17183984375,2.7505859375,1.3988828125,0.94098046875,4.66817578125,3.09134765625,1.6091953125,-1.09054296875,3.69233984375,-1.3111171875,5.1925078125,4.36982421875,-4.467328125,0.130210937499999,-1.35872265625,1.769703125,1.0972734375,4.38547265625,-1.8786640625,-0.40973046875,4.40363671875,1.96739453125,-3.84687890625,-1.91202734375,3.68609375,3.12749609375,4.21749609375,-3.52286328125,-2.6729453125,-4.588671875
-0.95983984375,1.6305859375,0.164882812500002,0.327980468750001,2.67817578125,1.10234765625,-0.268804687499999,-1.29854296875,3.02933984375,-3.9831171875,3.0085078125,4.07482421875,-3.151328125,-0.942789062500001,-1.65872265625,0.912703125,2.3062734375,5.46447265625,-1.5856640625,-0.40773046875,3.37263671875,2.51139453125,-2.52287890625,-1.03002734375,3.52009375,1.86049609375,4.88449609375,-3.02886328125,-2.4129453125,-3.967671875
-1.64483984375,0.6945859375,-0.517117187499998,-0.522019531250001,0.726175781250001,-0.664652343750001,-1.7558046875,-0.69454296875,2.31433984375,-6.3391171875,1.2805078125,3.53582421875,-1.688328125,-1.7397890625,-1.53272265625,0.714703125,3.6652734375,6.15647265625,-1.4016640625,-0.34673046875,2.69663671875,2.75439453125,-1.52387890625,-0.14002734375,3.39509375,0.82949609375,5.75049609375,-1.80886328125,-1.6649453125,-3.359671875
-2.09183984375,-0.0184140624999998,-0.761117187499998,-1.25301953125,-0.83282421875,-1.94865234375,-2.7738046875,-0.10154296875,1.73333984375,-7.9661171875,0.3125078125,2.57082421875,-0.409328125,-2.1137890625,-1.00872265625,0.913703125,4.1292734375,6.19347265625,-1.4256640625,-0.46773046875,2.12163671875,2.56039453125,-1.10987890625,0.30597265625,2.96709375,-0.0905039062500004,6.25249609375,-0.72186328125,-1.1109453125,-3.319671875
-2.22883984375,-0.5214140625,-0.794117187499999,-1.76701953125,-1.72682421875,-2.52765234375,-3.2928046875,-0.29354296875,1.36333984375,-8.5241171875,0.242507812500001,1.24482421875,0.375671875,-2.0037890625,-0.0697226562500002,1.135703125,2.9662734375,5.48647265625,-1.6236640625,-0.86373046875,1.38263671875,1.78239453125,-1.34087890625,0.0869726562499995,1.99509375,-1.13150390625,5.94849609375,-0.70186328125,-1.4469453125,-4.229671875
-2.19283984375,-0.8674140625,-0.873117187499998,-2.33001953125,-1.91282421875,-2.33365234375,-3.3488046875,-1.55754296875,1.05833984375,-7.9021171875,0.9945078125,-0.19917578125,0.476671875,-1.4647890625,1.26727734375,1.089703125,0.1432734375,4.20747265625,-1.8476640625,-1.42673046875,0.360636718749999,0.447394531250001,-2.04187890625,-0.69102734375,0.51209375,-2.42650390625,4.76949609375,-2.25386328125,-3.0099453125,-6.096671875
-2.32883984375,-1.1574140625,-1.2201171875,-3.39801953125,-1.65382421875,-1.56565234375,-3.0888046875,-3.57154296875,0.52633984375,-6.3391171875,2.2605078125,-1.52417578125,-0.146328125,-0.658789062499999,2.84627734375,0.665703125,-3.6667265625,2.70947265625,-1.9376640625,-1.91373046875,-0.840363281250001,-1.15960546875,-2.86387890625,-1.65502734375,-1.15890625,-3.85150390625,3.09349609375,-5.15386328125,-5.5409453125,-8.500671875
-2.98283984375,-1.5404140625,-1.9911171875,-5.25801953125,-1.44682421875,-0.66365234375,-2.7918046875,-5.61554296875,-0.453660156250001,-4.4121171875,3.5385078125,-2.65117578125,-1.447328125,0.1802109375,4.34027734375,-0.0802968750000002,-7.4367265625,1.34647265625,-1.8416640625,-2.10673046875,-1.94036328125,-2.58760546875,-3.43987890625,-2.37502734375,-2.56490625,-5.04250390625,1.58149609375,-8.51086328125,-8.2549453125,-10.733671875
-4.27283984375,-2.1844140625,-3.2381171875,-7.78401953125,-1.80582421875,-0.15965234375,-2.7928046875,-6.99254296875,-1.82866015625,-2.8581171875,4.2795078125,-3.68217578125,-3.349328125,0.775210937499999,5.32127734375,-1.008296875,-10.2367265625,0.28747265625,-1.6736640625,-1.95173046875,-2.61036328125,-3.45660546875,-3.54687890625,-2.56702734375,-3.34590625,-5.56250390625,0.87249609375,-11.18086328125,-10.1889453125,-12.069671875
-6.02283984375,-3.2004140625,-4.8931171875,-10.49301953125,-3.02782421875,-0.463652343750001,-3.3528046875,-7.38954296875,-3.26766015625,-2.3101171875,4.0965078125,-4.77417578125,-5.695328125,0.858210937500001,5.41127734375,-1.962296875,-11.5657265625,-0.53752734375,-1.6426640625,-1.58873046875,-2.62636328125,-3.64960546875,-3.18287890625,-2.19802734375,-3.40390625,-5.13750390625,1.28549609375,-12.28286328125,-10.6449453125,-12.047671875
-7.86183984375,-4.5784140625,-6.7741171875,-12.85101953125,-5.06182421875,-1.68765234375,-4.5438046875,-6.98254296875,-4.35366015625,-3.0571171875,2.9285078125,-5.97317578125,-8.109328125,0.245210937500001,4.45727734375,-2.819296875,-11.4607265625,-1.31852734375,-1.9216640625,-1.26673046875,-1.98336328125,-3.31660546875,-2.53087890625,-1.46602734375,-2.91890625,-3.81050390625,2.69249609375,-11.53886328125,-9.4959453125,-10.654671875
-9.37883984375,-6.1674140625,-8.6391171875,-14.58001953125,-7.53882421875,-3.58765234375,-6.2078046875,-6.28754296875,-4.85766015625,-4.9391171875,1.0805078125,-7.13917578125,-9.974328125,-1.0687890625,2.64027734375,-3.510296875,-10.3997265625,-2.16852734375,-2.5396640625,-1.23473046875,-0.929363281250001,-2.69360546875,-1.83687890625,-0.71102734375,-2.25390625,-1.96550390625,4.59349609375,-9.31286328125,-7.2199453125,-8.339671875
-10.27383984375,-7.7174140625,-10.2441171875,-15.74901953125,-9.93882421875,-5.64165234375,-8.0068046875,-5.91954296875,-4.88066015625,-7.4031171875,-0.881492187499999,-7.98817578125,-10.632328125,-2.8647890625,0.45127734375,-4.023296875,-9.1007265625,-3.01952734375,-3.3736640625,-1.64173046875,0.0846367187499988,-1.92260546875,-1.30287890625,-0.29302734375,-1.79490625,-0.20750390625,6.33949609375,-6.38786328125,-4.6509453125,-5.851671875
-10.49083984375,-8.9434140625,-11.3901171875,-16.62301953125,-11.78082421875,-7.24665234375,-9.5098046875,-6.39154296875,-4.76866015625,-9.7041171875,-2.3354921875,-8.23117578125,-9.766328125,-4.7517890625,-1.49572265625,-4.376296875,-8.2387265625,-3.67352734375,-4.2016640625,-2.48773046875,0.570636718749999,-0.99160546875,-1.03187890625,-0.47002734375,-1.80090625,0.842496093749999,7.38149609375,-3.65286328125,-2.6309453125,-3.970671875
-10.21183984375,-9.6004140625,-11.9231171875,-17.38201953125,-12.76582421875,-7.94765234375,-10.3128046875,-7.92254296875,-4.84866015625,-11.1571171875,-2.8154921875,-7.71817578125,-7.668328125,-6.2847890625,-2.69172265625,-4.567296875,-8.1837265625,-3.97452734375,-4.8016640625,-3.61173046875,0.203636718749999,0.158394531250001,-1.03787890625,-1.30602734375,-2.31890625,0.77749609375,7.45549609375,-1.84886328125,-1.6939453125,-3.213671875
-9.71183984375,-9.5614140625,-11.7341171875,-17.94801953125,-12.84282421875,-7.60465234375,-10.1778046875,-10.29454296875,-5.18266015625,-11.3841171875,-2.1824921875,-6.55117578125,-5.150328125,-7.1047890625,-2.91572265625,-4.579296875,-8.8837265625,-3.92352734375,-5.0356640625,-4.73573046875,-1.01036328125,1.50539453125,-1.26787890625,-2.64102734375,-3.18990625,-0.434503906250001,6.63749609375,-1.39086328125,-1.9249453125,-3.636671875
-9.19883984375,-8.9004140625,-10.8281171875,-18.06101953125,-12.23382421875,-6.45465234375,-9.1768046875,-12.87354296875,-5.55366015625,-10.4641171875,-0.714492187499999,-5.10717578125,-3.119328125,-7.0827890625,-2.30372265625,-4.442296875,-9.9697265625,-3.67852734375,-4.9246640625,-5.59573046875,-2.72436328125,2.90939453125,-1.63387890625,-4.17002734375,-4.13590625,-2.41450390625,5.28849609375,-2.26986328125,-2.9789453125,-4.834671875
-8.82983984375,-7.9244140625,-9.4411171875,-17.54401953125,-11.42282421875,-5.06665234375,-7.7398046875,-14.88154296875,-5.69066015625,-8.9391171875,0.926507812500001,-3.96417578125,-2.115328125,-6.4087890625,-1.32972265625,-4.311296875,-10.9937265625,-3.47152734375,-4.6766640625,-6.09473046875,-4.40436328125,4.18539453125,-2.05287890625,-5.59602734375,-4.89890625,-4.50850390625,3.87249609375,-4.04486328125,-4.2739453125,-6.152671875
-8.80283984375,-7.1084140625,-8.0741171875,-16.54201953125,-11.04182421875,-4.16665234375,-6.5548046875,-15.75854296875,-5.53366015625,-7.6421171875,1.8785078125,-3.69817578125,-2.119328125,-5.5777890625,-0.67272265625,-4.474296875,-11.6357265625,-3.48652734375,-4.6466640625,-6.41173046875,-5.57536328125,5.19139453125,-2.50287890625,-6.79802734375,-5.37990625,-6.03850390625,2.73249609375,-5.98686328125,-5.2479453125,-7.030671875
-9.32483984375,-6.9224140625,-7.3511171875,-15.50801953125,-11.64782421875,-4.34765234375,-6.3108046875,-15.37954296875,-5.31466015625,-7.3781171875,1.3985078125,-4.63217578125,-2.728328125,-5.1907890625,-0.95772265625,-5.245296875,-11.7637265625,-3.80552734375,-5.2326640625,-6.95073046875,-6.01836328125,5.84639453125,-3.07687890625,-7.90302734375,-5.68990625,-6.56450390625,1.92449609375,-7.40186328125,-5.6049453125,-7.258671875
-10.46583984375,-7.6334140625,-7.7551171875,-14.96401953125,-13.46582421875,-5.80765234375,-7.4008046875,-14.03254296875,-5.40866015625,-8.5911171875,-0.807492187499999,-6.63717578125,-3.515328125,-5.6887890625,-2.49572265625,-6.801296875,-11.3607265625,-4.42752734375,-6.7186640625,-8.16373046875,-5.82836328125,6.04739453125,-3.96787890625,-9.22502734375,-6.09790625,-6.03850390625,1.19849609375,-7.98286328125,-5.4349453125,-7.035671875
-12.08083984375,-9.1904140625,-9.4021171875,-15.22401953125,-16.25582421875,-8.26565234375,-9.7408046875,-12.24754296875,-6.09266015625,-11.1871171875,-4.4394921875,-9.15717578125,-4.317328125,-7.1347890625,-5.16972265625,-9.054296875,-10.4487265625,-5.34852734375,-9.1286640625,-10.30873046875,-5.33536328125,5.60339453125,-5.38187890625,-11.07302734375,-6.88490625,-4.78050390625,0.145496093749999,-7.97086328125,-5.1409453125,-6.799671875
-13.87983984375,-11.2244140625,-11.9691171875,-16.23401953125,-19.36882421875,-11.09065234375,-12.7838046875,-10.57354296875,-7.36066015625,-14.5651171875,-8.7074921875,-11.47017578125,-5.269328125,-9.1707890625,-8.50272265625,-11.643296875,-9.0727265625,-6.60652734375,-12.1606640625,-13.29173046875,-4.93836328125,4.26839453125,-7.39787890625,-13.53602734375,-8.18090625,-3.31550390625,-1.53950390625,-8.00086328125,-5.2099453125,-6.955671875
-15.52383984375,-13.1704140625,-14.7771171875,-17.58401953125,-21.95382421875,-13.54665234375,-15.7068046875,-9.40054296875,-8.87766015625,-17.8081171875,-12.6274921875,-13.02017578125,-6.616328125,-11.1197890625,-11.82772265625,-14.037296875,-7.3587265625,-8.21452734375,-15.2266640625,-16.62673046875,-4.91636328125,1.93139453125,-9.84987890625,-16.36202734375,-9.86590625,-2.13150390625,-3.83850390625,-8.70386328125,-5.9449453125,-7.637671875
-16.65583984375,-14.4494140625,-16.9941171875,-18.66801953125,-23.24182421875,-15.02065234375,-17.6988046875,-8.87054296875,-10.09266015625,-19.9731171875,-15.3474921875,-13.60917578125,-8.441328125,-12.2057890625,-14.46072265625,-15.695296875,-5.5607265625,-10.05052734375,-17.6256640625,-19.56673046875,-5.29136328125,-1.18160546875,-12.31587890625,-19.00602734375,-11.57190625,-1.49150390625,-6.35750390625,-10.34286328125,-7.3019453125,-8.641671875
-16.96083984375,-14.6704140625,-17.9241171875,-18.96101953125,-22.82382421875,-15.19865234375,-18.2428046875,-8.91054296875,-10.48966015625,-20.4011171875,-16.3864921875,-13.34717578125,-10.497328125,-11.8507890625,-15.86472265625,-16.230296875,-4.0327265625,-11.81452734375,-18.7676640625,-21.33173046875,-5.82236328125,-4.45760546875,-14.23987890625,-20.80202734375,-12.78990625,-1.36250390625,-8.48750390625,-12.65986328125,-8.9189453125,-9.548671875
-16.31283984375,-13.7674140625,-17.2911171875,-18.29001953125,-20.82682421875,-14.16765234375,-17.2848046875,-9.34554296875,-9.87066015625,-18.9761171875,-15.7324921875,-12.49217578125,-12.261328125,-9.9447890625,-15.79472265625,-15.491296875,-3.0947265625,-13.14352734375,-18.3746640625,-21.37373046875,-6.12236328125,-7.06560546875,-15.14987890625,-21.21202734375,-13.02890625,-1.47850390625,-9.66650390625,-14.99186328125,-10.2889453125,-9.941671875
-14.87483984375,-12.0384140625,-15.3591171875,-16.93001953125,-17.90682421875,-12.39465234375,-15.2198046875,-9.94354296875,-8.49766015625,-16.2121171875,-13.8004921875,-11.31517578125,-13.181328125,-6.9377890625,-14.39172265625,-13.602296875,-2.8567265625,-13.76952734375,-16.5766640625,-19.57773046875,-5.85336328125,-8.26260546875,-14.83487890625,-20.01602734375,-11.99790625,-1.51350390625,-9.61350390625,-16.54986328125,-10.9549453125,-9.603671875
-13.02083984375,-10.0264140625,-12.8191171875,-15.42801953125,-14.98182421875,-10.53665234375,-12.7128046875,-10.40954296875,-6.99166015625,-13.0831171875,-11.2544921875,-10.05417578125,-13.005328125,-3.6527890625,-12.14472265625,-10.915296875,-3.1287265625,-13.62152734375,-13.8666640625,-16.32173046875,-4.89536328125,-7.65560546875,-13.40087890625,-17.40802734375,-9.73390625,-1.26250390625,-8.40750390625,-16.72386328125,-10.6429453125,-8.581671875
-11.14283984375,-8.2914140625,-10.4741171875,-14.28501953125,-12.84482421875,-9.14765234375,-10.4078046875,-10.40354296875,-6.00466015625,-10.6241171875,-8.7574921875,-8.89517578125,-11.957328125,-0.9247890625,-9.72372265625,-7.926296875,-3.4977265625,-12.79952734375,-10.9216640625,-12.35873046875,-3.41836328125,-5.32260546875,-11.17287890625,-13.93002734375,-6.62190625,-0.74750390625,-6.41250390625,-15.29186328125,-9.3089453125,-7.125671875
-9.51383984375,-7.1734140625,-8.8851171875,-13.71001953125,-11.81282421875,-8.42565234375,-8.6718046875,-9.67954296875,-5.83366015625,-9.4681171875,-6.7274921875,-7.92817578125,-10.608328125,0.759210937500001,-7.73372265625,-5.129296875,-3.5517265625,-11.47752734375,-8.3396640625,-8.53873046875,-1.80836328125,-1.72360546875,-8.52987890625,-10.26502734375,-3.25390625,-0.15950390625,-4.10250390625,-12.46586328125,-7.1169453125,-5.556671875
-8.23083984375,-6.6394140625,-8.1571171875,-13.56501953125,-11.61882421875,-8.12865234375,-7.4778046875,-8.25354296875,-6.19966015625,-9.5581171875,-5.2114921875,-7.10117578125,-9.515328125,1.4562109375,-6.48972265625,-2.868296875,-3.1157265625,-9.78152734375,-6.4096640625,-5.49673046875,-0.50336328125,2.49039453125,-5.74287890625,-6.98202734375,-0.20390625,0.304496093749999,-1.88250390625,-8.79086328125,-4.3979453125,-4.143671875
-7.18483984375,-6.3334140625,-7.9481171875,-13.48101953125,-11.58882421875,-7.70065234375,-6.5008046875,-6.43954296875,-6.36666015625,-10.1861171875,-3.9444921875,-6.25317578125,-8.883328125,1.7162109375,-5.89872265625,-1.256296875,-2.3387265625,-7.75052734375,-5.0516640625,-3.46173046875,0.195636718749999,6.67039453125,-2.93787890625,-4.38302734375,2.16309375,0.60349609375,-0.000503906250000519,-4.98086328125,-1.5819453125,-3.044671875
-6.10783984375,-5.7914140625,-7.6931171875,-13.07901953125,-11.02082421875,-6.56465234375,-5.3458046875,-4.68254296875,-5.55266015625,-10.3851171875,-2.5714921875,-5.25117578125,-8.491328125,2.2892109375,-5.55472265625,-0.209296875,-1.5777265625,-5.40852734375,-3.9466640625,-2.28773046875,0.22263671875,10.25839453125,-0.17087890625,-2.50902734375,3.75709375,0.89849609375,1.43749609375,-1.74086328125,0.8690546875,-2.326671875
-4.74783984375,-4.7094140625,-6.9351171875,-12.16201953125,-9.55682421875,-4.44865234375,-3.8098046875,-3.32454296875,-3.42866015625,-9.4431171875,-0.917492187499999,-4.14217578125,-7.930328125,3.7182109375,-4.99972265625,0.436703124999999,-1.1227265625,-2.89652734375,-2.7756640625,-1.65573046875,-0.256363281250001,12.79639453125,2.43712109375,-1.24802734375,4.70809375,1.47849609375,2.39549609375,0.40413671875,2.5910546875,-1.965671875
-3.08883984375,-3.0944140625,-5.5681171875,-10.76701953125,-7.33682421875,-1.56565234375,-1.9988046875,-2.46454296875,-0.357660156250001,-7.2471171875,0.880507812500001,-3.19717578125,-6.922328125,6.0462109375,-3.99472265625,0.821703125000001,-0.9707265625,-0.53352734375,-1.3996640625,-1.27673046875,-0.925363281250001,13.96339453125,4.64012109375,-0.445027343750001,5.26409375,2.60849609375,2.86449609375,1.24313671875,3.4590546875,-1.830671875
-1.39483984375,-1.2274140625,-3.8521171875,-9.06701953125,-4.86382421875,1.49734765625,-0.2638046875,-1.97954296875,2.77633984375,-4.2621171875,2.4525078125,-2.77217578125,-5.532328125,8.8012109375,-2.62172265625,1.015703125,-0.7957265625,1.28247265625,0.0953359374999998,-0.98573046875,-1.42536328125,13.65839453125,6.14712109375,0.0559726562499998,5.67509375,4.38149609375,2.86349609375,0.94513671875,3.6520546875,-1.654671875
-0.0428398437500004,0.5095859375,-2.2151171875,-7.24101953125,-2.69282421875,4.08734765625,1.0201953125,-1.68154296875,5.03433984375,-1.2281171875,3.4295078125,-3.06317578125,-4.123328125,11.2432109375,-1.17972265625,1.048703125,-0.1567265625,2.26247265625,1.4843359375,-0.72773046875,-1.47336328125,12.09539453125,6.77312109375,0.39597265625,6.10009375,6.62649609375,2.45049609375,-0.0388632812500003,3.5610546875,-1.129671875
0.698160156249999,1.8345859375,-0.980117187499999,-5.44101953125,-1.14382421875,5.80234765625,1.6791953125,-1.49354296875,5.91133984375,1.2198828125,3.6785078125,-3.91917578125,-3.137328125,12.7082109375,-0.0157226562500004,0.965703124999999,1.2052734375,2.38747265625,2.5513359375,-0.49673046875,-0.964363281250001,9.78139453125,6.56612109375,0.68497265625,6.54709375,8.91649609375,1.70749609375,-1.18186328125,3.5550546875,-0.082671875
0.78016015625,2.6735859375,-0.188117187499998,-3.82601953125,-0.18482421875,6.61434765625,1.8431953125,-1.49954296875,5.60133984375,2.7918828125,3.3835078125,-4.86717578125,-2.833328125,12.8712109375,0.62427734375,0.871703125,3.1692734375,1.92947265625,3.2143359375,-0.29073046875,0.00163671874999949,7.36939453125,5.81412109375,0.98597265625,6.90109375,10.68649609375,0.711496093749999,-2.08686328125,3.7660546875,1.370328125
0.40516015625,3.1675859375,0.399882812500001,-2.54201953125,0.482175781250001,6.80234765625,1.8751953125,-1.77754296875,4.88533984375,3.5748828125,2.9805078125,-5.35117578125,-3.135328125,11.8742109375,0.68627734375,0.928703125,5.2762734375,1.35047265625,3.5613359375,-0.0887304687499999,1.17363671875,5.43239453125,4.94312109375,1.31797265625,7.01009375,11.43549609375,-0.479503906250001,-2.57086328125,4.0520546875,2.845328125
-0.00483984375000013,3.5745859375,1.1408828125,-1.60901953125,1.22617578125,6.79034765625,2.1881953125,-2.15554296875,4.72333984375,3.9218828125,2.9725078125,-5.01817578125,-3.682328125,10.2652109375,0.35027734375,1.309703125,6.9592734375,1.10747265625,3.7933359375,0.16026953125,2.28963671875,4.28739453125,4.37112109375,1.67997265625,6.78709375,10.93549609375,-1.79850390625,-2.61986328125,4.1530546875,3.878328125
0.04616015625,4.1365859375,2.2908828125,-0.848019531249999,2.28317578125,6.98634765625,3.0781953125,-2.15754296875,5.72833984375,4.2728828125,3.7515078125,-3.86117578125,-4.032328125,8.7672109375,-0.0357226562500004,2.133703125,7.8262734375,1.46947265625,4.1183359375,0.52726953125,3.18663671875,3.91739453125,4.37112109375,2.08697265625,6.26909375,9.33649609375,-3.13550390625,-2.29786328125,3.8980546875,4.172328125
0.890160156249999,4.9825859375,3.8758828125,0.0599804687500001,3.65217578125,7.65034765625,4.6421953125,-1.24954296875,7.83833984375,4.9938828125,5.4595078125,-2.16817578125,-3.882328125,7.9552109375,-0.10572265625,3.411703125,7.8422734375,2.39347265625,4.6613359375,1.07026953125,3.82963671875,4.02339453125,5.01312109375,2.57197265625,5.59709375,7.12949609375,-4.33350390625,-1.69886328125,3.3310546875,3.745328125
2.53316015625,6.1055859375,5.7178828125,1.39998046875,5.15017578125,8.83134765625,6.7851953125,0.81445703125,10.39133984375,6.2738828125,7.9275078125,-0.33817578125,-3.168328125,8.0322109375,0.35427734375,5.015703125,7.3302734375,3.57247265625,5.4123359375,1.77326953125,4.25863671875,4.19439453125,6.14312109375,3.13197265625,4.93809375,4.94949609375,-5.23850390625,-0.93386328125,2.6710546875,2.913328125
4.72316015625,7.3885859375,7.5928828125,3.26798046875,6.55817578125,10.38134765625,9.2651953125,3.79945703125,12.55733984375,8.0768828125,10.7135078125,1.28182421875,-2.008328125,8.8072109375,1.32627734375,6.684703125,6.7752734375,4.61547265625,6.2283359375,2.51026953125,4.51063671875,4.13239453125,7.44112109375,3.65297265625,4.36809375,3.31149609375,-5.77250390625,-0.12286328125,2.1760546875,2.111328125
7.13216015625,8.6595859375,9.3548828125,5.54298046875,7.75317578125,12.02334765625,11.7231953125,7.07045703125,13.84733984375,10.1518828125,13.2175078125,2.48582421875,-0.591328125,9.8572109375,2.58727734375,8.075703125,6.5592734375,5.26447265625,6.8783359375,3.04526953125,4.56863671875,3.82639453125,8.51212109375,3.88397265625,3.81509375,2.43049609375,-5.99050390625,0.64513671875,2.0110546875,1.669328125
9.45716015625,9.7355859375,10.9448828125,7.96098046875,8.72517578125,13.40934765625,13.7171953125,9.85645703125,14.35733984375,12.0798828125,14.8535078125,3.18882421875,0.911671875,10.7472109375,3.79227734375,8.853703125,6.7692734375,5.50047265625,7.1373359375,3.11526953125,4.37663671875,3.56739453125,9.03612109375,3.52797265625,3.10209375,2.21249609375,-6.06450390625,1.34913671875,2.1840546875,1.662328125
11.39816015625,10.4475859375,12.2978828125,10.22998046875,9.47717578125,14.18234765625,14.7901953125,11.54545703125,14.58933984375,13.3668828125,15.2155078125,3.37482421875,2.368671875,11.1862109375,4.57027734375,8.793703125,7.2022734375,5.50847265625,6.8683359375,2.54726953125,3.89963671875,3.77739453125,8.89012109375,2.38897265625,2.05509375,2.39249609375,-6.21050390625,2.02513671875,2.5720546875,1.917328125
12.65516015625,10.6535859375,13.2588828125,12.11698046875,9.90417578125,14.02934765625,14.5851953125,11.90645703125,15.01133984375,13.5788828125,14.1755078125,3.02482421875,3.674671875,11.0802109375,4.62127734375,7.830703125,7.5452734375,5.55947265625,6.0613359375,1.32626953125,3.17863671875,4.75839453125,8.20012109375,0.48597265625,0.61209375,2.70549609375,-6.61650390625,2.70813671875,2.9990546875,2.149328125
12.95716015625,10.2475859375,13.5958828125,13.44698046875,9.73917578125,12.75434765625,12.9641953125,11.14745703125,15.65533984375,12.4618828125,11.8815078125,2.09882421875,4.728671875,10.4712109375,3.77027734375,6.061703125,7.5982734375,5.85247265625,4.8033359375,-0.40373046875,2.32463671875,6.48539453125,7.26912109375,-1.93602734375,-1.15590625,2.98249609375,-7.37650390625,3.36713671875,3.2950546875,2.110328125
12.09616015625,9.1795859375,13.0848828125,14.04898046875,8.63517578125,10.33334765625,10.0841953125,9.75945703125,16.05433984375,10.0358828125,8.6915078125,0.57782421875,5.429671875,9.4282109375,1.99827734375,3.716703125,7.3792734375,6.40547265625,3.2363359375,-2.40573046875,1.46863671875,8.56539453125,6.41612109375,-4.49802734375,-3.06690625,3.17049609375,-8.46550390625,3.89313671875,3.3380546875,1.693328125
9.97716015625,7.5035859375,11.6428828125,13.74898046875,6.35617578125,6.95634765625,6.3961953125,8.23645703125,15.54833984375,6.6308828125,5.1095078125,-1.42717578125,5.688671875,7.9862109375,-0.53672265625,1.142703125,7.0792734375,7.01547265625,1.5153359375,-4.40673046875,0.711636718749999,10.36439453125,5.82312109375,-6.80702734375,-4.88190625,3.28549609375,-9.73850390625,4.14513671875,3.0550546875,0.934328125
6.75116015625,5.4255859375,9.4408828125,12.45998046875,2.99117578125,3.05134765625,2.5691953125,6.85645703125,13.74533984375,2.8448828125,1.7265078125,-3.59417578125,5.447671875,6.1752109375,-3.46272265625,-1.229296875,6.9292734375,7.34447265625,-0.2006640625,-6.12973046875,0.115636718749999,11.26139453125,5.47212109375,-8.56002734375,-6.33390625,3.37649609375,-10.99450390625,4.00613671875,2.4190546875,-0.0476718749999998
2.94916015625,3.2935859375,6.9318828125,10.30598046875,-0.94182421875,-0.75565234375,-0.653804687499999,5.63245703125,10.82233984375,-0.5801171875,-0.871492187499999,-5.42017578125,4.719671875,4.1082109375,-6.19872265625,-2.942296875,7.0832734375,7.08547265625,-1.7506640625,-7.30873046875,-0.26936328125,10.89539453125,5.20112109375,-9.58802734375,-7.17590625,3.52249609375,-12.05250390625,3.41713671875,1.4470546875,-1.100671875
-0.589839843750001,1.5315859375,4.7448828125,7.64098046875,-4.60282421875,-3.77865234375,-2.6318046875,4.41345703125,7.49533984375,-2.9551171875,-2.2244921875,-6.36317578125,3.620671875,2.0202109375,-8.06172265625,-3.601296875,7.5702734375,6.13747265625,-2.9566640625,-7.69973046875,-0.366363281250001,9.31539453125,4.86912109375,-9.81702734375,-7.20890625,3.85549609375,-12.77450390625,2.43913671875,0.247054687499999,-2.043671875
-3.04283984375,0.5225859375,3.4798828125,4.95698046875,-7.10182421875,-5.48365234375,-2.9798046875,3.08445703125,4.71533984375,-3.8341171875,-2.1244921875,-6.04117578125,2.374671875,0.225210937500002,-8.48672265625,-2.964296875,8.3012734375,4.69947265625,-3.5966640625,-7.09773046875,-0.0573632812500007,6.96739453125,4.49312109375,-9.19502734375,-6.31190625,4.58149609375,-13.02850390625,1.30513671875,-0.941945312500001,-2.636671875
-3.94283984375,0.4975859375,3.4928828125,2.74598046875,-7.83082421875,-5.65765234375,-1.6738046875,1.76345703125,3.27533984375,-3.1221171875,-0.6724921875,-4.38017578125,1.266671875,-0.9567890625,-7.23272265625,-1.021296875,9.1072734375,3.23347265625,-3.4176640625,-5.38273046875,0.792636718749999,4.55539453125,4.28912109375,-7.66002734375,-4.46190625,5.93349609375,-12.65650390625,0.42813671875,-1.7519453125,-2.589671875
-3.30783984375,1.4465859375,4.7788828125,1.40498046875,-6.68382421875,-4.45065234375,0.902195312500001,0.88045703125,3.50633984375,-1.0891171875,1.7435078125,-1.69017578125,0.550671875,-1.2737890625,-4.48872265625,1.950703125,9.7752734375,2.31547265625,-2.2356640625,-2.58673046875,2.25463671875,2.81139453125,4.56412109375,-5.19502734375,-1.76190625,8.03549609375,-11.50050390625,0.28913671875,-1.7989453125,-1.661671875
-1.57683984375,3.0905859375,6.9718828125,1.15898046875,-4.11182421875,-2.32465234375,4.0061953125,1.00045703125,5.13133984375,1.6958828125,4.5175078125,1.37182421875,0.377671875,-0.651789062500001,-0.85172265625,5.390703125,10.1202734375,2.39147265625,-0.0736640625000002,1.02426953125,4.24263671875,2.25039453125,5.52612109375,-1.93402734375,1.53209375,10.74949609375,-9.52750390625,1.24313671875,-0.865945312500001,0.184328125
0.547160156249999,4.9345859375,9.4348828125,1.99098046875,-0.96982421875,0.0633476562500004,6.7031953125,2.43845703125,7.34133984375,4.4818828125,6.9315078125,3.93782421875,0.757671875,0.696210937500002,2.81027734375,8.541703125,10.0562734375,3.54247265625,2.7423359375,4.92126953125,6.44663671875,2.96239453125,7.11012109375,1.74097265625,5.00709375,13.61649609375,-6.96450390625,3.30113671875,0.9410546875,2.677328125
2.31016015625,6.4135859375,11.4538828125,3.63698046875,1.79317578125,2.03034765625,8.1381953125,4.96545703125,9.11933984375,6.5218828125,8.3085078125,5.19082421875,1.563671875,2.2732109375,5.59527734375,10.635703125,9.6452734375,5.40447265625,5.6113359375,8.38526953125,8.37263671875,4.56639453125,8.95312109375,5.21897265625,8.13709375,15.95749609375,-4.32750390625,6.01413671875,3.1620546875,5.260328125
3.20016015625,7.0875859375,12.4468828125,5.67098046875,3.49817578125,3.09434765625,7.8491953125,7.83745703125,9.69833984375,7.3158828125,8.2105078125,4.68082421875,2.559671875,3.4972109375,6.86127734375,11.127703125,9.0492734375,7.33047265625,7.8403359375,10.67926953125,9.49163671875,6.36139453125,10.53312109375,7.78297265625,10.36909375,17.11749609375,-2.29850390625,8.56213671875,5.1210546875,7.279328125
3.16816015625,6.8235859375,12.1548828125,7.64898046875,4.00817578125,3.18334765625,5.9681953125,10.12645703125,8.93233984375,6.8288828125,6.6395078125,2.55982421875,3.453671875,3.9972109375,6.43827734375,9.889703125,8.3922734375,8.68447265625,8.8943359375,11.26726953125,9.42763671875,7.63339453125,11.40912109375,8.83197265625,11.24409375,16.73349609375,-1.47050390625,10.06513671875,6.1920546875,8.201328125
2.57816015625,5.8505859375,10.7208828125,9.23798046875,3.75217578125,2.69334765625,3.2201953125,11.11945703125,7.34733984375,5.5478828125,4.1065078125,-0.38817578125,3.987671875,3.8242109375,4.67127734375,7.292703125,7.6552734375,9.09447265625,8.6223359375,10.01026953125,8.10363671875,7.94639453125,11.41812109375,8.11097265625,10.52609375,14.87849609375,-2.10650390625,9.97113671875,6.0450546875,7.778328125
1.97216015625,4.6915859375,8.6508828125,10.26898046875,3.50317578125,2.34234765625,0.683195312500001,10.55945703125,5.86133984375,4.3288828125,1.5285078125,-3.02417578125,4.037671875,3.4262109375,2.28027734375,4.108703125,6.7442734375,8.54647265625,7.3333359375,7.25926953125,5.77963671875,7.28039453125,10.72812109375,5.85097265625,8.30309375,12.03049609375,-4.01350390625,8.33213671875,4.7730546875,6.096328125
1.82816015625,3.9675859375,6.6758828125,10.73498046875,4.01317578125,2.87234765625,-0.605804687499999,8.69245703125,5.35133984375,4.0668828125,-0.0754921875000001,-4.32717578125,3.678671875,3.4302109375,0.14627734375,1.278703125,5.6802734375,7.32447265625,5.6903359375,3.80726953125,2.98163671875,5.98539453125,9.75512109375,2.74497265625,5.01809375,8.88949609375,-6.59350390625,5.80113671875,2.8490546875,3.542328125
2.42316015625,4.1445859375,5.5198828125,10.76698046875,5.66217578125,4.69734765625,-0.062804687499999,6.13045703125,6.27833984375,5.3248828125,0.0285078125000009,-3.84917578125,3.163671875,4.3342109375,-0.92772265625,-0.401296875,4.7332734375,5.88047265625,4.4633359375,0.66426953125,0.350636718749999,4.59939453125,8.99412109375,-0.25002734375,1.37009375,6.12249609375,-9.04950390625,3.34213671875,0.9390546875,0.682328125
3.73916015625,5.3275859375,5.6278828125,10.58098046875,8.27717578125,7.65834765625,2.2041953125,3.62345703125,8.49233984375,8.0548828125,1.9575078125,-1.88517578125,2.816671875,6.2392109375,-0.47172265625,-0.532296875,4.3082734375,4.65347265625,4.2253359375,-1.26573046875,-1.55436328125,3.60039453125,8.82912109375,-2.22502734375,-1.88090625,4.16349609375,-10.65550390625,1.78513671875,-0.356945312500001,-1.921671875
5.41616015625,7.1965859375,6.9598828125,10.40598046875,11.19117578125,10.99534765625,5.4181953125,1.82445703125,11.27533984375,11.5408828125,5.1315078125,0.719824218749999,2.894671875,8.7522109375,1.47727734375,0.801703125,4.6702734375,3.89847265625,5.1323359375,-1.47673046875,-2.41836328125,3.20139453125,9.38312109375,-2.61002734375,-4.12490625,3.13649609375,-10.99450390625,1.43813671875,-0.739945312500001,-3.885671875
6.87516015625,9.1175859375,8.9838828125,10.41098046875,13.52117578125,13.62934765625,8.4581953125,1.14245703125,13.58433984375,14.6408828125,8.5045078125,2.99582421875,3.468671875,11.1392109375,4.38027734375,3.128703125,5.7112734375,3.59047265625,6.8753359375,-0.00273046874999983,-2.23236328125,3.30039453125,10.46312109375,-1.35202734375,-5.05090625,2.91349609375,-10.06850390625,2.01813671875,-0.2829453125,-5.066671875
7.59216015625,10.3995859375,10.8798828125,10.63098046875,14.52817578125,14.62334765625,10.3121953125,1.65945703125,14.44433984375,16.2478828125,11.0185078125,4.25082421875,4.387671875,12.6592109375,7.42927734375,5.804703125,6.9552734375,3.47447265625,8.8273359375,2.66726953125,-1.21636328125,3.60939453125,11.67012109375,1.12797265625,-4.65990625,3.27249609375,-8.23150390625,2.92013671875,0.6910546875,-5.505671875
7.34316015625,10.5885859375,11.8778828125,10.94198046875,13.91117578125,13.61334765625,10.4811953125,3.09845703125,13.33633984375,15.7788828125,12.0555078125,4.26582421875,5.354671875,12.9072109375,9.86827734375,8.240703125,7.7902734375,3.21447265625,10.3353359375,5.82426953125,0.31863671875,3.85539453125,12.59912109375,4.13797265625,-3.17590625,4.04349609375,-5.98250390625,3.65213671875,1.8380546875,-5.302671875
6.25816015625,9.6515859375,11.5828828125,11.10298046875,11.91017578125,10.95834765625,9.1581953125,4.87245703125,10.41433984375,13.4588828125,11.6555078125,3.25982421875,6.070671875,11.9772109375,11.24627734375,10.054703125,7.7662734375,2.57247265625,10.9953359375,8.79226953125,2.09363671875,3.90839453125,13.03712109375,6.98197265625,-0.93790625,5.17149609375,-3.75950390625,4.10213671875,2.9550546875,-4.532671875
4.71816015625,7.9885859375,10.1388828125,10.90598046875,9.20917578125,7.58734765625,7.1121953125,6.30845703125,6.45533984375,10.2408828125,10.4095078125,1.72082421875,6.366671875,10.3802109375,11.49827734375,11.099703125,6.7822734375,1.50547265625,10.7643359375,11.07426953125,3.88263671875,3.76939453125,13.01712109375,9.15397265625,1.65809375,6.66549609375,-1.82550390625,4.47913671875,3.9770546875,-3.268671875
3.23116015625,6.2345859375,8.1558828125,10.33698046875,6.69817578125,4.62134765625,5.3401953125,6.95045703125,2.56533984375,7.4008828125,9.1045078125,0.20582421875,6.250671875,8.7822109375,10.87227734375,11.393703125,5.0822734375,0.15347265625,9.8663359375,12.38526953125,5.45863671875,3.47739453125,12.71212109375,10.37597265625,4.15109375,8.47049609375,-0.314503906250001,5.02513671875,4.8550546875,-1.669671875
2.29016015625,4.9795859375,6.4148828125,9.63398046875,5.15117578125,2.94034765625,4.6441953125,6.73245703125,-0.22766015625,5.9858828125,8.3385078125,-0.81217578125,5.838671875,7.7072109375,9.74927734375,11.022703125,3.1202734375,-1.26952734375,8.5993359375,12.59726953125,6.53163671875,3.02139453125,12.25712109375,10.55997265625,6.04509375,10.36249609375,0.674496093749999,5.73213671875,5.4360546875,-0.0426718749999999
2.18816015625,4.5355859375,5.4858828125,9.15398046875,4.95417578125,2.85934765625,5.3271953125,5.87245703125,-1.30766015625,6.3978828125,8.2935078125,-1.04917578125,5.238671875,7.3442109375,8.46327734375,10.070703125,1.3802734375,-2.59952734375,7.1953359375,11.72326953125,6.79163671875,2.33639453125,11.64312109375,9.76197265625,6.92809375,11.96449609375,1.03249609375,6.30413671875,5.4840546875,1.209328125
2.90016015625,4.8555859375,5.4948828125,9.15998046875,5.97517578125,4.07034765625,7.1101953125,4.63645703125,-0.63466015625,8.2878828125,8.7605078125,-0.45317578125,4.472671875,7.5492109375,7.22327734375,8.630703125,0.2312734375,-3.74652734375,5.8083359375,9.94326953125,6.05063671875,1.37939453125,10.75812109375,8.18697265625,6.65109375,12.90949609375,0.70449609375,6.38713671875,4.8450546875,1.772328125
4.15016015625,5.6255859375,6.1528828125,9.68998046875,7.66017578125,5.87134765625,9.3101953125,3.17645703125,1.31933984375,10.8048828125,9.3665078125,0.806824218749999,3.477671875,8.0222109375,6.16227734375,6.863703125,-0.1587265625,-4.62052734375,4.5773359375,7.64426953125,4.41663671875,0.235394531250001,9.54612109375,6.19797265625,5.44109375,13.01749609375,-0.19650390625,5.86613671875,3.6260546875,1.619328125
5.57516015625,6.4485859375,6.9838828125,10.57598046875,9.27717578125,7.53734765625,11.1551953125,1.55145703125,3.77233984375,13.0008828125,9.8195078125,2.38582421875,2.164671875,8.4952109375,5.42227734375,5.032703125,0.1652734375,-5.05952734375,3.6783359375,5.37526953125,2.33363671875,-0.85360546875,8.13912109375,4.27597265625,3.83809375,12.38649609375,-1.35850390625,4.95813671875,2.2040546875,1.051328125
6.81716015625,6.9965859375,7.5788828125,11.51798046875,10.16617578125,8.59034765625,12.0811953125,-0.15154296875,5.85333984375,14.1878828125,10.0075078125,3.81782421875,0.509671875,8.8032109375,5.12227734375,3.463703125,1.0212734375,-4.87452734375,3.2793359375,3.68426953125,0.423636718749999,-1.58760546875,6.84112109375,2.88597265625,2.45709375,11.31649609375,-2.37250390625,4.04813671875,1.0340546875,0.538328125
7.51516015625,7.0835859375,7.7258828125,12.15398046875,9.91017578125,8.85534765625,11.8791953125,-1.70554296875,6.82933984375,14.0958828125,9.9365078125,4.58782421875,-1.381328125,8.8372109375,5.24527734375,2.428703125,2.1812734375,-4.00752734375,3.4343359375,2.90626953125,-0.790363281250001,-1.80860546875,5.95612109375,2.30997265625,1.70009375,10.13849609375,-2.92350390625,3.40013671875,0.388054687499999,0.443328124999999
7.37216015625,6.6575859375,7.4318828125,12.13998046875,8.41917578125,8.37934765625,10.6871953125,-2.72054296875,6.32533984375,12.8558828125,9.6135078125,4.28582421875,-3.250328125,8.5132109375,5.56827734375,2.026703125,3.3902734375,-2.65352734375,3.9913359375,3.01426953125,-1.11536328125,-1.63560546875,5.59312109375,2.51697265625,1.56309375,9.05649609375,-2.96250390625,2.99813671875,0.1970546875,0.823328125
6.33316015625,5.7925859375,6.9008828125,11.28298046875,5.97217578125,7.36934765625,8.8871953125,-2.77654296875,4.50533984375,10.9158828125,9.0045078125,2.82982421875,-4.729328125,7.8252109375,5.73427734375,2.139703125,4.3622734375,-1.23452734375,4.6063359375,3.63526953125,-0.730363281250001,-1.42960546875,5.58812109375,3.14997265625,1.66709375,8.07949609375,-2.75650390625,2.59313671875,0.122054687499999,1.415328125
4.70916015625,4.7115859375,6.4888828125,9.67198046875,3.21117578125,6.18334765625,7.0191953125,-1.65754296875,2.08533984375,8.9228828125,8.1215078125,0.64282421875,-5.437328125,6.9262109375,5.42527734375,2.520703125,4.8322734375,-0.20152734375,4.9003359375,4.23726953125,-0.0563632812500003,-1.56960546875,5.60812109375,3.68997265625,1.49209375,7.07649609375,-2.76550390625,1.91713671875,-0.2339453125,1.810328125
3.09416015625,3.7885859375,6.6138828125,7.71598046875,0.998175781250001,5.30834765625,5.6841953125,0.49045703125,0.0983398437499989,7.5748828125,7.1365078125,-1.38917578125,-5.112328125,6.1492109375,4.52827734375,2.947703125,4.7072734375,0.18747265625,4.6723359375,4.38926953125,0.468636718749999,-2.19360546875,5.35212109375,3.70197265625,0.68209375,5.90249609375,-3.39250390625,0.89313671875,-1.0699453125,1.697328125
2.13416015625,3.4585859375,7.5978828125,6.01898046875,0.13917578125,5.24434765625,5.4121953125,3.22345703125,-0.53766015625,7.4108828125,6.3955078125,-2.25417578125,-3.737328125,5.9092109375,3.19927734375,3.338703125,4.1852734375,-0.01452734375,4.0343359375,3.95226953125,0.586636718749999,-3.09060546875,4.74112109375,3.05897265625,-0.768906250000001,4.50949609375,-4.75450390625,-0.28686328125,-2.2649453125,1.051328125
2.28716015625,4.0135859375,9.4948828125,5.17098046875,1.03117578125,6.30034765625,6.4511953125,6.02245703125,0.53933984375,8.5848828125,6.2695078125,-1.31817578125,-1.615328125,6.5092109375,1.79127734375,3.733703125,3.7102734375,-0.49552734375,3.3503359375,3.10326953125,0.27563671875,-3.82360546875,3.95012109375,1.98797265625,-2.53890625,2.99449609375,-6.59950390625,-1.25486328125,-3.4369453125,0.155328125
3.62616015625,5.4055859375,11.9908828125,5.52798046875,3.41617578125,8.39134765625,8.5951953125,8.45445703125,2.92933984375,10.7468828125,6.9125078125,1.31282421875,0.645671875,7.9562109375,0.67227734375,4.177703125,3.7432734375,-0.86552734375,3.0403359375,2.18826953125,-0.31736328125,-4.01260546875,3.31512109375,0.94297265625,-4.16890625,1.57549609375,-8.41050390625,-1.67786328125,-4.1259453125,-0.528671875000001
5.77016015625,7.2085859375,14.4698828125,7.08198046875,6.43417578125,10.98634765625,11.1731953125,10.19945703125,5.65833984375,13.1468828125,8.1085078125,4.78882421875,2.308671875,9.9142109375,0.04927734375,4.607703125,4.4632734375,-0.83852734375,3.3843359375,1.54126953125,-0.999363281250001,-3.55460546875,3.17112109375,0.41097265625,-5.25090625,0.517496093749999,-9.60450390625,-1.41886328125,-4.0089453125,-0.564671875
8.01616015625,8.7855859375,16.2348828125,9.44498046875,8.99117578125,13.29534765625,13.2731953125,11.02045703125,7.66533984375,14.9488828125,9.3265078125,7.88482421875,2.795671875,11.8672109375,-0.0857226562500002,4.853703125,5.6172734375,-0.31952734375,4.4193359375,1.37026953125,-1.59836328125,-2.62160546875,3.73012109375,0.72597265625,-5.54690625,0.0554960937499995,-9.73250390625,-0.56386328125,-3.0229453125,0.258328124999999
9.67916015625,9.5755859375,16.7738828125,11.96298046875,10.26817578125,14.60034765625,14.0921953125,10.78845703125,8.32433984375,15.6088828125,9.9665078125,9.53882421875,1.948671875,13.3772109375,0.10827734375,4.732703125,6.6392734375,0.60747265625,5.9493359375,1.72426953125,-1.96136328125,-1.47560546875,5.02012109375,1.94697265625,-5.01290625,0.31649609375,-8.64650390625,0.65713671875,-1.3799453125,1.837328125
10.38216015625,9.3165859375,15.9398828125,13.90298046875,10.05617578125,14.52534765625,13.2271953125,9.52445703125,7.65733984375,15.0748828125,9.6225078125,9.27682421875,0.113671875,14.2322109375,0.39527734375,4.173703125,6.9782734375,1.71347265625,7.5753359375,2.48126953125,-1.95036328125,-0.296605468749999,6.84612109375,3.80497265625,-3.78490625,1.26849609375,-6.59250390625,1.95313671875,0.507054687499999,3.777328125
10.11616015625,8.1005859375,13.9528828125,14.66898046875,8.72817578125,13.07834765625,10.7901953125,7.39145703125,6.15333984375,13.6918828125,8.2065078125,7.34982421875,-2.035328125,14.3802109375,0.46327734375,3.259703125,6.4282734375,2.64347265625,8.7583359375,3.35226953125,-1.48136328125,0.830394531250001,8.76512109375,5.72797265625,-2.16290625,2.71549609375,-4.20950390625,3.00013671875,2.1380546875,5.537328125
9.10716015625,6.2555859375,11.2938828125,13.99298046875,6.92217578125,10.54134765625,7.3181953125,4.64545703125,4.37233984375,11.9098828125,5.8905078125,4.56682421875,-3.794328125,13.7602109375,-0.0727226562500003,2.201703125,5.2402734375,2.96747265625,8.9183359375,3.94026953125,-0.57536328125,1.82239453125,10.14812109375,6.99397265625,-0.55490625,4.34949609375,-2.36650390625,3.47413671875,3.0630546875,6.640328125
7.69616015625,4.1765859375,8.5428828125,12.03498046875,5.17217578125,7.32734765625,3.5731953125,1.61045703125,2.62733984375,10.0108828125,2.9835078125,1.94482421875,-4.695328125,12.2512109375,-1.54572265625,1.252703125,3.9452734375,2.32647265625,7.6303359375,3.87226953125,0.626636718749999,2.53639453125,10.37312109375,6.99097265625,0.63909375,5.84749609375,-1.84450390625,3.15413671875,3.0350546875,6.862328125
6.26016015625,2.1755859375,6.2178828125,9.32498046875,3.69317578125,3.89734765625,0.291195312500001,-1.32454296875,0.91033984375,8.0078828125,-0.1884921875,0.326824218750001,-4.642328125,9.7772109375,-4.04572265625,0.625703124999999,3.0562734375,0.59647265625,4.8313359375,2.96726953125,1.90663671875,2.80839453125,9.10812109375,5.49397265625,1.14809375,6.96049609375,-3.00550390625,2.05513671875,2.1000546875,6.291328125
5.10216015625,0.4225859375,4.6248828125,6.57098046875,2.40717578125,0.69934765625,-2.0248046875,-3.71054296875,-0.95166015625,5.7448828125,-3.3464921875,0.0968242187500001,-3.894328125,6.4712109375,-7.28872265625,0.410703125,2.8012734375,-2.03252734375,0.9193359375,1.31726953125,3.01763671875,2.53139453125,6.48512109375,2.78097265625,0.90009375,7.54749609375,-5.63050390625,0.46313671875,0.5590546875,5.224328125
4.34216015625,-1.0354140625,3.7978828125,4.41398046875,1.12117578125,-1.89865234375,-3.2158046875,-5.08154296875,-3.04566015625,3.1048828125,-6.2594921875,1.09482421875,-2.946328125,2.7762109375,-10.67372265625,0.540703125,3.0482734375,-5.11152734375,-3.3356640625,-0.75973046875,3.72463671875,1.68739453125,3.06612109375,-0.46202734375,-0.000906250000000774,7.54849609375,-9.03850390625,-1.22386328125,-1.2109453125,3.971328125
3.92616015625,-2.2024140625,3.5568828125,3.24398046875,-0.244824218749999,-3.65065234375,-3.4468046875,-5.04754296875,-5.18666015625,0.1988828125,-8.7094921875,2.75082421875,-2.320328125,-0.5987890625,-13.46872265625,0.808703124999999,3.4102734375,-8.09152734375,-7.0606640625,-2.85673046875,3.83463671875,0.322394531250001,-0.39487890625,-3.42902734375,-1.36790625,6.95349609375,-12.39050390625,-2.70786328125,-2.9359453125,2.719328125
3.75616015625,-3.0724140625,3.6568828125,3.12698046875,-1.52982421875,-4.44465234375,-3.0808046875,-3.47154296875,-6.92166015625,-2.5841171875,-10.4764921875,4.34382421875,-2.361328125,-2.8687890625,-15.05672265625,0.939703124999999,3.4722734375,-10.46852734375,-9.5846640625,-4.63673046875,3.24963671875,-1.47160546875,-3.23687890625,-5.49402734375,-3.01390625,5.79149609375,-15.01850390625,-3.91086328125,-4.5099453125,1.520328125
3.78416015625,-3.6084140625,3.9108828125,3.80198046875,-2.37782421875,-4.31965234375,-2.5338046875,-0.70454296875,-7.73366015625,-4.7111171875,-11.3864921875,5.25382421875,-3.095328125,-3.4457890625,-15.15272265625,0.695703125,2.9892734375,-11.89952734375,-10.6226640625,-5.92173046875,1.99463671875,-3.55660546875,-5.10287890625,-6.39602734375,-4.78190625,4.14849609375,-16.62850390625,-4.92886328125,-5.9409453125,0.378328124999999
3.99316015625,-3.7614140625,4.2348828125,4.81298046875,-2.42982421875,-3.46565234375,-2.1408046875,2.36445703125,-7.33366015625,-5.7461171875,-11.4044921875,5.11782421875,-4.214328125,-2.1817890625,-13.91172265625,-0.0282968750000006,1.9902734375,-12.26552734375,-10.2856640625,-6.70773046875,0.22263671875,-5.73160546875,-5.98887890625,-6.24602734375,-6.53990625,2.18149609375,-17.30250390625,-5.88386328125,-7.2479453125,-0.687671875
4.37016015625,-3.5044140625,4.6418828125,5.72598046875,-1.51682421875,-2.18465234375,-2.0758046875,4.59645703125,-5.82966015625,-5.5521171875,-10.6914921875,3.89482421875,-5.190328125,0.580210937500002,-11.83772265625,-1.165296875,0.7422734375,-11.65052734375,-8.9446640625,-7.08673046875,-1.81536328125,-7.71360546875,-6.12587890625,-5.38402734375,-8.15590625,0.0954960937499996,-17.34350390625,-6.78186328125,-8.3899453125,-1.622671875
4.94516015625,-2.8624140625,5.1958828125,6.33398046875,0.259175781250001,-0.78765234375,-2.3188046875,5.13545703125,-3.69166015625,-4.3321171875,-9.5624921875,1.84982421875,-5.486328125,4.1662109375,-9.53072265625,-2.491296875,-0.4057265625,-10.25752734375,-7.0406640625,-7.15273046875,-3.82436328125,-9.13960546875,-5.77087890625,-4.18402734375,-9.49590625,-1.90450390625,-17.04450390625,-7.45386328125,-9.2549453125,-2.376671875
5.77116015625,-1.9364140625,5.9258828125,6.67798046875,2.57117578125,0.473347656250001,-2.7098046875,3.81545703125,-1.54666015625,-2.5351171875,-8.3834921875,-0.55417578125,-4.781328125,7.8272109375,-7.44272265625,-3.711296875,-1.2077265625,-8.32152734375,-4.9576640625,-6.94673046875,-5.52936328125,-9.63460546875,-5.05587890625,-2.90602734375,-10.43890625,-3.66850390625,-16.53350390625,-7.62186328125,-9.7069453125,-2.943671875
6.80216015625,-0.9034140625,6.7528828125,6.89398046875,4.97917578125,1.40734765625,-3.0728046875,1.19345703125,0.0433398437499992,-0.6941171875,-7.4674921875,-2.84517578125,-3.152328125,10.9382109375,-5.78072265625,-4.587296875,-1.6447265625,-6.08052734375,-2.9796640625,-6.47573046875,-6.74436328125,-8.96760546875,-3.99987890625,-1.67902734375,-10.91290625,-5.12250390625,-15.77350390625,-7.07186328125,-9.6979453125,-3.376671875
7.81116015625,-0.000414062499999979,7.4668828125,7.07898046875,7.03817578125,1.86234765625,-3.3368046875,-1.75354296875,0.75633984375,0.7148828125,-7.0254921875,-4.73517578125,-1.088328125,13.0952109375,-4.56772265625,-5.037296875,-1.8807265625,-3.78852734375,-1.3076640625,-5.77273046875,-7.40136328125,-7.20560546875,-2.63287890625,-0.562027343750001,-10.91090625,-6.24850390625,-14.70650390625,-5.85586328125,-9.3619453125,-3.766671875
8.49716015625,0.551585937500001,7.8018828125,7.28298046875,8.38817578125,1.74934765625,-3.5818046875,-4.03654296875,0.56733984375,1.3898828125,-7.1394921875,-6.19117578125,0.683671875,14.1452109375,-3.74172265625,-5.166296875,-2.1017265625,-1.71452734375,-0.0916640625000005,-4.93473046875,-7.55136328125,-4.75560546875,-1.10787890625,0.37197265625,-10.48690625,-7.04250390625,-13.40950390625,-4.34386328125,-9.0239453125,-4.180671875
8.68716015625,0.6295859375,7.5648828125,7.57198046875,8.83317578125,1.11534765625,-3.9818046875,-5.03354296875,-0.28566015625,1.2798828125,-7.7584921875,-7.31217578125,1.527671875,14.1752109375,-3.22372265625,-5.180296875,-2.3727265625,-0.0965273437499998,0.5933359375,-4.09073046875,-7.30236328125,-2.22160546875,0.309121093750001,1.03997265625,-9.70590625,-7.46450390625,-12.12950390625,-3.08286328125,-9.0609453125,-4.609671875
8.44316015625,0.2735859375,6.7428828125,8.02198046875,8.40417578125,0.17634765625,-4.6588046875,-4.71954296875,-1.41766015625,0.6068828125,-8.6914921875,-8.12017578125,1.202671875,13.4572109375,-2.91472265625,-5.223296875,-2.5957265625,0.92947265625,0.8143359375,-3.30873046875,-6.74836328125,-0.147605468749999,1.40612109375,1.44197265625,-8.57390625,-7.40450390625,-11.15450390625,-2.51286328125,-9.6789453125,-4.940671875
8.04116015625,-0.2894140625,5.5588828125,8.67598046875,7.38917578125,-0.712652343750001,-5.5508046875,-3.61754296875,-2.40466015625,-0.1881171875,-9.6184921875,-8.41717578125,-0.00432812499999979,12.3872109375,-2.65672265625,-5.230296875,-2.5947265625,1.40247265625,0.8263359375,-2.51273046875,-5.90436328125,1.21839453125,2.19512109375,1.75997265625,-7.00990625,-6.70150390625,-10.62650390625,-2.70886328125,-10.7449453125,-4.998671875
7.90616015625,-0.7144140625,4.4488828125,9.50298046875,6.29117578125,-1.14865234375,-6.3718046875,-2.46054296875,-2.86466015625,-0.5721171875,-10.1294921875,-7.85417578125,-1.411328125,11.4292109375,-2.18872265625,-4.916296875,-2.2127265625,1.53147265625,1.0203359375,-1.49073046875,-4.69436328125,2.00039453125,2.95112109375,2.33097265625,-4.90090625,-5.21650390625,-10.42750390625,-3.31986328125,-11.8029453125,-4.621671875
8.48116015625,-0.6564140625,3.9168828125,10.39598046875,5.66717578125,-0.80765234375,-6.7028046875,-1.75154296875,-2.53166015625,-0.1181171875,-9.8424921875,-6.17717578125,-2.266328125,11.0292109375,-1.20872265625,-3.922296875,-1.3957265625,1.59947265625,1.7443359375,-0.02773046875,-3.02336328125,2.56039453125,4.04212109375,3.46297265625,-2.24890625,-2.94850390625,-10.26950390625,-3.76886328125,-12.3019453125,-3.752671875
10.00616015625,0.0725859375000004,4.3248828125,11.18398046875,5.90417578125,0.41734765625,-6.1748046875,-1.55154296875,-1.33166015625,1.3038828125,-8.5554921875,-3.46317578125,-2.097328125,11.4802109375,0.45327734375,-2.051296875,-0.2097265625,1.79947265625,3.1003359375,1.91526953125,-0.91036328125,3.24739453125,5.66012109375,5.19697265625,0.71009375,-0.109503906250001,-9.88750390625,-3.57386328125,-11.8959453125,-2.480671875
12.30916015625,1.4125859375,5.6988828125,11.67498046875,7.02017578125,2.31534765625,-4.6718046875,-1.59454296875,0.53633984375,3.4178828125,-6.3744921875,-0.20417578125,-0.897328125,12.7852109375,2.64627734375,0.554703125,1.1842734375,2.13247265625,4.8463359375,4.07926953125,1.42363671875,4.20039453125,7.63412109375,7.19397265625,3.51709375,2.89049609375,-9.21550390625,-2.59286328125,-10.6229453125,-1.004671875
14.81616015625,3.0555859375,7.7008828125,11.75298046875,8.64117578125,4.37234765625,-2.4348046875,-1.56754296875,2.59233984375,5.6058828125,-3.7364921875,2.83582421875,0.923671875,14.6222109375,4.86227734375,3.389703125,2.5922734375,2.42247265625,6.4543359375,5.95426953125,3.57563671875,5.33539453125,9.47812109375,8.83097265625,5.62909375,5.56149609375,-8.41050390625,-1.04486328125,-8.8449453125,0.462328124999999
16.81916015625,4.5385859375,9.7408828125,11.47698046875,10.14317578125,5.92434765625,-0.0318046874999993,-1.30654296875,4.19733984375,7.1248828125,-1.2964921875,4.90782421875,2.764671875,16.4232109375,6.40627734375,5.742703125,3.8402734375,2.43047265625,7.3023359375,6.95226953125,5.09663671875,6.46739453125,10.61012109375,9.46697265625,6.63109375,7.49049609375,-7.75750390625,0.63213671875,-7.0349453125,1.780328125
17.76716015625,5.3925859375,11.1748828125,11.05398046875,10.91917578125,6.39834765625,1.8161953125,-0.85454296875,4.77933984375,7.4128828125,0.287507812500001,5.55582421875,4.066671875,17.5602109375,6.66827734375,6.941703125,4.7662734375,1.96447265625,6.9203359375,6.64426953125,5.64763671875,7.44039453125,10.61412109375,8.73697265625,6.38109375,8.46149609375,-7.52750390625,1.97813671875,-5.5499453125,2.909328125
17.39916015625,5.2965859375,11.4928828125,10.68198046875,10.63817578125,5.52934765625,2.4931953125,-0.43254296875,4.09133984375,6.3278828125,0.579507812500001,4.74682421875,4.481671875,17.5572109375,5.38727734375,6.601703125,5.1852734375,0.95447265625,5.1943359375,4.94826953125,5.10963671875,8.17039453125,9.40912109375,6.74097265625,5.05809375,8.49549609375,-7.87550390625,2.67513671875,-4.5309453125,3.857328125
15.80416015625,4.2035859375,10.4808828125,10.42198046875,9.38317578125,3.49734765625,1.7201953125,-0.34754296875,2.36133984375,4.2418828125,-0.468492187499999,2.82782421875,3.941671875,16.3002109375,2.80627734375,4.762703125,4.8832734375,-0.49652734375,2.4683359375,2.21226953125,3.62763671875,8.61739453125,7.28912109375,4.03897265625,3.10809375,7.81749609375,-8.76450390625,2.67013671875,-3.8959453125,4.650328125
13.44616015625,2.3825859375,8.3278828125,10.20898046875,7.61017578125,0.90934765625,-0.312804687499999,-0.83354296875,0.222339843749999,1.9098828125,-2.4664921875,0.383824218749999,2.659671875,14.1342109375,-0.33072265625,1.901703125,3.7362734375,-2.08652734375,-0.5236640625,-0.82573046875,1.60663671875,8.75839453125,4.85612109375,1.47397265625,1.12709375,6.79949609375,-9.93550390625,2.23413671875,-3.3889453125,5.348328125
11.08016015625,0.3495859375,5.6088828125,9.96898046875,5.93817578125,-1.40065234375,-2.9898046875,-1.87654296875,-1.56566015625,0.1558828125,-4.7024921875,-1.90317578125,1.038671875,11.7702109375,-2.99472265625,-1.187296875,1.8902734375,-3.38652734375,-2.8826640625,-3.24473046875,-0.348363281250001,8.59339453125,2.84712109375,-0.0970273437499998,-0.27190625,5.90349609375,-10.94450390625,1.88913671875,-2.6739453125,6.088328125
9.45416015625,-1.3234140625,3.1078828125,9.70998046875,4.83617578125,-2.72265234375,-5.4738046875,-3.15254296875,-2.46966015625,-0.5061171875,-6.4024921875,-3.36617578125,-0.458328125,9.9692109375,-4.26072265625,-3.643296875,-0.1497265625,-4.02452734375,-3.8886640625,-4.25673046875,-1.59136328125,8.15639453125,1.88212109375,-0.10302734375,-0.63490625,5.57149609375,-11.32050390625,2.17813671875,-1.4669453125,7.061328125
8.96716015625,-2.2314140625,1.5208828125,9.49598046875,4.39317578125,-2.78265234375,-7.0138046875,-4.14954296875,-2.43466015625,-0.1221171875,-7.0494921875,-3.48217578125,-1.447328125,9.1712109375,-3.72472265625,-4.836296875,-1.6697265625,-3.90152734375,-3.3306640625,-3.55773046875,-1.68136328125,7.49839453125,2.18812109375,1.50197265625,0.15009375,6.06549609375,-10.82350390625,3.34813671875,0.2830546875,8.391328125
9.52316015625,-2.3094140625,1.2038828125,9.38698046875,4.29217578125,-1.84465234375,-7.2218046875,-4.43254296875,-1.88866015625,0.7318828125,-6.6094921875,-2.05717578125,-1.700328125,9.2702109375,-1.69572265625,-4.627296875,-2.0627265625,-3.28252734375,-1.6606640625,-1.51473046875,-0.605363281250001,6.65139453125,3.46212109375,4.15697265625,1.72609375,7.29949609375,-9.64950390625,5.14113671875,2.2970546875,9.986328125
10.64016015625,-1.8394140625,2.0538828125,9.37198046875,4.01517578125,-0.52265234375,-6.2118046875,-3.85354296875,-1.51366015625,1.2678828125,-5.5354921875,0.623824218749999,-1.189328125,9.6802109375,0.92227734375,-3.434296875,-1.1307265625,-2.69052734375,0.1553359375,0.92426953125,1.15463671875,5.59939453125,4.96912109375,6.85497265625,3.33109375,8.77249609375,-8.42250390625,6.84313671875,4.0140546875,11.485328125
11.68616015625,-1.2844140625,3.5818828125,9.36198046875,3.17017578125,0.54434765625,-4.4988046875,-2.57754296875,-1.86866015625,0.9098828125,-4.5254921875,3.80982421875,-0.083328125,9.6552109375,3.03427734375,-2.048296875,0.8242734375,-2.64552734375,1.0763359375,2.61926953125,2.77663671875,4.28739453125,5.86712109375,8.51397265625,4.07109375,9.69449609375,-7.93050390625,7.59013671875,4.8000546875,12.359328125
12.14816015625,-1.0264140625,5.1438828125,9.24098046875,1.74617578125,1.00934765625,-2.7308046875,-0.91954296875,-3.04966015625,-0.3901171875,-4.1564921875,6.53782421875,1.297671875,8.7092109375,3.84127734375,-1.251296875,3.1522734375,-3.39852734375,0.4783359375,2.74126953125,3.44963671875,2.66739453125,5.57312109375,8.41797265625,3.30109375,9.28549609375,-8.76450390625,6.75913671875,4.2030546875,12.118328125
11.87816015625,-1.1634140625,6.2438828125,8.97098046875,0.15717578125,0.944347656249999,-1.3678046875,0.87445703125,-4.58366015625,-2.1261171875,-4.5924921875,8.06182421875,2.623671875,6.9042109375,3.21127734375,-1.444296875,5.1272734375,-4.79552734375,-1.5386640625,1.14926953125,2.74663671875,0.77939453125,3.99312109375,6.50097265625,0.938093749999999,7.14249609375,-11.03850390625,4.22113671875,2.1270546875,10.534328125
11.21816015625,-1.4714140625,6.7738828125,8.68698046875,-0.959824218749999,0.75234765625,-0.5118046875,2.71845703125,-5.66066015625,-3.5091171875,-5.5164921875,8.19582421875,3.706671875,4.8232109375,1.73727734375,-2.461296875,6.2332734375,-6.34952734375,-4.2236640625,-1.55573046875,0.840636718749999,-1.20360546875,1.51912109375,3.36397265625,-2.45590625,3.47649609375,-14.34050390625,0.36813671875,-1.1089453125,7.792328125
10.83116015625,-1.5594140625,7.0358828125,8.68598046875,-1.09882421875,0.89434765625,0.0431953125000009,4.61345703125,-5.58366015625,-3.8721171875,-6.3234921875,7.38482421875,4.567671875,3.2512109375,0.42827734375,-3.683296875,6.3502734375,-7.47152734375,-6.5276640625,-4.32773046875,-1.55836328125,-2.98460546875,-1.15687890625,0.0349726562499999,-5.85290625,-0.88550390625,-17.89650390625,-4.03086328125,-4.8509453125,4.491328125
11.31216015625,-1.1024140625,7.5388828125,9.28998046875,-0.177824218749999,1.60234765625,0.5841953125,6.52145703125,-4.15666015625,-3.0031171875,-6.4494921875,6.43582421875,5.369671875,2.7692109375,0.20427734375,-4.359296875,5.7882734375,-7.71552734375,-7.5576640625,-6.13873046875,-3.51436328125,-4.20760546875,-3.29487890625,-2.41502734375,-8.14490625,-4.76850390625,-20.84950390625,-8.03386328125,-8.2659453125,1.486328125
12.84416015625,-0.0464140625000002,8.6578828125,10.63298046875,1.38117578125,2.73334765625,1.2341953125,8.28345703125,-1.78066015625,-1.2391171875,-5.6774921875,6.07282421875,6.273671875,3.4902109375,1.46727734375,-3.989296875,5.1122734375,-6.94052734375,-6.9196640625,-6.40773046875,-4.28036328125,-4.56760546875,-4.34987890625,-3.25202734375,-8.58890625,-7.08950390625,-22.56350390625,-10.73986328125,-10.5709453125,-0.411671875000001
15.11316015625,1.3265859375,10.3568828125,12.48098046875,2.82717578125,3.83634765625,1.8231953125,9.60745703125,0.742339843749999,0.6868828125,-4.2594921875,6.54482421875,7.312671875,5.0372109375,3.93527734375,-2.560296875,4.8332734375,-5.32652734375,-4.8486640625,-5.20073046875,-3.60136328125,-3.92860546875,-4.14187890625,-2.34102734375,-7.11390625,-7.28250390625,-22.84450390625,-11.53686328125,-11.2849453125,-0.742671875
17.42816015625,2.4915859375,12.1248828125,14.21398046875,3.39617578125,4.35434765625,1.9521953125,10.11245703125,2.54133984375,1.9418828125,-2.8214921875,7.48882421875,8.335671875,6.7072109375,6.78027734375,-0.542296875,5.1402734375,-3.29752734375,-2.0946640625,-3.15573046875,-1.79836328125,-2.44660546875,-2.91887890625,-0.18102734375,-4.35790625,-5.51350390625,-22.00150390625,-10.30186328125,-10.4229453125,0.406328125
18.98416015625,2.9155859375,13.1958828125,15.06598046875,2.66017578125,3.86234765625,1.2271953125,9.46345703125,3.00933984375,1.9278828125,-2.0694921875,8.12282421875,9.047671875,7.7422109375,8.97627734375,1.347703125,5.8362734375,-1.36852734375,0.372335937499999,-1.16773046875,0.413636718749999,-0.589605468749999,-1.26087890625,2.30997265625,-1.37190625,-2.58650390625,-20.69450390625,-7.46686328125,-8.4829453125,2.447328125
19.19216015625,2.3365859375,12.9718828125,14.53598046875,0.75417578125,2.28834765625,-0.457804687499999,7.59345703125,2.03333984375,0.5308828125,-2.4464921875,7.68782421875,9.142671875,7.6252109375,9.74327734375,2.490703125,6.5292734375,0.0234726562500001,1.7363359375,0.0112695312500002,2.25963671875,0.99939453125,0.14312109375,4.17797265625,0.83609375,0.41749609375,-19.61150390625,-3.85586328125,-6.2249453125,4.569328125
17.99616015625,0.9285859375,11.3808828125,12.73098046875,-1.62982421875,0.00234765625000044,-2.7668046875,4.87745703125,0.0513398437500001,-1.8061171875,-3.8924921875,5.89782421875,8.480671875,6.3002109375,8.87527734375,2.629703125,6.9082734375,0.65847265625,1.6313359375,0.0702695312500001,3.22463671875,1.76439453125,0.76012109375,4.79497265625,1.70009375,2.60149609375,-19.17650390625,-0.40486328125,-4.3439453125,6.109328125
15.91316015625,-0.7614140625,8.9518828125,10.36698046875,-3.53382421875,-2.29265234375,-4.9988046875,2.08245703125,-2.13566015625,-4.2661171875,-5.8644921875,3.14582421875,7.202671875,4.1942109375,6.79727734375,1.931703125,6.9052734375,0.56247265625,0.2253359375,-0.80173046875,3.20063671875,1.46239453125,0.391121093750001,4.04297265625,1.25609375,3.55449609375,-19.42750390625,2.13913671875,-3.2449453125,6.791328125
13.73616015625,-2.0764140625,6.5278828125,8.38498046875,-4.19382421875,-3.88465234375,-6.3958046875,0.0334570312500002,-3.74166015625,-6.0401171875,-7.6114921875,0.31582421875,5.719671875,2.0002109375,4.31527734375,0.850703125000001,6.6602734375,-0.0705273437499998,-1.8996640625,-2.09073046875,2.41963671875,0.221394531250001,-0.808878906249999,2.25597265625,0.00409375000000001,3.37949609375,-20.11950390625,3.39313671875,-3.0009453125,6.721328125
12.08916015625,-2.5704140625,4.8268828125,7.44098046875,-3.40882421875,-4.40265234375,-6.5088046875,-0.77254296875,-4.36266015625,-6.7121171875,-8.5524921875,-1.67617578125,4.553671875,0.347210937500002,2.23627734375,-0.128296875,6.3672734375,-1.00452734375,-4.0096640625,-3.25273046875,1.23363671875,-1.58660546875,-2.44587890625,0.00997265624999955,-1.40190625,2.47449609375,-20.93550390625,3.36613671875,-3.4649453125,6.192328125
11.18116015625,-2.2214140625,4.1078828125,7.57998046875,-1.61982421875,-3.97965234375,-5.4218046875,-0.36754296875,-4.12866015625,-6.4331171875,-8.5384921875,-2.33917578125,4.126671875,-0.4537890625,1.05227734375,-0.728296875,6.1312734375,-2.03452734375,-5.5086640625,-3.95873046875,-0.0923632812500008,-3.53960546875,-4.05787890625,-2.13502734375,-2.46790625,1.23149609375,-21.64750390625,2.38513671875,-4.3959453125,5.459328125
10.85416015625,-1.4014140625,4.1208828125,8.27798046875,0.354175781250001,-3.13065234375,-3.7048046875,0.76745703125,-3.57166015625,-5.7731171875,-7.8714921875,-1.80317578125,4.579671875,-0.469789062499999,0.82927734375,-0.976296875,5.9082734375,-2.99752734375,-6.1226640625,-4.17973046875,-1.47536328125,-5.27660546875,-5.24687890625,-3.80702734375,-3.02290625,-0.157503906250001,-22.15050390625,0.97213671875,-5.5239453125,4.629328125
10.75216015625,-0.6524140625,4.3148828125,8.79498046875,1.75017578125,-2.45865234375,-2.1308046875,1.93745703125,-3.28966015625,-5.3591171875,-7.0834921875,-0.67617578125,5.710671875,-0.00978906249999767,1.26527734375,-1.122296875,5.5242734375,-3.74752734375,-5.9066640625,-4.10873046875,-2.95136328125,-6.49260546875,-5.75887890625,-4.85402734375,-3.18490625,-1.69950390625,-22.38850390625,-0.26486328125,-6.5629453125,3.697328125
10.49716015625,-0.3904140625,4.1578828125,8.61998046875,2.21117578125,-2.36065234375,-1.3178046875,2.49645703125,-3.59766015625,-5.5351171875,-6.6224921875,0.30482421875,7.052671875,0.588210937500001,1.87027734375,-1.448296875,4.7742734375,-4.14152734375,-5.1166640625,-3.99173046875,-4.53636328125,-6.89460546875,-5.49487890625,-5.26902734375,-3.18590625,-3.45150390625,-22.28150390625,-0.78186328125,-7.2379453125,2.655328125
9.86216015625,-0.6914140625,3.4218828125,7.77598046875,1.90117578125,-2.86865234375,-1.4768046875,2.05545703125,-4.36266015625,-6.2071171875,-6.6374921875,0.636824218749999,8.075671875,1.1422109375,2.20727734375,-2.069296875,3.5342734375,-4.05052734375,-4.0426640625,-3.96873046875,-6.08836328125,-6.24860546875,-4.50687890625,-5.10602734375,-3.18890625,-5.35950390625,-21.70550390625,-0.26986328125,-7.3579453125,1.600328125
8.90516015625,-1.2834140625,2.2808828125,6.81098046875,1.37317578125,-3.67665234375,-2.3578046875,0.60245703125,-5.10366015625,-6.9281171875,-6.9404921875,0.258824218749999,8.431671875,1.6902109375,2.09027734375,-2.860296875,1.8802734375,-3.40152734375,-2.8946640625,-4.02273046875,-7.28736328125,-4.50860546875,-2.96787890625,-4.42102734375,-3.18590625,-7.18350390625,-20.55550390625,1.21313671875,-6.8839453125,0.756328125
8.00116015625,-1.6924140625,1.2188828125,6.47298046875,1.28617578125,-4.29165234375,-3.3858046875,-1.47954296875,-5.26066015625,-7.1191171875,-7.1434921875,-0.45317578125,8.113671875,2.4032109375,1.66727734375,-3.502296875,0.1322734375,-2.21952734375,-1.7676640625,-4.01373046875,-7.75436328125,-1.95960546875,-1.14587890625,-3.28402734375,-3.01390625,-8.55250390625,-18.83150390625,3.24213671875,-5.9629453125,0.400328125
7.77716015625,-1.4594140625,0.823882812500001,7.31698046875,2.17317578125,-4.22065234375,-3.9048046875,-3.42454296875,-4.41566015625,-6.2901171875,-6.8494921875,-0.89617578125,7.470671875,3.4772109375,1.38627734375,-3.630296875,-1.1957265625,-0.62852734375,-0.6666640625,-3.76373046875,-7.22936328125,0.77139453125,0.64712109375,-1.81502734375,-2.46090625,-9.10150390625,-16.68550390625,5.17713671875,-4.8779453125,0.740328125
9.04416015625,-0.3024140625,1.5988828125,9.49698046875,4.33817578125,-3.07865234375,-3.4018046875,-4.14054296875,-2.34766015625,-4.1601171875,-5.8004921875,-0.52417578125,7.060671875,5.0862109375,1.89027734375,-2.981296875,-1.5717265625,1.22447265625,0.4393359375,-3.12773046875,-5.69736328125,2.90339453125,2.13712109375,-0.20802734375,-1.39590625,-8.62950390625,-14.40450390625,6.38813671875,-3.9609453125,1.816328125
12.69816015625,1.8165859375,3.8448828125,12.83398046875,7.86717578125,-0.633652343750001,-1.6628046875,-2.41854296875,1.02233984375,-0.6751171875,-3.9284921875,0.92782421875,7.419671875,7.3962109375,3.83427734375,-1.495296875,-0.6577265625,3.26747265625,1.5653359375,-2.03673046875,-3.38436328125,3.80639453125,3.16712109375,1.28097265625,0.151093749999999,-7.16850390625,-12.32950390625,6.44913671875,-3.4959453125,3.489328125
19.40416015625,4.7195859375,7.5788828125,17.00798046875,12.65317578125,3.14934765625,1.2031953125,2.60745703125,5.64933984375,4.0058828125,-1.3384921875,3.38382421875,8.836671875,10.5222109375,7.63027734375,0.684703125,1.5552734375,5.51147265625,2.6843359375,-0.52373046875,-0.632363281250001,3.23439453125,3.72612109375,2.41797265625,2.01409375,-4.94750390625,-10.72450390625,5.22813671875,-3.6429453125,5.518328125
29.09716015625,8.1195859375,12.5188828125,21.69298046875,18.40117578125,8.04634765625,4.8561953125,10.88445703125,11.29933984375,9.5548828125,1.7495078125,6.52882421875,11.244671875,14.4112109375,13.18427734375,3.304703125,4.7642734375,7.97747265625,3.7553359375,1.29626953125,2.26963671875,1.39639453125,3.92312109375,3.11697265625,3.99509375,-2.26950390625,-9.65850390625,2.92213671875,-4.3719453125,7.683328125
40.66716015625,11.7215859375,18.1158828125,26.58698046875,24.64217578125,13.55934765625,8.8671953125,21.17545703125,17.51233984375,15.5328828125,5.0645078125,9.98482421875,14.242671875,18.7662109375,19.81027734375,6.109703125,8.4912734375,10.60247265625,4.7803359375,3.26526953125,5.17963671875,-1.14560546875,3.94012109375,3.51997265625,5.98609375,0.59949609375,-8.94850390625,0.0101367187500001,-5.4489453125,9.865328125
40.66716015625,11.7215859375,18.1158828125,26.58698046875,24.64217578125,13.55934765625,8.8671953125,21.17545703125,17.51233984375,15.5328828125,5.0645078125,9.98482421875,14.242671875,18.7662109375,19.81027734375,6.109703125,8.4912734375,10.60247265625,4.7803359375,3.26526953125,5.17963671875,-1.14560546875,3.94012109375,3.51997265625,5.98609375,0.59949609375,-8.94850390625,0.0101367187500001,-5.4489453125,9.865328125
