"Fp1","Fpz","Fp2","F7","F3","Fz","F4","F8","FC5","FC1","FC2","FC6","T7","C3","Cz","C4","T8","CP5","CP1","CP2","CP6","P7","P3","Pz","P4","P8","POz","O1","Oz","O2"
-7.43239453125,1.31114453125,4.3371796875,-3.84430078125,0.923441406250001,2.37613671875,0.88551171875,2.42332421875,-3.07543359375,1.778828125,3.316890625,2.61348046875,6.41334765625,-1.01684765625,1.0410859375,0.4981875,-0.197640625,-7.22733984375,-5.44693359375,-8.86603515625,-8.90021484375,-8.092546875,-14.60705859375,-16.51449609375,-17.25618359375,-4.95298046875,-18.5550078125,-24.08787109375,-20.332828125,-19.03082421875
-6.04139453125,1.19614453125,4.0871796875,-2.78530078125,1.12944140625,2.49113671875,1.64251171875,1.99732421875,-3.12343359375,1.869828125,2.636890625,2.49148046875,6.71234765625,-0.87384765625,0.9630859375,-0.4038125,-1.142640625,-7.30733984375,-5.88593359375,-9.55903515625,-9.15621484375,-6.919546875,-13.95505859375,-16.36749609375,-16.70018359375,-4.88198046875,-16.9950078125,-20.34587109375,-17.393828125,-17.75882421875
-5.51239453125,1.14314453125,3.6111796875,-2.57430078125,0.661441406250001,1.76613671875,1.82251171875,1.40032421875,-3.43843359375,1.346828125,1.193890625,2.00848046875,6.74734765625,-0.82784765625,0.4740859375,-1.0828125,-1.761640625,-7.04933984375,-5.60593359375,-9.46703515625,-8.97421484375,-5.869546875,-12.49705859375,-15.05249609375,-15.28518359375,-4.16298046875,-14.2250078125,-16.54587109375,-13.839828125,-15.45682421875
-5.83739453125,1.11814453125,2.9341796875,-3.09530078125,-0.422558593749999,0.21713671875,1.34851171875,0.64732421875,-3.86443359375,0.291828125,-0.931109375,1.16248046875,6.47934765625,-0.69084765625,-0.2809140625,-1.5628125,-2.084640625,-6.27733984375,-4.44793359375,-8.48603515625,-8.29421484375,-4.839546875,-10.07205859375,-12.36949609375,-12.95318359375,-2.77898046875,-10.1180078125,-12.61287109375,-9.576828125,-11.98982421875
-6.69139453125,1.05814453125,2.2011796875,-3.94730078125,-1.77555859375,-1.79186328125,0.34551171875,-0.17667578125,-4.09443359375,-0.927171875,-3.303109375,0.10648046875,5.94934765625,-0.18984765625,-0.9589140625,-1.8828125,-2.263640625,-4.86233984375,-2.46293359375,-6.73803515625,-7.18421484375,-3.623546875,-6.75505859375,-8.49449609375,-9.92918359375,-0.91298046875,-4.9480078125,-8.48887109375,-4.720828125,-7.55882421875
-7.60939453125,0.92814453125,1.6391796875,-4.68130078125,-2.90755859375,-3.68786328125,-0.88248828125,-0.93767578125,-3.81543359375,-1.806171875,-5.276109375,-0.88051953125,5.27834765625,0.87815234375,-1.1659140625,-1.9958125,-2.467640625,-2.80233984375,0.10006640625,-4.51503515625,-5.81321484375,-2.026546875,-2.86405859375,-3.94949609375,-6.64018359375,1.13601953125,0.665992187500001,-4.22387109375,0.395171875,-2.67182421875
-8.17639453125,0.76914453125,1.4551796875,-4.99230078125,-3.38655859375,-4.91686328125,-1.94448828125,-1.51167578125,-2.87643359375,-1.927171875,-6.238109375,-1.48151953125,4.63534765625,2.50915234375,-0.6539140625,-1.7428125,-2.806640625,-0.29133984375,2.83906640625,-2.19303515625,-4.41521484375,-0.0275468749999999,1.07594140625,0.503503906249999,-3.60618359375,3.03601953125,5.8889921875,-0.0868710937500001,5.239171875,1.94117578125
-8.13239453125,0.69114453125,1.7311796875,-4.76530078125,-3.01955859375,-5.16586328125,-2.48548828125,-1.82067578125,-1.38543359375,-1.174171875,-5.859109375,-1.46251953125,4.17134765625,4.42615234375,0.5320859375,-0.9658125,-3.304640625,2.26666015625,5.27106640625,-0.17003515625,-3.27721484375,2.138453125,4.41494140625,4.04750390625,-1.32918359375,4.45401953125,9.8479921875,3.41512890625,9.140171875,5.44617578125
-7.37739453125,0.80014453125,2.3581796875,-4.03230078125,-1.93555859375,-4.47386328125,-2.31948828125,-1.86467578125,0.30756640625,0.173828125,-4.251109375,-0.77951953125,3.91534765625,6.14115234375,2.0290859375,0.3261875,-3.939640625,4.33966015625,6.92706640625,1.19896484375,-2.71121484375,4.037453125,6.52894140625,6.02150390625,-0.184183593750001,5.07401953125,11.8509921875,5.65812890625,11.442171875,7.09317578125
-5.98739453125,1.11914453125,3.0511796875,-2.92730078125,-0.531558593749999,-3.19986328125,-1.54748828125,-1.73467578125,1.73456640625,1.541828125,-1.962109375,0.38148046875,3.72434765625,7.12015234375,3.2880859375,1.8581875,-4.679640625,5.43766015625,7.45906640625,1.67496484375,-2.98121484375,5.226453125,7.01294140625,6.13550390625,-0.297183593750001,4.66301953125,11.6249921875,6.14912890625,11.725171875,6.49517578125
-4.21439453125,1.55714453125,3.4591796875,-1.66430078125,0.698441406250001,-1.86986328125,-0.54648828125,-1.59767578125,2.48256640625,2.312828125,0.207890625,1.66448046875,3.34634765625,6.99815234375,3.8140859375,3.1651875,-5.474640625,5.29666015625,6.76106640625,1.22696484375,-4.16221484375,5.430453125,5.84794140625,4.59350390625,-1.46118359375,3.22001953125,9.4759921875,4.78512890625,10.047171875,3.88517578125
-2.41439453125,1.94914453125,3.3411796875,-0.49830078125,1.34644140625,-0.96286328125,0.20151171875,-1.60967578125,2.34556640625,2.104828125,1.492890625,2.68848046875,2.58734765625,5.74415234375,3.3760859375,3.7961875,-6.216640625,3.97766015625,5.03306640625,0.0819648437500007,-6.03721484375,4.647453125,3.43894140625,2.05350390625,-3.13218359375,1.09601953125,6.2559921875,1.95312890625,7.018171875,0.16917578125
-0.92039453125,2.13214453125,2.7001796875,0.33169921875,1.21544140625,-0.76086328125,0.35551171875,-1.81067578125,1.38156640625,0.915828125,1.438890625,3.19348046875,1.43934765625,3.68015234375,2.0870859375,3.5421875,-6.725640625,1.84066015625,2.74406640625,-1.33003515625,-8.10121484375,3.104453125,0.47994140625,-0.601496093750001,-4.60118359375,-1.04298046875,3.0759921875,-1.59787109375,3.629171875,-3.36182421875
0.0326054687499999,2.01214453125,1.7811796875,0.65769921875,0.334441406250001,-1.28586328125,-0.15448828125,-2.08667578125,-0.15043359375,-0.912171875,0.035890625,3.12848046875,0.07934765625,1.33915234375,0.3260859375,2.5281875,-6.829640625,-0.59333984375,0.47606640625,-2.53203515625,-9.74721484375,1.150453125,-2.28805859375,-2.58749609375,-5.26118359375,-2.46498046875,0.879992187500001,-5.05887109375,0.857171875,-5.57182421875
0.315605468749999,1.60214453125,0.9301796875,0.40169921875,-1.10255859375,-2.35386328125,-1.14948828125,-2.23467578125,-1.91743359375,-2.887171875,-2.317109375,2.64348046875,-1.23965234375,-0.75684765625,-1.4309140625,1.1451875,-6.469640625,-2.83133984375,-1.28193359375,-3.19003515625,-10.51921484375,-0.872546875,-4.32905859375,-3.49249609375,-4.87018359375,-2.68898046875,0.0829921875000004,-7.87087109375,-0.713828125,-5.94982421875
-0.0983945312500003,1.00314453125,0.4191796875,-0.39630078125,-2.83155859375,-3.66886328125,-2.32448828125,-2.08667578125,-3.63543359375,-4.596171875,-4.995109375,1.98948046875,-2.28765234375,-2.28584765625,-2.7939140625,-0.1638125,-5.766640625,-4.54333984375,-2.28993359375,-3.23803515625,-10.30721484375,-2.703546875,-5.46705859375,-3.39349609375,-3.63118359375,-1.67398046875,0.443992187500001,-9.87687109375,-1.088828125,-4.76182421875
-1.11539453125,0.35814453125,0.3571796875,-1.57530078125,-4.60155859375,-4.92886328125,-3.37748828125,-1.61167578125,-5.12143359375,-5.843171875,-7.381109375,1.38948046875,-2.89465234375,-3.18784765625,-3.5739140625,-1.1068125,-4.937640625,-5.61033984375,-2.60593359375,-2.89703515625,-9.36621484375,-4.174546875,-5.87605859375,-2.77249609375,-2.07218359375,0.20001953125,1.2239921875,-11.27387109375,-0.774828125,-2.83982421875
-2.53039453125,-0.19885546875,0.6881796875,-2.88330078125,-6.21155859375,-5.90686328125,-4.10748828125,-0.95767578125,-6.27343359375,-6.644171875,-9.040109375,0.95948046875,-2.91565234375,-3.60684765625,-3.8139140625,-1.6328125,-4.159640625,-6.08533984375,-2.51393359375,-2.55103515625,-8.15521484375,-5.180546875,-5.93305859375,-2.27749609375,-0.777183593750001,2.33901953125,1.5349921875,-12.39887109375,-0.489828125,-1.15382421875
-4.07239453125,-0.56985546875,1.2441796875,-4.05230078125,-7.49355859375,-6.48086328125,-4.45348828125,-0.39267578125,-7.02243359375,-7.094171875,-9.776109375,0.71448046875,-2.24265234375,-3.74984765625,-3.7079140625,-1.8608125,-3.483640625,-6.09433984375,-2.36793359375,-2.54903515625,-7.10121484375,-5.640546875,-6.00905859375,-2.43149609375,-0.132183593750001,4.19301953125,0.742992187500001,-13.48487109375,-0.814828125,-0.40182421875
-5.44739453125,-0.70285546875,1.8001796875,-4.86530078125,-8.29155859375,-6.62186328125,-4.45948828125,-0.15767578125,-7.30843359375,-7.249171875,-9.612109375,0.61648046875,-0.88465234375,-3.77684765625,-3.4919140625,-1.9488125,-2.866640625,-5.76233984375,-2.43993359375,-3.03603515625,-6.42021484375,-5.497546875,-6.31105859375,-3.42949609375,-0.215183593750001,5.44501953125,-1.2810078125,-14.52487109375,-1.957828125,-0.79182421875
-6.36039453125,-0.59785546875,2.1331796875,-5.19830078125,-8.49355859375,-6.38086328125,-4.19548828125,-0.31867578125,-7.10043359375,-7.102171875,-8.732109375,0.62748046875,0.92034765625,-3.77684765625,-3.3709140625,-2.0158125,-2.289640625,-5.19333984375,-2.84193359375,-3.93403515625,-6.12121484375,-4.762546875,-6.84705859375,-5.11949609375,-0.871183593750001,6.03001953125,-4.1640078125,-15.29887109375,-3.729828125,-2.10082421875
-6.60039453125,-0.32085546875,2.0791796875,-5.05230078125,-8.12455859375,-5.88586328125,-3.72648828125,-0.74267578125,-6.46643359375,-6.669171875,-7.444109375,0.70748046875,2.73734765625,-3.81984765625,-3.4979140625,-2.1568125,-1.848640625,-4.49333984375,-3.54393359375,-5.04403515625,-6.14421484375,-3.569546875,-7.50205859375,-7.13549609375,-1.87818359375,6.01801953125,-7.2510078125,-15.55287109375,-5.701828125,-3.89882421875
-6.15839453125,0.0201445312499998,1.5931796875,-4.55730078125,-7.39455859375,-5.33186328125,-3.15148828125,-1.21967578125,-5.59843359375,-6.083171875,-6.129109375,0.80448046875,4.13134765625,-3.99484765625,-3.9529140625,-2.4748125,-1.743640625,-3.78233984375,-4.43693359375,-6.18303515625,-6.49221484375,-2.179546875,-8.13905859375,-9.08349609375,-3.08118359375,5.47401953125,-9.8890078125,-15.16687109375,-7.412828125,-5.75282421875
-5.27039453125,0.31614453125,0.7731796875,-3.93730078125,-6.64755859375,-4.91286328125,-2.61048828125,-1.62267578125,-4.76943359375,-5.572171875,-5.154109375,0.85948046875,4.91634765625,-4.37084765625,-4.7219140625,-3.0648125,-2.156640625,-3.17033984375,-5.38893359375,-7.24403515625,-7.23721484375,-0.923546875,-8.64805859375,-10.64949609375,-4.39118359375,4.41301953125,-11.6210078125,-14.23187109375,-8.508828125,-7.31682421875
-4.28939453125,0.50014453125,-0.1388203125,-3.41130078125,-6.19755859375,-4.72886328125,-2.22148828125,-1.97167578125,-4.22743359375,-5.353171875,-4.757109375,0.82348046875,5.25034765625,-4.93284765625,-5.6689140625,-3.9358125,-3.116640625,-2.72233984375,-6.25593359375,-8.16603515625,-8.40521484375,-0.114546875,-8.93705859375,-11.62249609375,-5.70918359375,2.86901953125,-12.2280078125,-12.98287109375,-8.781828125,-8.31882421875
-3.50739453125,0.55314453125,-0.8338203125,-3.10530078125,-6.18855859375,-4.75686328125,-2.01748828125,-2.38067578125,-4.08243359375,-5.503171875,-4.962109375,0.65448046875,5.48434765625,-5.52384765625,-6.5589140625,-4.9648125,-4.439640625,-2.43833984375,-6.87593359375,-8.87003515625,-9.87621484375,0.0614531250000001,-8.90605859375,-11.85949609375,-6.85818359375,0.98701953125,-11.6750078125,-11.65687109375,-8.164828125,-8.56082421875
-3.07339453125,0.49214453125,-1.0768203125,-3.03830078125,-6.53755859375,-4.87586328125,-1.96748828125,-2.97167578125,-4.27243359375,-5.897171875,-5.590109375,0.30648046875,5.89334765625,-5.87284765625,-7.1169140625,-5.9158125,-5.799640625,-2.25233984375,-7.07493359375,-9.23703515625,-11.36821484375,-0.344546875,-8.41305859375,-11.26349609375,-7.60818359375,-0.94698046875,-10.0250078125,-10.32687109375,-6.697828125,-7.94982421875
-3.01639453125,0.35614453125,-0.8448203125,-3.16030078125,-6.96955859375,-4.93886328125,-2.04248828125,-3.80067578125,-4.58043359375,-6.233171875,-6.321109375,-0.26751953125,6.46934765625,-5.66284765625,-7.0959140625,-6.5308125,-6.859640625,-2.02433984375,-6.67593359375,-9.12503515625,-12.54821484375,-0.989546875,-7.28205859375,-9.79849609375,-7.76118359375,-2.57598046875,-7.3830078125,-8.82987109375,-4.484828125,-6.53482421875
-3.25839453125,0.18414453125,-0.3348203125,-3.38030078125,-7.12755859375,-4.79986328125,-2.22848828125,-4.79667578125,-4.70243359375,-6.138171875,-6.804109375,-1.07651953125,6.93834765625,-4.64384765625,-6.3269140625,-6.6388125,-7.395640625,-1.56233984375,-5.54293359375,-8.42803515625,-13.18121484375,-1.327546875,-5.36905859375,-7.53149609375,-7.24718359375,-3.60198046875,-3.9060078125,-6.86687109375,-1.697828125,-4.52382421875
-3.61039453125,0.0211445312499998,0.1741796875,-3.58130078125,-6.69755859375,-4.32586328125,-2.46048828125,-5.75567578125,-4.35443359375,-5.312171875,-6.760109375,-2.03651953125,6.96234765625,-2.72684765625,-4.7599140625,-6.2098125,-7.336640625,-0.68933984375,-3.63393359375,-7.12903515625,-13.21321484375,-0.873546875,-2.67605859375,-4.66449609375,-6.15918359375,-3.87698046875,0.1409921875,-4.25587109375,1.399171875,-2.25482421875
-3.82139453125,-0.0848554687500002,0.4991796875,-3.66330078125,-5.53655859375,-3.42086328125,-2.58948828125,-6.39867578125,-3.40843359375,-3.647171875,-6.053109375,-2.92751953125,6.38634765625,-0.0408476562500004,-2.4809140625,-5.3238125,-6.745640625,0.65566015625,-1.05593359375,-5.30203515625,-12.75021484375,0.517453125,0.57294140625,-1.51049609375,-4.71218359375,-3.41298046875,4.3729921875,-1.14287109375,4.437171875,-0.10582421875
-3.68439453125,-0.0708554687500002,0.6581796875,-3.59330078125,-3.73555859375,-2.07186328125,-2.41348828125,-6.50467578125,-1.98443359375,-1.269171875,-4.721109375,-3.43851953125,5.37734765625,3.08715234375,0.3000859375,-4.0858125,-5.769640625,2.34066015625,1.94206640625,-3.07903515625,-11.94421484375,2.559453125,3.95894140625,1.58650390625,-3.14418359375,-2.29298046875,8.3559921875,1.99912890625,7.035171875,1.62717578125
-3.11039453125,0.12814453125,0.8401796875,-3.43330078125,-1.60655859375,-0.37686328125,-1.75648828125,-6.00267578125,-0.44143359375,1.490828125,-2.947109375,-3.28251953125,4.36634765625,6.20415234375,3.2750859375,-2.5538125,-4.583640625,4.04466015625,5.01806640625,-0.60803515625,-10.88221484375,4.685453125,6.98794140625,4.34250390625,-1.61818359375,-0.59798046875,11.7179921875,4.58212890625,8.925171875,2.84617578125
-2.13739453125,0.56014453125,1.2931796875,-3.29230078125,0.42644140625,1.47613671875,-0.54248828125,-4.98567578125,0.76056640625,4.182828125,-0.999109375,-2.33851953125,3.78934765625,8.83815234375,6.0820859375,-0.7488125,-3.331640625,5.34266015625,7.80806640625,1.95096484375,-9.56021484375,6.308453125,9.21894140625,6.58450390625,-0.18218359375,1.61801953125,14.2179921875,6.13212890625,10.022171875,3.65917578125
-0.90839453125,1.21314453125,2.1721796875,-3.25230078125,1.97244140625,3.24913671875,1.12751171875,-3.66967578125,1.26556640625,6.339828125,0.841890625,-0.72451953125,3.79834765625,10.59715234375,8.3630859375,1.2691875,-2.074640625,5.82866015625,9.97806640625,4.39696484375,-7.94621484375,7.028453125,10.34594140625,8.21750390625,1.20781640625,4.27201953125,15.7349921875,6.41512890625,10.385171875,4.28317578125
0.33660546875,2.00614453125,3.4261796875,-3.32730078125,2.82044140625,4.71713671875,2.94851171875,-2.33867578125,0.98356640625,7.603828125,2.336890625,1.25048046875,4.14734765625,11.24615234375,9.8370859375,3.3331875,-0.794640625,5.25566015625,11.25606640625,6.47996484375,-6.09021484375,6.697453125,10.22394140625,9.17550390625,2.61781640625,7.18001953125,16.2109921875,5.41112890625,10.098171875,4.89717578125
1.34460546875,2.80914453125,4.8031796875,-3.46130078125,3.00144140625,5.72213671875,4.49451171875,-1.27467578125,0.13156640625,7.821828125,3.322890625,3.19948046875,4.36934765625,10.76215234375,10.3780859375,5.1561875,0.522359375,3.63066015625,11.47406640625,7.92896484375,-4.20021484375,5.393453125,8.87194140625,9.38250390625,4.03981640625,9.99101953125,15.6279921875,3.24212890625,9.164171875,5.50317578125
1.97160546875,3.46914453125,5.9791796875,-3.54530078125,2.74744140625,6.22113671875,5.40751171875,-0.68867578125,-0.86243359375,7.074828125,3.729890625,4.77348046875,4.10734765625,9.33515234375,10.0350859375,6.3901875,1.786359375,1.24466015625,10.62806640625,8.51696484375,-2.64921484375,3.368453125,6.47694140625,8.77250390625,5.30981640625,12.18801953125,14.0209921875,0.120128906250001,7.488171875,5.86717578125
2.25060546875,3.84314453125,6.6931796875,-3.47830078125,2.35144140625,6.27513671875,5.54551171875,-0.66267578125,-1.55343359375,5.625828125,3.565890625,5.71248046875,3.35634765625,7.32215234375,9.0020859375,6.7311875,2.739359375,-1.38933984375,8.92206640625,8.12296484375,-1.88721484375,0.999453125,3.41394140625,7.35650390625,6.08881640625,13.17601953125,11.5299921875,-3.64387109375,4.968171875,5.58817578125
2.30360546875,3.81914453125,6.8021796875,-3.22630078125,2.01544140625,5.98013671875,4.96751171875,-1.17967578125,-1.68043359375,3.814828125,2.885890625,5.85248046875,2.40934765625,5.15615234375,7.5420859375,6.0171875,3.023359375,-3.64933984375,6.76706640625,6.78196484375,-2.29421484375,-1.254546875,0.23594140625,5.30050390625,5.96781640625,12.48301953125,8.4549921875,-7.58587109375,1.661171875,4.30617578125
2.21760546875,3.33514453125,6.2601796875,-2.86130078125,1.77044140625,5.39613671875,3.81751171875,-2.16367578125,-1.26343359375,1.968828125,1.783890625,5.14448046875,1.62334765625,3.24715234375,5.9240859375,4.3051875,2.338359375,-4.96933984375,4.69106640625,4.70396484375,-3.99221484375,-2.928546875,-2.38305859375,2.95450390625,4.69581640625,10.01701953125,5.2789921875,-11.05387109375,-2.044828125,1.99317578125
2.00960546875,2.40114453125,5.1161796875,-2.51830078125,1.51244140625,4.55713671875,2.26651171875,-3.48267578125,-0.54343359375,0.333828125,0.400890625,3.70248046875,1.18434765625,1.90515234375,4.3820859375,1.8921875,0.649359375,-4.97033984375,3.19906640625,2.24796484375,-6.70621484375,-3.638546875,-3.80005859375,0.793503906249999,2.40081640625,6.24601953125,2.6279921875,-13.28287109375,-5.390828125,-0.85482421875
1.69860546875,1.12214453125,3.5471796875,-2.31130078125,1.12644140625,3.53313671875,0.53051171875,-4.91067578125,0.19456640625,-0.926171875,-1.049109375,1.82948046875,1.05234765625,1.30815234375,3.1140859375,-0.7368125,-1.710640625,-3.56333984375,2.62006640625,-0.13703515625,-9.78221484375,-3.184546875,-3.59305859375,-0.70449609375,-0.345183593750001,2.13801953125,1.1349921875,-13.58787109375,-7.425828125,-3.30282421875
1.34460546875,-0.28185546875,1.8681796875,-2.25430078125,0.61944140625,2.50713671875,-1.09748828125,-6.15067578125,0.79556640625,-1.690171875,-2.288109375,-0.0125195312499999,1.08234765625,1.51415234375,2.3010859375,-3.0258125,-4.101640625,-0.96833984375,3.01806640625,-2.00903515625,-12.37921484375,-1.613546875,-1.73005859375,-1.20349609375,-2.72618359375,-1.19398046875,1.2229921875,-11.65487109375,-7.388828125,-4.38682421875
1.03260546875,-1.49585546875,0.4671796875,-2.22830078125,0.185441406250001,1.77713671875,-2.28148828125,-6.91567578125,1.31956640625,-1.822171875,-3.007109375,-1.32651953125,1.22634765625,2.49515234375,2.1140859375,-4.4988125,-5.792640625,2.33666015625,4.21506640625,-3.02403515625,-13.78221484375,0.758453125,1.38494140625,-0.622496093750001,-4.02318359375,-2.97698046875,2.9239921875,-7.76487109375,-5.116828125,-3.62882421875
0.84360546875,-2.18885546875,-0.3098203125,-2.00030078125,0.15544140625,1.67913671875,-2.71348828125,-7.02367578125,1.97356640625,-1.165171875,-2.942109375,-1.73651953125,1.61734765625,4.14615234375,2.6670859375,-4.8898125,-6.241640625,5.72566015625,5.87506640625,-3.02903515625,-13.67321484375,3.407453125,5.00394140625,0.833503906249999,-3.93718359375,-3.11598046875,5.8189921875,-2.80287109375,-1.213828125,-1.34482421875
0.84660546875,-2.13685546875,-0.2788203125,-1.31630078125,0.82944140625,2.44513671875,-2.20848828125,-6.44167578125,2.95156640625,0.364828125,-1.972109375,-1.12051953125,2.46634765625,6.26015234375,3.9300859375,-4.2118125,-5.276640625,8.55766015625,7.61306640625,-2.10903515625,-12.24821484375,5.738453125,8.26394140625,2.72450390625,-2.67618359375,-2.17598046875,9.1649921875,1.99012890625,3.134171875,1.48317578125
1.07560546875,-1.32685546875,0.5011796875,-0.0623007812499998,2.27144140625,4.05013671875,-0.79848828125,-5.28567578125,4.25456640625,2.647828125,-0.212109375,0.35948046875,3.81934765625,8.49115234375,5.6610859375,-2.7498125,-3.116640625,10.32466015625,9.07206640625,-0.56403515625,-10.10821484375,7.256453125,10.43794140625,4.51550390625,-0.821183593750001,-1.02398046875,12.1469921875,5.46312890625,6.637171875,3.68817578125
1.47960546875,0.0181445312499998,1.7281796875,1.59869921875,4.20144140625,6.14313671875,1.19751171875,-3.78967578125,5.62656640625,5.273828125,1.961890625,2.32048046875,5.40634765625,10.37215234375,7.4340859375,-0.9578125,-0.243640625,10.77666015625,9.96906640625,1.19396484375,-7.97921484375,7.740453125,11.16394140625,5.75750390625,0.976816406249999,-0.34198046875,14.1579921875,6.98112890625,8.422171875,4.50617578125
1.93360546875,1.51814453125,2.9751796875,3.23769921875,6.04744140625,8.13913671875,3.24651171875,-2.24167578125,6.64456640625,7.605828125,4.009890625,4.28948046875,6.71934765625,11.41715234375,8.7690859375,0.6871875,2.783359375,9.99566015625,10.14006640625,2.77696484375,-6.39721484375,7.324453125,10.53594140625,6.24150390625,2.27581640625,-0.26698046875,14.9869921875,6.65512890625,8.354171875,3.92817578125
2.32560546875,2.75914453125,3.8731796875,4.34869921875,7.17544140625,9.44013671875,4.79751171875,-0.90467578125,6.92256640625,8.981828125,5.421890625,5.83348046875,7.30834765625,11.28315234375,9.2980859375,1.8301875,5.480359375,8.38166015625,9.57806640625,3.93896484375,-5.49721484375,6.443453125,9.03394140625,6.05150390625,2.98381640625,-0.37598046875,14.8539921875,5.24612890625,7.024171875,2.66017578125
2.61660546875,3.43914453125,4.2491796875,4.58369921875,7.16344140625,9.67713671875,5.49051171875,0.0393242187499999,6.31156640625,8.968828125,5.903890625,6.64748046875,7.05134765625,9.91415234375,8.9030859375,2.3171875,7.512359375,6.53266015625,8.43806640625,4.60296484375,-5.03821484375,5.636453125,7.33194140625,5.49850390625,3.31781640625,0.0230195312500001,14.2809921875,3.79512890625,5.405171875,1.71917578125
2.79760546875,3.45314453125,4.1181796875,3.89969921875,5.98144140625,8.82413671875,5.24351171875,0.47132421875,4.96256640625,7.547828125,5.458890625,6.59248046875,6.21134765625,7.58215234375,7.7430859375,2.1771875,8.714359375,5.05066015625,7.00406640625,4.81896484375,-4.62021484375,5.298453125,6.04994140625,4.97150390625,3.62281640625,1.43801953125,13.8619921875,3.13212890625,4.386171875,1.92317578125
2.80360546875,2.88814453125,3.6001796875,2.54969921875,3.98944140625,7.16313671875,4.20451171875,0.30732421875,3.24656640625,5.120828125,4.325890625,5.68948046875,5.25934765625,4.82415234375,6.1750859375,1.5481875,9.081359375,4.34166015625,5.61406640625,4.68996484375,-3.97221484375,5.520453125,5.57394140625,4.77750390625,4.16881640625,3.87901953125,14.0289921875,3.54512890625,4.397171875,3.52217578125
2.51860546875,1.96114453125,2.8341796875,0.96369921875,1.76644140625,5.15513671875,2.67851171875,-0.48067578125,1.59956640625,2.360828125,2.858890625,4.09648046875,4.59234765625,2.29015234375,4.6050859375,0.6061875,8.744359375,4.51766015625,4.58006640625,4.32096484375,-3.10821484375,6.128453125,5.99394140625,5.04950390625,5.05681640625,6.84301953125,14.9159921875,4.77512890625,5.328171875,6.17117578125
1.87960546875,0.93714453125,1.9601796875,-0.41230078125,-0.11355859375,3.29213671875,1.05151171875,-1.80367578125,0.38456640625,-0.0251718750000003,1.410890625,2.08648046875,4.32534765625,0.56415234375,3.3620859375,-0.4388125,7.934359375,5.42666015625,4.12906640625,3.83296484375,-2.28021484375,6.891453125,7.18194140625,5.75850390625,6.24381640625,9.59701953125,16.3699921875,6.32912890625,6.746171875,9.20017578125
0.96660546875,0.0611445312499999,1.1121796875,-1.26530078125,-1.25055859375,1.98613671875,-0.28548828125,-3.41567578125,-0.19343359375,-1.500171875,0.271890625,0.0214804687500001,4.26334765625,0.0221523437499996,2.6500859375,-1.3298125,6.942359375,6.76566015625,4.37806640625,3.38696484375,-1.76221484375,7.709453125,8.90894140625,6.79350390625,7.64581640625,11.56301953125,18.0689921875,7.85912890625,8.226171875,11.98817578125
0.0256054687500002,-0.47085546875,0.4121796875,-1.48530078125,-1.47355859375,1.50813671875,-1.01548828125,-4.94867578125,-0.0984335937500003,-1.800171875,-0.340109375,-1.68051953125,4.05234765625,0.74415234375,2.5610859375,-1.7618125,6.077359375,8.19566015625,5.31106640625,3.18796484375,-1.63021484375,8.643453125,10.91894140625,8.03850390625,9.20781640625,12.56501953125,19.6859921875,9.33612890625,9.586171875,14.20217578125
-0.58239453125,-0.52885546875,-0.00382031249999981,-1.12530078125,-0.80755859375,1.97813671875,-0.92348828125,-5.99767578125,0.56956640625,-0.937171875,-0.267109375,-2.61651953125,3.45134765625,2.52515234375,3.1300859375,-1.4608125,5.621359375,9.42866015625,6.80806640625,3.44596484375,-1.68721484375,9.768453125,12.96094140625,9.41350390625,10.91681640625,12.83301953125,21.0089921875,10.92712890625,10.894171875,15.83417578125
-0.51239453125,-0.0658554687500001,0.0121796875,-0.30330078125,0.58744140625,3.37013671875,0.0775117187499998,-6.23367578125,1.64556640625,0.862828125,0.586890625,-2.51251953125,2.55534765625,4.96415234375,4.3500859375,-0.2928125,5.764359375,10.26166015625,8.67606640625,4.29396484375,-1.56621484375,10.983453125,14.78094140625,10.87150390625,12.75781640625,12.80801953125,21.9909921875,12.73312890625,12.314171875,17.05617578125
0.37060546875,0.86914453125,0.5691796875,0.85069921875,2.45144140625,5.49313671875,1.88051171875,-5.53867578125,2.92656640625,3.226828125,2.184890625,-1.34651953125,1.80934765625,7.57015234375,6.1350859375,1.6301875,6.531359375,10.58766015625,10.68306640625,5.71496484375,-0.957214843749999,11.940453125,16.13794140625,12.35550390625,14.64781640625,12.89001953125,22.6929921875,14.57112890625,13.881171875,18.03817578125
1.83360546875,2.11814453125,1.6351796875,2.17369921875,4.42544140625,7.94613671875,4.09451171875,-4.09867578125,4.17456640625,5.682828125,4.253890625,0.57348046875,1.74234765625,9.84915234375,8.2320859375,3.9101875,7.740359375,10.35666015625,12.53506640625,7.47196484375,0.181785156250001,12.132453125,16.80294140625,13.74450390625,16.36681640625,13.25201953125,23.1539921875,15.97412890625,15.380171875,18.79317578125
3.32160546875,3.41114453125,2.9601796875,3.41769921875,6.05844140625,10.14013671875,6.07251171875,-2.36767578125,5.10756640625,7.705828125,6.233890625,2.64848046875,2.55934765625,11.34815234375,10.1750859375,5.9181875,9.025359375,9.53366015625,13.86506640625,9.10896484375,1.54378515625,11.118453125,16.57294140625,14.79750390625,17.54281640625,13.79301953125,23.2659921875,16.36112890625,16.372171875,19.14317578125
4.19460546875,4.40614453125,4.1231796875,4.26669921875,6.88444140625,11.41813671875,7.10151171875,-0.89967578125,5.43856640625,8.796828125,7.397890625,4.16248046875,3.91834765625,11.70815234375,11.3460859375,6.9741875,9.944359375,8.09066015625,14.27106640625,10.04996484375,2.57678515625,8.747453125,15.30694140625,15.17450390625,17.72081640625,14.22601953125,22.7499921875,15.30812890625,16.390171875,18.82117578125
4.01960546875,4.78714453125,4.6751796875,4.43069921875,6.56544140625,11.25613671875,6.66951171875,-0.14167578125,4.97456640625,8.591828125,7.117890625,4.54248046875,5.06834765625,10.72815234375,11.1800859375,6.5911875,10.139359375,6.05966015625,13.45406640625,9.80296484375,2.74178515625,5.296453125,13.01494140625,14.54450390625,16.53781640625,14.25601953125,21.2919921875,12.78812890625,15.182171875,17.65417578125
2.74660546875,4.39414453125,4.3091796875,3.77369921875,5.04444140625,9.47113671875,4.67651171875,-0.30767578125,3.72456640625,6.999828125,5.167890625,3.57648046875,5.27534765625,8.46115234375,9.4290859375,4.6881875,9.479359375,3.61766015625,11.39906640625,8.18696484375,1.79178515625,1.443453125,9.94894140625,12.77650390625,13.93581640625,13.75601953125,18.7739921875,9.25812890625,12.879171875,15.73217578125
0.71960546875,3.30314453125,2.9961796875,2.40969921875,2.60944140625,6.31713671875,1.50951171875,-1.34667578125,1.93356640625,4.257828125,1.868890625,1.48048046875,4.24834765625,5.25415234375,6.3290859375,1.6491875,8.123359375,1.11566015625,8.46606640625,5.46496484375,-0.0832148437499987,-1.932546875,6.60994140625,10.07050390625,10.27981640625,12.84201953125,15.4299921875,5.53612890625,9.998171875,13.43017578125
-1.44339453125,1.81114453125,1.0181796875,0.68469921875,-0.213558593749999,2.41913671875,-2.04848828125,-2.96767578125,0.0145664062499997,0.871828125,-2.018109375,-1.20651953125,2.28134765625,1.68515234375,2.5580859375,-1.8078125,6.448359375,-1.01233984375,5.29006640625,2.25996484375,-2.32221484375,-4.085546875,3.60694140625,6.91650390625,6.26281640625,11.80901953125,11.7989921875,2.47712890625,7.221171875,11.22917578125
-3.12239453125,0.30414453125,-1.1278203125,-0.97530078125,-2.88255859375,-1.47086328125,-5.09748828125,-4.72667578125,-1.63343359375,-2.561171875,-5.619109375,-3.85851953125,0.07934765625,-1.61584765625,-1.0309140625,-4.9118125,4.866359375,-2.44133984375,2.52006640625,-0.71803515625,-4.27721484375,-4.709546875,1.40994140625,3.88650390625,2.63181640625,10.93401953125,8.4639921875,0.594128906250001,5.069171875,9.41217578125
-4.00039453125,-0.89385546875,-2.9198203125,-2.27130078125,-5.05255859375,-4.75086328125,-6.99548828125,-6.17267578125,-2.79443359375,-5.554171875,-8.317109375,-5.98651953125,-1.59365234375,-4.18584765625,-3.7509140625,-7.1378125,3.619359375,-3.11933984375,0.53106640625,-2.98003515625,-5.54321484375,-4.062546875,0.13494140625,1.37050390625,-0.12618359375,10.31001953125,5.7429921875,-0.15187109375,3.630171875,7.87817578125
-4.19239453125,-1.62985546875,-4.0068203125,-3.14930078125,-6.63455859375,-7.11986328125,-7.59548828125,-6.99867578125,-3.48543359375,-7.827171875,-9.943109375,-7.37251953125,-2.24765234375,-5.85584765625,-5.3069140625,-8.3708125,2.688359375,-3.28333984375,-0.69793359375,-4.43203515625,-6.14521484375,-2.805546875,-0.47505859375,-0.55549609375,-1.95018359375,9.80601953125,3.5589921875,-0.26387109375,2.554171875,6.21717578125
-4.10739453125,-1.93685546875,-4.3008203125,-3.74230078125,-7.69755859375,-8.52986328125,-7.22648828125,-7.12767578125,-3.86043359375,-9.280171875,-10.685109375,-8.04951953125,-1.84465234375,-6.72284765625,-5.8099140625,-8.8508125,1.866359375,-3.31133984375,-1.46193359375,-5.29603515625,-6.46221484375,-1.632546875,-0.86805859375,-2.05649609375,-3.11418359375,9.21001953125,1.5779921875,-0.35587109375,1.316171875,4.04017578125
-4.15739453125,-1.96785546875,-3.9458203125,-4.20830078125,-8.30655859375,-9.04286328125,-6.45648828125,-6.69267578125,-4.05143359375,-9.876171875,-10.837109375,-8.19551953125,-0.77265234375,-7.01184765625,-5.5949140625,-8.9618125,0.942359375,-3.49733984375,-2.07793359375,-5.86903515625,-6.93921484375,-0.936546875,-1.39805859375,-3.32249609375,-3.97418359375,8.41601953125,-0.4980078125,-0.771871093750001,-0.423828125,1.32117578125
-4.54739453125,-1.90085546875,-3.2158203125,-4.59130078125,-8.42455859375,-8.71786328125,-5.82048828125,-5.95667578125,-4.07243359375,-9.573171875,-10.569109375,-7.99451953125,0.36134765625,-6.91484765625,-4.9879140625,-8.9798125,-0.133640625,-3.91133984375,-2.67293359375,-6.29403515625,-7.77121484375,-0.692546875,-2.12705859375,-4.39149609375,-4.72418359375,7.53201953125,-2.6820078125,-1.41787109375,-2.602828125,-1.49982421875
-5.22539453125,-1.85285546875,-2.3958203125,-4.79630078125,-7.93955859375,-7.60686328125,-5.60948828125,-5.19367578125,-3.82843359375,-8.344171875,-9.869109375,-7.53551953125,1.01734765625,-6.50884765625,-4.1479140625,-8.9308125,-1.180640625,-4.39933984375,-3.13693359375,-6.46903515625,-8.75321484375,-0.587546875,-2.82005859375,-5.10549609375,-5.28418359375,6.83701953125,-4.6570078125,-1.86687109375,-4.789828125,-3.70082421875
-5.91939453125,-1.83485546875,-1.6868203125,-4.65030078125,-6.77055859375,-5.80886328125,-5.77148828125,-4.55367578125,-3.21543359375,-6.261171875,-8.624109375,-6.79651953125,0.94134765625,-5.76384765625,-3.0539140625,-8.6108125,-1.872640625,-4.70433984375,-3.23093359375,-6.13403515625,-9.37221484375,-0.283546875,-3.11705859375,-5.21849609375,-5.37118359375,6.63601953125,-5.9320078125,-1.64887109375,-6.419828125,-4.62382421875
-6.24539453125,-1.77285546875,-1.1438203125,-4.01430078125,-4.98155859375,-3.51686328125,-5.94048828125,-3.97167578125,-2.21643359375,-3.580171875,-6.774109375,-5.70951953125,0.19834765625,-4.63384765625,-1.6109140625,-7.7538125,-1.909640625,-4.61633984375,-2.75193359375,-5.04903515625,-9.09621484375,0.367453125,-2.74805859375,-4.56149609375,-4.68918359375,7.09101953125,-6.0880078125,-0.524871093750001,-7.062828125,-3.98182421875
-5.89139453125,-1.56585546875,-0.7078203125,-2.88930078125,-2.82555859375,-1.01986328125,-5.64548828125,-3.23467578125,-0.97543359375,-0.728171875,-4.412109375,-4.25051953125,-0.95465234375,-3.15584765625,0.2090859375,-6.2088125,-1.189640625,-4.07633984375,-1.65793359375,-3.16803515625,-7.68421484375,1.255453125,-1.68705859375,-3.15049609375,-3.14218359375,8.11401953125,-4.9900078125,1.38312890625,-6.602828125,-2.00582421875
-4.79739453125,-1.13985546875,-0.2848203125,-1.45530078125,-0.68255859375,1.35013671875,-4.56148828125,-2.14767578125,0.24056640625,1.812828125,-1.794109375,-2.50751953125,-2.23565234375,-1.49184765625,2.2970859375,-4.0558125,0.110359375,-3.19233984375,-0.0979335937500001,-0.69803515625,-5.33821484375,2.093453125,-0.15905859375,-1.20749609375,-0.931183593750001,9.37801953125,-2.8660078125,3.64112890625,-5.273828125,0.64317578125
-3.18339453125,-0.48385546875,0.1981796875,-0.0123007812499996,1.06444140625,3.31313671875,-2.65448828125,-0.66567578125,1.14156640625,3.674828125,0.741890625,-0.65551953125,-3.44265234375,0.11315234375,4.4320859375,-1.5708125,1.629359375,-2.17733984375,1.66006640625,1.97196484375,-2.61121484375,2.580453125,1.47294140625,0.923503906249999,1.51181640625,10.47201953125,-0.2180078125,5.68512890625,-3.525828125,3.14817578125
-1.40339453125,0.35714453125,0.7991796875,1.16369921875,2.16544140625,4.73813671875,-0.14048828125,1.09632421875,1.56356640625,4.736828125,2.916890625,1.12548046875,-4.46665234375,1.45115234375,6.3850859375,0.9231875,2.998359375,-1.24133984375,3.35406640625,4.45096484375,-0.122214843749999,2.568453125,2.87494140625,2.91950390625,3.73481640625,11.12301953125,2.3949921875,7.06712890625,-1.812828125,4.89517578125
0.22460546875,1.30214453125,1.5911796875,1.93269921875,2.58144140625,5.67013671875,2.63751171875,2.94132421875,1.55756640625,5.160828125,4.606890625,2.73548046875,-5.21965234375,2.46415234375,8.0260859375,3.2141875,4.016359375,-0.49733984375,4.82706640625,6.49996484375,1.72578515625,2.145453125,3.88594140625,4.59350390625,5.47581640625,11.34001953125,4.5889921875,7.64112890625,-0.402828125000001,5.71717578125
1.49160546875,2.27214453125,2.6321796875,2.30169921875,2.49244140625,6.27813671875,5.30651171875,4.66032421875,1.35956640625,5.295828125,5.855890625,4.16248046875,-5.55165234375,3.26415234375,9.3560859375,5.2521875,4.694359375,0.0856601562499999,6.05706640625,8.09596484375,2.87778515625,1.613453125,4.54894140625,5.93950390625,6.73681640625,11.38701953125,6.2689921875,7.60012890625,0.698171874999999,5.91717578125
2.31960546875,3.18714453125,3.9141796875,2.37069921875,2.20644140625,6.75213671875,7.52251171875,6.06132421875,1.26756640625,5.510828125,6.793890625,5.40548046875,-5.26465234375,4.05015234375,10.4480859375,7.0621875,5.174359375,0.64766015625,7.10006640625,9.35396484375,3.53478515625,1.357453125,5.04394140625,7.05550390625,7.68781640625,11.59101953125,7.5619921875,7.35812890625,1.655171875,6.04017578125
2.76960546875,3.95614453125,5.3201796875,2.26169921875,2.03144140625,7.22213671875,9.04051171875,6.98832421875,1.49256640625,6.022828125,7.524890625,6.39548046875,-4.22365234375,4.97815234375,11.3550859375,8.6211875,5.609359375,1.34866015625,8.01106640625,10.38496484375,3.95078515625,1.673453125,5.55394140625,8.03050390625,8.47581640625,12.12301953125,8.6229921875,7.31312890625,2.635171875,6.54017578125
3.00360546875,4.46914453125,6.6411796875,2.08769921875,2.16544140625,7.72013671875,9.76651171875,7.33532421875,2.07256640625,6.820828125,8.059890625,6.98348046875,-2.53465234375,6.06615234375,12.0400859375,9.7971875,6.064359375,2.27866015625,8.79106640625,11.19096484375,4.24578515625,2.640453125,6.15894140625,8.85150390625,9.09681640625,12.88601953125,9.4559921875,7.64312890625,3.651171875,7.51117578125
3.18160546875,4.63814453125,7.6221796875,1.93069921875,2.63744140625,8.20213671875,9.75351171875,7.08332421875,2.87056640625,7.706828125,8.324890625,7.02948046875,-0.60465234375,7.18815234375,12.4020859375,10.4141875,6.510359375,3.39766015625,9.38106640625,11.66396484375,4.35778515625,4.078453125,6.80694140625,9.39550390625,9.39981640625,13.58401953125,9.8649921875,8.20912890625,4.507171875,8.63817578125
3.36460546875,4.45414453125,8.0411796875,1.84369921875,3.32544140625,8.59013671875,9.17851171875,6.32632421875,3.64656640625,8.402828125,8.236890625,6.51948046875,1.01034765625,8.13115234375,12.3400859375,10.3771875,6.886359375,4.53066015625,9.70206640625,11.67796484375,4.14578515625,5.606453125,7.34694140625,9.49650390625,9.21481640625,13.92001953125,9.5749921875,8.62612890625,4.873171875,9.35417578125
3.53360546875,4.02314453125,7.8061796875,1.85169921875,4.00744140625,8.81913671875,8.30051171875,5.28332421875,4.16456640625,8.672828125,7.774890625,5.62248046875,1.88634765625,8.67215234375,11.8380859375,9.7521875,7.169359375,5.40366015625,9.68606640625,11.19196484375,3.55478515625,6.753453125,7.59294140625,9.04050390625,8.49381640625,13.77501953125,8.4299921875,8.44512890625,4.450171875,9.13317578125
3.63860546875,3.52514453125,7.0081796875,1.94669921875,4.41844140625,8.85113671875,7.39551171875,4.23632421875,4.26256640625,8.386828125,7.015890625,4.62448046875,1.93634765625,8.63215234375,10.9810859375,8.7631875,7.375359375,5.73866015625,9.31506640625,10.30296484375,2.69578515625,7.127453125,7.39794140625,8.05350390625,7.37381640625,13.24801953125,6.5419921875,7.37612890625,3.129171875,7.74617578125
3.60060546875,3.14114453125,5.8961796875,2.07069921875,4.31644140625,8.64613671875,6.64051171875,3.39732421875,3.88456640625,7.541828125,6.093890625,3.78948046875,1.38034765625,7.91715234375,9.9230859375,7.6981875,7.491359375,5.36366015625,8.62406640625,9.21796484375,1.80178515625,6.570453125,6.71294140625,6.72050390625,6.10581640625,12.54701953125,4.2959921875,5.45512890625,1.091171875,5.37717578125
3.28660546875,2.96914453125,4.7771796875,2.10169921875,3.55044140625,8.14613671875,6.04151171875,2.80232421875,3.06356640625,6.238828125,5.150890625,3.22448046875,0.54134765625,6.54015234375,8.8190859375,6.7931875,7.420359375,4.30266015625,7.69906640625,8.17796484375,1.10878515625,5.255453125,5.62894140625,5.34650390625,4.93781640625,11.85401953125,2.2129921875,3.08812890625,-1.206828125,2.56517578125
2.56060546875,2.98914453125,3.9281796875,1.88269921875,2.12444140625,7.30513671875,5.47651171875,2.33532421875,1.89456640625,4.636828125,4.298890625,2.84848046875,-0.37965234375,4.64815234375,7.7700859375,6.1621875,7.032359375,2.79066015625,6.66106640625,7.35896484375,0.752785156250001,3.637453125,4.35694140625,4.23950390625,4.01681640625,11.25701953125,0.7519921875,0.949128906249999,-3.139828125,0.0321757812500003
1.41660546875,3.06814453125,3.5391796875,1.29969921875,0.20444140625,6.14513671875,4.81851171875,1.84532421875,0.51556640625,2.903828125,3.597890625,2.46548046875,-1.37265234375,2.49615234375,6.7880859375,5.7751875,6.278359375,1.18766015625,5.61706640625,6.80596484375,0.733785156250001,2.270453125,3.15394140625,3.58250390625,3.36081640625,10.78501953125,0.1329921875,-0.26287109375,-4.111828125,-1.55182421875
0.0346054687499997,3.02514453125,3.6611796875,0.35569921875,-1.91955859375,4.77813671875,4.00251171875,1.22032421875,-0.90643359375,1.179828125,3.039890625,1.87448046875,-2.51465234375,0.40115234375,5.8090859375,5.4901875,5.260359375,-0.15633984375,4.61406640625,6.40596484375,0.920785156250002,1.573453125,2.22094140625,3.34450390625,2.87881640625,10.45901953125,0.2609921875,-0.12287109375,-3.770828125,-1.78282421875
-1.29339453125,2.72914453125,4.1601796875,-0.80630078125,-3.91755859375,3.38713671875,3.00951171875,0.39232421875,-2.19843359375,-0.431171875,2.538890625,0.97748046875,-3.78265234375,-1.34584765625,4.7450859375,5.1061875,4.169359375,-1.02333984375,3.63506640625,5.93996484375,1.08978515625,1.649453125,1.62394140625,3.29850390625,2.41181640625,10.29201953125,0.774992187500001,1.31512890625,-2.179828125,-0.67782421875
-2.30139453125,2.16714453125,4.7491796875,-1.94430078125,-5.50155859375,2.16013671875,1.84951171875,-0.68567578125,-3.21843359375,-1.830171875,1.971890625,-0.17551953125,-4.92865234375,-2.55384765625,3.5490859375,4.4531875,3.155359375,-1.39133984375,2.65006640625,5.19896484375,1.00978515625,2.252453125,1.29194140625,3.14050390625,1.80681640625,10.24601953125,1.2129921875,3.50312890625,0.157171875,1.31217578125
-2.82939453125,1.45014453125,5.1091796875,-2.78430078125,-6.49155859375,1.25413671875,0.59451171875,-2.01367578125,-3.87343359375,-2.898171875,1.271890625,-1.40051953125,-5.54865234375,-3.15784765625,2.2860859375,3.4831875,2.260359375,-1.38533984375,1.69406640625,4.13396484375,0.559785156250001,2.925453125,1.09694140625,2.67950390625,0.999816406249999,10.21301953125,1.2379921875,5.62312890625,2.461171875,3.45717578125
-2.86439453125,0.76814453125,5.0361796875,-3.12330078125,-6.81255859375,0.77413671875,-0.59048828125,-3.49967578125,-4.11143359375,-3.467171875,0.532890625,-2.44351953125,-5.32065234375,-3.18284765625,1.1690859375,2.3451875,1.455359375,-1.16533984375,0.94506640625,2.95296484375,-0.149214843749999,3.247453125,0.98494140625,1.98850390625,0.113816406249999,10.07401953125,0.8299921875,6.97512890625,3.998171875,5.05417578125
-2.53339453125,0.33214453125,4.5211796875,-2.88530078125,-6.44255859375,0.80313671875,-1.47348828125,-4.95367578125,-3.89843359375,-3.317171875,0.0458906249999997,-3.06751953125,-4.23665234375,-2.65684765625,0.5510859375,1.3971875,0.759359375,-0.79533984375,0.71906640625,2.10896484375,-0.747214843749999,3.064453125,1.06494140625,1.44550390625,-0.515183593750001,9.80601953125,0.3589921875,7.30912890625,4.424171875,5.76717578125
-2.02439453125,0.31414453125,3.7511796875,-2.11930078125,-5.35455859375,1.43313671875,-1.80748828125,-6.12067578125,-3.18643359375,-2.214171875,0.228890625,-3.11351953125,-2.64365234375,-1.54284765625,0.8560859375,1.1101875,0.324359375,-0.18533984375,1.39306640625,2.17096484375,-0.725214843749999,2.574453125,1.61294140625,1.62150390625,-0.398183593750001,9.55701953125,0.4709921875,6.95312890625,3.973171875,5.81117578125
-1.45939453125,0.80114453125,3.0441796875,-0.92730078125,-3.52255859375,2.76713671875,-1.38948828125,-6.74367578125,-1.92143359375,-0.0111718750000001,1.447890625,-2.53951953125,-1.05365234375,0.25815234375,2.4230859375,1.8951875,0.441359375,0.86766015625,3.25106640625,3.60096484375,0.355785156250001,2.213453125,2.95994140625,3.04850390625,0.92481640625,9.61101953125,1.8109921875,6.64012890625,3.371171875,5.84917578125
-0.82639453125,1.75114453125,2.7461796875,0.58769921875,-1.00455859375,4.82813671875,-0.15348828125,-6.64567578125,-0.0994335937500002,3.210828125,3.812890625,-1.42451953125,0.11834765625,2.80915234375,5.3170859375,3.9061875,1.417359375,2.53666015625,6.31706640625,6.52596484375,2.62078515625,2.418453125,5.31094140625,5.96350390625,3.64581640625,10.22301953125,4.6879921875,7.11312890625,3.475171875,6.61517578125
-0.0673945312500006,2.98214453125,3.0691796875,2.29569921875,1.95344140625,7.42713671875,1.73451171875,-5.82567578125,2.15456640625,7.055828125,7.046890625,0.05248046875,0.69034765625,5.98415234375,9.1930859375,6.9171875,3.371359375,4.80066015625,10.23306640625,10.59896484375,5.76678515625,3.358453125,8.57394140625,10.12550390625,7.50481640625,11.41801953125,8.8499921875,8.70512890625,4.820171875,8.47817578125
0.80360546875,4.22314453125,3.9671796875,3.99169921875,4.89644140625,10.13713671875,3.89051171875,-4.48267578125,4.53656640625,10.849828125,10.537890625,1.65748046875,0.68434765625,9.38015234375,13.3370859375,10.3481875,6.059359375,7.35166015625,14.29206640625,15.04796484375,9.13178515625,4.809453125,12.27494140625,14.81950390625,11.77881640625,12.88801953125,13.4959921875,11.11512890625,7.308171875,11.22217578125
1.69960546875,5.22414453125,5.1311796875,5.40269921875,7.27944140625,12.43113671875,5.89851171875,-2.91367578125,6.63456640625,13.849828125,13.583890625,3.16948046875,0.26134765625,12.38515234375,16.8910859375,13.4591875,8.864359375,9.64666015625,17.63306640625,18.92396484375,11.94978515625,6.219453125,15.66894140625,19.06350390625,15.52681640625,14.09101953125,17.5579921875,13.51312890625,10.233171875,14.17117578125
2.54760546875,5.85314453125,6.1291796875,6.30269921875,8.70044140625,13.92913671875,7.54251171875,-1.36367578125,8.07956640625,15.533828125,15.682890625,4.44448046875,-0.30165234375,14.40815234375,19.1850859375,15.6171875,11.019359375,11.13066015625,19.55706640625,21.44596484375,13.65078515625,6.975453125,18.00894140625,21.96550390625,17.94781640625,14.51301953125,20.1189921875,14.95012890625,12.618171875,16.53417578125
3.33360546875,6.14714453125,6.6021796875,6.63569921875,9.09644140625,14.58013671875,8.87951171875,0.0613242187499999,8.71156640625,15.820828125,16.707890625,5.43748046875,-0.61165234375,15.13915234375,19.9880859375,16.5191875,11.956359375,11.50866015625,19.81506640625,22.28496484375,14.07578515625,6.735453125,18.87694140625,23.05550390625,18.69681640625,13.93601953125,20.7599921875,14.84712890625,13.684171875,17.77017578125
4.04060546875,6.27014453125,6.4231796875,6.56269921875,8.78744140625,14.66013671875,10.10151171875,1.34532421875,8.64356640625,15.098828125,16.876890625,6.19348046875,-0.25865234375,14.70215234375,19.5720859375,16.2781875,11.586359375,10.90266015625,18.70406640625,21.64396484375,13.50178515625,5.629453125,18.36194140625,22.44750390625,17.96881640625,12.55601953125,19.6859921875,13.30512890625,13.192171875,17.76217578125
4.59660546875,6.40614453125,5.7761796875,6.37569921875,8.32644140625,14.60913671875,11.35351171875,2.47132421875,8.20756640625,14.030828125,16.590890625,6.78548046875,0.97034765625,13.58615234375,18.5500859375,15.3401875,10.341359375,9.79166015625,16.92406640625,20.12896484375,12.48978515625,4.201453125,16.99394140625,20.73550390625,16.36481640625,10.87401953125,17.5719921875,11.03212890625,11.509171875,16.78417578125
4.89460546875,6.64914453125,5.1041796875,6.35069921875,8.22644140625,14.80913671875,12.62351171875,3.36432421875,7.79956640625,13.251828125,16.240890625,7.26548046875,2.91334765625,12.40115234375,17.5890859375,14.2911875,8.971359375,8.76066015625,15.27006640625,18.48296484375,11.64178515625,3.106453125,15.43994140625,18.71250390625,14.61081640625,9.43401953125,15.2339921875,8.94912890625,9.368171875,15.30217578125
4.85760546875,6.97214453125,4.9191796875,6.61369921875,8.73144140625,15.42513671875,13.76551171875,3.92232421875,7.72256640625,13.119828125,16.084890625,7.64048046875,5.06634765625,11.60315234375,17.1560859375,13.6351875,8.186359375,8.20866015625,14.29706640625,17.30596484375,11.36978515625,2.757453125,14.18694140625,17.03750390625,13.28281640625,8.53801953125,13.3079921875,7.69712890625,7.494171875,13.75317578125
4.50360546875,7.28514453125,5.5551796875,7.10469921875,9.75544140625,16.39213671875,14.61351171875,4.09832421875,8.07856640625,13.646828125,16.215890625,7.90648046875,6.83734765625,11.32715234375,17.4030859375,13.6491875,8.340359375,8.19766015625,14.15506640625,16.89496484375,11.78478515625,3.139453125,13.36794140625,16.04150390625,12.64281640625,8.11501953125,12.0719921875,7.36212890625,6.313171875,12.40117578125
3.97960546875,7.51914453125,7.0081796875,7.66869921875,10.98944140625,17.53113671875,15.13251171875,3.99632421875,8.75656640625,14.589828125,16.605890625,8.11148046875,7.83834765625,11.42115234375,18.2100859375,14.3351875,9.314359375,8.49966015625,14.62606640625,17.22996484375,12.71878515625,3.882453125,12.82094140625,15.71050390625,12.65381640625,7.81401953125,11.4759921875,7.54512890625,5.863171875,11.34317578125
3.53860546875,7.66414453125,8.9451796875,8.16169921875,12.07844140625,18.67413671875,15.47751171875,3.88632421875,9.50356640625,15.615828125,17.171890625,8.36648046875,7.99934765625,11.59715234375,19.2930859375,15.4641875,10.636359375,8.76866015625,15.28006640625,18.06596484375,13.85878515625,4.501453125,12.27294140625,15.79850390625,13.09381640625,7.26101953125,11.2859921875,7.68312890625,5.908171875,10.59817578125
3.39960546875,7.73714453125,10.8461796875,8.50169921875,12.75444140625,19.69513671875,15.86651171875,4.06932421875,10.02656640625,16.428828125,17.792890625,8.77748046875,7.47234765625,11.59815234375,20.3130859375,16.6541875,11.726359375,8.72266015625,15.66406640625,19.02996484375,14.88078515625,4.640453125,11.50694140625,15.95850390625,13.67081640625,6.26901953125,11.2309921875,7.38612890625,6.113171875,10.15817578125
3.55160546875,7.71914453125,12.1941796875,8.64269921875,12.87944140625,20.45913671875,16.35051171875,4.66432421875,10.09056640625,16.820828125,18.283890625,9.33148046875,6.45934765625,11.29915234375,20.9520859375,17.4741875,12.131359375,8.24266015625,15.42306640625,19.69196484375,15.52678515625,4.223453125,10.44494140625,15.83150390625,14.06581640625,4.89201953125,11.0609921875,6.59812890625,6.152171875,9.95117578125
3.70860546875,7.52714453125,12.6291796875,8.55169921875,12.44444140625,20.76613671875,16.68951171875,5.49932421875,9.60456640625,16.680828125,18.395890625,9.83848046875,5.11534765625,10.70815234375,20.9630859375,17.5451875,11.655359375,7.39666015625,14.38006640625,19.63596484375,15.61778515625,3.441453125,9.12694140625,15.11550390625,13.94181640625,3.31501953125,10.5559921875,5.54312890625,5.771171875,9.78017578125
3.47060546875,7.04114453125,12.0711796875,8.23469921875,11.54344140625,20.39413671875,16.48251171875,6.22032421875,8.65956640625,15.982828125,17.873890625,9.99348046875,3.56834765625,9.92115234375,20.2060859375,16.6461875,10.395359375,6.37766015625,12.58106640625,18.55196484375,15.06578515625,2.627453125,7.65794140625,13.62950390625,13.00981640625,1.73601953125,9.5609921875,4.53412890625,4.815171875,9.36417578125
2.59360546875,6.18714453125,10.7401796875,7.76569921875,10.33144140625,19.21113671875,15.42751171875,6.51532421875,7.49356640625,14.770828125,16.576890625,9.53948046875,2.01034765625,9.03815234375,18.6520859375,14.7881875,8.686359375,5.41466015625,10.26606640625,16.35396484375,13.89478515625,2.079453125,6.15894140625,11.38750390625,11.16581640625,0.31501953125,8.0529921875,3.78512890625,3.285171875,8.47117578125
1.13660546875,5.01414453125,9.0621796875,7.25769921875,8.97444140625,17.25513671875,13.50451171875,6.28032421875,6.39456640625,13.151828125,14.562890625,8.41948046875,0.75734765625,8.11615234375,16.3860859375,12.2311875,6.994359375,4.69166015625,7.79406640625,13.25996484375,12.28078515625,1.929453125,4.74194140625,8.63750390625,8.61981640625,-0.77698046875,6.2039921875,3.33012890625,1.379171875,7.08917578125
-0.56139453125,3.71514453125,7.4861796875,6.81869921875,7.61044140625,14.75713671875,10.98451171875,5.63832421875,5.59656640625,11.278828125,12.101890625,6.83548046875,0.21534765625,7.17015234375,13.6240859375,9.4331875,5.766359375,4.30466015625,5.54406640625,9.79096484375,10.56978515625,2.117453125,3.52394140625,5.84550390625,5.91281640625,-1.31598046875,4.3809921875,3.07012890625,-0.516828125,5.50817578125
-2.00039453125,2.57214453125,6.3291796875,6.52969921875,6.33944140625,12.10613671875,8.32951171875,4.84832421875,5.22656640625,9.352828125,9.608890625,5.17448046875,0.71034765625,6.22915234375,10.7200859375,6.9441875,5.284359375,4.28366015625,3.85906640625,6.65796484375,9.22078515625,2.466453125,2.65494140625,3.58850390625,3.76281640625,-1.04298046875,3.0509921875,2.88012890625,-1.927828125,4.26017578125
-2.69239453125,1.83414453125,5.7031796875,6.45369921875,5.25244140625,9.77413671875,6.04451171875,4.18732421875,5.30956640625,7.610828125,7.530890625,3.85448046875,2.29334765625,5.40115234375,8.1450859375,5.2611875,5.567359375,4.63666015625,3.01506640625,4.55996484375,8.67178515625,2.799453125,2.31094140625,2.38650390625,2.79781640625,0.20301953125,2.6059921875,2.71212890625,-2.463828125,3.88517578125
-2.36539453125,1.62314453125,5.5151796875,6.63169921875,4.44944140625,8.19313671875,4.50751171875,3.84232421875,5.79756640625,6.307828125,6.221890625,3.17048046875,4.63934765625,4.87415234375,6.3810859375,4.6801875,6.375359375,5.36866015625,3.19306640625,3.95496484375,9.15578515625,3.033453125,2.65194140625,2.53350390625,3.29781640625,2.31501953125,3.1969921875,2.62112890625,-1.998828125,4.64717578125
-1.09839453125,1.89514453125,5.5341796875,7.04869921875,4.04144140625,7.61713671875,3.83751171875,3.84732421875,6.58856640625,5.664828125,5.848890625,3.19348046875,7.17134765625,4.86215234375,5.7760859375,5.2111875,7.313359375,6.47866015625,4.41306640625,4.91096484375,10.56378515625,3.231453125,3.74694140625,3.97950390625,5.06581640625,4.85401953125,4.6439921875,2.72612890625,-0.736828125000001,6.35717578125
0.72060546875,2.47914453125,5.5231796875,7.62269921875,4.11544140625,8.03713671875,3.90351171875,4.11132421875,7.55256640625,5.802828125,6.365890625,3.76448046875,9.31134765625,5.48915234375,6.3930859375,6.5651875,7.995359375,7.90766015625,6.47606640625,7.08196484375,12.43978515625,3.552453125,5.50194140625,6.33550390625,7.50381640625,7.16401953125,6.4889921875,3.14812890625,0.886171875,8.42317578125
2.59660546875,3.13114453125,5.3671796875,8.20969921875,4.66544140625,9.17413671875,4.42851171875,4.49232421875,8.54056640625,6.678828125,7.536890625,4.55448046875,10.69234765625,6.68715234375,7.9530859375,8.2321875,8.171359375,9.50366015625,8.96006640625,9.81096484375,14.12978515625,4.149453125,7.62794140625,8.98250390625,9.84981640625,8.62501953125,8.1789921875,3.94412890625,2.432171875,10.12317578125
4.10660546875,3.60314453125,5.0951796875,8.64269921875,5.54644140625,10.54213671875,5.08951171875,4.85632421875,9.38656640625,8.049828125,8.994890625,5.17748046875,11.20534765625,8.15915234375,9.8860859375,9.6331875,7.753359375,11.01266015625,11.30006640625,12.31696484375,15.01278515625,5.052453125,9.68994140625,11.24850390625,11.43581640625,8.90401953125,9.2689921875,5.06512890625,3.640171875,10.92717578125
4.99560546875,3.69914453125,4.7811796875,8.75569921875,6.48044140625,11.57913671875,5.56251171875,5.06732421875,9.91256640625,9.494828125,10.301890625,5.31548046875,10.90434765625,9.43315234375,11.4880859375,10.2831875,6.772359375,12.12566015625,12.92606640625,13.90796484375,14.73678515625,6.104453125,11.22794140625,12.59350390625,11.87681640625,8.08401953125,9.5669921875,6.34512890625,4.489171875,10.69517578125
5.19460546875,3.32614453125,4.4171796875,8.43269921875,7.12144140625,11.80613671875,5.56351171875,4.97832421875,9.94156640625,10.503828125,11.016890625,4.81548046875,9.90234765625,10.00915234375,12.1290859375,9.9121875,5.337359375,12.55966015625,13.42106640625,14.14796484375,13.33478515625,6.997453125,11.88494140625,12.72850390625,11.13481640625,6.59201953125,9.1379921875,7.51312890625,5.091171875,9.67017578125
4.85660546875,2.50514453125,3.8701796875,7.65369921875,7.16744140625,10.97613671875,4.92551171875,4.47132421875,9.34756640625,10.618828125,10.790890625,3.71848046875,8.32934765625,9.53515234375,11.4220859375,8.5061875,3.620359375,12.13366015625,12.63606640625,12.94896484375,11.18278515625,7.378453125,11.50494140625,11.65850390625,9.46281640625,4.98501953125,8.1939921875,8.26012890625,5.553171875,8.29517578125
4.34060546875,1.36814453125,2.9461796875,6.53469921875,6.47044140625,9.14613671875,3.65551171875,3.51132421875,8.13056640625,9.605828125,9.474890625,2.21148046875,6.37834765625,7.95015234375,9.3480859375,6.2761875,1.845359375,10.84766015625,10.73006640625,10.57096484375,8.81678515625,7.011453125,10.17294140625,9.65350390625,7.29581640625,3.70801953125,6.9749921875,8.33912890625,5.895171875,7.00017578125
4.10760546875,0.13514453125,1.4911796875,5.31569921875,5.14844140625,6.66813671875,1.93551171875,2.17332421875,6.47356640625,7.602828125,7.217890625,0.54748046875,4.36734765625,5.55015234375,6.2890859375,3.6071875,0.265359375,8.92666015625,8.14006640625,7.55096484375,6.72878515625,5.919453125,8.20094140625,7.19650390625,5.14281640625,2.97601953125,5.6899921875,7.68412890625,6.076171875,6.08017578125
4.58860546875,-0.90385546875,-0.5078203125,4.30569921875,3.59644140625,4.11413671875,0.07851171875,0.61832421875,4.76056640625,5.154828125,4.519890625,-1.02051953125,2.74834765625,2.93115234375,2.9770859375,1.0041875,-0.878640625,6.80866015625,5.48706640625,4.59996484375,5.24678515625,4.434453125,6.07394140625,4.90650390625,3.50981640625,2.80801953125,4.5379921875,6.46512890625,6.086171875,5.68617578125
6.08760546875,-1.45785546875,-2.8658203125,3.80469921875,2.39744140625,2.15713671875,-1.52348828125,-0.93267578125,3.49456640625,3.083828125,2.142890625,-2.25851953125,1.95634765625,0.81015234375,0.3190859375,-0.9718125,-1.391640625,5.02866015625,3.43106640625,2.45296484375,4.54178515625,3.086453125,4.32394140625,3.41050390625,2.81781640625,3.15601953125,3.7209921875,5.05612890625,6.006171875,5.86217578125
8.69060546875,-1.32185546875,-5.2168203125,4.01669921875,2.11344140625,1.39113671875,-2.48348828125,-2.23467578125,3.13156640625,2.198828125,0.897890625,-2.96451953125,2.19134765625,-0.21184765625,-0.8779140625,-1.8118125,-1.157640625,4.04366015625,2.49206640625,1.67996484375,4.68278515625,2.382453125,3.37994140625,3.16650390625,3.30081640625,3.98801953125,3.4129921875,3.91212890625,5.985171875,6.55917578125
12.16060546875,-0.47085546875,-7.1208203125,4.97069921875,3.06344140625,2.13213671875,-2.55348828125,-3.07767578125,3.89956640625,2.985828125,1.339890625,-3.00251953125,3.26234765625,0.14315234375,-0.1859140625,-1.2168125,-0.187640625,4.05366015625,2.88606640625,2.51096484375,5.66078515625,2.583453125,3.42994140625,4.29550390625,4.89681640625,5.25301953125,3.6719921875,3.39812890625,6.133171875,7.60017578125
15.90560546875,0.90414453125,-8.2288203125,6.49469921875,5.19544140625,4.28113671875,-1.73448828125,-3.35367578125,5.68556640625,5.427828125,3.540890625,-2.36951953125,4.65034765625,1.74715234375,2.2930859375,0.7621875,1.343359375,4.94066015625,4.46106640625,4.74496484375,7.34878515625,3.604453125,4.36694140625,6.51150390625,7.20881640625,6.77001953125,4.3789921875,3.65812890625,6.418171875,8.66417578125
19.13760546875,2.44314453125,-8.4078203125,8.25969921875,8.10744140625,7.34513671875,-0.28148828125,-3.09467578125,8.05956640625,9.026828125,7.034890625,-1.24151953125,5.73834765625,4.15115234375,5.9670859375,3.6931875,3.103359375,6.33866015625,6.75306640625,7.79996484375,9.45278515625,5.081453125,5.84194140625,9.18750390625,9.61281640625,8.19201953125,5.2419921875,4.55112890625,6.646171875,9.36717578125
21.17660546875,3.72514453125,-7.7868203125,9.87069921875,11.18444140625,10.60613671875,1.41351171875,-2.45867578125,10.43156640625,13.003828125,10.961890625,0.06648046875,6.05334765625,6.75815234375,9.9670859375,6.8661875,4.691359375,7.79066015625,9.14806640625,10.89896484375,11.52778515625,6.531453125,7.39394140625,11.57050390625,11.46481640625,9.08701953125,5.8929921875,5.69612890625,6.566171875,9.40017578125
21.68360546875,4.41714453125,-6.7128203125,10.97069921875,13.80344140625,13.34613671875,2.95251171875,-1.65867578125,12.25056640625,16.564828125,14.358890625,1.22148046875,5.41334765625,9.02015234375,13.4230859375,9.5171875,5.772359375,8.91666015625,11.07306640625,13.30796484375,13.10678515625,7.528453125,8.59994140625,13.02550390625,12.32881640625,9.13901953125,6.0239921875,6.61412890625,6.035171875,8.68717578125
20.73960546875,4.39214453125,-5.6308203125,11.33269921875,15.52244140625,15.05013671875,4.04351171875,-0.88567578125,13.18456640625,19.132828125,16.477890625,2.01448046875,3.94534765625,10.58115234375,15.7100859375,11.0721875,6.186359375,9.52366015625,12.16606640625,14.56396484375,13.87578515625,7.822453125,9.21294140625,13.25550390625,12.12081640625,8.33201953125,5.5169921875,6.92712890625,5.141171875,7.43217578125
18.80160546875,3.75714453125,-4.9108203125,10.93869921875,16.22044140625,15.54413671875,4.58451171875,-0.22267578125,13.22256640625,20.486828125,17.022890625,2.42348046875,2.05234765625,11.35515234375,16.5930859375,11.3291875,5.973359375,9.64966015625,12.38506640625,14.59996484375,13.80478515625,7.410453125,9.23994140625,12.39750390625,11.12381640625,7.00801953125,4.5239921875,6.55212890625,4.219171875,6.05417578125
16.57260546875,2.79614453125,-4.6978203125,10.00869921875,16.11244140625,15.01613671875,4.70651171875,0.38232421875,12.64956640625,20.779828125,16.204890625,2.55548046875,0.32734765625,11.52615234375,16.2500859375,10.4861875,5.306359375,9.52866015625,12.00406640625,13.73396484375,13.16178515625,6.561453125,8.95294140625,10.97550390625,9.87081640625,5.75001953125,3.4619921875,5.78512890625,3.747171875,5.04317578125
14.77960546875,1.83614453125,-4.8818203125,8.91869921875,15.64844140625,13.92613671875,4.69751171875,1.04832421875,11.91556640625,20.447828125,14.604890625,2.51348046875,-0.60665234375,11.46515234375,15.1720859375,9.0251875,4.372359375,9.49666015625,11.50706640625,12.51896484375,12.36578515625,5.734453125,8.80194140625,9.71850390625,8.95381640625,5.13501953125,2.8909921875,5.21412890625,4.183171875,4.80817578125
13.90460546875,1.12814453125,-5.2138203125,8.04069921875,15.30644140625,12.80013671875,4.82751171875,1.81632421875,11.42556640625,20.026828125,12.899890625,2.30248046875,-0.32065234375,11.57515234375,13.9810859375,7.5081875,3.292359375,9.84666015625,11.38406640625,11.52196484375,11.77878515625,5.390453125,9.22794140625,9.29550390625,8.81681640625,5.47401953125,3.3099921875,5.43912890625,5.761171875,5.55017578125
14.01760546875,0.78014453125,-5.4658203125,7.59669921875,15.39444140625,12.03313671875,5.19851171875,2.57832421875,11.36856640625,19.944828125,11.622890625,1.83748046875,1.18634765625,12.13715234375,13.2180859375,6.3831875,2.100359375,10.69666015625,11.93306640625,11.13596484375,11.53578515625,5.748453125,10.45294140625,10.05150390625,9.61781640625,6.66401953125,4.9219921875,6.72512890625,8.340171875,7.16317578125
14.82360546875,0.76214453125,-5.5288203125,7.60569921875,15.93844140625,11.76913671875,5.74051171875,3.14232421875,11.67356640625,20.381828125,11.046890625,1.06748046875,3.42634765625,13.20215234375,13.1950859375,5.8831875,0.817359375,11.92766015625,13.15006640625,11.48696484375,11.52078515625,6.649453125,12.34394140625,11.88550390625,11.19781640625,8.21601953125,7.4969921875,8.79312890625,11.373171875,9.20017578125
15.86460546875,0.98714453125,-5.3938203125,7.93469921875,16.72444140625,11.93313671875,6.33151171875,3.39032421875,12.08556640625,21.248828125,11.219890625,0.10848046875,5.60534765625,14.60315234375,13.9400859375,6.0471875,-0.437640625,13.23966015625,14.77206640625,12.49496484375,11.49478515625,7.644453125,14.47294140625,14.33150390625,13.19481640625,9.47301953125,10.4469921875,10.92812890625,14.070171875,10.97017578125
16.72560546875,1.39114453125,-5.0858203125,8.37869921875,17.45644140625,12.34513671875,6.93051171875,3.39632421875,12.32356640625,22.284828125,12.079890625,-0.71051953125,6.99234765625,16.05015234375,15.2650859375,6.8091875,-1.388640625,14.30366015625,16.43506640625,13.99196484375,11.30278515625,8.260453125,16.32494140625,16.80050390625,15.20681640625,9.91701953125,13.0689921875,12.35612890625,15.717171875,11.78517578125
17.17660546875,1.97014453125,-4.5968203125,8.73269921875,17.91344140625,12.85613671875,7.63751171875,3.42732421875,12.20056640625,23.200828125,13.533890625,-0.95251953125,7.23334765625,17.24815234375,16.8810859375,8.0771875,-1.668640625,14.89866015625,17.83606640625,15.81996484375,11.01378515625,8.262453125,17.52994140625,18.82650390625,16.93581640625,9.40101953125,14.8259921875,12.63912890625,15.974171875,11.26217578125
17.22560546875,2.72814453125,-3.8818203125,8.82069921875,18.00744140625,13.41113671875,8.64351171875,3.82532421875,11.66956640625,23.758828125,15.441890625,-0.27751953125,6.41334765625,17.96115234375,18.4670859375,9.7311875,-1.016640625,14.94366015625,18.79006640625,17.82196484375,10.88778515625,7.722453125,17.95294140625,20.15850390625,18.20781640625,8.18901953125,15.4869921875,11.83612890625,14.978171875,9.51017578125
17.02560546875,3.59614453125,-2.9068203125,8.50569921875,17.71444140625,13.98813671875,10.07451171875,4.82432421875,10.76856640625,23.767828125,17.519890625,1.35248046875,4.90234765625,18.00915234375,19.6870859375,11.5561875,0.525359375,14.43666015625,19.18106640625,19.75196484375,11.17678515625,6.894453125,17.62994140625,20.69850390625,18.89381640625,6.78501953125,15.0889921875,10.36512890625,13.200171875,7.09017578125
16.67260546875,4.39714453125,-1.7378203125,7.66769921875,16.98144140625,14.47513671875,11.81251171875,6.39632421875,9.54756640625,23.053828125,19.278890625,3.59448046875,3.14334765625,17.26115234375,20.1920859375,13.1861875,2.556359375,13.39666015625,18.87806640625,21.21696484375,11.91378515625,6.006453125,16.65394140625,20.39750390625,18.84881640625,5.65801953125,13.8069921875,8.71812890625,11.173171875,4.75617578125
16.07160546875,4.89914453125,-0.5828203125,6.23369921875,15.69644140625,14.59513671875,13.42351171875,8.21732421875,8.03356640625,21.480828125,20.108890625,5.81648046875,1.51534765625,15.66415234375,19.6810859375,14.1491875,4.481359375,11.86966015625,17.73506640625,21.74596484375,12.84778515625,5.155453125,15.11094140625,19.23250390625,17.93881640625,5.06401953125,11.8559921875,7.22912890625,9.283171875,3.15217578125
15.00660546875,4.90114453125,0.2821796875,4.23769921875,13.75644140625,13.98013671875,14.32551171875,9.79832421875,6.25156640625,19.010828125,19.508890625,7.34048046875,0.26234765625,13.30515234375,18.0070859375,14.0291875,5.777359375,9.97066015625,15.68806640625,20.98696484375,13.57978515625,4.315453125,13.11094140625,17.26350390625,16.17281640625,5.02801953125,9.4949921875,6.02012890625,7.712171875,2.61517578125
13.34460546875,4.30914453125,0.6461796875,1.85869921875,11.17444140625,12.34413671875,14.07751171875,10.69832421875,4.26156640625,15.769828125,17.340890625,7.70448046875,-0.56765234375,10.42715234375,15.2610859375,12.6601875,6.203359375,7.90166015625,12.86606640625,18.90096484375,13.79178515625,3.426453125,10.84194140625,14.70950390625,13.80781640625,5.45001953125,7.0479921875,5.07812890625,6.510171875,3.12517578125
11.15460546875,3.18014453125,0.4671796875,-0.60430078125,8.12344140625,9.63913671875,12.59051171875,10.68632421875,2.17756640625,12.040828125,13.911890625,6.82848046875,-1.12665234375,7.37715234375,11.7650859375,10.2341875,5.831359375,5.91466015625,9.63606640625,15.83196484375,13.40378515625,2.481453125,8.58494140625,11.94750390625,11.32281640625,6.20201953125,4.8999921875,4.36912890625,5.695171875,4.39617578125
8.66460546875,1.70414453125,-0.1288203125,-2.83830078125,4.90544140625,6.10213671875,10.13751171875,9.78032421875,0.14956640625,8.191828125,9.848890625,4.99348046875,-1.66265234375,4.50415234375,7.9860859375,7.2511875,4.921359375,4.23566015625,6.51206640625,12.39596484375,12.57678515625,1.573453125,6.66894140625,9.43050390625,9.24481640625,7.15501953125,3.4069921875,3.92512890625,5.309171875,6.00517578125
6.16160546875,0.14414453125,-0.9048203125,-4.60830078125,1.84744140625,2.16913671875,7.20051171875,8.20732421875,-1.66243359375,4.568828125,5.839890625,2.67848046875,-2.35865234375,2.06615234375,4.4010859375,4.3291875,3.772359375,3.01466015625,4.00306640625,9.26196484375,11.59078515625,0.878453125,5.38694140625,7.56950390625,7.95781640625,8.15801953125,2.8079921875,3.86212890625,5.426171875,7.53917578125
3.94660546875,-1.25285546875,-1.6078203125,-5.78430078125,-0.796558593749999,-1.66286328125,4.29951171875,6.34332421875,-3.10943359375,1.412828125,2.407890625,0.34448046875,-3.22765234375,0.19415234375,1.3850859375,1.9561875,2.631359375,2.30666015625,2.45406640625,6.93596484375,10.70178515625,0.587453125,4.91294140625,6.63650390625,7.57381640625,9.04701953125,3.1629921875,4.33212890625,6.099171875,8.70717578125
2.30460546875,-2.32285546875,-2.0668203125,-6.31830078125,-2.86955859375,-4.95986328125,1.84251171875,4.60732421875,-4.06443359375,-1.144171875,-0.191109375,-1.70051953125,-4.11665234375,-1.09584765625,-0.8369140625,0.3471875,1.678359375,2.09366015625,1.94706640625,5.62596484375,10.05978515625,0.799453125,5.23894140625,6.69450390625,7.94181640625,9.68301953125,4.3369921875,5.40712890625,7.292171875,9.40317578125
1.44060546875,-2.98585546875,-2.2708203125,-6.19130078125,-4.27255859375,-7.41286328125,0.0615117187499998,3.34432421875,-4.42643359375,-3.025171875,-1.919109375,-3.31951953125,-4.80565234375,-1.84384765625,-2.1839140625,-0.5518125,1.033359375,2.30466015625,2.30006640625,5.23296484375,9.70078515625,1.441453125,6.15694140625,7.57250390625,8.72481640625,9.98901953125,6.0109921875,6.96912890625,8.811171875,9.67017578125
1.40660546875,-3.22585546875,-2.3498203125,-5.40530078125,-4.90055859375,-8.83386328125,-0.97948828125,2.73332421875,-4.14543359375,-4.149171875,-2.857109375,-4.46851953125,-5.11165234375,-2.11684765625,-2.6869140625,-0.9408125,0.717359375,2.80366015625,3.14006640625,5.42996484375,9.56878515625,2.261453125,7.27594140625,8.88050390625,9.52281640625,9.93901953125,7.6999921875,8.65412890625,10.278171875,9.59717578125
2.06960546875,-3.06485546875,-2.4478203125,-4.02230078125,-4.65955859375,-9.14486328125,-1.28548828125,2.78032421875,-3.27043359375,-4.434171875,-3.107109375,-5.11451953125,-4.95765234375,-2.00084765625,-2.4589140625,-1.0188125,0.624359375,3.37066015625,4.03106640625,5.79996484375,9.55478515625,2.898453125,8.09794140625,10.08650390625,9.95981640625,9.50201953125,8.8199921875,9.91312890625,11.181171875,9.18517578125
3.13960546875,-2.56185546875,-2.5878203125,-2.23630078125,-3.55555859375,-8.39086328125,-0.88048828125,3.37732421875,-1.98043359375,-3.857171875,-2.758109375,-5.20051953125,-4.37765234375,-1.62584765625,-1.6749140625,-0.8878125,0.554359375,3.70666015625,4.58606640625,5.98096484375,9.52478515625,3.007453125,8.14294140625,10.65150390625,9.77181640625,8.61801953125,8.8239921875,10.18512890625,11.018171875,8.31317578125
4.21560546875,-1.81785546875,-2.6528203125,-0.40730078125,-1.77955859375,-6.78586328125,0.16751171875,4.35432421875,-0.57443359375,-2.523171875,-1.909109375,-4.66251953125,-3.47265234375,-1.17984765625,-0.5519140625,-0.5518125,0.313359375,3.51866015625,4.54506640625,5.75796484375,9.37878515625,2.387453125,7.09694140625,10.18950390625,8.85381640625,7.23601953125,7.3799921875,9.10912890625,9.486171875,6.81817578125
4.88260546875,-0.96285546875,-2.4998203125,1.01769921875,0.28444140625,-4.71886328125,1.67551171875,5.51932421875,0.60656640625,-0.696171875,-0.709109375,-3.49451953125,-2.38665234375,-0.86984765625,0.6650859375,0.0141875,-0.151640625,2.63266015625,3.80506640625,5.09296484375,9.09378515625,1.036453125,4.92094140625,8.56450390625,7.26381640625,5.36601953125,4.4869921875,6.66112890625,6.602171875,4.63517578125
4.88260546875,-0.14785546875,-2.0878203125,1.69769921875,2.16044140625,-2.65386328125,3.35451171875,6.67932421875,1.30256640625,1.251828125,0.639890625,-1.81151953125,-1.30665234375,-0.83484765625,1.7370859375,0.7841875,-0.689640625,1.09266015625,2.42606640625,4.08296484375,8.73178515625,-0.879546875,1.87094140625,5.90850390625,5.19381640625,3.11801953125,0.4719921875,3.14012890625,2.696171875,1.85517578125
4.25360546875,0.48514453125,-1.5238203125,1.57069921875,3.45144140625,-0.98186328125,4.87751171875,7.65632421875,1.45656640625,2.963828125,1.931890625,0.12248046875,-0.47265234375,-1.05084765625,2.4650859375,1.6411875,-0.998640625,-0.82733984375,0.63006640625,2.90296484375,8.41078515625,-3.091546875,-1.56105859375,2.57650390625,2.90781640625,0.68901953125,-4.0920078125,-0.928871093750001,-1.700828125,-1.28682421875
3.28660546875,0.83814453125,-0.9998203125,0.90569921875,4.00144140625,0.12413671875,5.96851171875,8.27532421875,1.25156640625,4.244828125,3.020890625,1.93048046875,-0.10465234375,-1.27584765625,2.7740859375,2.4301875,-0.795640625,-2.68133984375,-1.18893359375,1.78096484375,8.23978515625,-5.258546875,-4.74005859375,-0.89349609375,0.705816406249999,-1.66498046875,-8.5030078125,-4.90187109375,-5.962828125,-4.44282421875
2.34760546875,0.89114453125,-0.6828203125,0.17869921875,3.97844140625,0.73613671875,6.45951171875,8.37732421875,1.05856640625,5.166828125,3.878890625,3.22448046875,-0.28465234375,-1.09384765625,2.7750859375,3.0591875,0.00135937499999983,-3.94633984375,-2.50293359375,1.00096484375,8.27978515625,-6.966546875,-6.98405859375,-3.83449609375,-1.08718359375,-3.67198046875,-12.0150078125,-8.08987109375,-9.434828125,-7.17582421875
1.70460546875,0.71214453125,-0.6158203125,-0.12530078125,3.80544140625,1.10613671875,6.34951171875,7.88832421875,1.28056640625,6.019828125,4.588890625,3.75348046875,-0.88865234375,-0.0818476562500004,2.7640859375,3.5721875,1.209359375,-4.16933984375,-2.77193359375,0.85996484375,8.54278515625,-7.774546875,-7.70505859375,-5.57549609375,-2.14618359375,-5.09798046875,-13.9530078125,-9.86187109375,-11.494828125,-9.00682421875
1.45860546875,0.43014453125,-0.7028203125,0.28469921875,3.95144140625,1.53413671875,5.83451171875,6.90232421875,2.16456640625,7.137828125,5.293890625,3.52848046875,-1.65865234375,1.96915234375,3.1040859375,4.1391875,2.457359375,-3.13033984375,-1.65693359375,1.58196484375,9.01478515625,-7.354546875,-6.60705859375,-5.64449609375,-2.22218359375,-5.80498046875,-13.8810078125,-9.82287109375,-11.714828125,-9.54582421875
1.56360546875,0.19414453125,-0.7868203125,1.39469921875,4.70044140625,2.23113671875,5.24251171875,5.66332421875,3.65856640625,8.688828125,6.111890625,2.83848046875,-2.34165234375,4.87415234375,4.0410859375,4.9441875,3.339359375,-0.99433984375,0.78006640625,3.18296484375,9.65778515625,-5.703546875,-3.87405859375,-3.99349609375,-1.26418359375,-5.80998046875,-11.8020078125,-8.03687109375,-10.081828125,-8.68782421875
1.86660546875,0.13614453125,-0.7728203125,2.90169921875,6.02344140625,3.23313671875,4.89551171875,4.46832421875,5.40456640625,10.568828125,7.074890625,2.13648046875,-2.77165234375,8.04515234375,5.5510859375,6.0541875,3.533359375,1.66966015625,4.00006640625,5.39096484375,10.39478515625,-3.258546875,-0.21405859375,-1.08549609375,0.49081640625,-5.29398046875,-8.2510078125,-5.11987109375,-7.130828125,-6.73682421875
2.19660546875,0.33014453125,-0.6728203125,4.36369921875,7.62244140625,4.41013671875,4.97151171875,3.54732421875,6.88156640625,12.437828125,8.111890625,1.82848046875,-2.83965234375,10.68315234375,7.3120859375,7.3321875,2.871359375,4.04866015625,7.13606640625,7.69196484375,11.08778515625,-0.790546875,3.32694140625,2.22650390625,2.55581640625,-4.56198046875,-4.1880078125,-2.07987109375,-3.823828125,-4.34782421875
2.45260546875,0.75914453125,-0.5598203125,5.40169921875,9.08544140625,5.52713671875,5.46151171875,3.01632421875,7.63356640625,13.870828125,9.074890625,2.08048046875,-2.44365234375,12.08915234375,8.8130859375,8.4771875,1.356359375,5.40466015625,9.30906640625,9.49296484375,11.55778515625,0.904453125,5.75294140625,5.01850390625,4.35681640625,-3.93898046875,-0.6680078125,0.10812890625,-1.167828125,-2.26382421875
2.62460546875,1.30814453125,-0.4988203125,5.83869921875,10.05344140625,6.32413671875,6.16051171875,2.86532421875,7.45356640625,14.507828125,9.762890625,2.74348046875,-1.54165234375,11.92015234375,9.5580859375,9.1531875,-0.833640625,5.36966015625,9.96206640625,10.34896484375,11.63978515625,1.356453125,6.49394140625,6.64950390625,5.47681640625,-3.63698046875,1.5599921875,0.921128906250001,0.215171875,-0.98082421875
2.69260546875,1.79914453125,-0.5268203125,5.70969921875,10.30644140625,6.55413671875,6.70851171875,2.94132421875,6.44456640625,14.166828125,9.947890625,3.43748046875,-0.28465234375,10.29515234375,9.2530859375,9.1351875,-3.370640625,4.07466015625,9.03806640625,10.11996484375,11.25678515625,0.588453125,5.60794140625,6.96650390625,5.81381640625,-3.65998046875,2.3159921875,0.479128906250001,0.336171875,-0.54082421875
2.57660546875,2.04314453125,-0.6918203125,5.18969921875,9.78044140625,6.02413671875,6.68051171875,2.97232421875,4.93056640625,12.860828125,9.414890625,3.72448046875,0.91734765625,7.69515234375,7.9000859375,8.3951875,-5.836640625,2.04866015625,6.94806640625,8.98496484375,10.45378515625,-0.950546875,3.68194140625,6.26750390625,5.58781640625,-3.81798046875,1.9979921875,-0.60887109375,-0.261828125000001,-0.57182421875
2.19460546875,1.91214453125,-1.0738203125,4.50169921875,8.53044140625,4.64013671875,5.76251171875,2.65432421875,3.31156640625,10.757828125,8.018890625,3.27648046875,1.54834765625,4.75515234375,5.7590859375,7.0671875,-7.819640625,-0.0423398437499998,4.34506640625,7.30196484375,9.38378515625,-2.617546875,1.51794140625,5.06250390625,5.16281640625,-3.85398046875,1.3019921875,-1.62087109375,-0.849828125000001,-0.57382421875
1.55560546875,1.36814453125,-1.7658203125,3.83869921875,6.68344140625,2.44713671875,3.89651171875,1.76032421875,1.89956640625,8.104828125,5.749890625,1.97448046875,1.27234765625,2.03415234375,3.2020859375,5.3421875,-9.053640625,-1.66933984375,1.83706640625,5.39596484375,8.21978515625,-3.845546875,-0.23105859375,3.77850390625,4.78181640625,-3.65398046875,0.8369921875,-2.08987109375,-0.923828125,-0.26382421875
0.75960546875,0.46514453125,-2.8228203125,3.30969921875,4.41744140625,-0.37486328125,1.28551171875,0.21832421875,0.82156640625,5.162828125,2.753890625,-0.0715195312499999,0.16634765625,-0.13184765625,0.5530859375,3.3491875,-9.514640625,-2.60533984375,-0.23893359375,3.40696484375,7.06378515625,-4.316546875,-1.30405859375,2.55550390625,4.36881640625,-3.37998046875,0.814992187500001,-1.96887109375,-0.445828125,0.22217578125
-0.0683945312500001,-0.66385546875,-4.2138203125,2.92569921875,1.94444140625,-3.53286328125,-1.69148828125,-1.85667578125,0.0215664062499998,2.166828125,-0.682109375,-2.56251953125,-1.26565234375,-1.65784765625,-1.9979140625,1.1301875,-9.417640625,-2.91433984375,-1.87093359375,1.27596484375,5.91478515625,-3.994546875,-1.85005859375,1.24750390625,3.55781640625,-3.42098046875,0.9959921875,-1.54187109375,0.214171874999999,0.42417578125
-0.822394531250001,-1.85785546875,-5.7698203125,2.65569921875,-0.491558593749999,-6.67186328125,-4.59648828125,-4.15667578125,-0.64643359375,-0.686171875,-4.193109375,-5.08151953125,-2.32465234375,-2.64284765625,-4.3889140625,-1.2998125,-9.077640625,-2.83033984375,-3.25993359375,-1.12203515625,4.73978515625,-3.059546875,-2.23505859375,-0.39049609375,1.93281640625,-4.12998046875,0.9139921875,-1.16787109375,0.588171875,-0.0958242187499998
-1.42139453125,-2.97185546875,-7.2008203125,2.47569921875,-2.66055859375,-9.44286328125,-7.03348828125,-6.22667578125,-1.30943359375,-3.251171875,-7.420109375,-7.19651953125,-2.48865234375,-3.27584765625,-6.6219140625,-3.8638125,-8.750640625,-2.61033984375,-4.63393359375,-3.81503515625,3.54478515625,-1.805546875,-2.80505859375,-2.48149609375,-0.66318359375,-5.56398046875,0.1989921875,-1.05987109375,0.431171875,-1.42682421875
-1.85139453125,-3.92385546875,-8.1928203125,2.36869921875,-4.41155859375,-11.60186328125,-8.78548828125,-7.62267578125,-2.01543359375,-5.457171875,-10.122109375,-8.60751953125,-1.73165234375,-3.78284765625,-8.7179140625,-6.4168125,-8.558640625,-2.47333984375,-6.13893359375,-6.67003515625,2.37378515625,-0.562546875,-3.73505859375,-4.91849609375,-3.99118359375,-7.40598046875,-1.2090078125,-1.22387109375,-0.141828125,-3.22882421875
-2.21839453125,-4.71085546875,-8.5618203125,2.27369921875,-5.73955859375,-13.09586328125,-9.89748828125,-8.12467578125,-2.74543359375,-7.326171875,-12.245109375,-9.26851953125,-0.56665234375,-4.39184765625,-10.7189140625,-8.8048125,-8.514640625,-2.59633984375,-7.82393359375,-9.46203515625,1.23478515625,0.342453125,-5.03105859375,-7.43449609375,-7.53118359375,-9.15698046875,-3.0860078125,-1.57387109375,-0.803828125,-4.96582421875
-2.70439453125,-5.37785546875,-8.3318203125,2.07369921875,-6.77655859375,-14.05686328125,-10.62648828125,-7.84667578125,-3.46343359375,-8.951171875,-13.904109375,-9.40951953125,0.24534765625,-5.30184765625,-12.6829140625,-10.9398125,-8.599640625,-3.11833984375,-9.68493359375,-11.99903515625,0.0457851562500009,0.640453125,-6.61005859375,-9.76649609375,-10.74318359375,-10.43898046875,-5.0940078125,-2.06187109375,-1.259828125,-6.25782421875
-3.43539453125,-5.96985546875,-7.7148203125,1.63669921875,-7.71555859375,-14.70886328125,-11.24948828125,-7.16267578125,-4.14243359375,-10.434171875,-15.275109375,-9.41151953125,0.14934765625,-6.61884765625,-14.6479140625,-12.8028125,-8.791640625,-4.09633984375,-11.66293359375,-14.19003515625,-1.31321484375,0.199453125,-8.35005859375,-11.76549609375,-13.27318359375,-11.17298046875,-6.9480078125,-2.70887109375,-1.412828125,-7.06282421875
-4.38039453125,-6.46885546875,-7.0008203125,0.88669921875,-8.68855859375,-15.22386328125,-11.87748828125,-6.49467578125,-4.76243359375,-11.811171875,-16.443109375,-9.56551953125,-0.89165234375,-8.26584765625,-16.5579140625,-14.3628125,-9.061640625,-5.41533984375,-13.60793359375,-16.00103515625,-2.87021484375,-0.892546875,-10.07305859375,-13.37749609375,-14.98918359375,-11.54998046875,-8.4750078125,-3.53287109375,-1.344828125,-7.59682421875
-5.35639453125,-6.77785546875,-6.4598203125,-0.13030078125,-9.67855859375,-15.63886328125,-12.39248828125,-6.09467578125,-5.27243359375,-13.000171875,-17.323109375,-9.87751953125,-2.41265234375,-9.95584765625,-18.2019140625,-15.4888125,-9.351640625,-6.75833984375,-15.25993359375,-17.36203515625,-4.44821484375,-2.301546875,-11.51505859375,-14.55749609375,-15.89718359375,-11.83098046875,-9.5650078125,-4.44887109375,-1.184828125,-8.07182421875
-6.08039453125,-6.75585546875,-6.2528203125,-1.23830078125,-10.51255859375,-15.84486328125,-12.51548828125,-5.92567578125,-5.57743359375,-13.841171875,-17.690109375,-10.03051953125,-3.74965234375,-11.27284765625,-19.2589140625,-15.9528125,-9.563640625,-7.70033984375,-16.31793359375,-18.12203515625,-5.68721484375,-3.553546875,-12.37305859375,-15.21949609375,-16.02718359375,-12.15198046875,-10.1370078125,-5.26687109375,-0.988828125,-8.49182421875
-6.26039453125,-6.30585546875,-6.3838203125,-2.17330078125,-10.97355859375,-15.67786328125,-11.93948828125,-5.69767578125,-5.58343359375,-14.203171875,-17.316109375,-9.58051953125,-4.43265234375,-11.87584765625,-19.4509140625,-15.5468125,-9.555640625,-7.92133984375,-16.58893359375,-18.11503515625,-6.20121484375,-4.233546875,-12.45405859375,-15.29449609375,-15.40618359375,-12.43698046875,-10.1670078125,-5.79587109375,-0.720828125000001,-8.64082421875
-5.71339453125,-5.46485546875,-6.6888203125,-2.69730078125,-10.94655859375,-15.05386328125,-10.51548828125,-5.05067578125,-5.27543359375,-14.085171875,-16.130109375,-8.24851953125,-4.41665234375,-11.70084765625,-18.7109140625,-14.2408125,-9.199640625,-7.40133984375,-16.11693359375,-17.29203515625,-5.78121484375,-4.207546875,-11.81805859375,-14.82049609375,-14.09918359375,-12.46598046875,-9.7430078125,-5.97387109375,-0.329828125000001,-8.25182421875
-4.53839453125,-4.42585546875,-6.8988203125,-2.73630078125,-10.50655859375,-14.08086328125,-8.39648828125,-3.80767578125,-4.78843359375,-13.636171875,-14.300109375,-6.13351953125,-4.02365234375,-11.02584765625,-17.2429140625,-12.2728125,-8.448640625,-6.46233984375,-15.18893359375,-15.79303515625,-4.52021484375,-3.710546875,-10.79605859375,-13.96949609375,-12.26918359375,-12.02498046875,-9.0900078125,-5.92787109375,0.155171875,-7.23182421875
-3.16739453125,-3.46985546875,-6.7318203125,-2.41730078125,-9.88655859375,-13.04586328125,-6.05148828125,-2.11067578125,-4.37943359375,-13.085171875,-12.184109375,-3.71551953125,-3.68365234375,-10.32684765625,-15.4389140625,-10.0768125,-7.402640625,-5.62433984375,-14.19493359375,-13.91703515625,-2.77221484375,-3.240546875,-9.84905859375,-12.97549609375,-10.16218359375,-11.03498046875,-8.4830078125,-5.90587109375,0.595171875,-5.75482421875
-2.20339453125,-2.84785546875,-6.0038203125,-1.99030078125,-9.35655859375,-12.27986328125,-4.07648828125,-0.33867578125,-4.30643359375,-12.619171875,-10.189109375,-1.62951953125,-3.65765234375,-10.02384765625,-13.7199140625,-8.1208125,-6.284640625,-5.35633984375,-13.44493359375,-12.00703515625,-0.980214843749999,-3.313546875,-9.35305859375,-12.02649609375,-8.05718359375,-9.60798046875,-8.1220078125,-6.13287109375,0.818171875,-4.19582421875
-2.12339453125,-2.67085546875,-4.7318203125,-1.67830078125,-9.09255859375,-11.99686328125,-2.93848828125,1.09632421875,-4.69743359375,-12.320171875,-8.619109375,-0.36651953125,-3.93765234375,-10.26484765625,-12.4069140625,-6.7288125,-5.330640625,-5.86733984375,-13.06393359375,-10.37103515625,0.492785156250001,-4.204546875,-9.43805859375,-11.21849609375,-6.20018359375,-8.03198046875,-8.0620078125,-6.68587109375,0.705171875,-2.99282421875
-3.03239453125,-2.86385546875,-3.1898203125,-1.59330078125,-9.10855859375,-12.20386328125,-2.80348828125,1.94332421875,-5.46843359375,-12.150171875,-7.604109375,-0.0495195312499999,-4.35765234375,-10.89384765625,-11.6649140625,-6.0048125,-4.681640625,-7.04033984375,-13.00593359375,-9.23703515625,1.43778515625,-5.820546875,-9.98105859375,-10.57949609375,-4.78318359375,-6.70198046875,-8.2400078125,-7.46187109375,0.235171875,-2.52082421875
-4.60739453125,-3.20985546875,-1.8328203125,-1.71230078125,-9.26055859375,-12.71086328125,-3.49948828125,2.18932421875,-6.34843359375,-11.993171875,-7.085109375,-0.39851953125,-4.76465234375,-11.56684765625,-11.4949140625,-5.8398125,-4.322640625,-8.50733984375,-13.13493359375,-8.73803515625,1.79078515625,-7.746546875,-10.70005859375,-10.11649609375,-3.93418359375,-6.01398046875,-8.5480078125,-8.21887109375,-0.520828125,-3.00082421875
-6.19839453125,-3.43885546875,-1.0898203125,-1.90730078125,-9.30555859375,-13.20486328125,-4.56348828125,2.05232421875,-6.96843359375,-11.703171875,-6.858109375,-0.88651953125,-5.07465234375,-11.92584765625,-11.7509140625,-5.9958125,-4.109640625,-9.79633984375,-13.28693359375,-8.87803515625,1.60578515625,-9.416546875,-11.27605859375,-9.81449609375,-3.68118359375,-6.20098046875,-8.8770078125,-8.65087109375,-1.406828125,-4.40082421875
-7.09239453125,-3.34585546875,-1.1358203125,-1.99230078125,-9.00555859375,-13.36386328125,-5.38348828125,1.87932421875,-6.99343359375,-11.162171875,-6.651109375,-1.01851953125,-5.20765234375,-11.73884765625,-12.1779140625,-6.2168125,-3.858640625,-10.50333984375,-13.31293359375,-9.50303515625,1.02478515625,-10.344546875,-11.45705859375,-9.61249609375,-3.91018359375,-7.21698046875,-9.1060078125,-8.49087109375,-2.197828125,-6.37682421875
-6.85739453125,-2.87485546875,-1.7968203125,-1.82030078125,-8.23455859375,-12.99286328125,-5.44448828125,1.96132421875,-6.26843359375,-10.347171875,-6.256109375,-0.59951953125,-5.03865234375,-10.96284765625,-12.5099140625,-6.3368125,-3.468640625,-10.41833984375,-13.11493359375,-10.34103515625,0.222785156250001,-10.308546875,-11.11305859375,-9.41149609375,-4.40618359375,-8.73398046875,-9.1080078125,-7.60987109375,-2.663828125,-8.36082421875
-5.59239453125,-2.14985546875,-2.6598203125,-1.37630078125,-7.05755859375,-12.11486328125,-4.59148828125,2.36332421875,-4.90843359375,-9.373171875,-5.648109375,0.17148046875,-4.48765234375,-9.75184765625,-12.5799140625,-6.3488125,-2.991640625,-9.59233984375,-12.68993359375,-11.11803515625,-0.653214843749999,-9.413546875,-10.28405859375,-9.13349609375,-4.95918359375,-10.29998046875,-8.8120078125,-6.09987109375,-2.688828125,-9.81682421875
-3.88639453125,-1.42285546875,-3.2778203125,-0.80430078125,-5.71755859375,-10.95086328125,-3.10848828125,2.88832421875,-3.27943359375,-8.468171875,-4.998109375,0.85748046875,-3.66265234375,-8.39584765625,-12.3869140625,-6.3558125,-2.611640625,-8.31133984375,-12.13793359375,-11.65003515625,-1.51021484375,-8.014546875,-9.17205859375,-8.79349609375,-5.47618359375,-11.54198046875,-8.2840078125,-4.26087109375,-2.339828125,-10.49382421875
-2.48839453125,-0.96685546875,-3.3548203125,-0.32330078125,-4.53555859375,-9.79786328125,-1.56548828125,3.20632421875,-1.86243359375,-7.877171875,-4.562109375,1.07748046875,-2.91365234375,-7.21484765625,-12.0729140625,-6.4578125,-2.528640625,-6.97633984375,-11.60893359375,-11.89203515625,-2.27521484375,-6.550546875,-8.09105859375,-8.52149609375,-6.00618359375,-12.31098046875,-7.7420078125,-2.48087109375,-1.828828125,-10.52482421875
-1.93139453125,-0.94585546875,-2.8688203125,-0.10230078125,-3.76555859375,-8.88886328125,-0.53348828125,3.06232421875,-1.04443359375,-7.733171875,-4.509109375,0.74748046875,-2.69165234375,-6.44584765625,-11.8139140625,-6.6518125,-2.841640625,-5.94833984375,-11.23593359375,-11.90803515625,-2.85821484375,-5.373546875,-7.34405859375,-8.50149609375,-6.66218359375,-12.70098046875,-7.4940078125,-1.08687109375,-1.378828125,-10.30582421875
-2.34039453125,-1.32885546875,-2.0798203125,-0.16630078125,-3.47355859375,-8.29986328125,-0.35348828125,2.43232421875,-0.95343359375,-7.984171875,-4.822109375,0.10848046875,-3.28465234375,-6.15984765625,-11.7289140625,-6.8248125,-3.486640625,-5.41533984375,-11.08693359375,-11.82603515625,-3.16721484375,-4.657546875,-7.12205859375,-8.88049609375,-7.52718359375,-12.97198046875,-7.8190078125,-0.238871093749999,-1.139828125,-10.27782421875
-3.43739453125,-1.90485546875,-1.4148203125,-0.38830078125,-3.51455859375,-7.95286328125,-1.01548828125,1.55232421875,-1.41143359375,-8.423171875,-5.305109375,-0.45551953125,-4.57765234375,-6.26984765625,-11.8439140625,-6.8458125,-4.268640625,-5.36933984375,-11.18893359375,-11.79603515625,-3.18121484375,-4.418546875,-7.45605859375,-9.71949609375,-8.60018359375,-13.43598046875,-8.8710078125,0.0331289062500009,-1.198828125,-10.74582421875
-4.69639453125,-2.40285546875,-1.2478203125,-0.54730078125,-3.61755859375,-7.68486328125,-2.18748828125,0.82732421875,-2.03743359375,-8.809171875,-5.704109375,-0.65251953125,-6.02265234375,-6.60884765625,-12.1449140625,-6.6818125,-4.953640625,-5.67833984375,-11.56493359375,-11.96603515625,-3.01721484375,-4.596546875,-8.25905859375,-10.99049609375,-9.80818359375,-14.35098046875,-10.6410078125,-0.26287109375,-1.663828125,-11.80882421875
-5.59239453125,-2.63185546875,-1.7178203125,-0.45430078125,-3.54455859375,-7.35286328125,-3.38748828125,0.63332421875,-2.46243359375,-9.010171875,-5.853109375,-0.43651953125,-6.86065234375,-7.04484765625,-12.6359140625,-6.4448125,-5.398640625,-6.18933984375,-12.25493359375,-12.45203515625,-2.92421484375,-5.108546875,-9.38705859375,-12.60849609375,-11.05918359375,-15.83898046875,-12.9590078125,-1.13187109375,-2.686828125,-13.36682421875
-5.85339453125,-2.57185546875,-2.6928203125,-0.0603007812499996,-3.21855859375,-6.92986328125,-4.22948828125,1.09732421875,-2.51643359375,-9.055171875,-5.758109375,0.01048046875,-6.52165234375,-7.53784765625,-13.3489140625,-6.3398125,-5.601640625,-6.77933984375,-13.27693359375,-13.28803515625,-3.17721484375,-5.843546875,-10.67605859375,-14.42949609375,-12.27018359375,-17.82098046875,-15.5160078125,-2.54087109375,-4.369828125,-15.14482421875
-5.54939453125,-2.34385546875,-3.8748203125,0.52169921875,-2.72955859375,-6.51986328125,-4.58148828125,2.00432421875,-2.27443359375,-9.077171875,-5.580109375,0.41948046875,-4.95065234375,-8.10484765625,-14.2709140625,-6.5378125,-5.661640625,-7.34733984375,-14.54693359375,-14.37903515625,-3.91321484375,-6.617546875,-11.93705859375,-16.22549609375,-13.34618359375,-20.00898046875,-17.9050078125,-4.32587109375,-6.601828125,-16.74282421875
-4.96439453125,-2.12185546875,-4.9178203125,1.10669921875,-2.24155859375,-6.26686328125,-4.52448828125,2.90432421875,-1.94343359375,-9.183171875,-5.507109375,0.59748046875,-2.66665234375,-8.72084765625,-15.2789140625,-7.0678125,-5.646640625,-7.78133984375,-15.84093359375,-15.48403515625,-5.02721484375,-7.188546875,-12.95105859375,-17.67849609375,-14.15318359375,-21.95398046875,-19.6890078125,-6.15487109375,-8.976828125,-17.71982421875
-4.37239453125,-2.02885546875,-5.5248203125,1.52469921875,-1.88455859375,-6.24686328125,-4.20448828125,3.34232421875,-1.69043359375,-9.367171875,-5.638109375,0.51948046875,-0.50265234375,-9.26084765625,-16.1399140625,-7.7818125,-5.516640625,-7.95433984375,-16.83293359375,-16.28803515625,-6.21221484375,-7.335546875,-13.50605859375,-18.44849609375,-14.52618359375,-23.18998046875,-20.5050078125,-7.62687109375,-10.914828125,-17.75482421875
-3.92539453125,-2.08485546875,-5.5168203125,1.65869921875,-1.69055859375,-6.41886328125,-3.74448828125,3.05332421875,-1.54943359375,-9.522171875,-5.942109375,0.29448046875,0.80034765625,-9.51684765625,-16.6059140625,-8.4208125,-5.176640625,-7.77033984375,-17.20893359375,-16.51303515625,-7.12321484375,-6.967546875,-13.45905859375,-18.29249609375,-14.33318359375,-23.42198046875,-20.1860078125,-8.43587109375,-11.928828125,-16.78982421875
-3.66939453125,-2.22485546875,-4.9068203125,1.42269921875,-1.60855859375,-6.66086328125,-3.24348828125,2.03932421875,-1.45043359375,-9.528171875,-6.320109375,0.0694804687500001,0.89334765625,-9.29984765625,-16.5349140625,-8.7428125,-4.590640625,-7.21733984375,-16.79593359375,-16.03903515625,-7.55621484375,-6.173546875,-12.78705859375,-17.16949609375,-13.55318359375,-22.65898046875,-18.8400078125,-8.49987109375,-11.873828125,-15.08282421875
-3.59439453125,-2.35885546875,-3.8868203125,0.77269921875,-1.56055859375,-6.84686328125,-2.79648828125,0.54932421875,-1.32343359375,-9.357171875,-6.694109375,-0.07251953125,-0.0846523437499997,-8.55684765625,-15.9749140625,-8.6208125,-3.841640625,-6.37733984375,-15.62993359375,-14.94903515625,-7.52521484375,-5.162546875,-11.60005859375,-15.28049609375,-12.29918359375,-21.19098046875,-16.8270078125,-7.94187109375,-10.974828125,-13.08282421875
-3.66339453125,-2.43385546875,-2.7368203125,-0.28030078125,-1.52155859375,-6.92386328125,-2.49348828125,-1.01667578125,-1.18943359375,-9.132171875,-7.075109375,-0.14651953125,-1.61265234375,-7.44184765625,-15.1589140625,-8.0968125,-3.074640625,-5.40533984375,-13.96093359375,-13.50203515625,-7.19621484375,-4.133546875,-10.10405859375,-13.01449609375,-10.77118359375,-19.44998046875,-14.6380078125,-6.97187109375,-9.636828125,-11.20682421875
-3.87439453125,-2.46385546875,-1.7258203125,-1.65230078125,-1.56955859375,-6.96586328125,-2.43048828125,-2.25667578125,-1.18943359375,-9.109171875,-7.577109375,-0.25151953125,-2.98965234375,-6.31384765625,-14.4469140625,-7.3738125,-2.419640625,-4.48633984375,-12.19293359375,-12.06503515625,-6.79321484375,-3.174546875,-8.56305859375,-10.84849609375,-9.21618359375,-17.85298046875,-12.7480078125,-5.76987109375,-8.215828125,-9.67382421875
-4.30239453125,-2.50585546875,-1.0638203125,-3.20330078125,-1.87355859375,-7.15886328125,-2.73048828125,-2.93167578125,-1.51543359375,-9.589171875,-8.386109375,-0.53251953125,-3.59465234375,-5.63484765625,-14.2049140625,-6.7768125,-1.978640625,-3.80433984375,-10.79693359375,-11.03703515625,-6.53821484375,-2.274546875,-7.26505859375,-9.24449609375,-7.92718359375,-16.71898046875,-11.5020078125,-4.47687109375,-6.910828125,-8.51582421875
-5.04239453125,-2.63685546875,-0.8808203125,-4.74030078125,-2.60355859375,-7.72386328125,-3.51348828125,-3.04267578125,-2.28443359375,-10.779171875,-9.665109375,-1.15251953125,-3.12665234375,-5.80884765625,-14.6979140625,-6.6788125,-1.849640625,-3.52733984375,-10.20693359375,-10.77603515625,-6.64521484375,-1.427546875,-6.50905859375,-8.57849609375,-7.24918359375,-16.26398046875,-11.0880078125,-3.25987109375,-5.833828125,-7.72382421875
-6.07439453125,-2.92685546875,-1.2008203125,-6.00830078125,-3.82255859375,-8.79486328125,-4.81748828125,-2.80667578125,-3.41843359375,-12.682171875,-11.454109375,-2.24351953125,-1.73165234375,-7.01484765625,-15.9979140625,-7.3768125,-2.138640625,-3.78833984375,-10.71393359375,-11.51703515625,-7.30121484375,-0.748546875,-6.56105859375,-9.07549609375,-7.53718359375,-16.61398046875,-11.5580078125,-2.36687109375,-5.130828125,-7.37982421875
-7.19539453125,-3.43185546875,-1.9248203125,-6.72930078125,-5.42155859375,-10.35086328125,-6.56948828125,-2.56267578125,-4.64543359375,-15.060171875,-13.625109375,-3.86551953125,0.0703476562500001,-9.11484765625,-17.9549140625,-8.9738125,-2.914640625,-4.63733984375,-12.37193359375,-13.29503515625,-8.60721484375,-0.474546875,-7.57905859375,-10.75549609375,-9.02218359375,-17.78198046875,-12.8490078125,-2.08387109375,-5.021828125,-7.64882421875
-8.14039453125,-4.17085546875,-2.8778203125,-6.70730078125,-7.15055859375,-12.23486328125,-8.62448828125,-2.65367578125,-5.62643359375,-17.525171875,-15.927109375,-5.94451953125,1.60034765625,-11.69484765625,-20.2429140625,-11.3018125,-4.175640625,-5.99933984375,-14.96193359375,-15.89703515625,-10.50421484375,-0.839546875,-9.50805859375,-13.38149609375,-11.65618359375,-19.62398046875,-14.7830078125,-2.60087109375,-5.707828125,-8.65082421875
-8.74539453125,-5.11085546875,-3.8948203125,-5.97130078125,-8.73655859375,-14.24186328125,-10.84148828125,-3.28967578125,-6.14543359375,-19.696171875,-18.092109375,-8.24351953125,2.24334765625,-14.22684765625,-22.4779140625,-13.9578125,-5.827640625,-7.67833984375,-18.03493359375,-18.88503515625,-12.73621484375,-1.924546875,-12.05205859375,-16.49049609375,-15.03918359375,-21.82798046875,-17.0770078125,-3.88887109375,-7.234828125,-10.32982421875
-9.01439453125,-6.17285546875,-4.8788203125,-4.84130078125,-10.01155859375,-16.19186328125,-13.08148828125,-4.41667578125,-6.24843359375,-21.356171875,-19.911109375,-10.39551953125,1.56634765625,-16.29184765625,-24.3389140625,-16.4388125,-7.676640625,-9.43133984375,-21.03093359375,-21.70503515625,-14.90921484375,-3.588546875,-14.75805859375,-19.50849609375,-18.51318359375,-23.95898046875,-19.3950078125,-5.69587109375,-9.436828125,-12.43882421875
-9.06639453125,-7.24585546875,-5.7878203125,-3.86830078125,-10.97755859375,-17.94486328125,-15.17248828125,-5.68967578125,-6.22743359375,-22.503171875,-21.241109375,-12.01151953125,-0.61365234375,-17.73484765625,-25.6509140625,-18.2968125,-9.452640625,-11.07333984375,-23.43793359375,-23.83803515625,-16.62621484375,-5.529546875,-17.16505859375,-21.90949609375,-21.37718359375,-25.55598046875,-21.4300078125,-7.64587109375,-11.991828125,-14.61882421875
-9.06339453125,-8.20285546875,-6.5728203125,-3.62230078125,-11.76155859375,-19.39086328125,-16.90148828125,-6.61967578125,-6.47743359375,-23.280171875,-21.981109375,-12.80651953125,-4.13365234375,-18.67284765625,-26.3639140625,-19.2518125,-10.861640625,-12.52133984375,-24.92493359375,-24.93603515625,-17.61921484375,-7.404546875,-18.94205859375,-23.34449609375,-23.12218359375,-26.23698046875,-22.9530078125,-9.37287109375,-14.518828125,-16.50082421875
-9.14839453125,-8.90685546875,-7.1208203125,-4.44130078125,-12.50355859375,-20.41786328125,-18.05148828125,-6.79367578125,-7.29143359375,-23.839171875,-22.046109375,-12.69651953125,-8.40065234375,-19.36984765625,-26.4959140625,-19.2228125,-11.666640625,-13.77433984375,-25.41693359375,-24.90503515625,-17.80721484375,-8.943546875,-19.96005859375,-23.70949609375,-23.57618359375,-25.78198046875,-23.8400078125,-10.59187109375,-16.649828125,-17.78882421875
-9.38139453125,-9.23085546875,-7.2678203125,-6.24630078125,-13.26755859375,-20.92086328125,-18.44448828125,-6.05467578125,-8.72643359375,-24.250171875,-21.392109375,-11.80751953125,-12.44865234375,-20.06484765625,-26.1029140625,-18.3258125,-11.746640625,-14.87033984375,-25.08493359375,-23.92203515625,-17.27221484375,-10.018546875,-20.28805859375,-23.14949609375,-22.92418359375,-24.17298046875,-24.0920078125,-11.15887109375,-18.098828125,-18.30482421875
-9.69039453125,-9.11485546875,-6.8748203125,-8.56430078125,-14.02655859375,-20.84586328125,-18.01148828125,-4.54567578125,-10.61143359375,-24.508171875,-20.088109375,-10.42351953125,-15.23865234375,-20.87884765625,-25.3039140625,-16.8388125,-11.099640625,-15.84733984375,-24.29093359375,-22.38703515625,-16.20221484375,-10.665546875,-20.16005859375,-22.02649609375,-21.60618359375,-21.59698046875,-23.8600078125,-11.10687109375,-18.728828125,-18.02982421875
-9.92339453125,-8.62485546875,-5.9768203125,-10.76430078125,-14.72755859375,-20.27886328125,-16.88648828125,-2.65567578125,-12.66543359375,-24.607171875,-18.386109375,-8.90451953125,-16.09865234375,-21.81584765625,-24.3179140625,-15.1748125,-9.825640625,-16.73233984375,-23.48393359375,-20.82503515625,-14.85221484375,-11.043546875,-19.89805859375,-20.83849609375,-20.16818359375,-18.40398046875,-23.4510078125,-10.67387109375,-18.617828125,-17.11682421875
-9.97139453125,-7.96485546875,-4.8528203125,-12.35830078125,-15.35255859375,-19.47186328125,-15.46648828125,-0.90867578125,-14.63843359375,-24.622171875,-16.721109375,-7.61051953125,-15.05165234375,-22.81684765625,-23.4509140625,-13.8068125,-8.119640625,-17.52133984375,-23.06793359375,-19.75103515625,-13.52021484375,-11.340546875,-19.81705859375,-20.09049609375,-19.10418359375,-15.04098046875,-23.2510078125,-10.25687109375,-18.069828125,-15.87082421875
-9.83139453125,-7.41185546875,-3.9508203125,-13.17830078125,-15.92155859375,-18.76986328125,-14.30848828125,0.21832421875,-16.35843359375,-24.684171875,-15.576109375,-6.83051953125,-12.80765234375,-23.78684765625,-22.9869140625,-13.1398125,-6.260640625,-18.16433984375,-23.27693359375,-19.51103515625,-12.50921484375,-11.673546875,-20.11705859375,-20.12949609375,-18.71818359375,-11.96898046875,-23.5940078125,-10.27987109375,-17.542828125,-14.69382421875
-9.58839453125,-7.19585546875,-3.6598203125,-13.32630078125,-16.44155859375,-18.43986328125,-13.89048828125,0.47332421875,-17.69043359375,-24.881171875,-15.266109375,-6.71251953125,-10.40365234375,-24.56784765625,-23.0409140625,-13.3498125,-4.581640625,-18.55433984375,-24.05493359375,-20.14903515625,-12.02121484375,-12.031546875,-20.79805859375,-20.99149609375,-19.01918359375,-9.55898046875,-24.5860078125,-11.01187109375,-17.459828125,-13.96182421875
-9.35439453125,-7.37885546875,-4.1038203125,-13.02730078125,-16.84955859375,-18.52486328125,-14.38348828125,-0.0846757812500001,-18.48243359375,-25.141171875,-15.737109375,-7.21051953125,-8.74365234375,-24.91284765625,-23.4519140625,-14.2658125,-3.385640625,-18.53933984375,-25.03293359375,-21.34103515625,-12.04521484375,-12.275546875,-21.62205859375,-22.33749609375,-19.69618359375,-8.00298046875,-26.0020078125,-12.38487109375,-17.989828125,-13.86682421875
-9.23239453125,-7.81985546875,-5.0808203125,-12.48430078125,-17.00855859375,-18.81886328125,-15.58248828125,-1.14467578125,-18.56643359375,-25.215171875,-16.552109375,-8.09051953125,-8.27165234375,-24.53484765625,-23.8239140625,-15.3878125,-2.853640625,-17.97733984375,-25.63793359375,-22.47703515625,-12.31821484375,-12.183546875,-22.16905859375,-23.52649609375,-20.21718359375,-7.29298046875,-27.3020078125,-13.94787109375,-18.916828125,-14.28282421875
-9.26539453125,-8.26285546875,-6.1608203125,-11.83030078125,-16.77355859375,-18.96386328125,-16.99248828125,-2.29567578125,-17.85143359375,-24.785171875,-17.064109375,-9.01551953125,-8.90465234375,-23.24084765625,-23.6979140625,-16.0818125,-2.973640625,-16.81333984375,-25.33193359375,-22.89303515625,-12.42921484375,-11.554546875,-21.97105859375,-23.86149609375,-20.04218359375,-7.28598046875,-27.8170078125,-15.00587109375,-19.709828125,-14.78682421875
-9.37139453125,-8.47485546875,-6.8668203125,-11.12430078125,-16.07155859375,-18.61786328125,-17.99948828125,-3.16867578125,-16.41543359375,-23.632171875,-16.706109375,-9.66651953125,-10.15165234375,-21.06584765625,-22.7749140625,-15.8408125,-3.550640625,-15.13833984375,-23.84893359375,-22.14403515625,-12.02721484375,-10.325546875,-20.71705859375,-22.88149609375,-18.86518359375,-7.80898046875,-27.0130078125,-14.90187109375,-19.775828125,-14.84982421875
-9.37139453125,-8.34485546875,-6.8598203125,-10.39130078125,-14.93755859375,-17.58286328125,-18.08248828125,-3.52367578125,-14.53043359375,-21.748171875,-15.231109375,-9.82751953125,-11.33265234375,-18.32384765625,-21.0439140625,-14.5008125,-4.287640625,-13.19133984375,-21.33793359375,-20.20203515625,-11.00621484375,-8.630546875,-18.40905859375,-20.58649609375,-16.76418359375,-8.74698046875,-24.7400078125,-13.32787109375,-18.783828125,-14.11482421875
-9.12839453125,-7.88285546875,-6.0868203125,-9.67030078125,-13.48455859375,-15.87086328125,-17.01448828125,-3.30467578125,-12.58443359375,-19.343171875,-12.796109375,-9.38951953125,-11.81665234375,-15.51584765625,-18.7649140625,-12.2938125,-4.899640625,-11.29133984375,-18.30793359375,-17.45903515625,-9.56721484375,-6.798546875,-15.42005859375,-17.45149609375,-14.20518359375,-10.05898046875,-21.3450078125,-10.49587109375,-16.865828125,-12.61482421875
-8.68539453125,-7.15885546875,-4.8058203125,-9.04530078125,-11.84655859375,-13.68986328125,-14.96448828125,-2.63067578125,-10.95243359375,-16.757171875,-9.867109375,-8.31651953125,-11.25665234375,-13.14884765625,-16.3469140625,-9.7238125,-5.192640625,-9.74333984375,-15.43593359375,-14.56803515625,-8.11021484375,-5.256546875,-12.38905859375,-14.25849609375,-11.86718359375,-11.73498046875,-17.5840078125,-7.10087109375,-14.601828125,-10.80682421875
-8.26739453125,-6.25585546875,-3.4618203125,-8.62430078125,-10.14155859375,-11.37186328125,-12.43048828125,-1.73967578125,-9.86443359375,-14.358171875,-7.032109375,-6.63451953125,-9.73365234375,-11.56284765625,-14.1959140625,-7.3568125,-5.095640625,-8.74733984375,-13.31793359375,-12.19303515625,-7.04721484375,-4.405546875,-10.01105859375,-11.79549609375,-10.39218359375,-13.73198046875,-14.3680078125,-4.06487109375,-12.777828125,-9.39282421875
-8.14339453125,-5.27085546875,-2.4878203125,-8.48630078125,-8.48055859375,-9.27586328125,-10.03548828125,-0.89967578125,-9.35743359375,-12.452171875,-4.805109375,-4.46251953125,-7.72565234375,-10.84584765625,-12.6039140625,-5.6228125,-4.645640625,-8.35433984375,-12.28793359375,-10.78203515625,-6.60621484375,-4.481546875,-8.79105859375,-10.58549609375,-10.14518359375,-15.92998046875,-12.4400078125,-2.17787109375,-12.040828125,-9.00282421875
-8.45339453125,-4.31585546875,-2.1068203125,-8.62830078125,-6.98255859375,-7.68986328125,-8.27648828125,-0.31567578125,-9.30243359375,-11.222171875,-3.498109375,-2.04551953125,-5.87065234375,-10.85084765625,-11.7009140625,-4.6938125,-3.948640625,-8.47133984375,-12.35693359375,-10.44803515625,-6.73821484375,-5.456546875,-8.87205859375,-10.72949609375,-11.07918359375,-18.11798046875,-12.1120078125,-1.78787109375,-12.602828125,-9.89482421875
-9.05339453125,-3.51785546875,-2.2328203125,-8.95130078125,-5.77155859375,-6.73786328125,-7.31348828125,-0.03467578125,-9.47143359375,-10.691171875,-3.158109375,0.26348046875,-4.66765234375,-11.30784765625,-11.4549140625,-4.4688125,-3.140640625,-8.91933984375,-13.27293359375,-10.96503515625,-7.15421484375,-7.042546875,-10.02405859375,-11.93049609375,-12.76418359375,-19.99898046875,-13.1890078125,-2.70187109375,-14.142828125,-11.81182421875
-9.42639453125,-3.00085546875,-2.4708203125,-9.25730078125,-4.94855859375,-6.31586328125,-6.85148828125,0.13632421875,-9.60443359375,-10.725171875,-3.572109375,2.09348046875,-4.30365234375,-11.94684765625,-11.7179140625,-4.6448125,-2.366640625,-9.52833984375,-14.65093359375,-11.88503515625,-7.45921484375,-8.797546875,-11.77805859375,-13.66249609375,-14.54018359375,-21.21398046875,-15.0940078125,-4.33687109375,-15.961828125,-14.09582421875
-8.77139453125,-2.86785546875,-2.2458203125,-9.29030078125,-4.54455859375,-6.13086328125,-6.22648828125,0.60432421875,-9.46143359375,-11.094171875,-4.345109375,3.17848046875,-4.69265234375,-12.57784765625,-12.2949140625,-4.8558125,-1.757640625,-10.20233984375,-16.11493359375,-12.72003515625,-7.33021484375,-10.310546875,-13.64505859375,-15.39149609375,-15.76118359375,-21.41998046875,-17.1300078125,-6.01987109375,-17.305828125,-15.98282421875
-6.36239453125,-3.15985546875,-1.0668203125,-8.83130078125,-4.51355859375,-5.84986328125,-4.74248828125,1.79932421875,-8.88843359375,-11.567171875,-5.070109375,3.43248046875,-5.61565234375,-13.12584765625,-13.0159140625,-4.8188125,-1.402640625,-10.93233984375,-17.41393359375,-13.12603515625,-6.62421484375,-11.355546875,-15.29805859375,-16.76549609375,-16.02718359375,-20.42798046875,-18.7720078125,-7.27887109375,-17.690828125,-16.94882421875
-2.02939453125,-3.83185546875,1.1931796875,-7.83330078125,-4.75255859375,-5.28386328125,-2.09948828125,3.88232421875,-7.88343359375,-12.008171875,-5.517109375,2.98848046875,-6.84065234375,-13.60084765625,-13.7819140625,-4.4438125,-1.304640625,-11.74433984375,-18.47693359375,-13.02703515625,-5.41221484375,-11.950546875,-16.64805859375,-17.70549609375,-15.33418359375,-18.33398046875,-19.8430078125,-7.98887109375,-17.074828125,-16.90882421875
3.58060546875,-4.72885546875,4.1761796875,-6.48030078125,-5.13255859375,-4.48486328125,1.37851171875,6.58432421875,-6.62143359375,-12.400171875,-5.725109375,2.15248046875,-8.17065234375,-14.05984765625,-14.5609140625,-3.8398125,-1.358640625,-12.63633984375,-19.39993359375,-12.60703515625,-3.91621484375,-12.290546875,-17.80705859375,-18.37549609375,-14.06218359375,-15.57598046875,-20.5270078125,-8.33787109375,-15.837828125,-16.22682421875
3.58060546875,-4.72885546875,4.1761796875,-6.48030078125,-5.13255859375,-4.48486328125,1.37851171875,6.58432421875,-6.62143359375,-12.400171875,-5.725109375,2.15248046875,-8.17065234375,-14.05984765625,-14.5609140625,-3.8398125,-1.358640625,-12.63633984375,-19.39993359375,-12.60703515625,-3.91621484375,-12.290546875,-17.80705859375,-18.37549609375,-14.06218359375,-15.57598046875,-20.5270078125,-8.33787109375,-15.837828125,-16.22682421875
