"Fp1","Fpz","Fp2","F7","F3","Fz","F4","F8","FC5","FC1","FC2","FC6","T7","C3","Cz","C4","T8","CP5","CP1","CP2","CP6","P7","P3","Pz","P4","P8","POz","O1","Oz","O2"
10.80400390625,-5.74330078125,-7.05952734375,3.0839765625,-4.359296875,-6.14790625,3.3402265625,-1.349625,0.34363671875,-10.892765625,-7.17134375,4.26348828125,-3.554,-4.219546875,-9.0658046875,-6.9736015625,-2.72922265625,-1.96890234375,-9.36201953125,-9.812296875,-7.465796875,1.62209765625,-3.456234375,-11.0878203125,-7.19306640625,-10.18517578125,-7.5333046875,-5.5822109375,-7.5117734375,-8.7920703125
-3.49199609375,-9.32730078125,-3.59352734375,-2.6870234375,-6.831296875,-9.33490625,-5.1547734375,-1.119625,-3.07636328125,-12.594765625,-10.53234375,0.0214882812500001,-4.326,-3.970546875,-8.3668046875,-10.1556015625,-1.37422265625,-1.80790234375,-6.79201953125,-8.287296875,-5.531796875,2.29909765625,-1.596234375,-7.8548203125,-4.84606640625,-8.74617578125,-4.5683046875,-4.6472109375,-4.7907734375,-6.6740703125
-12.68599609375,-11.80630078125,-0.94452734375,-6.4350234375,-8.025296875,-10.59290625,-8.7837734375,-0.306624999999999,-5.35336328125,-13.268765625,-11.23634375,-2.42851171875,-6.035,-3.795546875,-7.1288046875,-10.1416015625,-0.36422265625,-2.16990234375,-4.61201953125,-6.119296875,-3.011796875,1.87809765625,-0.537234375000001,-5.2058203125,-2.22106640625,-6.57917578125,-2.5833046875,-4.9452109375,-3.6207734375,-5.2610703125
-15.91699609375,-11.94630078125,0.53947265625,-7.9940234375,-7.887296875,-9.96690625,-7.7097734375,1.126375,-6.46636328125,-13.038765625,-9.47334375,-3.02751171875,-8.133,-3.781546875,-5.5008046875,-6.9846015625,0.0977773437500002,-2.98590234375,-3.03101953125,-3.499296875,-0.0937968749999998,0.48609765625,-0.361234375000001,-3.3248203125,0.430933593750001,-3.80117578125,-1.6523046875,-6.2402109375,-3.7967734375,-4.4910703125
-13.66899609375,-9.09130078125,0.71247265625,-7.7820234375,-6.860296875,-8.23390625,-3.7997734375,2.937375,-6.73336328125,-12.442765625,-6.45034375,-2.31051171875,-9.618,-4.025546875,-3.9408046875,-1.9966015625,-0.07722265625,-4.00190234375,-2.25201953125,-1.006296875,2.637203125,-1.32290234375,-0.961234375000001,-2.3488203125,2.60593359375,-0.91517578125,-1.6273046875,-7.8622109375,-4.6397734375,-4.1360703125
-7.76899609375,-4.01130078125,-0.23952734375,-6.5780234375,-5.746296875,-6.57990625,0.2762265625,4.609375,-6.63036328125,-12.189765625,-3.84434375,-1.11151171875,-9.63,-4.600546875,-3.0618046875,2.7703984375,-0.73622265625,-4.93890234375,-2.42701953125,0.577703125000001,4.396203125,-2.88490234375,-2.134234375,-2.3788203125,3.72293359375,1.33982421875,-2.3093046875,-9.1102109375,-5.4377734375,-3.9880703125
-1.12899609375,1.20569921875,-1.82852734375,-5.2230234375,-5.410296875,-6.10190625,2.1542265625,5.478375,-6.61536328125,-12.853765625,-3.08234375,-0.22451171875,-7.961,-5.495546875,-3.3808046875,5.3303984375,-1.48722265625,-5.62990234375,-3.56801953125,0.587703125000001,4.539203125,-3.75790234375,-3.648234375,-3.4368203125,3.35193359375,2.27582421875,-3.5353046875,-9.5832109375,-5.7807734375,-3.9760703125
3.10800390625,4.28769921875,-3.44652734375,-4.3380234375,-6.400296875,-7.32690625,0.6932265625,5.026375,-6.97436328125,-14.606765625,-4.74734375,-0.14951171875,-5.141,-6.584546875,-5.0558046875,4.5593984375,-1.85022265625,-6.04890234375,-5.46801953125,-1.195296875,2.891203125,-3.87190234375,-5.250234375,-5.3788203125,1.41693359375,1.55882421875,-5.1613046875,-9.3122109375,-5.6627734375,-4.1490703125
2.97500390625,4.10169921875,-4.61252734375,-4.1220234375,-8.628296875,-9.95090625,-3.6007734375,3.225375,-7.70636328125,-17.094765625,-8.32534375,-0.95751171875,-2.105,-7.626546875,-7.7288046875,0.6603984375,-1.51522265625,-6.24690234375,-7.67201953125,-4.367296875,-0.125796875,-3.46490234375,-6.667234375,-7.8268203125,-1.71306640625,-0.619175781250001,-6.9843046875,-8.6552109375,-5.3687734375,-4.5870703125
-1.20099609375,1.23269921875,-5.14552734375,-4.3250234375,-11.305296875,-12.89990625,-8.8107734375,0.666375000000001,-8.51336328125,-19.521765625,-12.39434375,-2.29551171875,0.293,-8.313546875,-10.5588046875,-4.8756015625,-0.52622265625,-6.25790234375,-9.56501953125,-7.955296875,-3.620796875,-2.86890234375,-7.638234375,-10.1878203125,-5.28506640625,-3.57417578125,-8.7123046875,-8.0892109375,-5.2747734375,-5.3230703125
-6.91899609375,-2.53130078125,-5.16252734375,-4.4470234375,-13.264296875,-14.77690625,-12.4787734375,-1.694625,-8.94836328125,-20.940765625,-15.21034375,-3.53451171875,1.607,-8.373546875,-12.4938046875,-9.8256015625,0.70777734375,-6.07390234375,-10.55901953125,-10.748296875,-6.554796875,-2.33890234375,-7.985234375,-11.8118203125,-8.38406640625,-6.37517578125,-10.0173046875,-7.9772109375,-5.6387734375,-6.3000703125
-10.98799609375,-5.33430078125,-4.89752734375,-4.0870234375,-13.537296875,-14.50590625,-12.7497734375,-3.046625,-8.66536328125,-20.679765625,-15.47034375,-4.02951171875,1.805,-7.692546875,-12.7118046875,-12.1766015625,1.59477734375,-5.69290234375,-10.33201953125,-11.778296875,-8.120796875,-1.99990234375,-7.688234375,-12.2278203125,-10.24806640625,-8.19417578125,-10.6603046875,-8.4022109375,-6.4657734375,-7.3610703125
-11.39599609375,-6.19630078125,-4.48652734375,-3.2230234375,-11.866296875,-11.88490625,-9.2407734375,-3.159625,-7.62836328125,-18.675765625,-12.90434375,-3.39551171875,1.07,-6.406546875,-10.9998046875,-11.0366015625,1.63777734375,-5.18090234375,-8.98301953125,-10.758296875,-8.029796875,-1.86590234375,-6.925234375,-11.3648203125,-10.55506640625,-8.60417578125,-10.5883046875,-9.1192109375,-7.4707734375,-8.2570703125
-8.29499609375,-5.25930078125,-3.88052734375,-2.2350234375,-8.841296875,-7.70990625,-3.1987734375,-2.444625,-6.15036328125,-15.528765625,-8.39134375,-1.68551171875,-0.355,-4.879546875,-7.8858046875,-7.0776015625,0.67477734375,-4.67990234375,-7.01801953125,-8.225296875,-6.605796875,-1.88290234375,-6.009234375,-9.6028203125,-9.54306640625,-7.70817578125,-9.9463046875,-9.6292109375,-8.1797734375,-8.6940703125
-3.57799609375,-3.39430078125,-2.95152734375,-1.6650234375,-5.586296875,-3.41090625,3.0832265625,-1.657625,-4.75536328125,-12.245765625,-3.55634375,0.60748828125,-2.164,-3.573546875,-4.4188046875,-2.2306015625,-1.03022265625,-4.34790234375,-5.15801953125,-5.319296875,-4.627796875,-1.94590234375,-5.263234375,-7.6308203125,-7.90706640625,-6.04017578125,-8.9973046875,-9.4022109375,-8.1227734375,-8.4320703125
0.46400390625,-1.61130078125,-1.69052734375,-1.8970234375,-3.235296875,-0.427906250000001,7.2562265625,-1.407625,-3.96536328125,-9.832765625,-0.0953437499999996,2.71948828125,-3.917,-2.908546875,-1.7488046875,1.2183984375,-2.91722265625,-4.30590234375,-4.07401953125,-3.295296875,-3.011796875,-1.94890234375,-4.915234375,-6.1928203125,-6.50406640625,-4.29617578125,-8.0273046875,-8.1732109375,-7.0887734375,-7.4100703125
2.42400390625,-0.62930078125,-0.32252734375,-2.9720234375,-2.474296875,0.344093749999999,7.8532265625,-1.798625,-4.11936328125,-8.939765625,0.865656249999999,3.91848828125,-5.095,-3.157546875,-0.7118046875,1.6713984375,-4.41922265625,-4.61790234375,-4.20001953125,-3.029296875,-2.454796875,-1.86290234375,-5.094234375,-5.8468203125,-6.00106640625,-3.04117578125,-7.2973046875,-6.1532109375,-5.3237734375,-5.8530703125
2.23400390625,-0.70630078125,0.73847265625,-4.6190234375,-3.343296875,-1.17890625,4.7782265625,-2.417625,-5.27936328125,-9.697765625,-0.880343750000001,3.76648828125,-5.339,-4.402546875,-1.5728046875,-1.1046015625,-5.25022265625,-5.30490234375,-5.63101953125,-4.721296875,-3.187796875,-1.79490234375,-5.852234375,-6.8268203125,-6.65006640625,-2.53217578125,-7.0323046875,-3.9992109375,-3.4967734375,-4.2740703125
0.73800390625,-1.64630078125,1.08847265625,-6.4160234375,-5.312296875,-4.32090625,-0.7857734375,-2.693625,-7.22136328125,-11.723765625,-4.62434375,2.22748828125,-4.68,-6.481546875,-3.9908046875,-5.9856015625,-5.51422265625,-6.32790234375,-8.11101953125,-7.886296875,-4.932796875,-1.92490234375,-7.153234375,-8.9768203125,-8.25606640625,-2.71917578125,-7.3713046875,-2.5002109375,-2.3947734375,-3.2880703125
-1.11499609375,-2.91930078125,0.55147265625,-7.9370234375,-7.554296875,-7.95390625,-6.9647734375,-2.382625,-9.47436328125,-14.279765625,-9.07234375,-0.37151171875,-3.561,-8.962546875,-7.1748046875,-11.1226015625,-5.56922265625,-7.52290234375,-11.06601953125,-11.587296875,-7.089796875,-2.34690234375,-8.798234375,-11.7848203125,-10.33506640625,-3.38917578125,-8.2893046875,-2.1572109375,-2.4917734375,-3.3050703125
-2.86199609375,-3.86930078125,-0.74352734375,-8.8320234375,-9.286296875,-10.94790625,-11.9837734375,-1.823625,-11.42836328125,-16.541765625,-12.88834375,-3.48751171875,-2.588,-11.224546875,-10.1998046875,-14.8836015625,-5.75122265625,-8.59290234375,-13.75601953125,-14.829296875,-9.062796875,-2.94190234375,-10.409234375,-14.5438203125,-12.36006640625,-4.33817578125,-9.5683046875,-2.9492109375,-3.7077734375,-4.3100703125
-4.58299609375,-3.97230078125,-2.47052734375,-8.8810234375,-10.059296875,-12.58590625,-14.8027734375,-1.763625,-12.51036328125,-17.901765625,-15.22434375,-6.52051171875,-2.18,-12.662546875,-12.3548046875,-16.5996015625,-6.19322265625,-9.19390234375,-15.51601953125,-16.928296875,-10.562796875,-3.42290234375,-11.541234375,-16.5978203125,-13.98006640625,-5.46517578125,-10.8833046875,-4.4292109375,-5.5247734375,-5.9140703125
-6.56999609375,-3.11730078125,-4.28252734375,-8.0530234375,-9.841296875,-12.72290625,-15.3147734375,-2.847625,-12.37836328125,-18.137765625,-15.92034375,-8.92451171875,-2.32,-12.910546875,-13.3328046875,-16.6686015625,-6.81022265625,-9.08890234375,-15.96701953125,-17.678296875,-11.656796875,-3.50990234375,-11.846234375,-17.5558203125,-15.08906640625,-6.73817578125,-11.9373046875,-6.0072109375,-7.3237734375,-7.6080703125
-8.92899609375,-1.76830078125,-5.88052734375,-6.5160234375,-8.878296875,-11.65490625,-14.0687734375,-5.114625,-11.03236328125,-17.380765625,-15.32334375,-10.24751171875,-2.557,-11.928546875,-13.1888046875,-16.0066015625,-7.42322265625,-8.22390234375,-15.08101953125,-17.226296875,-12.520796875,-3.08490234375,-11.181234375,-17.3178203125,-15.70406640625,-8.05817578125,-12.5133046875,-7.1702109375,-8.6197734375,-8.9790703125
-11.32099609375,-0.82930078125,-6.96452734375,-4.5840234375,-7.489296875,-9.86090625,-11.8017734375,-7.869625,-8.77936328125,-15.943765625,-13.90434375,-10.19351171875,-2.264,-9.944546875,-12.1258046875,-15.2486015625,-7.87222265625,-6.71490234375,-13.08901953125,-15.803296875,-13.118796875,-2.21990234375,-9.602234375,-15.9598203125,-15.76006640625,-9.18417578125,-12.4273046875,-7.5402109375,-9.0937734375,-9.7440703125
-12.99499609375,-1.13730078125,-7.22052734375,-2.6340234375,-5.947296875,-7.81490625,-9.0777734375,-10.090625,-6.09936328125,-14.166765625,-11.98634375,-8.77651171875,-1.024,-7.343546875,-10.3438046875,-14.2886015625,-8.10022265625,-4.77290234375,-10.34501953125,-13.538296875,-13.092796875,-1.09890234375,-7.321234375,-13.6328203125,-15.00906640625,-9.80717578125,-11.5003046875,-6.8732109375,-8.5357734375,-9.6830703125
-13.14099609375,-2.90130078125,-6.46652734375,-1.0450234375,-4.491296875,-5.92690625,-6.2407734375,-11.081625,-3.50936328125,-12.364765625,-9.74634375,-6.45251171875,1.047,-4.572546875,-8.0378046875,-12.4616015625,-8.18722265625,-2.64990234375,-7.25901953125,-10.507296875,-12.003796875,0.0690976562500001,-4.667234375,-10.5638203125,-13.15906640625,-9.75417578125,-9.6413046875,-5.1392109375,-6.8857734375,-8.6440703125
-11.35099609375,-5.55430078125,-4.85252734375,-0.1160234375,-3.360296875,-4.54090625,-3.5617734375,-10.870625,-1.46136328125,-10.843765625,-7.38534375,-4.04151171875,3.27,-2.088546875,-5.5158046875,-9.2116015625,-8.30722265625,-0.63390234375,-4.29201953125,-6.940296875,-9.716796875,1.09409765625,-2.069234375,-7.1348203125,-10.15606640625,-9.13117578125,-7.0133046875,-2.6542109375,-4.3727734375,-6.6730703125
-7.85399609375,-8.13830078125,-2.93452734375,0.0429765624999998,-2.782296875,-3.91390625,-1.3987734375,-10.023625,-0.25836328125,-9.902765625,-5.27434375,-2.36051171875,4.713,-0.298546875,-3.2638046875,-4.7096015625,-8.59822265625,0.97909765625,-1.93301953125,-3.365296875,-6.611796875,1.82009765625,0.0017656249999991,-3.9008203125,-6.38506640625,-8.29417578125,-4.1203046875,-0.0822109375000011,-1.5687734375,-4.1140703125
-3.37799609375,-9.86630078125,-1.46652734375,-0.3980234375,-2.908296875,-4.18690625,-0.1877734375,-9.087625,0.0336367187499995,-9.782765625,-3.92634375,-1.79051171875,4.698,0.516453125000001,-1.8628046875,0.00539843749999935,-9.01022265625,1.93509765625,-0.612019531250001,-0.511296874999999,-3.462796875,2.14109765625,1.153765625,-1.4628203125,-2.62706640625,-7.62717578125,-1.6593046875,1.7977890625,0.7622265625,-1.5460703125
1.11600390625,-10.39630078125,-1.03552734375,-1.0480234375,-3.756296875,-5.37190625,-0.2927734375,-8.195625,-0.39836328125,-10.585765625,-3.80534375,-2.10451171875,3.209,0.286453125,-1.7548046875,3.4893984375,-9.27922265625,2.09809765625,-0.548019531250001,0.974703125000001,-1.072796875,2.01709765625,1.198765625,-0.2548203125,0.24093359375,-7.33117578125,-0.2283046875,2.4407890625,1.9932265625,0.4429296875
4.56700390625,-9.77130078125,-1.75552734375,-1.5230234375,-5.189296875,-7.34890625,-1.8197734375,-7.138625,-1.21736328125,-12.209765625,-5.07134375,-2.67851171875,0.964,-0.805546874999999,-3.0338046875,4.6423984375,-9.06722265625,1.50309765625,-1.64101953125,0.838703125,0.0952031250000003,1.45509765625,0.224765624999999,-0.3768203125,1.60093359375,-7.36517578125,-0.0643046875,1.7537890625,1.8792265625,1.4569296875
5.89800390625,-8.29630078125,-3.24252734375,-1.6900234375,-6.947296875,-9.85590625,-4.4997734375,-5.725625,-2.12336328125,-14.365765625,-7.45734375,-2.89251171875,-0.937,-2.395546875,-5.3828046875,3.2573984375,-8.16522265625,0.327097656249999,-3.49701953125,-0.674296874999999,0.0582031250000004,0.48609765625,-1.451234375,-1.5738203125,1.31393359375,-7.56617578125,-0.9923046875,0.0387890624999994,0.5912265625,1.3769296875
4.28500390625,-6.51530078125,-4.85852734375,-1.7230234375,-8.730296875,-12.48790625,-7.7337734375,-4.056625,-2.99636328125,-16.649765625,-10.35734375,-2.47051171875,-1.586,-4.072546875,-8.2058046875,0.0343984374999993,-6.61222265625,-1.17390234375,-5.58001953125,-2.962296875,-0.804796874999999,-0.84590234375,-3.411234375,-3.3768203125,-0.287066406249999,-7.80317578125,-2.5823046875,-2.2192109375,-1.4367734375,0.3219296875
-0.41899609375,-5.11930078125,-6.02452734375,-1.9310234375,-10.254296875,-14.73490625,-10.7627734375,-2.467625,-3.87336328125,-18.644765625,-13.05434375,-1.57651171875,-0.736,-5.511546875,-10.8348046875,-3.8776015625,-4.67122265625,-2.72390234375,-7.39601953125,-5.358296875,-2.027796875,-2.42290234375,-5.252234375,-5.2848203125,-2.59206640625,-8.03317578125,-4.3483046875,-4.5232109375,-3.6817734375,-1.4210703125
-7.35099609375,-4.64730078125,-6.42652734375,-2.4880234375,-11.268296875,-16.07590625,-12.8787734375,-1.292625,-4.79736328125,-19.958765625,-14.93534375,-0.68051171875,1.142,-6.500546875,-12.7038046875,-7.4066015625,-2.75122265625,-4.03990234375,-8.58101953125,-7.353296875,-3.281796875,-3.98290234375,-6.636234375,-6.8818203125,-4.95306640625,-8.24417578125,-5.8763046875,-6.4002109375,-5.6217734375,-3.4380703125
-14.60199609375,-5.14730078125,-6.04452734375,-3.2460234375,-11.548296875,-16.12290625,-13.5967734375,-0.696624999999999,-5.65936328125,-20.263765625,-15.59834375,-0.27951171875,3.215,-6.892546875,-13.4328046875,-9.8706015625,-1.31522265625,-4.82290234375,-8.91401953125,-8.669296875,-4.434796875,-5.10490234375,-7.295234375,-7.8878203125,-6.87806640625,-8.40117578125,-6.8753046875,-7.4052109375,-6.7837734375,-5.2450703125
-19.63299609375,-6.12730078125,-5.09452734375,-3.7970234375,-10.966296875,-14.81990625,-12.8017734375,-0.690624999999999,-6.19136328125,-19.400765625,-14.94134375,-0.64251171875,4.767,-6.603546875,-12.9178046875,-11.0716015625,-0.76522265625,-4.81690234375,-8.34901953125,-9.271296875,-5.516796875,-5.33290234375,-7.097234375,-8.2188203125,-8.15006640625,-8.46417578125,-7.2293046875,-7.2182109375,-6.8717734375,-6.4190703125
-20.19499609375,-6.89730078125,-3.95052734375,-3.7210234375,-9.643296875,-12.58290625,-10.8457734375,-1.243625,-6.13636328125,-17.537765625,-13.24834375,-1.74151171875,5.476,-5.696546875,-11.4158046875,-11.2726015625,-1.29422265625,-3.95990234375,-7.10601953125,-9.361296875,-6.650796875,-4.41890234375,-6.169234375,-8.0668203125,-8.88006640625,-8.49817578125,-7.0883046875,-5.8612109375,-5.9387734375,-6.7950703125
-15.50699609375,-7.03930078125,-3.03752734375,-2.8840234375,-8.009296875,-10.22490625,-8.5127734375,-2.340625,-5.48236328125,-15.220765625,-11.17134375,-3.37251171875,5.379,-4.480546875,-9.5318046875,-11.0516015625,-2.80222265625,-2.52390234375,-5.71101953125,-9.335296875,-8.003796875,-2.53390234375,-4.965234375,-7.8938203125,-9.45806640625,-8.73617578125,-6.8983046875,-3.8292109375,-4.4917734375,-6.6050703125
-6.99999609375,-6.66830078125,-2.69952734375,-1.5710234375,-6.671296875,-8.63790625,-6.7517734375,-3.928625,-4.56036328125,-13.216765625,-9.52734375,-5.33251171875,4.644,-3.474546875,-8.0308046875,-11.0536015625,-4.93822265625,-1.10290234375,-4.87901953125,-9.642296875,-9.731796875,-0.28390234375,-4.147234375,-8.2748203125,-10.37506640625,-9.50817578125,-7.2623046875,-1.9932109375,-3.3507734375,-6.4150703125
2.08400390625,-6.31430078125,-3.09552734375,-0.4100234375,-6.136296875,-8.40090625,-6.2897734375,-5.847625,-3.92136328125,-12.214765625,-8.97134375,-7.47351171875,3.367,-3.239546875,-7.5488046875,-11.7156015625,-7.28922265625,-0.42090234375,-5.24801953125,-10.603296875,-11.911796875,1.50009765625,-4.339234375,-9.6358203125,-11.97406640625,-11.01917578125,-8.6623046875,-1.2492109375,-3.2977734375,-6.8490703125
8.22600390625,-6.53330078125,-4.18352734375,-0.0890234374999999,-6.583296875,-9.55990625,-7.3197734375,-7.851625,-4.05136328125,-12.554765625,-9.75734375,-9.66151171875,1.535,-4.157546875,-8.3668046875,-13.1026015625,-9.61022265625,-1.03690234375,-7.12701953125,-12.286296875,-14.457796875,2.09909765625,-5.867234375,-12.0528203125,-14.24906640625,-13.14517578125,-11.1833046875,-2.1212109375,-4.6967734375,-8.2530703125
9.38400390625,-7.46430078125,-5.79852734375,-0.9940234375,-7.803296875,-11.65890625,-9.4527734375,-9.745625,-5.11536328125,-14.132765625,-11.68334375,-11.70851171875,-0.823,-6.275546875,-10.3508046875,-14.9476015625,-11.93622265625,-3.10590234375,-10.38901953125,-14.513296875,-17.077796875,1.19309765625,-8.637234375,-15.2138203125,-16.82806640625,-15.40517578125,-14.4263046875,-4.5282109375,-7.2977734375,-10.4940703125
5.87100390625,-8.58530078125,-7.73152734375,-2.9600234375,-9.310296875,-13.94390625,-11.8907734375,-11.445625,-6.86636328125,-16.468765625,-14.20534375,-13.31451171875,-3.446,-9.265546875,-13.0498046875,-16.8296015625,-14.42722265625,-6.27690234375,-14.52601953125,-16.971296875,-19.313796875,-1.00790234375,-12.169234375,-18.5598203125,-19.15506640625,-17.15517578125,-17.6653046875,-7.8272109375,-10.3387734375,-12.9900703125
-0.04499609375,-8.94530078125,-9.74152734375,-5.2750234375,-10.538296875,-15.62090625,-13.7317734375,-12.869625,-8.75436328125,-18.887765625,-16.64734375,-14.06851171875,-5.802,-12.495546875,-15.8628046875,-18.3836015625,-17.07322265625,-9.78190234375,-18.80501953125,-19.342296875,-20.695796875,-3.82790234375,-15.745234375,-21.4988203125,-20.76306640625,-17.90717578125,-20.1353046875,-11.0612109375,-12.8467734375,-14.9500703125
-5.42199609375,-7.83230078125,-11.51852734375,-6.9930234375,-11.049296875,-16.11090625,-14.2707734375,-13.794625,-10.16536328125,-20.729765625,-18.40734375,-13.56351171875,-7.229,-15.209546875,-18.2098046875,-19.4376015625,-19.52122265625,-12.67490234375,-22.45201953125,-21.387296875,-20.955796875,-6.33890234375,-18.614234375,-23.5998203125,-21.49106640625,-17.57117578125,-21.3253046875,-13.2722109375,-14.0087734375,-15.6950703125
-8.09099609375,-5.43830078125,-12.67052734375,-7.4050234375,-10.669296875,-15.23990625,-13.2557734375,-13.907625,-10.67736328125,-21.527765625,-19.13434375,-11.63651171875,-7.213,-16.760546875,-19.6688046875,-20.0066015625,-21.18022265625,-14.13190234375,-24.81501953125,-22.954296875,-20.168796875,-7.67990234375,-20.181234375,-24.6798203125,-21.50606640625,-16.46317578125,-21.1143046875,-13.7922109375,-13.4427734375,-14.9340703125
-7.58899609375,-2.90830078125,-12.81852734375,-6.4180234375,-9.524296875,-13.30890625,-11.0147734375,-13.047625,-10.23036328125,-21.114765625,-18.82134375,-8.60751171875,-5.636,-16.809546875,-20.0698046875,-20.2426015625,-21.53122265625,-13.73990234375,-25.50301953125,-23.958296875,-18.736796875,-7.37590234375,-20.157234375,-24.7928203125,-21.15406640625,-15.07317578125,-19.7503046875,-12.4392109375,-11.3017734375,-12.8610703125
-5.16899609375,-1.62630078125,-11.78252734375,-4.6100234375,-7.989296875,-11.00990625,-8.3767734375,-11.393625,-9.13636328125,-19.642765625,-17.80434375,-5.32551171875,-2.895,-15.447546875,-19.5278046875,-20.3876015625,-20.43722265625,-11.65090234375,-24.49701953125,-24.369296875,-17.221796875,-5.53190234375,-18.628234375,-24.1488203125,-20.73806640625,-13.76117578125,-17.7113046875,-9.6192109375,-8.2017734375,-10.0690703125
-2.84799609375,-2.28330078125,-9.73652734375,-2.8960234375,-6.555296875,-9.16190625,-6.3517734375,-9.387625,-7.89936328125,-17.504765625,-16.61934375,-2.92251171875,0.247,-13.144546875,-18.3768046875,-20.6936015625,-18.24722265625,-8.52990234375,-22.14901953125,-24.207296875,-16.099796875,-2.77190234375,-16.034234375,-23.0158203125,-20.34906640625,-12.57117578125,-15.5263046875,-6.2102109375,-5.0107734375,-7.3030703125
-2.03299609375,-4.48230078125,-7.18552734375,-2.0100234375,-5.673296875,-8.36890625,-5.6777734375,-7.513625,-6.93836328125,-15.182765625,-15.73934375,-2.37851171875,2.997,-10.551546875,-16.9938046875,-21.2376015625,-15.63422265625,-5.27890234375,-19.04901953125,-23.492296875,-15.567796875,0.0700976562500002,-13.002234375,-21.5918203125,-19.82406640625,-11.30017578125,-13.5783046875,-3.2142109375,-2.5207734375,-5.1500703125
-2.60299609375,-7.11030078125,-4.76152734375,-2.1340234375,-5.589296875,-8.74390625,-6.4817734375,-6.122625,-6.38836328125,-13.059765625,-15.29734375,-4.05751171875,4.891,-8.203546875,-15.5898046875,-21.7176015625,-13.24222265625,-2.64990234375,-15.75801953125,-22.158296875,-15.445796875,2.36009765625,-10.077234375,-19.8938203125,-18.81406640625,-9.72217578125,-11.9563046875,-1.2812109375,-1.1107734375,-3.8110703125
-3.08499609375,-9.07130078125,-2.95052734375,-2.8740234375,-6.225296875,-9.84390625,-8.2247734375,-5.378625,-6.06836328125,-11.270765625,-14.98134375,-7.45951171875,5.919,-6.300546875,-14.0908046875,-21.4616015625,-11.36822265625,-0.938902343750001,-12.56901953125,-20.015296875,-15.249796875,3.91509765625,-7.509234375,-17.7348203125,-16.93506640625,-7.79917578125,-10.4383046875,-0.405210937500001,-0.6057734375,-3.0810703125
-1.80699609375,-9.75530078125,-1.92052734375,-3.5420234375,-7.143296875,-10.84590625,-9.9267734375,-5.235625,-5.59436328125,-9.672765625,-14.19734375,-11.32251171875,6.396,-4.689546875,-12.2088046875,-19.7556015625,-9.89122265625,0.0550976562500001,-9.46601953125,-16.839296875,-14.411796875,4.96109765625,-5.222234375,-14.8558203125,-13.94706640625,-5.74817578125,-8.6633046875,-0.0282109375000008,-0.4657734375,-2.5610703125
1.83900390625,-9.03030078125,-1.52852734375,-3.5120234375,-7.668296875,-10.88790625,-10.5447734375,-5.416625,-4.57436328125,-7.956765625,-12.40434375,-14.04151171875,6.685,-3.048546875,-9.6568046875,-16.3076015625,-8.49322265625,0.80609765625,-6.29501953125,-12.561296875,-12.561796875,5.84309765625,-3.000234375,-11.1478203125,-9.91706640625,-3.92717578125,-6.3943046875,0.505789062499999,-0.1857734375,-1.9710703125
6.89300390625,-7.02030078125,-1.46152734375,-2.4720234375,-7.156296875,-9.42790625,-9.3687734375,-5.479625,-2.80536328125,-5.836765625,-9.42234375,-14.26151171875,6.968,-1.151546875,-6.3738046875,-11.5006015625,-6.96422265625,1.71309765625,-3.02201953125,-7.436296875,-9.713796875,6.71909765625,-0.747234375000001,-6.8238203125,-5.27506640625,-2.63917578125,-3.7313046875,1.4657890625,0.3562265625,-1.3580703125
11.38400390625,-3.99730078125,-1.41952734375,-0.5150234375,-5.323296875,-6.48190625,-6.3307734375,-4.981625,-0.40236328125,-3.244765625,-5.55334375,-11.44351171875,7.17,0.956453125,-2.6218046875,-6.2576015625,-5.38122265625,2.84809765625,0.131980468749999,-2.057296875,-6.246796875,7.41509765625,1.373765625,-2.4128203125,-0.713066406249999,-1.98017578125,-1.1013046875,2.5427890625,0.8492265625,-1.0630703125
13.55000390625,-0.47230078125,-1.21252734375,1.9329765625,-2.451296875,-2.63790625,-2.0607734375,-3.685625,2.19863671875,-0.418765624999999,-1.46234375,-6.16951171875,7.051,2.965453125,1.0941953125,-1.5846015625,-4.04522265625,3.94409765625,2.74198046875,2.811703125,-2.725796875,7.52909765625,2.995765625,1.4251796875,3.05893359375,-1.80817578125,0.950695312500001,3.0717890625,0.8102265625,-1.4680703125
12.92900390625,2.76469921875,-0.77352734375,4.2789765625,0.661703125,1.17409375,2.3862265625,-1.675625,4.40463671875,2.171234375,2.12465625,0.03848828125,6.382,4.464453125,4.2341953125,1.9113984375,-3.29222265625,4.59109765625,4.40498046875,6.531703125,0.328203125000001,6.71709765625,3.763765625,4.1761796875,5.58893359375,-1.82917578125,2.0646953125,2.5117890625,-0.0237734375,-2.6700703125
10.63700390625,4.85269921875,-0.10152734375,5.9869765625,3.045703125,4.07709375,6.0422265625,0.652375000000001,5.72663671875,4.053234375,4.75165625,5.38648828125,5.128,5.165453125,6.4781953125,4.2963984375,-3.28822265625,4.52209765625,4.98698046875,8.863703125,2.628203125,4.96509765625,3.572765625,5.6931796875,6.87593359375,-1.73317578125,2.2726953125,0.859789062499999,-1.4247734375,-4.2800703125
8.64000390625,5.25669921875,0.78447265625,6.7569765625,4.025703125,5.64409375,8.4482265625,2.729375,5.99363671875,5.005234375,6.42465625,8.66948828125,3.522,5.073453125,7.8571953125,6.1823984375,-3.90222265625,3.79209765625,4.73398046875,10.066703125,4.199203125,2.68809765625,2.680765625,6.2451796875,7.35093359375,-1.31017578125,1.9786953125,-1.2712109375,-2.7247734375,-5.5380703125
8.50200390625,4.10269921875,1.86747265625,6.5979765625,3.553703125,6.02809375,9.7152265625,4.101375,5.40463671875,5.171234375,7.49565625,9.80648828125,1.984,4.473453125,8.6901953125,8.2593984375,-4.67522265625,2.73809765625,4.16098046875,10.713703125,5.298203125,0.56309765625,1.589765625,6.3401796875,7.63193359375,-0.512175781250001,1.7086953125,-2.9912109375,-3.1997734375,-5.7100703125
10.45000390625,2.21669921875,3.08747265625,5.8159765625,2.198703125,5.78909375,10.2582265625,4.764375,4.40563671875,4.951234375,8.34065625,9.76848828125,0.942,3.770453125,9.3431953125,10.7363984375,-4.93322265625,1.79009765625,3.77998046875,11.333703125,6.208203125,-0.77890234375,0.786765624999999,6.4231796875,8.17893359375,0.53982421875,1.7896953125,-3.6452109375,-2.5447734375,-4.5450703125
13.36800390625,0.80969921875,4.28247265625,4.9299765625,0.844703125,5.57009375,10.5072265625,5.236375,3.48563671875,4.777234375,9.09565625,9.94948828125,0.657,3.287453125,9.9971953125,13.1043984375,-4.04922265625,1.25009765625,3.85298046875,12.111703125,7.042203125,-1.02090234375,0.513765624999999,6.6551796875,9.05093359375,1.60282421875,2.1866953125,-3.1522109375,-1.0847734375,-2.4430703125
15.54700390625,0.90969921875,5.19747265625,4.4859765625,0.255703124999999,5.82409375,10.7682265625,6.192375,2.95563671875,4.905234375,9.63965625,11.31848828125,1.156,3.150453125,10.5701953125,14.4243984375,-1.77322265625,1.19609765625,4.30798046875,12.840703125,7.685203125,-0.25590234375,0.715765624999999,6.9081796875,9.91293359375,2.40582421875,2.5896953125,-1.9672109375,0.4422265625,-0.2320703125
15.55000390625,2.75969921875,5.58947265625,4.7629765625,0.709703125,6.62509375,11.1612265625,7.863375,2.80263671875,5.302234375,9.75265625,13.79648828125,2.233,3.264453125,10.7961953125,13.9283984375,1.51777734375,1.48509765625,4.82598046875,13.095703125,7.888203125,1.07509765625,1.127765625,6.9101796875,10.23893359375,2.74582421875,2.6476953125,-0.752210937500001,1.3432265625,1.2829296875
12.70600390625,5.50169921875,5.38747265625,5.5019765625,1.816703125,7.56409375,11.5112265625,9.678375,2.67963671875,5.619234375,9.21665625,16.20248828125,3.479,3.340453125,10.3471953125,11.4623984375,4.79777734375,1.81009765625,4.96298046875,12.444703125,7.382203125,2.34909765625,1.389765625,6.3791796875,9.56093359375,2.53882421875,2.1436953125,-0.0432109375000005,1.3062265625,1.6679296875
7.20600390625,7.41769921875,4.75047265625,5.9409765625,2.679703125,7.84209375,11.3122265625,10.496375,2.09363671875,5.315234375,7.84165625,16.85148828125,4.343,2.976453125,8.9321953125,7.4943984375,6.71477734375,1.79409765625,4.26998046875,10.571703125,5.924203125,2.95309765625,1.122765625,5.0741796875,7.60993359375,1.79882421875,1.0186953125,-0.0882109375000004,0.4302265625,0.9209296875
0.0860039062500002,6.79069921875,3.95047265625,5.2439765625,2.382703125,6.67409375,9.9222265625,9.301375,0.721636718749999,3.939234375,5.50565625,14.48048828125,4.34,1.831453125,6.4201953125,2.7913984375,6.22077734375,1.12909765625,2.42498046875,7.343703125,3.351203125,2.49809765625,0.0267656249999986,2.8161796875,4.35893359375,0.58782421875,-0.695304687499999,-0.8542109375,-0.9607734375,-0.6860703125
-6.78799609375,2.97269921875,3.15947265625,3.1269765625,0.571703125,3.83709375,6.9992265625,5.871375,-1.29336328125,1.457234375,2.28865625,8.97748828125,3.339,-0.173546875,2.9571953125,-1.9316015625,3.19877734375,-0.265902343750001,-0.617019531250001,2.864703125,-0.324796875,0.99209765625,-2.003234375,-0.432820312500001,0.0369335937500006,-0.999175781250001,-2.9043046875,-2.0872109375,-2.5007734375,-2.7820703125
-10.92799609375,-2.99330078125,2.31547265625,0.219976562499999,-2.264296875,-0.030906250000001,2.8692265625,0.986375,-3.31036328125,-1.615765625,-1.41334375,1.50948828125,1.739,-2.744546875,-0.9918046875,-6.1966015625,-1.36922265625,-2.16390234375,-4.54601953125,-2.473296875,-4.779796875,-1.12590234375,-4.787234375,-4.4648203125,-4.86706640625,-2.78917578125,-5.4223046875,-3.3622109375,-3.8617734375,-4.9600703125
-9.95499609375,-8.68730078125,1.17047265625,-2.1170234375,-5.014296875,-3.62890625,-1.4387734375,-3.948625,-4.45136328125,-4.375765625,-4.92734375,-5.99151171875,0.302,-5.305546875,-4.7338046875,-9.7696015625,-5.90022265625,-4.09490234375,-8.74301953125,-8.019296875,-9.331796875,-3.14690234375,-7.874234375,-8.7968203125,-9.65306640625,-4.49317578125,-7.9193046875,-4.1782109375,-4.7427734375,-6.7680703125
-2.83999609375,-11.40430078125,-0.49152734375,-2.4980234375,-6.506296875,-5.57990625,-4.5547734375,-7.609625,-4.05936328125,-5.922765625,-7.50534375,-11.66651171875,-0.279,-7.219546875,-7.5688046875,-12.5366015625,-9.08022265625,-5.53590234375,-12.45501953125,-12.980296875,-13.079796875,-4.38790234375,-10.670234375,-12.7498203125,-13.54706640625,-5.75217578125,-9.9523046875,-4.1282109375,-4.9017734375,-7.7400703125
9.02000390625,-9.49130078125,-2.62352734375,-0.3040234375,-6.079296875,-5.09290625,-5.3627734375,-9.366625,-2.07836328125,-5.767765625,-8.61634375,-14.45751171875,0.216,-8.049546875,-9.0288046875,-14.3956015625,-10.49122265625,-6.13190234375,-15.02801953125,-16.612296875,-15.205796875,-4.49590234375,-12.628234375,-15.6458203125,-15.90506640625,-6.27117578125,-11.0803046875,-3.1062109375,-4.2337734375,-7.5390703125
21.79200390625,-3.26330078125,-4.83152734375,3.8659765625,-3.900296875,-2.36990625,-3.5577734375,-9.432625,0.82963671875,-4.075765625,-8.20534375,-14.37251171875,1.417,-7.746546875,-9.0688046875,-15.2906015625,-10.59222265625,-5.84790234375,-16.11901953125,-18.457296875,-15.313796875,-3.60490234375,-13.426234375,-17.0428203125,-16.42406640625,-5.96717578125,-11.0543046875,-1.4182109375,-2.8627734375,-6.1430703125
30.59500390625,4.97469921875,-6.49252734375,8.3589765625,-0.886296875,1.43309375,0.1152265625,-8.535625,3.52163671875,-1.627765625,-6.78534375,-12.27851171875,2.598,-6.668546875,-8.1038046875,-15.3386015625,-10.17622265625,-4.97890234375,-15.79401953125,-18.493296875,-13.618796875,-2.27090234375,-13.074234375,-16.8738203125,-15.23406640625,-5.00317578125,-9.9343046875,0.318789062499999,-1.1487734375,-3.9170703125
31.64200390625,11.91369921875,-6.99252734375,11.1859765625,1.721703125,4.70209375,4.1212265625,-7.372625,4.88363671875,0.533234375000001,-5.22434375,-9.41751171875,3.101,-5.396546875,-6.7918046875,-14.8176015625,-9.74122265625,-3.98390234375,-14.41601953125,-17.090296875,-10.830796875,-1.19590234375,-11.849234375,-15.4028203125,-12.79706640625,-3.68117578125,-8.0493046875,1.4787890625,0.4592265625,-1.4650703125
24.00400390625,14.79969921875,-5.96452734375,10.9439765625,2.958703125,6.13109375,6.8292265625,-6.270625,4.34263671875,1.615234375,-4.26534375,-6.90751171875,2.708,-4.405546875,-5.6688046875,-13.9376015625,-9.21922265625,-3.22290234375,-12.40501953125,-14.737296875,-7.806796875,-0.86590234375,-10.101234375,-13.0098203125,-9.65306640625,-2.25717578125,-5.8153046875,1.7817890625,1.6472265625,0.6649296875
10.08300390625,12.71869921875,-3.44452734375,7.4789765625,2.537703125,5.30009375,7.2562265625,-5.209625,2.13263671875,1.437234375,-4.13434375,-5.36351171875,1.727,-3.820546875,-4.8548046875,-12.6236015625,-8.16622265625,-2.76290234375,-10.02101953125,-11.782296875,-5.157796875,-1.29590234375,-8.057234375,-9.9778203125,-6.19906640625,-0.83017578125,-3.5263046875,1.4537890625,2.3892265625,2.2309296875
-5.37099609375,6.86669921875,0.0984726562499998,1.9489765625,0.820703125000001,2.73609375,5.4402265625,-4.134625,-0.836363281250001,0.410234375,-4.50734375,-4.75051171875,0.753,-3.413546875,-4.0828046875,-10.6166015625,-6.20922265625,-2.37690234375,-7.35701953125,-8.374296875,-3.065796875,-2.03390234375,-5.792234375,-6.4608203125,-2.63806640625,0.62782421875,-1.2953046875,1.0877890625,2.9052265625,3.3229296875
-17.13599609375,-0.24430078125,3.86047265625,-3.7020234375,-1.502296875,-0.500906250000001,2.2732265625,-3.211625,-3.41936328125,-0.795765625,-4.84134375,-4.58551171875,0.274,-2.833546875,-2.9898046875,-7.8256015625,-3.41022265625,-1.73090234375,-4.47501953125,-4.625296875,-1.370796875,-2.43690234375,-3.335234375,-2.6148203125,0.893933593750001,2.15782421875,0.879695312500001,1.2837890625,3.4812265625,4.1909296875
-21.42999609375,-6.03130078125,6.92547265625,-7.5610234375,-3.744296875,-3.34490625,-0.9787734375,-2.798625,-4.71636328125,-1.602765625,-4.72734375,-4.34851171875,0.432,-1.830546875,-1.4048046875,-4.5616015625,-0.26922265625,-0.59190234375,-1.53201953125,-0.757296874999999,0.209203125,-2.03490234375,-0.786234375000001,1.2951796875,4.21093359375,3.72982421875,3.0026953125,2.3157890625,4.2752265625,5.0199296875
-17.09799609375,-8.77530078125,8.57047265625,-8.4580234375,-5.330296875,-5.03790625,-3.1507734375,-3.137625,-4.35336328125,-1.674765625,-4.00434375,-3.83051171875,1.017,-0.344546875,0.586195312499999,-1.3926015625,2.57177734375,1.05709765625,1.24998046875,2.916703125,1.904203125,-0.76390234375,1.681765625,4.9371796875,7.09493359375,5.24982421875,5.0496953125,4.0287890625,5.2672265625,5.8489296875
-5.74199609375,-7.88030078125,8.51747265625,-6.2890234375,-5.793296875,-5.18890625,-3.4287734375,-4.045625,-2.48836328125,-0.874765625,-2.64134375,-3.14651171875,1.654,1.546453125,2.7771953125,1.2483984375,4.62177734375,3.04209765625,3.71898046875,6.178703125,3.840203125,1.04809765625,3.923765625,8.0791796875,9.46193359375,6.62982421875,7.0206953125,6.0207890625,6.3672265625,6.6539296875
9.07300390625,-3.68730078125,7.04747265625,-1.9020234375,-4.814296875,-3.72190625,-1.4667734375,-4.868625,0.39163671875,0.805234375000001,-0.59534375,-2.52451171875,2.02,3.726453125,5.0291953125,3.3843984375,5.66977734375,5.11809765625,5.90398046875,9.056703125,6.055203125,2.92409765625,5.921765625,10.7351796875,11.47493359375,7.83382421875,9.0076953125,7.9557890625,7.5692265625,7.4909296875
23.10900390625,2.77869921875,4.91947265625,3.3539765625,-2.366296875,-0.859906250000001,2.5182265625,-4.765625,3.71663671875,3.253234375,2.18465625,-2.07351171875,2.042,6.097453125,7.3391953125,5.4923984375,5.77477734375,7.11409765625,8.01598046875,11.804703125,8.493203125,4.53609765625,7.822765625,13.1681796875,13.48893359375,8.84382421875,11.1876953125,9.7867890625,9.0392265625,8.5609296875
32.76800390625,9.98869921875,3.11647265625,8.1629765625,1.150703125,2.86709375,7.7102265625,-3.160625,6.99463671875,6.191234375,5.60665625,-1.72951171875,1.979,8.587453125,9.7561953125,8.1613984375,5.23077734375,9.01009765625,10.31298046875,14.700703125,10.963203125,5.85809765625,9.858765625,15.7051796875,15.80293359375,9.60282421875,13.7096953125,11.7057890625,11.0002265625,10.0979296875
36.06500390625,16.22069921875,2.45747265625,11.6209765625,4.919703125,6.66409375,12.8412265625,-0.124624999999999,9.84163671875,9.134234375,9.28065625,-1.38351171875,2.313,11.069453125,12.2171953125,11.6413984375,4.49477734375,10.86909765625,12.88498046875,17.779703125,13.112203125,7.07509765625,12.151765625,18.4601796875,18.39293359375,9.97782421875,16.5066953125,13.8357890625,13.4572265625,12.1399296875
32.97200390625,20.06069921875,3.22347265625,13.3129765625,7.910703125,9.59609375,16.5352265625,3.532375,11.92663671875,11.437234375,12.49165625,-1.03051171875,3.443,13.257453125,14.4051953125,15.5433984375,4.00077734375,12.65209765625,15.46398046875,20.664703125,14.474203125,8.29509765625,14.505765625,21.1231796875,20.80593359375,9.81582421875,19.1516953125,15.8827890625,15.9252265625,14.3059296875
25.05500390625,20.86869921875,4.97447265625,13.2059765625,9.235703125,10.84609375,17.7472265625,6.545375,12.92363671875,12.453234375,14.36465625,-0.80051171875,5.365,14.678453125,15.7611953125,18.8903984375,3.92877734375,14.06609765625,17.41498046875,22.650703125,14.634203125,9.31209765625,16.344765625,22.9831796875,22.29493359375,9.03882421875,20.9056953125,17.0637890625,17.4292265625,15.7889296875
14.71700390625,18.90969921875,6.74347265625,11.5579765625,8.518703125,10.06609375,16.1822265625,7.793375,12.60963671875,11.805234375,14.24265625,-0.81551171875,7.592,14.837453125,15.7381953125,20.5643984375,4.10077734375,14.63509765625,18.01498046875,23.046703125,13.461203125,9.63609765625,16.944765625,23.2701796875,22.20393359375,7.73882421875,21.0356953125,16.4887890625,16.9412265625,15.6939296875
4.51400390625,15.06869921875,7.55847265625,8.9659765625,6.140703125,7.65809375,12.5562265625,6.916375,11.05363671875,9.658234375,12.11865625,-0.99551171875,9.388,13.527453125,14.1801953125,19.9413984375,4.11777734375,14.00009765625,16.88198046875,21.625703125,11.294203125,8.84209765625,15.865765625,21.6441796875,20.39093359375,6.22482421875,19.2716953125,13.8357890625,14.0692265625,13.6139296875
-3.26799609375,10.37069921875,6.99847265625,6.3329765625,3.134703125,4.71709375,8.4442265625,4.543375,8.74063671875,6.759234375,8.78965625,-1.01351171875,10.147,11.038453125,11.5391953125,17.2993984375,3.68677734375,12.21409765625,14.26698046875,18.858703125,8.919203125,6.95209765625,13.287765625,18.4961796875,17.43093359375,4.97582421875,16.0916953125,9.8067890625,9.5232265625,10.0609296875
-7.00199609375,5.58869921875,5.39747265625,4.5729765625,0.678703124999999,2.49009375,5.5612265625,1.922375,6.38263671875,4.100234375,5.49265625,-0.51351171875,9.652,8.040453125,8.6731953125,13.6523984375,2.89077734375,9.76609765625,10.92498046875,15.689703125,7.253203125,4.52509765625,9.960765625,14.7831796875,14.38193359375,4.44082421875,12.5506953125,5.9317890625,4.9032265625,6.3499296875
-6.23299609375,1.20069921875,3.57347265625,4.1249765625,-0.552296875000001,1.62309375,4.7562265625,0.188375000000001,4.51763671875,2.357234375,3.19665625,0.55048828125,8.114,5.197453125,6.3261953125,10.0863984375,2.20677734375,7.30109765625,7.65598046875,12.966703125,6.833203125,2.34809765625,6.770765625,11.4741796875,12.18193359375,4.75282421875,9.7086953125,3.7487890625,1.8472265625,3.8829296875
-2.05199609375,-2.37930078125,2.29247265625,4.6589765625,-0.743296875,1.72909375,5.4502265625,-0.275624999999999,3.19963671875,1.490234375,2.03465625,1.70548828125,6.005,2.802453125,4.6571953125,7.1003984375,2.19777734375,5.23809765625,4.82198046875,10.917703125,7.424203125,0.95409765625,4.220765625,8.9731796875,11.07093359375,5.53982421875,8.0216953125,3.8857890625,1.0832265625,3.2909296875
3.15900390625,-4.61130078125,1.84947265625,5.2559765625,-0.727296875,1.63709375,5.9932265625,0.00637500000000069,2.03963671875,0.827234375,1.30065625,2.07648828125,3.788,0.693453125,3.1971953125,4.4273984375,3.05877734375,3.59009765625,2.20698046875,9.040703125,8.030203125,0.33309765625,2.197765625,6.9201796875,10.41593359375,6.05382421875,7.1006953125,5.6727890625,2.0242265625,4.0139296875
6.75300390625,-4.97430078125,1.98247265625,4.9649765625,-1.363296875,0.207093749999999,4.7702265625,-0.0236249999999993,0.59363671875,-0.422765625,0.0376562499999995,0.82548828125,1.697,-1.492546875,1.2521953125,1.4553984375,4.33277734375,2.06709765625,-0.711019531250001,6.506703125,7.402203125,-0.00390234374999987,0.147765624999999,4.4911796875,9.09593359375,5.57682421875,5.9956953125,7.5197890625,3.1552265625,4.6519296875
7.13800390625,-3.31330078125,2.10847265625,3.3829765625,-2.895296875,-2.79190625,1.3272265625,-1.282625,-1.22936328125,-2.549765625,-2.20034375,-2.29551171875,-0.304,-3.925546875,-1.5108046875,-2.0856015625,5.05477734375,0.37309765625,-4.26801953125,2.776703125,4.788203125,-0.66590234375,-2.458234375,0.9891796875,6.19593359375,3.87482421875,3.8226953125,7.8217890625,2.9612265625,3.8409296875
4.62800390625,-0.00330078125000011,1.69147265625,0.9129765625,-4.724296875,-6.36990625,-3.2167734375,-3.942625,-3.00836328125,-5.039765625,-4.95034375,-6.67051171875,-2.319,-6.323546875,-4.7198046875,-5.7076015625,4.28077734375,-1.50890234375,-8.23801953125,-1.956296875,0.432203125000001,-1.99090234375,-5.679234375,-3.6408203125,1.60493359375,1.37782421875,0.3266953125,5.8457890625,0.8102265625,1.0859296875
1.25500390625,4.21869921875,0.51247265625,-1.4200234375,-5.731296875,-8.80190625,-6.7777734375,-7.230625,-4.00936328125,-6.819765625,-7.09034375,-11.10251171875,-4.248,-8.035546875,-7.4538046875,-8.3706015625,1.62477734375,-3.25290234375,-11.84701953125,-6.813296875,-4.512796875,-3.82990234375,-8.991234375,-8.6978203125,-3.85806640625,-1.04817578125,-3.9423046875,2.1067890625,-2.7257734375,-2.9650703125
-0.42799609375,8.47069921875,-1.27052734375,-2.5150234375,-4.987296875,-8.67090625,-7.5747734375,-9.809625,-3.63436328125,-6.917765625,-7.61034375,-14.53951171875,-5.693,-8.428546875,-8.7988046875,-9.1946015625,-2.52922265625,-4.37090234375,-14.16501953125,-10.704296875,-8.627796875,-5.64090234375,-11.544234375,-13.0628203125,-8.84706640625,-2.57817578125,-7.9313046875,-1.9432109375,-6.2567734375,-6.9210703125
1.08100390625,11.74469921875,-3.24352734375,-1.8050234375,-2.409296875,-5.79190625,-5.2667734375,-10.593625,-1.85236328125,-5.124765625,-6.35434375,-16.69651171875,-6.147,-7.327546875,-8.4488046875,-8.1556015625,-7.23422265625,-4.51490234375,-14.62801953125,-12.922296875,-10.959796875,-6.78990234375,-12.628234375,-15.7488203125,-12.14106640625,-2.85517578125,-10.6043046875,-4.6852109375,-8.3487734375,-9.3970703125
5.21300390625,12.89469921875,-4.91252734375,0.4129765625,1.048703125,-1.42190625,-1.2347734375,-9.485625,0.655636718749999,-2.192765625,-4.21234375,-18.05851171875,-5.343,-5.185546875,-6.9038046875,-6.2596015625,-11.41822265625,-3.67890234375,-13.32701953125,-13.432296875,-11.375796875,-6.88890234375,-12.013234375,-16.3108203125,-13.15906640625,-2.12017578125,-11.3753046875,-5.0942109375,-8.2027734375,-9.6480703125
9.59000390625,10.97869921875,-5.85452734375,3.1109765625,3.826703125,2.35709375,2.1972265625,-7.512625,2.77363671875,0.533234375000001,-2.63034375,-19.28351171875,-3.514,-2.871546875,-5.1698046875,-5.0116015625,-14.29022265625,-2.19390234375,-10.90601953125,-12.732296875,-10.417796875,-5.94090234375,-9.989234375,-14.9118203125,-12.06606640625,-0.994175781250001,-10.2303046875,-3.1082109375,-5.9027734375,-7.7680703125
11.48300390625,5.95069921875,-5.83652734375,5.0399765625,4.560703125,3.70609375,3.0612265625,-6.202625,3.50063671875,1.821234375,-2.76734375,-20.57451171875,-1.379,-1.215546875,-4.1658046875,-5.5316015625,-15.53722265625,-0.54390234375,-8.17701953125,-11.440296875,-8.858796875,-4.27490234375,-7.150234375,-12.1028203125,-9.52306640625,-0.0821757812500001,-7.5783046875,0.498789062499999,-2.1997734375,-4.4660703125
9.48700390625,-0.83330078125,-4.90352734375,5.2999765625,2.773703125,1.89609375,0.7172265625,-6.667625,2.43463671875,1.167234375,-4.87834375,-21.54551171875,0.173,-0.605546875,-4.2358046875,-7.9246015625,-15.27422265625,0.85809765625,-5.72901953125,-9.941296875,-7.307796875,-2.33590234375,-4.096234375,-8.5158203125,-6.31906640625,0.343824218749999,-3.9983046875,4.5707890625,1.9092265625,-0.6570703125
4.29200390625,-6.95030078125,-3.37652734375,3.7149765625,-0.910296875,-2.43790625,-4.0257734375,-8.977625,-0.0533632812500002,-1.024765625,-8.24434375,-21.57151171875,0.532,-0.847546875,-5.0468046875,-11.2826015625,-13.82922265625,1.82009765625,-3.73501953125,-8.290296875,-6.053796875,-0.48590234375,-1.228234375,-4.6548203125,-3.10206640625,0.39582421875,-0.0513046874999992,8.0777890625,5.5972265625,2.8909296875
-1.84699609375,-10.05830078125,-1.69752734375,0.8859765625,-5.095296875,-7.67090625,-9.4667734375,-12.171625,-3.00036328125,-3.688765625,-11.58734375,-20.24851171875,-0.287,-1.327546875,-5.8348046875,-14.1986015625,-11.56622265625,2.40309765625,-2.01501953125,-6.341296875,-5.130796875,1.09209765625,1.300765625,-0.8448203125,-0.25406640625,0.39882421875,3.8116953125,10.4677890625,8.4152265625,5.7169296875
-6.38199609375,-9.13730078125,-0.21052734375,-2.0370234375,-8.222296875,-11.89190625,-13.7497734375,-14.820625,-5.25436328125,-5.587765625,-13.63034375,-17.62051171875,-1.628,-1.345546875,-5.7888046875,-15.4066015625,-8.84522265625,2.86709765625,-0.240019531250001,-3.927296875,-4.430796875,2.39309765625,3.519765625,2.7361796875,2.14293359375,0.65382421875,7.2746953125,11.7577890625,10.3102265625,7.6589296875
-7.64399609375,-4.94830078125,0.94247265625,-3.8210234375,-9.157296875,-13.59290625,-15.4467734375,-15.770625,-5.91836328125,-5.799765625,-13.53634375,-14.13551171875,-2.546,-0.443546874999999,-4.3968046875,-14.2056015625,-6.09122265625,3.51909765625,1.83298046875,-0.986296874999999,-3.779796875,3.49309765625,5.508765625,5.9851796875,4.24893359375,1.28382421875,10.1416953125,12.3617890625,11.4612265625,8.7479296875
-5.36999609375,0.53369921875,1.75347265625,-3.7020234375,-7.576296875,-12.15190625,-13.9427734375,-14.694625,-4.70836328125,-4.043765625,-11.14134375,-10.46151171875,-2.363,1.400453125,-1.6408046875,-10.6406015625,-3.80522265625,4.53709765625,4.20898046875,2.364703125,-2.988796875,4.42409765625,7.271765625,8.7971796875,6.29893359375,2.20282421875,12.2976953125,12.7287890625,12.0582265625,9.0739296875
-0.53599609375,5.23569921875,2.20647265625,-1.7540234375,-4.021296875,-7.99490625,-9.6097734375,-12.146625,-2.05636328125,-0.760765624999999,-6.97734375,-7.27251171875,-1.096,3.775453125,1.9901953125,-5.4576015625,-2.39422265625,5.83409765625,6.61098046875,5.806703125,-1.940796875,5.08609765625,8.669765625,11.0241796875,8.39193359375,3.18482421875,13.6476953125,13.0317890625,12.1212265625,8.6939296875
5.19200390625,7.92269921875,2.24847265625,1.1769765625,0.358703125,-2.39690625,-3.6707734375,-9.121625,1.11063671875,3.095234375,-2.09134375,-5.04951171875,0.527,6.041453125,5.6841953125,0.125398437499999,-1.90822265625,7.07309765625,8.60998046875,8.886703125,-0.654796875,5.27309765625,9.467765625,12.4931796875,10.38493359375,3.95582421875,14.0986953125,13.0747890625,11.5072265625,7.6339296875
10.01000390625,8.53369921875,1.91247265625,3.9239765625,4.304703125,3.03109375,2.2412265625,-6.470625,3.82063671875,6.469234375,2.31665625,-3.94951171875,1.509,7.633453125,8.6361953125,4.7973984375,-1.90022265625,7.85009765625,9.84298046875,11.167703125,0.708203125000001,4.79309765625,9.476765625,13.1001796875,11.97193359375,4.29882421875,13.6216953125,12.4887890625,10.0702265625,5.9889296875
12.44300390625,7.92869921875,1.40847265625,5.5689765625,6.928703125,6.94709375,6.6582265625,-4.571625,5.46563671875,8.626234375,5.30565625,-3.81351171875,1.209,8.292453125,10.3541953125,7.5833984375,-1.62222265625,7.91309765625,10.20898046875,12.409703125,1.935203125,3.61709765625,8.699765625,12.9091796875,12.87193359375,4.10982421875,12.3416953125,11.0387890625,7.8712265625,4.0099296875
11.86100390625,7.30969921875,1.04647265625,5.8109765625,7.943703125,8.70709375,8.7442265625,-3.390625,5.95363671875,9.362234375,6.50265625,-4.30051171875,-0.251,8.122453125,10.8131953125,8.1813984375,-0.50522265625,7.29509765625,9.90598046875,12.670703125,2.861203125,1.94609765625,7.377765625,12.1651796875,12.99893359375,3.41682421875,10.5586953125,8.8137890625,5.2462265625,2.0929296875
8.95400390625,7.56669921875,1.01447265625,5.0129765625,7.578703125,8.44709375,8.5142265625,-2.720625,5.60063671875,8.950234375,6.17365625,-5.05251171875,-2.052,7.444453125,10.3661953125,7.0753984375,1.36577734375,6.27309765625,9.28698046875,12.259703125,3.426203125,0.15209765625,5.883765625,11.2051796875,12.48393359375,2.37082421875,8.6556953125,6.1997890625,2.6722265625,0.6319296875
5.65000390625,8.74869921875,1.23047265625,3.9549765625,6.308703125,6.85509375,6.7512265625,-2.383625,4.87963671875,7.892234375,5.03665625,-5.79051171875,-3.167,6.569453125,9.5061953125,5.3273984375,3.14877734375,5.19109765625,8.64198046875,11.582703125,3.672203125,-1.37190234375,4.528765625,10.2971796875,11.57693359375,1.20482421875,6.9276953125,3.6777890625,0.5392265625,-0.1620703125
4.12600390625,9.91869921875,1.42047265625,3.4179765625,4.612703125,4.79109375,4.6122265625,-2.321625,4.17863671875,6.658234375,3.90465625,-6.29351171875,-2.966,5.635453125,8.6141953125,4.0983984375,3.67177734375,4.27709765625,8.03198046875,10.945703125,3.696203125,-2.36990234375,3.408765625,9.5121796875,10.49693359375,0.176824218749999,5.4506953125,1.6127890625,-1.0047734375,-0.3750703125
5.39400390625,9.61269921875,1.32847265625,3.7849765625,2.877703125,2.97209375,3.1142265625,-2.588625,3.67263671875,5.550234375,3.32265625,-6.34851171875,-1.559,4.605453125,7.8201953125,4.1003984375,2.11877734375,3.55909765625,7.28398046875,10.422703125,3.584203125,-2.81090234375,2.402765625,8.7021796875,9.33293359375,-0.520175781250001,4.0766953125,0.140789062499999,-2.0557734375,-0.3410703125
8.57000390625,6.77869921875,0.90147265625,4.8969765625,1.432703125,1.81409375,2.7342265625,-3.270625,3.35163671875,4.691234375,3.37265625,-5.77351171875,0.324,3.395453125,7.0241953125,5.2353984375,-1.41822265625,2.91809765625,6.10898046875,9.833703125,3.327203125,-2.86390234375,1.288765625,7.5781796875,8.04493359375,-0.83317578125,2.5526953125,-0.806210937500001,-2.8327734375,-0.4840703125
11.44000390625,1.64569921875,0.26747265625,6.2079765625,0.562703125,1.40909375,3.2932265625,-4.385625,3.12763671875,4.095234375,3.69265625,-4.58251171875,1.777,1.983453125,6.0091953125,6.6263984375,-5.85722265625,2.21809765625,4.26598046875,8.825703125,2.782203125,-2.78290234375,-0.094234375000001,5.8461796875,6.53293359375,-0.86717578125,0.6826953125,-1.4082109375,-3.5487734375,-1.1190703125
11.87000390625,-4.10730078125,-0.41052734375,7.1009765625,0.411703125,1.55209375,4.0992265625,-5.841625,2.91963671875,3.703234375,3.66365625,-3.19351171875,2.214,0.456453125,4.5571953125,7.0123984375,-9.59822265625,1.41609765625,1.68398046875,7.014703125,1.704203125,-2.76190234375,-1.748234375,3.3341796875,4.70393359375,-0.852175781250001,-1.5463046875,-1.8352109375,-4.3287734375,-2.3200703125
8.99200390625,-8.08630078125,-1.08152734375,7.1579765625,0.843703125,1.80309375,4.2492265625,-7.484625,2.66063671875,3.375234375,2.68965625,-2.43751171875,1.645,-1.026546875,2.5301953125,5.3633984375,-11.31822265625,0.60009765625,-1.47101953125,4.160703125,-0.112796875,-2.82390234375,-3.507234375,0.0891796874999997,2.50493359375,-1.08917578125,-3.9323046875,-2.1512109375,-5.1647734375,-3.9010703125
3.57800390625,-8.40830078125,-1.82552734375,6.3119765625,1.425703125,1.63209375,3.0052265625,-9.181625,2.29063671875,2.913234375,0.470656249999999,-3.22151171875,0.654,-2.279546875,-0.0598046874999998,1.3903984375,-10.66622265625,-0.0289023437500004,-4.81401953125,0.307703125000002,-2.686796875,-2.80190234375,-5.080234375,-3.5958203125,-0.0560664062499994,-1.86417578125,-6.1113046875,-2.2802109375,-5.9117734375,-5.4980703125
-2.39499609375,-4.74830078125,-2.77352734375,4.8779765625,1.624703125,0.667093749999999,0.1592265625,-10.870625,1.80863671875,2.145234375,-2.82534375,-6.00251171875,0.0819999999999999,-3.123546875,-3.0138046875,-4.2876015625,-8.43922265625,-0.24890234375,-7.82901953125,-4.175296875,-5.785796875,-2.44190234375,-6.160234375,-7.2438203125,-2.90606640625,-3.34017578125,-7.7043046875,-2.0712109375,-6.3427734375,-6.7340703125
-6.68599609375,1.35569921875,-3.99252734375,3.4239765625,1.119703125,-1.07590625,-3.8017734375,-12.527625,1.31863671875,1.045234375,-6.57134375,-10.41251171875,0.546,-3.419546875,-5.9418046875,-10.3956015625,-6.09722265625,0.0620976562499997,-10.00901953125,-8.672296875,-8.973796875,-1.61390234375,-6.550234375,-10.3458203125,-5.88506640625,-5.43517578125,-8.4803046875,-1.4312109375,-6.2827734375,-7.3850703125
-7.81399609375,7.15569921875,-5.40152734375,2.5099765625,0.047703125,-3.10090625,-7.8347734375,-14.076625,1.01263671875,-0.180765624999999,-9.86934375,-15.31651171875,2.069,-3.099546875,-8.3308046875,-15.5086015625,-4.90822265625,0.81509765625,-11.00301953125,-12.471296875,-11.729796875,-0.48090234375,-6.250234375,-12.4978203125,-8.74506640625,-7.78117578125,-8.4603046875,-0.464210937500001,-5.7407734375,-7.4730703125
-5.63099609375,10.06969921875,-6.77152734375,2.4519765625,-0.975296875000001,-4.57090625,-10.7187734375,-15.309625,1.09863671875,-1.098765625,-11.82634375,-19.24051171875,4.085,-2.169546875,-9.6478046875,-18.5336015625,-5.28522265625,1.73409765625,-10.67701953125,-14.925296875,-13.555796875,0.53109765625,-5.430234375,-13.4668203125,-11.14206640625,-9.81417578125,-7.8713046875,0.537789062499999,-4.9107734375,-7.2000703125
-1.13699609375,8.99769921875,-7.77652734375,3.2469765625,-1.101296875,-4.63690625,-11.5047734375,-15.896625,1.73863671875,-1.159765625,-11.82534375,-20.97751171875,5.821,-0.682546875,-9.4718046875,-19.0036015625,-6.67922265625,2.51109765625,-9.08501953125,-15.574296875,-14.078796875,0.99309765625,-4.302234375,-13.1638203125,-12.67206640625,-10.97417578125,-6.9533046875,1.2757890625,-4.0147734375,-6.7570703125
4.13700390625,4.76969921875,-8.06752734375,4.6359765625,0.292703125,-2.86490625,-9.8887734375,-15.550625,2.98863671875,0.0512343749999999,-9.74834375,-20.09451171875,6.766,1.271453125,-7.6488046875,-17.1386015625,-8.01722265625,3.00209765625,-6.43101953125,-14.258296875,-13.165796875,0.75909765625,-2.992234375,-11.5938203125,-12.94006640625,-10.92817578125,-5.7743046875,1.6667890625,-3.0987734375,-6.1310703125
8.66500390625,-0.50530078125,-7.35252734375,6.1779765625,3.137703125,0.418093749999999,-6.4177734375,-14.305625,4.69263671875,2.538234375,-6.08734375,-17.13351171875,6.889,3.511453125,-4.4258046875,-13.7046015625,-8.34422265625,3.27609765625,-3.04901953125,-11.194296875,-10.989796875,0.0590976562500001,-1.520234375,-8.8698203125,-11.71206640625,-9.67217578125,-4.2023046875,1.8897890625,-1.9767734375,-5.0810703125
11.21800390625,-4.67130078125,-5.49952734375,7.3049765625,6.508703125,4.10109375,-2.3737734375,-12.651625,6.41763671875,5.747234375,-1.85634375,-13.35251171875,6.493,5.695453125,-0.4718046875,-9.7136015625,-7.30622265625,3.50009765625,0.57998046875,-6.972296875,-8.006796875,-0.69790234375,0.0967656249999989,-5.2768203125,-9.04706640625,-7.49217578125,-2.0633046875,2.2007890625,-0.4177734375,-3.3280703125
11.15100390625,-6.45430078125,-2.66352734375,7.4499765625,8.952703125,6.72309375,0.7362265625,-11.313625,7.54463671875,8.711234375,1.75665625,-10.07851171875,5.906,7.345453125,3.3051953125,-6.0666015625,-5.26422265625,3.75809765625,3.88598046875,-2.408296875,-4.801796875,-1.20790234375,1.727765625,-1.2828203125,-5.34806640625,-4.82117578125,0.6476953125,2.6977890625,1.5842265625,-0.8520703125
8.73000390625,-5.67930078125,0.63947265625,6.2799765625,9.216703125,7.18809375,1.9082265625,-10.729625,7.55963671875,10.481234375,3.86865625,-8.01951171875,5.26,8.016453125,6.0961953125,-3.2486015625,-3.06522265625,3.98609765625,6.36498046875,1.712703125,-1.885796875,-1.41490234375,3.128765625,2.5461796875,-1.26106640625,-2.11017578125,3.6706953125,3.2357890625,3.6912265625,1.9509296875
5.11500390625,-2.93130078125,3.63247265625,3.9009765625,6.967703125,5.38409375,1.1722265625,-10.627625,6.35063671875,10.606234375,4.30865625,-6.98451171875,4.497,7.544453125,7.5321953125,-1.1906015625,-1.60722265625,4.05709765625,7.77398046875,4.918703125,0.474203125000001,-1.43290234375,4.078765625,5.7331796875,2.54093359375,0.24682421875,6.5686953125,3.5787890625,5.3582265625,4.3769296875
1.85900390625,0.85569921875,5.57147265625,0.876976562499999,3.038703125,2.30209375,-0.4067734375,-10.107625,4.31763671875,9.372234375,3.69465625,-6.17951171875,3.504,6.205453125,7.8221953125,0.646398437499999,-1.40322265625,3.92409765625,8.24798046875,7.187703125,2.289203125,-1.36990234375,4.537765625,8.0531796875,5.57793359375,1.93582421875,8.9216953125,3.6127890625,6.1552265625,5.7529296875
0.21700390625,4.61869921875,6.08647265625,-1.9810234375,-0.975296875000001,-0.459906250000001,-1.2997734375,-8.189625,2.18763671875,7.636234375,3.10065625,-4.87151171875,2.207,4.622453125,7.5961953125,2.9403984375,-2.29622265625,3.67609765625,8.21898046875,8.843703125,3.728203125,-1.22790234375,4.678765625,9.5551796875,7.67393359375,2.77982421875,10.4956953125,3.4357890625,6.0132265625,5.7919296875
0.71400390625,7.31469921875,5.35947265625,-3.9430234375,-3.533296875,-1.53690625,-0.3297734375,-4.472625,0.671636718749999,6.348234375,3.47165625,-2.92851171875,0.542,3.455453125,7.5291953125,6.0573984375,-3.47122265625,3.45909765625,8.15698046875,10.269703125,4.925203125,-0.96990234375,4.748765625,10.4261796875,8.90893359375,2.82082421875,11.2576953125,3.2357890625,5.2032265625,4.7249296875
3.06600390625,8.22769921875,4.00847265625,-4.6450234375,-3.859296875,-0.456906250000001,2.7282265625,0.547375000000001,0.15063671875,6.087234375,5.12765625,-0.88351171875,-1.592,3.071453125,7.9811953125,9.7413984375,-3.78322265625,3.32609765625,8.30698046875,11.611703125,5.853203125,-0.65290234375,4.871765625,10.8101796875,9.46293359375,2.35282421875,11.3026953125,3.0957890625,4.1082265625,3.1429296875
6.36500390625,7.38769921875,2.74647265625,-4.1640234375,-2.172296875,2.26209375,7.0672265625,5.684375,0.572636718749999,6.874234375,7.65665625,0.55048828125,-4.245,3.424453125,8.8761953125,13.1533984375,-2.34522265625,3.18609765625,8.59498046875,12.697703125,6.387203125,-0.46990234375,4.974765625,10.7281796875,9.48393359375,1.84782421875,10.7556953125,2.9217890625,3.0092265625,1.6829296875
9.45400390625,5.72469921875,2.03847265625,-2.8610234375,0.625703124999999,5.54109375,11.3332265625,9.665375,1.57963671875,8.302234375,10.20065625,1.15248828125,-7.179,4.179453125,9.8381953125,15.2413984375,0.96477734375,2.89609765625,8.75098046875,13.194703125,6.460203125,-0.62590234375,4.878765625,10.1491796875,9.05093359375,1.76982421875,9.7536953125,2.5547890625,2.0232265625,0.7769296875
11.44100390625,4.61869921875,1.95847265625,-1.1270234375,3.491703125,8.36209375,14.3482265625,11.769375,2.75563671875,9.833234375,11.94365625,1.49848828125,-9.692,4.974453125,10.4641953125,15.2633984375,5.38877734375,2.42209765625,8.54398046875,12.868703125,6.181203125,-1.16390234375,4.467765625,9.1081796875,8.22293359375,2.36382421875,8.4586953125,1.9547890625,1.1902265625,0.5579296875
11.98200390625,4.98969921875,2.29647265625,0.772976562499999,5.693703125,10.16109375,15.6222265625,12.103375,3.79963671875,11.030234375,12.48465625,2.54248828125,-10.772,5.589453125,10.5291953125,13.1873984375,9.68377734375,1.91209765625,7.93498046875,11.760703125,5.773203125,-1.89190234375,3.785765625,7.7561796875,7.08293359375,3.53282421875,7.0546953125,1.2807890625,0.5442265625,0.8999296875
11.11300390625,6.62569921875,2.79147265625,2.6189765625,6.941703125,10.84209375,15.3592265625,11.307375,4.53463671875,11.640234375,11.92565625,4.74548828125,-9.64,5.961453125,10.0241953125,9.7763984375,12.72077734375,1.60609765625,7.06598046875,10.173703125,5.390203125,-2.49890234375,2.993765625,6.3051796875,5.71093359375,4.84482421875,5.6966953125,0.776789062499999,0.1162265625,1.4949296875
8.86200390625,8.34669921875,3.26647265625,4.0789765625,7.243703125,10.51809375,14.0492265625,9.968375,4.80563671875,11.549234375,10.67265625,7.49948828125,-6.347,6.051453125,9.0491953125,6.2433984375,13.91977734375,1.63209765625,6.10098046875,8.484703125,4.975203125,-2.77590234375,2.220765625,4.8961796875,4.12993359375,5.70682421875,4.4346953125,0.580789062499999,-0.1317734375,1.9589296875
5.25900390625,8.88669921875,3.62647265625,4.7269765625,6.713703125,9.28309375,12.0632265625,8.291375,4.45463671875,10.727234375,9.11465625,9.42248828125,-1.942,5.743453125,7.6831953125,3.6293984375,13.34277734375,1.86609765625,5.06298046875,6.925703125,4.310203125,-2.74590234375,1.460765625,3.5261796875,2.30793359375,5.63882421875,3.2136953125,0.6297890625,-0.3077734375,1.9829296875
0.77900390625,7.72269921875,3.78047265625,4.2979765625,5.512703125,7.20909375,9.5412265625,6.257375,3.43463671875,9.243234375,7.42965625,9.31848828125,2.003,4.864453125,5.9571953125,2.2993984375,11.49277734375,1.98409765625,3.80998046875,5.488703125,3.211203125,-2.61890234375,0.594765624999999,2.0841796875,0.24793359375,4.52582421875,1.9656953125,0.744789062499999,-0.4897734375,1.5159296875
-3.38599609375,5.23569921875,3.61047265625,2.9479765625,3.901703125,4.52709375,6.5972265625,4.016375,1.91963671875,7.317234375,5.62765625,7.01048828125,4.216,3.322453125,3.9341953125,1.9043984375,9.00077734375,1.68209765625,2.15398046875,4.016703125,1.736203125,-2.59790234375,-0.469234375000001,0.4861796875,-1.89706640625,2.68682421875,0.725695312500001,0.830789062499999,-0.6137734375,0.8279296875
-5.77399609375,2.25269921875,3.01847265625,1.2309765625,2.236703125,1.72809375,3.5242265625,2.018375,0.25863671875,5.290234375,3.71865625,3.42348828125,4.312,1.218453125,1.7841953125,1.7613984375,6.31877734375,0.86309765625,0.0359804687499992,2.373703125,0.198203125000001,-2.74090234375,-1.678234375,-1.2278203125,-3.84106640625,0.708824218749999,-0.3423046875,0.970789062499999,-0.4937734375,0.352929687500001
-5.53599609375,-0.55730078125,1.97547265625,-0.2300234375,0.798703125,-0.612906250000001,0.7652265625,0.720375000000001,-1.21936328125,3.462234375,1.80365625,-0.10451171875,2.783,-1.181546875,-0.2748046875,1.3163984375,3.54277734375,-0.33590234375,-2.42201953125,0.514703125,-1.049796875,-2.96290234375,-2.866234375,-2.9318203125,-5.31806640625,-0.863175781250001,-1.0783046875,1.3107890625,-0.0187734375000002,0.3779296875
-3.03399609375,-3.02030078125,0.51847265625,-1.1330234375,-0.396296875,-2.17790625,-1.3547734375,0.131375000000001,-2.38636328125,1.906234375,-0.0173437500000002,-2.69051171875,0.483,-3.582546875,-2.1328046875,0.333398437499999,0.46877734375,-1.68790234375,-4.99201953125,-1.570296875,-1.903796875,-3.19090234375,-3.906234375,-4.5518203125,-6.28206640625,-1.78817578125,-1.4903046875,1.8147890625,0.6202265625,0.8009296875
0.31600390625,-5.37630078125,-1.27552734375,-1.6650234375,-1.592296875,-3.11490625,-2.8577734375,-0.339624999999999,-3.33136328125,0.429234375,-1.77734375,-4.33351171875,-1.934,-5.765546875,-3.8818046875,-1.2156015625,-3.12422265625,-3.03390234375,-7.44601953125,-3.944296875,-2.644796875,-3.48890234375,-4.812234375,-6.1508203125,-6.98206640625,-2.19617578125,-1.8123046875,2.1297890625,0.9172265625,1.1759296875
2.84500390625,-7.83530078125,-3.28352734375,-2.3170234375,-3.023296875,-3.89790625,-4.1037734375,-1.519625,-4.19836328125,-1.218765625,-3.62934375,-5.64851171875,-4.242,-7.557546875,-5.7178046875,-3.3296015625,-7.08322265625,-4.29290234375,-9.56001953125,-6.679296875,-3.732796875,-4.01690234375,-5.667234375,-7.8388203125,-7.79506640625,-2.40417578125,-2.3303046875,1.7577890625,0.3532265625,1.0209296875
3.59600390625,-10.13430078125,-5.27852734375,-3.4670234375,-4.595296875,-4.92290625,-5.4817734375,-3.814625,-4.96436328125,-3.043765625,-5.65734375,-7.21751171875,-6.459,-8.718546875,-7.6838046875,-5.9506015625,-10.69622265625,-5.34390234375,-11.03101953125,-9.666296875,-5.409796875,-4.82690234375,-6.410234375,-9.5348203125,-8.90306640625,-2.63217578125,-3.1003046875,0.469789062499999,-1.1667734375,0.2139296875
2.86600390625,-11.48430078125,-6.91852734375,-5.0340234375,-5.803296875,-6.14690625,-7.0577734375,-6.798625,-5.35636328125,-4.637765625,-7.65634375,-9.08151171875,-8.498,-8.907546875,-9.4728046875,-8.7656015625,-12.88022265625,-5.90790234375,-11.42701953125,-12.439296875,-7.386796875,-5.67490234375,-6.701234375,-10.8138203125,-10.02706640625,-2.81417578125,-3.7713046875,-1.3662109375,-3.0687734375,-0.8200703125
1.90400390625,-11.06230078125,-7.83852734375,-6.4790234375,-5.990296875,-7.04390625,-8.4567734375,-9.374625,-4.99036328125,-5.326765625,-9.10534375,-10.69651171875,-9.962,-7.807546875,-10.4798046875,-11.1006015625,-12.68822265625,-5.61590234375,-10.31301953125,-14.221296875,-8.908796875,-6.05790234375,-6.028234375,-10.9968203125,-10.47906640625,-2.64317578125,-3.6923046875,-2.8592109375,-4.3137734375,-1.2830703125
1.93700390625,-8.65630078125,-7.82952734375,-7.1580234375,-4.770296875,-6.87490625,-9.0597734375,-10.423625,-3.67736328125,-4.547765625,-9.39534375,-11.26451171875,-10.258,-5.372546875,-10.1098046875,-12.1366015625,-9.80522265625,-4.25190234375,-7.52101953125,-14.236296875,-9.156796875,-5.51090234375,-4.035234375,-9.5038203125,-9.52606640625,-1.80217578125,-2.2813046875,-3.0752109375,-3.9567734375,-0.4510703125
3.24100390625,-4.94330078125,-6.97152734375,-6.7550234375,-2.307296875,-5.11690625,-8.3657734375,-9.430625,-1.64836328125,-2.208765625,-8.16334375,-10.13751171875,-8.959,-1.996546875,-8.1298046875,-11.3406015625,-4.78722265625,-2.00390234375,-3.37401953125,-12.117296875,-7.703796875,-3.96190234375,-0.841234375000001,-6.2288203125,-6.84306640625,-0.18617578125,0.5766953125,-1.6182109375,-1.7117734375,1.8749296875
4.99700390625,-1.14430078125,-5.59652734375,-5.4700234375,0.726703124999999,-1.80990625,-6.2687734375,-6.714625,0.50463671875,1.206234375,-5.51734375,-7.10851171875,-6.175,1.555453125,-4.8318046875,-8.7756015625,1.07977734375,0.50909765625,1.33198046875,-8.128296875,-4.743796875,-1.86290234375,2.880765625,-1.6948203125,-2.74706640625,1.99782421875,4.3716953125,1.0997890625,1.8202265625,5.1839296875
5.92100390625,1.66069921875,-4.10152734375,-3.8690234375,3.474703125,2.37109375,-3.1387734375,-3.187625,2.12463671875,4.841234375,-2.02234375,-2.54151171875,-2.664,4.439453125,-0.9158046875,-5.0446015625,6.25977734375,2.47909765625,5.60898046875,-3.085296875,-0.973796875,0.01909765625,6.157765625,3.1181796875,1.90993359375,4.29082421875,8.1446953125,4.0527890625,5.4122265625,8.4579296875
5.15000390625,3.05069921875,-2.73152734375,-2.5830234375,5.268703125,6.36209375,0.3112265625,0.117375000000001,2.80763671875,7.846234375,1.55965625,2.63748828125,0.461,6.085453125,2.8271953125,-0.9566015625,9.57577734375,3.29909765625,8.68998046875,1.984703125,2.735203125,1.00609765625,8.156765625,7.1871796875,6.11693359375,6.17382421875,10.9166953125,6.1247890625,7.8082265625,10.6499296875
2.73800390625,3.31469921875,-1.46452734375,-2.0570234375,5.872703125,9.17609375,3.3032265625,2.473375,2.55163671875,9.718234375,4.59765625,7.15948828125,2.247,6.419453125,5.8291953125,2.8363984375,10.67577734375,2.86709765625,10.32098046875,6.246703125,5.711203125,0.85209765625,8.559765625,9.8641796875,9.11593359375,7.29982421875,12.1286953125,6.6517890625,8.3302265625,11.2009296875
-0.42899609375,3.08969921875,-0.0875273437500002,-2.4380234375,5.493703125,10.31909375,5.2932265625,3.706375,1.70263671875,10.436234375,6.81065625,9.89248828125,2.329,5.826453125,7.9111953125,6.0163984375,10.07377734375,1.61809765625,10.78098046875,9.303703125,7.686203125,-0.15590234375,7.672765625,11.0791796875,10.65793359375,7.65782421875,11.8606953125,5.7177890625,7.1862265625,10.3079296875
-3.16099609375,2.93469921875,1.58147265625,-3.5960234375,4.589703125,9.92809375,6.1052265625,4.174375,0.74663671875,10.341234375,8.23765625,10.38748828125,0.987,4.910453125,9.2131953125,8.5333984375,8.75677734375,0.279097656249999,10.64698046875,11.198703125,8.751203125,-1.37590234375,6.216765625,11.2421796875,10.96693359375,7.55582421875,10.7206953125,4.0617890625,5.2982265625,8.7819296875
-4.57899609375,3.11969921875,3.47147265625,-5.2000234375,3.610703125,8.58009375,5.8582265625,4.462375,0.0786367187499994,9.878234375,9.02265625,9.15348828125,-1.147,4.188453125,9.9811953125,10.3983984375,7.59877734375,-0.491902343750001,10.45798046875,12.202703125,9.151203125,-2.13790234375,4.962765625,10.9311796875,10.50393359375,7.41682421875,9.4936953125,2.6717890625,3.7682265625,7.5709296875
-4.43399609375,3.66269921875,5.19047265625,-6.8210234375,2.824703125,6.94709375,4.8072265625,4.967375,-0.142363281250001,9.377234375,9.23865625,7.41748828125,-3.482,3.918453125,10.3901953125,11.5523984375,6.94377734375,-0.38990234375,10.48798046875,12.591703125,9.100203125,-2.04990234375,4.401765625,10.5841796875,9.69893359375,7.50482421875,8.7506953125,2.2807890625,3.3062265625,7.2549296875
-2.99499609375,4.48869921875,6.19847265625,-8.0050234375,2.301703125,5.54009375,3.2882265625,5.684375,0.0236367187499997,8.983234375,8.89265625,6.48348828125,-5.678,4.093453125,10.5091953125,11.9273984375,6.57577734375,0.47809765625,10.73098046875,12.552703125,8.728203125,-1.12290234375,4.616765625,10.3591796875,8.82393359375,7.76982421875,8.6416953125,3.0397890625,3.9412265625,7.8219296875
-0.70599609375,5.52569921875,6.12547265625,-8.3230234375,2.018703125,4.64509375,1.7812265625,6.335375,0.46263671875,8.727234375,8.09865625,7.09648828125,-7.597,4.566453125,10.3871953125,11.6363984375,6.04577734375,1.73409765625,11.04398046875,12.238703125,8.170203125,0.31009765625,5.372765625,10.2141796875,8.04293359375,7.92582421875,8.9436953125,4.5157890625,5.1332265625,8.8149296875
2.04300390625,6.64769921875,5.02747265625,-7.4670234375,1.979703125,4.39809375,0.8992265625,6.690375,1.14063671875,8.630234375,7.20365625,9.18348828125,-9.102,5.184453125,10.1491953125,11.0883984375,5.13877734375,2.96609765625,11.32598046875,11.857703125,7.640203125,1.79709765625,6.317765625,10.0731796875,7.49793359375,7.70182421875,9.2846953125,5.9747890625,6.1632265625,9.6979296875
4.94800390625,7.53269921875,3.40347265625,-5.3890234375,2.238703125,4.83509375,1.1822265625,6.755375,2.10063671875,8.741234375,6.70165625,12.06748828125,-9.927,5.859453125,9.9881953125,10.8553984375,4.15577734375,3.90109765625,11.59298046875,11.658703125,7.399203125,2.96209765625,7.171765625,9.9491796875,7.32993359375,7.07182421875,9.3766953125,6.7557890625,6.5202265625,10.1489296875
7.74000390625,7.65869921875,1.95847265625,-2.4080234375,2.828703125,5.88609375,2.7842265625,6.748375,3.32763671875,9.077234375,6.95865625,14.89548828125,-9.739,6.533453125,10.0731953125,11.3313984375,3.81277734375,4.44109765625,11.92298046875,11.807703125,7.621203125,3.59909765625,7.799765625,9.9281796875,7.59593359375,6.28982421875,9.1406953125,6.5517890625,6.0942265625,10.1129296875
10.18800390625,6.60069921875,1.27647265625,0.8519765625,3.671703125,7.32109375,5.3292265625,6.956375,4.63863671875,9.554234375,7.97065625,16.97548828125,-8.368,7.106453125,10.4301953125,12.4443984375,4.82677734375,4.59409765625,12.32998046875,12.258703125,8.281203125,3.67309765625,8.151765625,10.0591796875,8.18793359375,5.72282421875,8.6786953125,5.4677890625,5.1302265625,9.6899296875
12.03900390625,4.49269921875,1.59147265625,3.6459765625,4.596703125,8.77909375,8.0692265625,7.588375,5.68563671875,9.984234375,9.33865625,17.93048828125,-6.023,7.396453125,10.9141953125,13.6293984375,7.43077734375,4.36009765625,12.67398046875,12.733703125,9.165203125,3.24009765625,8.171765625,10.2571796875,8.81993359375,5.62582421875,8.1536953125,3.8987890625,4.0102265625,8.9789296875
12.88700390625,2.30369921875,2.70747265625,5.3499765625,5.447703125,9.92509375,10.2412265625,8.662375,6.09563671875,10.179234375,10.50865625,17.70948828125,-3.317,7.188453125,11.2861953125,14.1383984375,11.12377734375,3.69109765625,12.67098046875,12.848703125,9.974203125,2.37309765625,7.747765625,10.2961796875,9.10693359375,5.99582421875,7.6476953125,2.2867890625,3.0212265625,7.9989296875
12.19900390625,1.52969921875,4.10247265625,5.6709765625,6.209703125,10.62909375,11.4122265625,9.980375,5.68663671875,10.086234375,11.08765625,16.53048828125,-1.055,6.355453125,11.3371953125,13.4813984375,14.78877734375,2.54409765625,12.02298046875,12.312703125,10.456203125,1.15209765625,6.767765625,9.8971796875,8.71693359375,6.57082421875,7.1056953125,0.9037890625,2.2202265625,6.7179296875
9.70100390625,3.31369921875,5.14547265625,4.7839765625,6.997703125,11.01809375,11.5932265625,11.208375,4.63163671875,9.839234375,11.02465625,14.72948828125,0.139,4.961453125,10.9841953125,11.7033984375,17.14177734375,0.997097656249999,10.56398046875,11.062703125,10.461203125,-0.28590234375,5.228765625,8.8771796875,7.51893359375,6.94482421875,6.3816953125,-0.225210937500001,1.4752265625,5.1549296875
5.83300390625,7.46769921875,5.39647265625,3.2829765625,7.882703125,11.29309375,11.0862265625,11.972375,3.41463671875,9.644234375,10.52765625,12.56448828125,0.14,3.259453125,10.2581953125,9.3093984375,17.28577734375,-0.68290234375,8.33698046875,9.260703125,9.911203125,-1.70790234375,3.307765625,7.2321796875,5.64393359375,6.74682421875,5.3646953125,-1.2442109375,0.6252265625,3.4709296875
1.73600390625,12.14869921875,4.82747265625,1.8749765625,8.666703125,11.44009375,10.1552265625,11.892375,2.54463671875,9.573234375,9.81965625,10.13248828125,-0.636,1.546453125,9.2161953125,6.9523984375,15.08477734375,-2.11890234375,5.54998046875,7.157703125,8.754203125,-2.83090234375,1.321765625,5.1231796875,3.40593359375,5.79182421875,4.0766953125,-2.3202109375,-0.3637734375,1.9549296875
-1.38999609375,14.63169921875,3.84847265625,0.9499765625,8.830703125,11.08109375,8.8042265625,10.631375,2.19063671875,9.413234375,8.92565625,7.47448828125,-1.516,-0.00654687499999973,7.8471953125,5.1103984375,11.19777734375,-3.03190234375,2.46898046875,4.935703125,6.974203125,-3.45690234375,-0.416234375000001,2.7781796875,1.13793359375,4.17182421875,2.6676953125,-3.5212109375,-1.3587734375,0.9079296875
-3.09799609375,12.83869921875,3.07347265625,0.3599765625,7.772703125,9.67609375,6.8532265625,8.134375,2.05963671875,8.736234375,7.67565625,4.77348828125,-2.015,-1.434546875,6.0721953125,3.9243984375,6.79677734375,-3.41690234375,-0.678019531250001,2.651703125,4.672203125,-3.58990234375,-1.741234375,0.3901796875,-0.92406640625,2.23982421875,1.3116953125,-4.7922109375,-2.1687734375,0.4789296875
-3.96799609375,6.67969921875,2.94247265625,-0.3640234375,5.267703125,6.97709375,4.2782265625,4.907375,1.63563671875,7.197234375,5.91165625,2.45148828125,-2.15,-2.881546875,3.8461953125,3.2423984375,3.10377734375,-3.55290234375,-3.69601953125,0.304703125000001,2.155203125,-3.44690234375,-2.687234375,-1.9028203125,-2.65406640625,0.469824218749999,0.1006953125,-6.0082109375,-2.6917734375,0.5829296875
-5.13399609375,-1.73130078125,3.42547265625,-1.5420234375,1.777703125,3.38209375,1.4652265625,2.003375,0.586636718749999,4.831234375,3.71365625,1.02148828125,-2.403,-4.398546875,1.2831953125,2.7593984375,0.93177734375,-3.81390234375,-6.36601953125,-2.047296875,-0.0867968749999992,-3.34190234375,-3.392234375,-3.9638203125,-3.95806640625,-0.738175781250001,-0.9783046875,-7.0412109375,-2.9777734375,0.953929687500001
-7.39299609375,-9.21730078125,4.00547265625,-3.0170234375,-1.663296875,-0.143906250000001,-0.9077734375,0.532375,-0.967363281250001,2.122234375,1.42865625,0.81848828125,-3.346,-5.817546875,-1.3218046875,2.1543984375,0.42477734375,-4.42790234375,-8.40301953125,-4.231296875,-1.557796875,-3.49990234375,-3.943234375,-5.5908203125,-4.73606640625,-1.21017578125,-1.9613046875,-7.7772109375,-3.1507734375,1.2979296875
-10.54799609375,-13.25730078125,3.98347265625,-4.2560234375,-3.978296875,-2.57690625,-2.2947734375,1.031375,-2.53636328125,-0.223765624999999,-0.52134375,1.77248828125,-5.168,-6.791546875,-3.5948046875,1.1973984375,1.14577734375,-5.31990234375,-9.49301953125,-5.992296875,-1.980796875,-3.90290234375,-4.271234375,-6.5238203125,-4.90006640625,-1.01617578125,-2.7893046875,-8.0912109375,-3.2447734375,1.4769296875
-13.45099609375,-13.14730078125,2.92947265625,-4.7380234375,-4.629296875,-3.39690625,-2.6247734375,3.138375,-3.57336328125,-1.631765625,-1.86434375,3.39848828125,-7.404,-6.987546875,-5.2318046875,-0.139601562500001,2.44677734375,-6.13890234375,-9.41001953125,-7.090296875,-1.407796875,-4.24790234375,-4.165234375,-6.5228203125,-4.41506640625,-0.344175781250001,-3.2533046875,-7.8102109375,-3.1107734375,1.5919296875
-14.74799609375,-9.91530078125,0.99247265625,-4.3080234375,-3.837296875,-2.79290625,-2.2887734375,5.790375,-3.79336328125,-1.879765625,-2.54634375,4.99748828125,-9.074,-6.268546875,-6.0728046875,-1.5796015625,3.85477734375,-6.41590234375,-8.10501953125,-7.341296875,-0.127796875,-4.08290234375,-3.389234375,-5.4568203125,-3.31406640625,0.660824218749999,-3.0503046875,-6.7462109375,-2.4617734375,1.9379296875
-13.78599609375,-5.32130078125,-1.13852734375,-3.2460234375,-2.324296875,-1.40490625,-1.7887734375,7.775375,-3.27936328125,-1.089765625,-2.60134375,5.97748828125,-9.192,-4.732546875,-6.0558046875,-2.5216015625,5.20177734375,-5.77890234375,-5.71101953125,-6.608296875,1.556203125,-3.04290234375,-1.804234375,-3.3448203125,-1.66106640625,1.97182421875,-1.9113046875,-4.7912109375,-1.0377734375,2.8139296875
-11.00699609375,-0.84330078125,-2.58552734375,-2.0610234375,-0.819296875,0.138093749999999,-1.3477734375,8.335375,-2.37536328125,0.440234375000001,-1.97034375,6.16048828125,-7.359,-2.640546875,-5.1438046875,-2.2306015625,6.48677734375,-4.12690234375,-2.50001953125,-4.794296875,3.490203125,-1.08290234375,0.529765624999999,-0.3498203125,0.491933593750001,3.62782421875,0.2366953125,-2.0432109375,1.2002265625,4.3159296875
-7.60299609375,2.67969921875,-2.70252734375,-1.2060234375,0.313703125,1.52909375,-0.7747734375,7.540375,-1.44836328125,2.391234375,-0.493343750000001,5.86548828125,-4.085,-0.304546875,-3.3298046875,-0.190601562500001,7.67077734375,-1.71090234375,1.16598046875,-1.899296875,5.683203125,1.43609765625,3.336765625,3.2291796875,3.09893359375,5.60782421875,3.1696953125,1.1387890625,3.9762265625,6.2269296875
-4.79399609375,4.82069921875,-1.32752734375,-0.9000234375,1.125703125,2.76209375,0.3222265625,6.232375,-0.71636328125,4.481234375,1.91365625,5.73248828125,-0.56,1.980453125,-0.7288046875,3.5393984375,8.63677734375,0.933097656249999,4.86898046875,1.873703125,8.165203125,3.87909765625,6.172765625,6.9801796875,6.06793359375,7.73682421875,6.3876953125,4.2107890625,6.7632265625,8.0929296875
-3.25899609375,5.33569921875,1.19947265625,-1.1220234375,1.846703125,3.90209375,2.1382265625,5.539375,-0.22636328125,6.436234375,5.01965625,6.37148828125,1.998,3.965453125,2.3401953125,8.1933984375,9.33877734375,3.18409765625,8.17998046875,6.061703125,10.810203125,5.61909765625,8.568765625,10.4341796875,9.18193359375,9.69382421875,9.2546953125,6.6107890625,8.9872265625,9.4359296875
-2.97899609375,4.30269921875,4.18247265625,-1.7090234375,2.596703125,4.87809375,4.3622265625,6.205375,0.0556367187499998,7.967234375,8.18165625,8.03848828125,2.981,5.455453125,5.3491953125,12.4993984375,9.94377734375,4.56409765625,10.72698046875,9.988703125,13.248203125,6.30009765625,10.166765625,13.1491796875,12.06193359375,11.12182421875,11.2036953125,7.9197890625,10.2152265625,9.9429296875
-3.39099609375,2.41769921875,6.78047265625,-2.4660234375,3.249703125,5.44309375,6.2212265625,8.170375,0.14163671875,8.811234375,10.51665625,10.49248828125,2.592,6.325453125,7.7141953125,15.1723984375,10.75377734375,4.88309765625,12.26898046875,12.946703125,14.938203125,5.94309765625,10.804765625,14.8131796875,14.22493359375,11.78282421875,11.9186953125,7.9487890625,10.2642265625,9.5659296875
-3.70199609375,0.93869921875,8.28047265625,-3.2110234375,3.543703125,5.36709375,6.9052265625,10.630375,0.0286367187499996,8.851234375,11.31665625,13.10248828125,1.521,6.556453125,9.0281953125,15.5153984375,11.92377734375,4.27309765625,12.78398046875,14.459703125,15.417203125,4.87209765625,10.546765625,15.3411796875,15.27893359375,11.67882421875,11.4416953125,6.7837890625,9.2352265625,8.4979296875
-3.28299609375,1.12569921875,8.36247265625,-3.7800234375,3.342703125,4.70209375,6.1002265625,12.526375,-0.222363281250001,8.255234375,10.50065625,15.12848828125,0.432,6.303453125,9.2901953125,13.8403984375,13.25977734375,3.12709765625,12.53198046875,14.523703125,14.598203125,3.54909765625,9.668765625,14.9511796875,15.16293359375,11.06982421875,10.1806953125,4.7897890625,7.4902265625,7.0949296875
-1.99399609375,3.53669921875,7.24847265625,-4.0260234375,2.851703125,3.88709375,4.2602265625,13.132375,-0.43136328125,7.504234375,8.76065625,16.05548828125,-0.353,5.918453125,8.9391953125,11.3843984375,14.29577734375,1.98309765625,12.02998046875,13.657703125,12.895203125,2.40509765625,8.609765625,14.1421796875,14.24893359375,10.35982421875,8.7686953125,2.5427890625,5.5562265625,5.7459296875
-0.27299609375,7.61569921875,5.61347265625,-3.8470234375,2.544703125,3.54209375,2.3832265625,12.415375,-0.352363281250001,7.200234375,7.22365625,15.79148828125,-0.844,5.829453125,8.6291953125,9.6623984375,14.59777734375,1.35109765625,11.85498046875,12.657703125,11.042203125,1.71209765625,7.826765625,13.4921796875,13.18593359375,9.89382421875,7.8026953125,0.644789062499999,3.9232265625,4.7229296875
1.10700390625,11.79569921875,4.28747265625,-3.2230234375,2.869703125,4.07809375,1.4432265625,10.985375,0.16663671875,7.735234375,6.83165625,14.64948828125,-1.155,6.308453125,8.8561953125,9.6133984375,13.99777734375,1.51809765625,12.36298046875,12.173703125,9.705203125,1.51309765625,7.609765625,13.3761796875,12.54393359375,9.78282421875,7.5656953125,-0.515210937500001,2.8382265625,4.0769296875
1.49400390625,14.07669921875,3.90447265625,-2.2360234375,3.939703125,5.41509375,1.8612265625,9.698375,1.06963671875,9.057234375,7.85465625,13.15248828125,-1.296,7.306453125,9.7001953125,11.1343984375,12.61777734375,2.42909765625,13.50298046875,12.390703125,9.187203125,1.64509765625,7.955765625,13.7851796875,12.51493359375,9.88582421875,7.9156953125,-0.891210937500001,2.2352265625,3.6519296875
0.68700390625,12.89469921875,4.67847265625,-1.0390234375,5.482703125,7.04709375,3.3332265625,9.170375,2.10863671875,10.716234375,9.85065625,11.77748828125,-1.103,8.492453125,10.8591953125,13.2593984375,10.76677734375,3.74709765625,14.87098046875,13.027703125,9.379203125,1.87309765625,8.618765625,14.3781796875,12.84293359375,9.91582421875,8.4186953125,-0.715210937500001,1.8832265625,3.2049296875
-1.04399609375,7.92569921875,6.39947265625,0.195976562499999,7.045703125,8.35709375,5.0492265625,9.488375,3.01163671875,12.151234375,12.00465625,10.79448828125,-0.322,9.466453125,11.8921953125,14.8203984375,8.83477734375,5.05409765625,15.95298046875,13.592703125,9.927203125,2.07609765625,9.284765625,14.7191796875,13.01393359375,9.60682421875,8.6196953125,-0.279210937500001,1.6192265625,2.5699296875
-3.20799609375,0.43269921875,8.58347265625,1.3399765625,8.283703125,8.93709375,6.1482265625,10.243375,3.66163671875,12.997234375,13.57165625,10.26348828125,1.194,9.979453125,12.4711953125,15.0723984375,7.21877734375,6.05509765625,16.38698046875,13.693703125,10.429203125,2.32709765625,9.740765625,14.5071796875,12.55193359375,8.82082421875,8.2846953125,0.253789062499999,1.4862265625,1.7489296875
-5.37199609375,-7.11430078125,10.65147265625,2.3319765625,9.102703125,8.74609375,6.1402265625,10.787375,4.14863671875,13.226234375,14.17465625,10.15348828125,3.334,10.020453125,12.4901953125,13.9563984375,6.21477734375,6.65509765625,16.06498046875,13.181703125,10.553203125,2.80809765625,9.905765625,13.6601796875,11.22093359375,7.57082421875,7.4436953125,0.861789062499999,1.6302265625,0.8909296875
-7.24999609375,-12.02130078125,12.05147265625,3.1639765625,9.606703125,8.04909375,5.0922265625,10.554375,4.64763671875,13.063234375,13.85465625,10.42048828125,5.687,9.732453125,12.0021953125,11.9093984375,5.88477734375,6.88109765625,15.06598046875,12.096703125,10.053203125,3.59609765625,9.750765625,12.2361796875,9.06093359375,5.95682421875,6.2536953125,1.4957890625,2.0472265625,0.1309296875
-8.54899609375,-12.52230078125,12.32847265625,3.8569765625,9.927703125,7.25009375,3.5312265625,9.345375,5.23363671875,12.785234375,12.94465625,10.94348828125,7.693,9.256453125,11.1031953125,9.5183984375,6.00377734375,6.76309765625,13.50998046875,10.533703125,8.786203125,4.51409765625,9.201765625,10.3151796875,6.29593359375,4.11482421875,4.8246953125,1.8987890625,2.4012265625,-0.5600703125
-8.78199609375,-8.54130078125,11.21447265625,4.4489765625,10.102703125,6.71509375,2.1582265625,7.471375,5.80363671875,12.541234375,11.87165625,11.43948828125,8.88,8.619453125,9.8601953125,7.2543984375,6.16077734375,6.28409765625,11.46298046875,8.557703125,6.755203125,5.18909765625,8.145765625,7.9581796875,3.23593359375,2.20482421875,3.1616953125,1.6507890625,2.1212265625,-1.3810703125
-7.39199609375,-1.66930078125,8.73147265625,4.9729765625,10.087703125,6.65209375,1.4982265625,5.617375,6.14763671875,12.290234375,10.96165625,11.51148828125,9.082,7.735453125,8.3101953125,5.3763984375,5.99477734375,5.43609765625,8.97398046875,6.235703125,4.183203125,5.29909765625,6.548765625,5.2791796875,0.23793359375,0.421824218749999,1.2656953125,0.454789062499999,0.7812265625,-2.5250703125
-4.28999609375,5.61269921875,5.26347265625,5.4059765625,9.826703125,7.04209375,1.6322265625,4.445375,6.09563671875,11.850234375,10.29465625,10.79348828125,8.478,6.518453125,6.4901953125,3.9103984375,5.39277734375,4.30209765625,6.17498046875,3.688703125,1.500203125,4.83309765625,4.591765625,2.5341796875,-2.31606640625,-1.00917578125,-0.7013046875,-1.5102109375,-1.4837734375,-3.9470703125
-0.35599609375,10.99369921875,1.52347265625,5.6249765625,9.304703125,7.63109375,2.1292265625,4.171375,5.61863671875,11.006234375,9.68765625,9.07048828125,7.46,5.003453125,4.4681953125,2.7023984375,4.51077734375,3.09909765625,3.34898046875,1.121703125,-0.797796875,4.14709765625,2.688765625,0.1311796875,-4.08306640625,-1.90717578125,-2.3553046875,-3.5112109375,-3.8717734375,-5.2530703125
2.68400390625,13.12169921875,-1.60952734375,5.4689765625,8.550703125,8.02509375,2.2892265625,4.466375,4.86963671875,9.649234375,8.83065625,6.33748828125,6.414,3.406453125,2.3861953125,1.5843984375,3.60177734375,2.11809765625,0.898980468749999,-1.191296875,-2.318796875,3.77409765625,1.343765625,-1.4978203125,-4.84206640625,-2.19617578125,-3.2183046875,-4.5852109375,-5.2627734375,-5.8310703125
3.12800390625,11.88069921875,-3.35552734375,4.9049765625,7.650703125,7.90209375,1.6012265625,4.775375,4.15163671875,7.895234375,7.54865625,2.92848828125,5.568,2.082453125,0.493195312499999,0.591398437499999,2.83377734375,1.61809765625,-0.768019531250001,-2.941296875,-2.876796875,4.10009765625,0.919765624999999,-2.0678203125,-4.54506640625,-1.92017578125,-2.9583046875,-4.1062109375,-4.8247734375,-5.1500703125
0.35300390625,8.24269921875,-3.35652734375,4.1379765625,6.806703125,7.24709375,0.1082265625,4.760375,3.80363671875,6.117234375,5.97965625,-0.35951171875,4.969,1.391453125,-0.8778046875,0.0103984374999992,2.20977734375,1.71109765625,-1.39001953125,-3.858296875,-2.472796875,5.12309765625,1.462765625,-1.5778203125,-3.33306640625,-1.19917578125,-1.5953046875,-2.1692109375,-2.4757734375,-3.0510703125
-4.69599609375,3.79669921875,-1.88252734375,3.4959765625,6.299703125,6.38109375,-1.6047734375,4.499375,4.01163671875,4.820234375,4.52365625,-2.39051171875,4.565,1.512453125,-1.4598046875,0.145398437499999,1.63677734375,2.29509765625,-0.971019531250001,-3.837296875,-1.248796875,6.44209765625,2.691765625,-0.3318203125,-1.52706640625,-0.17817578125,0.4546953125,0.458789062499999,1.0742265625,0.1289296875
-9.93099609375,0.0576992187499998,0.23747265625,3.1749765625,6.324703125,5.72809375,-2.8177734375,4.319375,4.64463671875,4.352234375,3.56165625,-2.23151171875,4.285,2.306453125,-1.2248046875,0.989398437499999,1.01477734375,3.07509765625,0.194980468749998,-3.042296875,0.500203125000001,7.46309765625,4.127765625,1.1641796875,0.40893359375,0.992824218749999,2.5446953125,2.7877890625,4.6882265625,3.6389296875
-13.20499609375,-2.23430078125,1.99347265625,3.0229765625,6.746703125,5.45609375,-3.1517734375,4.446375,5.23163671875,4.663234375,3.20165625,0.15748828125,4.064,3.305453125,-0.4648046875,2.1113984375,0.27977734375,3.66509765625,1.60498046875,-1.891296875,2.318203125,7.70609765625,5.293765625,2.3841796875,1.97193359375,2.12882421875,4.0616953125,4.1227890625,7.3012265625,6.5609296875
-13.41899609375,-3.41630078125,2.68847265625,2.5809765625,7.030703125,5.32609375,-2.7847734375,4.793375,5.15863671875,5.273234375,3.22565625,3.67048828125,3.787,3.904453125,0.330195312500001,2.9013984375,-0.56222265625,3.75609765625,2.75298046875,-0.874296874999999,3.661203125,7.04009765625,5.895765625,2.9951796875,2.77293359375,3.00782421875,4.6716953125,4.3517890625,8.3042265625,8.1149296875
-10.99999609375,-4.55930078125,2.24947265625,1.3559765625,6.506703125,4.88609375,-2.2707734375,5.013375,3.99363671875,5.541234375,3.29165625,6.58648828125,3.258,3.665453125,0.740195312500001,2.9523984375,-1.34222265625,3.25509765625,3.35298046875,-0.310296874999999,4.131203125,5.72209765625,5.903765625,3.0081796875,2.69593359375,3.45582421875,4.4316953125,3.8657890625,7.7002265625,7.9579296875
-7.49399609375,-6.62230078125,1.15747265625,-0.8350234375,4.825703125,3.87709375,-2.1187734375,4.797375,1.76463671875,5.061234375,3.19065625,7.59548828125,2.26,2.562453125,0.6421953125,2.2953984375,-1.63422265625,2.32109765625,3.45298046875,-0.181296874999999,3.709203125,4.24009765625,5.527765625,2.7651796875,1.96493359375,3.49682421875,3.7136953125,3.2407890625,6.0172265625,6.3479296875
-4.59899609375,-9.63730078125,0.0974726562499999,-3.6690234375,2.281703125,2.49509375,-2.4487734375,4.191375,-0.98136328125,3.909234375,2.98365625,6.59548828125,0.706,0.996453125,0.2501953125,1.3613984375,-0.85322265625,1.27609765625,3.35598046875,-0.165296874999999,2.829203125,3.04009765625,5.074765625,2.7511796875,1.07493359375,3.41482421875,2.9846953125,2.8707890625,4.0292265625,4.0369296875
-3.34399609375,-12.46730078125,-0.45752734375,-6.4110234375,-0.260296875,1.31809375,-2.9327734375,3.670375,-3.39636328125,2.596234375,2.94165625,4.68548828125,-1.196,-0.418546875,-0.0448046875000001,0.747398437499999,1.38077734375,0.43709765625,3.41898046875,0.168703125,2.163203125,2.33009765625,4.777765625,3.3261796875,0.57093359375,3.62382421875,2.5686953125,2.7627890625,2.3922265625,1.9189296875
-3.88399609375,-13.36030078125,-0.44852734375,-8.2310234375,-1.809296875,0.944093749999999,-3.0547734375,3.864375,-4.70636328125,1.745234375,3.36065625,3.40048828125,-2.918,-1.162546875,0.0781953125000001,0.968398437499999,4.82277734375,-0.0149023437500002,3.84698046875,1.106703125,2.271203125,2.04409765625,4.704765625,4.5231796875,0.786933593750001,4.38982421875,2.5166953125,2.6147890625,1.3922265625,0.6069296875
-5.78899609375,-11.06530078125,-0.16052734375,-8.5620234375,-1.787296875,1.59509375,-2.4977734375,5.094375,-4.54036328125,1.728234375,4.35365625,3.73448828125,-3.787,-1.041546875,0.689195312500001,2.2753984375,8.47477734375,-0.0629023437500003,4.61598046875,2.646703125,3.308203125,1.97409765625,4.772765625,6.0421796875,1.69393359375,5.61082421875,2.6566953125,2.1007890625,0.9412265625,0.2029296875
-8.41299609375,-5.83330078125,0.0424726562500002,-7.3220234375,-0.333296875,2.92509375,-1.4057734375,7.071375,-3.03936328125,2.459234375,5.73265625,5.61948828125,-3.335,-0.232546875,1.5741953125,4.5573984375,10.91377734375,0.17909765625,5.52298046875,4.490703125,4.980203125,1.94509765625,4.839765625,7.4041796875,2.93493359375,6.82782421875,2.7576953125,1.1707890625,0.7792265625,0.3779296875
-11.12099609375,0.44469921875,-0.0215273437499999,-4.9180234375,1.799703125,4.20309375,-0.3027734375,9.009375,-0.743363281250001,3.483234375,7.06365625,8.15148828125,-1.618,0.837453125000001,2.3611953125,7.3483984375,10.97377734375,0.53809765625,6.29698046875,6.173703125,6.734203125,1.90609765625,4.777765625,8.1761796875,4.01893359375,7.46982421875,2.6756953125,0.125789062499999,0.7182265625,0.6699296875
-13.36999609375,5.23369921875,-0.26652734375,-2.0610234375,3.719703125,4.79109375,0.3212265625,10.106375,1.66863671875,4.296234375,7.91565625,10.27348828125,0.739,1.734453125,2.7441953125,9.9753984375,8.42177734375,0.840097656249999,6.73098046875,7.252703125,8.042203125,1.90709765625,4.529765625,8.1491796875,4.55693359375,7.19182421875,2.4016953125,-0.579210937500001,0.7552265625,0.7829296875
-14.66999609375,6.87269921875,-0.44952734375,0.546976562499999,4.925703125,4.61709375,0.4442265625,10.038375,3.64663671875,4.676234375,8.15065625,11.37148828125,2.847,2.242453125,2.6751953125,11.8083984375,4.24577734375,0.97209765625,6.76798046875,7.473703125,8.611203125,2.01609765625,4.115765625,7.3861796875,4.40393359375,6.06982421875,1.9966953125,-0.672210937500001,0.9802265625,0.6849296875
-14.51099609375,5.49769921875,-0.40352734375,2.5169765625,5.521703125,4.23009375,0.5902265625,9.118375,4.93163671875,4.782234375,7.99365625,11.39648828125,4.041,2.426453125,2.3441953125,12.4513984375,0.29577734375,0.909097656249999,6.47198046875,6.805703125,8.376203125,2.22609765625,3.585765625,6.1111796875,3.60893359375,4.51782421875,1.4516953125,-0.312210937500001,1.3542265625,0.4769296875
-12.42499609375,2.68769921875,-0.23652734375,3.8669765625,5.938703125,4.32909375,1.3782265625,7.987375,5.53963671875,4.901234375,7.78865625,10.56548828125,4.191,2.469453125,1.9611953125,11.7633984375,-1.63522265625,0.66809765625,5.90498046875,5.327703125,7.342203125,2.41709765625,2.938765625,4.5121796875,2.25093359375,2.98382421875,0.603695312500001,-0.0582109375000011,1.5552265625,0.1439296875
-8.32899609375,0.24569921875,-0.32952734375,4.8379765625,6.418703125,5.10309375,2.8502265625,7.082375,5.59463671875,5.081234375,7.60065625,9.00448828125,3.677,2.436453125,1.4901953125,9.7743984375,-0.79622265625,0.24009765625,5.00898046875,3.115703125,5.470203125,2.38609765625,2.085765625,2.6241796875,0.31493359375,1.65982421875,-0.796304687499999,-0.548210937500001,1.0772265625,-0.5390703125
-2.95199609375,-0.89730078125,-1.09752734375,5.5629765625,6.672703125,5.90709375,4.1442265625,6.314375,5.14763671875,4.960234375,7.04365625,6.67548828125,3.057,2.154453125,0.615195312500001,6.6143984375,2.11477734375,-0.441902343750001,3.63298046875,0.235703125000001,2.766203125,1.94309765625,0.930765624999999,0.4001796875,-2.23706640625,0.434824218749999,-2.8573046875,-2.0702109375,-0.4267734375,-1.8480703125
2.10500390625,-1.01130078125,-2.63252734375,5.8609765625,6.039703125,5.58009375,3.8842265625,5.221375,4.15263671875,3.986234375,5.48765625,3.64648828125,2.693,1.346453125,-1.0278046875,2.5223984375,5.41477734375,-1.44190234375,1.70498046875,-3.128296875,-0.528796874999999,1.01409765625,-0.485234375000001,-2.0798203125,-5.25806640625,-0.873175781250001,-5.3363046875,-4.3102109375,-2.7917734375,-3.7830703125
4.90800390625,-1.11630078125,-4.50552734375,5.3669765625,4.006703125,3.23709375,1.0942265625,3.446375,2.60863671875,1.856234375,2.55765625,0.39448828125,2.58,-0.104546875,-3.4848046875,-2.0736015625,7.41177734375,-2.71690234375,-0.585019531250001,-6.549296875,-3.831796875,-0.28690234375,-1.903234375,-4.4618203125,-8.26206640625,-2.22917578125,-7.6073046875,-6.4612109375,-5.2757734375,-5.8580703125
4.09800390625,-2.18930078125,-5.91252734375,3.8719765625,0.726703124999999,-1.01390625,-3.9837734375,1.108375,0.71763671875,-1.116765625,-1.41934375,-2.23051171875,2.454,-1.956546875,-6.2748046875,-6.4736015625,7.24977734375,-4.04390234375,-2.72901953125,-9.360296875,-6.350796875,-1.66790234375,-2.894234375,-6.1618203125,-10.51306640625,-3.30417578125,-8.9003046875,-7.6472109375,-6.8917734375,-7.2510703125
-0.43099609375,-4.50130078125,-6.08552734375,1.6069765625,-2.854296875,-5.90190625,-9.7767734375,-1.189625,-1.07936328125,-4.002765625,-5.34434375,-3.44951171875,2.036,-3.633546875,-8.4878046875,-9.7046015625,5.17177734375,-5.06090234375,-4.06901953125,-10.829296875,-7.382796875,-2.76190234375,-3.057234375,-6.6048203125,-11.34506640625,-3.67717578125,-8.6953046875,-7.4122109375,-6.9487734375,-7.2460703125
-7.40999609375,-7.44130078125,-4.71452734375,-0.7620234375,-5.384296875,-9.55290625,-14.0837734375,-2.686625,-2.26536328125,-5.674765625,-7.76334375,-3.07151171875,1.223,-4.492546875,-9.1898046875,-10.7166015625,2.19877734375,-5.42490234375,-4.10601953125,-10.459296875,-6.613796875,-3.27890234375,-2.243234375,-5.5338203125,-10.49906640625,-3.15717578125,-7.0263046875,-5.9822109375,-5.4697734375,-5.6960703125
-14.63899609375,-9.87230078125,-2.12152734375,-2.4270234375,-5.775296875,-10.44190625,-15.1807734375,-2.821625,-2.47636328125,-5.396765625,-7.59134375,-1.59851171875,0.135,-4.177546875,-7.9088046875,-8.8326015625,-0.42922265625,-5.00790234375,-2.79901953125,-8.252296875,-4.276796875,-3.13690234375,-0.683234375000001,-3.2008203125,-8.27806640625,-1.94417578125,-4.5133046875,-4.1362109375,-3.1877734375,-3.1530703125
-19.76899609375,-10.74730078125,0.89247265625,-2.8430234375,-3.773296875,-8.16090625,-12.6347734375,-1.436625,-1.68536328125,-3.225765625,-4.69734375,0.20348828125,-0.932,-2.828546875,-4.9158046875,-4.2246015625,-1.73522265625,-3.98990234375,-0.631019531250001,-4.792296875,-1.082796875,-2.49190234375,1.075765625,-0.3018203125,-5.40806640625,-0.522175781250001,-2.0883046875,-2.7572109375,-1.1437734375,-0.5810703125
-21.15199609375,-9.56930078125,3.41347265625,-1.9960234375,-0.0622968750000004,-3.54690625,-7.4117734375,1.225375,-0.227363281250001,0.0252343750000001,0.00265624999999936,1.89448828125,-1.627,-1.009546875,-1.1288046875,1.9253984375,-1.25922265625,-2.77290234375,1.59798046875,-1.056296875,2.062203125,-1.63890234375,2.427765625,2.3091796875,-2.68606640625,0.61982421875,-0.557304687499999,-2.3332109375,-0.1147734375,1.1599296875
-18.42099609375,-6.52430078125,4.77947265625,-0.3990234375,4.097703125,1.80009375,-1.3107734375,4.641375,1.33563671875,3.211234375,4.98965625,3.62348828125,-1.678,0.595453125000001,2.2931953125,7.7803984375,0.89577734375,-1.78090234375,3.15098046875,1.967703125,4.415203125,-0.87190234375,2.989765625,3.9831796875,-0.63906640625,1.23682421875,-0.2473046875,-2.7282109375,-0.2507734375,1.6999296875
-12.57099609375,-2.29830078125,4.81047265625,1.2009765625,7.490703125,6.27709375,3.8892265625,8.197375,2.48063671875,5.396234375,8.82865625,5.85248828125,-1.027,1.517453125,4.4501953125,11.5963984375,4.20577734375,-1.25590234375,3.68098046875,3.666703125,5.666203125,-0.37490234375,2.755765625,4.5211796875,0.65093359375,1.41082421875,-0.929304687499999,-3.3482109375,-1.1057734375,1.2449296875
-5.58099609375,2.22169921875,3.83447265625,2.2139765625,9.456703125,8.91709375,7.1392265625,11.359375,2.96963671875,6.237234375,10.74565625,8.81248828125,0.137,1.703453125,5.0431953125,12.4763984375,7.95477734375,-1.16890234375,3.34698046875,4.020703125,5.998203125,-0.18890234375,2.062765625,4.1991796875,1.48393359375,1.45582421875,-2.0043046875,-3.5352109375,-1.9697734375,0.3699296875
0.22200390625,6.21869921875,2.50847265625,2.4719765625,10.085703125,9.66209375,8.3802265625,13.759375,2.95463671875,6.055234375,10.84665625,12.15548828125,1.46,1.486453125,4.4281953125,10.7573984375,11.45577734375,-1.27390234375,2.69198046875,3.553703125,5.931203125,-0.24190234375,1.414765625,3.6011796875,2.29593359375,1.71982421875,-2.8213046875,-2.9232109375,-2.2677734375,-0.2870703125
2.93900390625,9.03669921875,1.50547265625,2.1839765625,9.983703125,9.20309375,8.3062265625,15.181375,2.83463671875,5.583234375,9.92265625,15.06548828125,2.577,1.369453125,3.3801953125,7.8073984375,14.14977734375,-1.25190234375,2.34798046875,3.046703125,6.041203125,-0.40790234375,1.263765625,3.3401796875,3.38893359375,2.39782421875,-2.9603046875,-1.5672109375,-1.7867734375,-0.2870703125
1.89800390625,10.12469921875,1.21847265625,1.6969765625,9.794703125,8.49209375,7.8392265625,15.522375,2.98563671875,5.528234375,8.96165625,16.70448828125,3.227,1.734453125,2.6801953125,5.3293984375,15.63177734375,-0.89290234375,2.71098046875,3.133703125,6.708203125,-0.57290234375,1.819765625,3.7711796875,4.76393359375,3.43382421875,-2.3703046875,0.141789062499999,-0.6977734375,0.4719296875
-1.90299609375,9.08269921875,1.61047265625,1.2499765625,9.791703125,8.23009375,7.6452265625,14.805375,3.51563671875,6.200234375,8.66565625,16.64248828125,3.295,2.636453125,2.7541953125,4.5613984375,15.69077734375,-0.20690234375,3.75798046875,4.000703125,7.984203125,-0.68590234375,2.958765625,4.8351796875,6.13493359375,4.56682421875,-1.3363046875,1.6847890625,0.5852265625,1.7559296875
-6.17799609375,5.95569921875,2.28747265625,0.8779765625,9.785703125,8.58209375,7.9082265625,13.188375,4.20963671875,7.402234375,9.18965625,15.02948828125,2.796,3.781453125,3.5321953125,5.7943984375,14.37877734375,0.57609765625,5.07698046875,5.342703125,9.600203125,-0.77090234375,4.272765625,6.1101796875,7.10393359375,5.46282421875,-0.323304687499999,2.6177890625,1.6092265625,3.1229296875
-8.58099609375,1.46269921875,2.73547265625,0.4499765625,9.333703125,9.18009375,8.3422265625,10.905375,4.64063671875,8.565234375,10.16365625,12.45548828125,1.809,4.657453125,4.5551953125,8.3933984375,12.04277734375,1.10009765625,6.07998046875,6.566703125,11.084203125,-0.91990234375,5.225765625,7.0201796875,7.35593359375,5.85982421875,0.2276953125,2.6997890625,2.0322265625,4.0919296875
-8.05899609375,-3.21630078125,2.59847265625,-0.2520234375,7.993703125,9.31309375,8.3312265625,8.160375,4.34763671875,8.982234375,10.86165625,9.61448828125,0.408,4.711453125,5.1851953125,11.1603984375,9.22377734375,1.00309765625,6.23998046875,7.082703125,11.893203125,-1.25490234375,5.324765625,7.0661796875,6.78693359375,5.64582421875,0.0266953125000002,1.9127890625,1.6752265625,4.2739296875
-5.29099609375,-7.04730078125,1.82747265625,-1.4290234375,5.480703125,8.17809375,7.1642265625,5.082375,3.02863671875,8.043234375,10.46465625,6.97648828125,-1.389,3.499453125,4.8481953125,12.8463984375,6.44577734375,0.0330976562499998,5.24398046875,6.518703125,11.572203125,-1.87390234375,4.249765625,5.9671796875,5.49993359375,4.86082421875,-1.0083046875,0.393789062499999,0.4962265625,3.4349296875
-1.91599609375,-9.60730078125,0.63347265625,-3.1740234375,1.736703125,5.21909375,4.3532265625,1.750375,0.64563671875,5.446234375,8.39465625,4.66448828125,-3.602,0.832453125000001,3.2291953125,12.6423984375,4.02777734375,-1.87190234375,3.05098046875,4.814703125,9.908203125,-2.80290234375,1.934765625,3.7181796875,3.72593359375,3.65882421875,-2.7793046875,-1.6392109375,-1.4457734375,1.5339296875
0.75500390625,-11.10230078125,-0.70752734375,-5.4120234375,-3.048296875,0.433093749999999,-0.0757734374999997,-1.766625,-2.57636328125,1.339234375,4.62565625,2.56148828125,-6.208,-3.121546875,0.4181953125,10.5003984375,2.00477734375,-4.55290234375,-0.103019531250002,2.206703125,7.052203125,-3.97790234375,-1.405234375,0.564179687499999,1.71293359375,2.22682421875,-5.0623046875,-3.9612109375,-3.9787734375,-1.2490703125
2.50900390625,-12.06530078125,-2.02752734375,-7.9400234375,-8.437296875,-5.51390625,-5.5197734375,-5.396625,-6.24236328125,-3.661765625,-0.22334375,0.51348828125,-9.075,-7.825546875,-3.1038046875,7.1453984375,0.19977734375,-7.66290234375,-3.77101953125,-0.879296874999999,3.511203125,-5.28390234375,-5.305234375,-3.0638203125,-0.364066406249999,0.72282421875,-7.5763046875,-6.3862109375,-6.8187734375,-4.5140703125
2.50900390625,-12.06530078125,-2.02752734375,-7.9400234375,-8.437296875,-5.51390625,-5.5197734375,-5.396625,-6.24236328125,-3.661765625,-0.22334375,0.51348828125,-9.075,-7.825546875,-3.1038046875,7.1453984375,0.19977734375,-7.66290234375,-3.77101953125,-0.879296874999999,3.511203125,-5.28390234375,-5.305234375,-3.0638203125,-0.364066406249999,0.72282421875,-7.5763046875,-6.3862109375,-6.8187734375,-4.5140703125
