"Fp1","Fpz","Fp2","F7","F3","Fz","F4","F8","FC5","FC1","FC2","FC6","T7","C3","Cz","C4","T8","CP5","CP1","CP2","CP6","P7","P3","Pz","P4","P8","POz","O1","Oz","O2"
-1.044546875,-0.57894921875,2.997875,-12.6176484375,-4.0062578125,5.7298515625,-21.49283984375,-14.28285546875,0.985453125,-10.9939140625,-3.8497578125,8.87764453125,3.26360546875,0.71734375,-0.678109375,-1.221265625,34.96726171875,-18.95155859375,1.628046875,-0.930640625,-1.1617421875,17.13325,3.35496484375,1.67465234375,4.13160546875,6.88483203125,9.49314453125,-0.459359375,-10.19551171875,-11.98605859375
-5.493546875,-3.50094921875,-1.525125,-12.9726484375,-7.4622578125,2.2598515625,-13.16083984375,-10.11385546875,-2.461546875,-11.7739140625,-5.2257578125,-4.83335546875,1.98460546875,-0.94565625,-3.645109375,-6.550265625,24.57926171875,-19.53055859375,-0.302953125,-4.591640625,-8.4297421875,18.21725,2.58696484375,-0.86334765625,-0.89839453125,-4.63016796875,6.62414453125,-1.032359375,-10.58251171875,-17.14405859375
-9.354546875,-7.02694921875,-6.217125,-12.6446484375,-9.2272578125,-1.7631484375,-6.81183984375,-5.68185546875,-5.192546875,-12.9339140625,-6.7637578125,-20.02335546875,3.15260546875,-2.12965625,-5.769109375,-11.355265625,19.67226171875,-19.80255859375,-1.612953125,-7.739640625,-14.9807421875,20.14725,1.91296484375,-2.75734765625,-5.19239453125,-13.85116796875,4.35714453125,-1.642359375,-10.66551171875,-20.13005859375
-12.343546875,-10.80094921875,-10.759125,-12.2236484375,-10.0362578125,-6.1331484375,-3.17883984375,-1.96185546875,-6.681546875,-14.4789140625,-8.4367578125,-34.73935546875,6.20160546875,-2.90865625,-7.107109375,-15.315265625,19.38726171875,-19.94855859375,-2.477953125,-10.268640625,-20.3987421875,22.36125,1.14796484375,-4.13334765625,-8.46639453125,-20.03616796875,2.73614453125,-2.387359375,-10.62051171875,-20.95205859375
-14.264546875,-14.14694921875,-14.580125,-12.5116484375,-11.1042578125,-10.3821484375,-2.78183984375,-0.0988554687499992,-6.617546875,-16.3219140625,-10.1957578125,-46.08635546875,9.39060546875,-3.59565625,-8.015109375,-18.203265625,21.05926171875,-20.40555859375,-3.354953125,-12.209640625,-24.3987421875,23.63125,-0.0250351562500002,-5.37934765625,-10.63139453125,-23.06016796875,1.60214453125,-3.448359375,-10.77451171875,-20.33705859375
-15.075546875,-16.40294921875,-17.056125,-13.9046484375,-13.2202578125,-13.9411484375,-5.85083984375,-0.715855468749999,-5.192546875,-18.3209140625,-11.9797578125,-51.74835546875,10.53160546875,-4.60965625,-8.919109375,-19.948265625,21.86926171875,-21.71255859375,-4.724953125,-13.667640625,-26.8627421875,22.50225,-1.89203515625,-6.90034765625,-11.80239453125,-23.40616796875,0.68714453125,-5.045359375,-11.39651171875,-19.28705859375
-14.809546875,-17.12494921875,-17.670125,-15.9836484375,-16.1492578125,-16.2171484375,-11.94683984375,-3.56785546875,-3.087546875,-20.2089140625,-13.5597578125,-50.76135546875,8.06360546875,-6.18865625,-9.952109375,-20.466265625,20.38826171875,-24.12755859375,-6.703953125,-14.595640625,-27.5977421875,18.11925,-4.41203515625,-8.73434765625,-12.04339453125,-21.63016796875,-0.118855468749999,-7.204359375,-12.44151171875,-18.42805859375
-13.425546875,-16.09994921875,-16.096125,-17.5766484375,-18.6632578125,-16.6291484375,-19.48083984375,-7.62785546875,-1.128546875,-21.4649140625,-14.3777578125,-43.38735546875,1.94460546875,-8.09865625,-10.715109375,-19.443265625,17.14026171875,-27.25055859375,-8.773953125,-14.590640625,-26.1017421875,11.00025,-6.97903515625,-10.29734765625,-11.07939453125,-17.78216796875,-0.519855468749999,-9.491359375,-13.38651171875,-17.56805859375
-10.813546875,-13.33594921875,-12.308125,-17.2846484375,-19.1402578125,-14.7461484375,-25.72583984375,-11.47385546875,0.110453125,-21.3779140625,-13.6387578125,-30.70635546875,-6.15739453125,-9.61465625,-10.388109375,-16.395265625,13.96526171875,-29.97455859375,-9.880953125,-12.978640625,-21.7327421875,3.17825,-8.50703515625,-10.53134765625,-8.33139453125,-11.45016796875,0.16814453125,-10.998359375,-13.34551171875,-15.82405859375
-7.031546875,-9.17294921875,-6.775125,-14.2116484375,-16.4332578125,-10.5291484375,-27.74783984375,-13.82685546875,0.483453125,-19.3929140625,-10.7527578125,-14.55835546875,-13.52939453125,-9.86765625,-8.196109375,-11.067265625,12.64026171875,-30.93255859375,-8.960953125,-9.243640625,-14.3167421875,-2.56875,-7.91103515625,-8.46234765625,-3.38839453125,-2.56816796875,2.65614453125,-10.702359375,-11.47851171875,-12.29805859375
-2.618546875,-4.43194921875,-0.579124999999999,-8.5336484375,-10.5962578125,-4.5921484375,-23.91283984375,-14.07085546875,0.181453125,-15.5569140625,-5.8477578125,2.28164453125,-17.61439453125,-8.40365625,-3.989109375,-3.944265625,13.60226171875,-29.24055859375,-5.603953125,-3.558640625,-4.7857421875,-4.07875,-4.73803515625,-3.87134765625,3.38460546875,7.65783203125,7.16014453125,-8.055359375,-7.47451171875,-6.86505859375
1.337453125,-0.33394921875,4.728875,-1.6056484375,-3.0252578125,1.7348515625,-14.99183984375,-12.47285546875,-0.467546875,-10.7369140625,0.0132421874999999,16.23064453125,-17.18039453125,-5.55465625,1.427890625,3.557734375,15.54326171875,-25.08855859375,-0.467953125,2.959359375,4.7002578125,-0.95575,0.42696484375,2.35165234375,10.57760546875,16.63983203125,13.04914453125,-3.436359375,-1.83851171875,-0.526058593749999
3.562453125,1.87905078125,7.630875,4.4523515625,4.0847421875,6.7208515625,-4.00883984375,-9.92285546875,-1.109546875,-6.3539140625,5.1562421875,23.71764453125,-12.85639453125,-2.36965625,6.488890625,9.446734375,16.18926171875,-19.79855859375,4.886046875,8.520359375,11.4272578125,5.16225,6.07396484375,8.44065234375,16.12160546875,21.44883203125,18.94114453125,1.847640625,4.20348828125,4.94694140625
3.246453125,1.48105078125,7.270875,7.5353515625,8.6917421875,8.9198515625,5.15716015625,-7.32785546875,-1.380546875,-3.7479140625,8.0162421875,22.53164453125,-6.74239453125,-0.0756562500000002,9.572890625,11.967734375,13.80626171875,-15.25055859375,8.680046875,11.403359375,13.3112578125,11.42825,10.39096484375,12.50365234375,18.20760546875,20.42983203125,23.26014453125,6.088640625,9.17848828125,7.89494140625
0.569453125,-1.33194921875,3.881875,6.3843515625,9.6857421875,7.8858515625,9.56116015625,-5.13085546875,-0.897546875,-3.5169140625,7.8822421875,13.01764453125,-1.27739453125,0.58534375,9.829890625,10.459734375,8.42626171875,-12.97655859375,9.795046875,10.787359375,9.9462578125,15.19725,12.09696484375,13.40665234375,16.21360546875,14.25283203125,24.96614453125,7.966640625,12.00348828125,7.66794140625
-3.293546875,-5.44194921875,-1.244125,1.1463515625,7.1747421875,4.4428515625,8.36616015625,-3.29885546875,0.653453125,-5.2139140625,5.2472421875,-1.68135546875,1.95360546875,-0.24765625,7.625890625,5.764734375,1.95626171875,-13.44855859375,8.317046875,7.200359375,2.8652578125,15.23225,11.01896484375,11.31365234375,11.09660546875,5.66083203125,24.04914453125,7.169640625,12.45748828125,4.97494140625
-6.749546875,-9.24794921875,-6.273125,-6.5616484375,2.2847421875,0.3118515625,2.88216015625,-1.73885546875,3.324453125,-7.5929140625,1.5602421875,-16.69935546875,2.81460546875,-1.67365625,4.317890625,-0.100265625,-2.83373828125,-15.94555859375,5.435046875,2.285359375,-5.1237421875,12.06525,8.09496484375,7.56365234375,4.97560546875,-1.93316796875,21.47914453125,4.458640625,11.21448828125,1.49494140625
-8.581546875,-11.37594921875,-9.595125,-14.1696484375,-3.3312578125,-2.7141484375,-4.29183984375,-0.72285546875,6.692453125,-9.2919140625,-1.5077578125,-27.37135546875,2.29660546875,-2.58265625,1.518890625,-4.869265625,-3.78773828125,-19.03855859375,2.762046875,-1.997640625,-11.1917421875,7.44825,4.79796484375,3.95165234375,0.14360546875,-6.09316796875,18.63614453125,1.156640625,9.41148828125,-1.00305859375
-8.508546875,-11.28294921875,-10.459125,-19.0896484375,-8.0772578125,-3.5841484375,-10.39983984375,-0.92785546875,9.773453125,-9.5709140625,-2.8797578125,-30.98935546875,1.59060546875,-2.33365625,0.271890625,-7.049265625,-0.505738281250002,-21.39255859375,1.453046875,-4.311640625,-13.6497421875,3.34025,2.35196484375,1.81365234375,-1.96039453125,-6.27816796875,16.57614453125,-1.592359375,8.01248828125,-1.50505859375
-7.179546875,-9.41194921875,-9.164125,-19.7236484375,-10.9062578125,-2.4051484375,-13.42783984375,-3.02185546875,11.268453125,-8.6539140625,-2.4937578125,-27.50035546875,1.23860546875,-1.13365625,0.601890625,-6.483265625,5.42126171875,-22.37255859375,1.661046875,-4.453640625,-12.4417421875,1.00925,1.18696484375,1.45765234375,-1.23839453125,-3.64716796875,15.57114453125,-3.320359375,7.36348828125,-0.117058593749999
-5.636546875,-6.79994921875,-6.705125,-16.0466484375,-11.5002578125,-0.1971484375,-12.57183984375,-7.03185546875,10.163453125,-7.4499140625,-1.1187578125,-18.93435546875,0.97860546875,0.14534375,1.680890625,-4.137265625,11.24226171875,-22.15255859375,2.630046875,-3.191640625,-8.7567421875,0.72125,0.94696484375,2.23265234375,1.31860546875,-0.0421679687500001,15.19114453125,-4.190359375,7.20548828125,2.20694140625
-4.550546875,-4.37194921875,-4.066125,-9.4736484375,-10.0682578125,1.8748515625,-8.31083984375,-11.92285546875,6.458453125,-6.8379140625,0.2812421875,-8.07535546875,0.28060546875,0.61034375,2.490890625,-1.313265625,14.51226171875,-21.29755859375,3.348046875,-1.561640625,-4.0767421875,2.02025,0.98596484375,3.14065234375,4.41460546875,3.14883203125,14.79814453125,-4.544359375,7.07248828125,4.32894140625
-3.733546875,-2.36294921875,-1.598125,-2.1046484375,-7.0192578125,3.3028515625,-2.13883984375,-15.76585546875,1.552453125,-7.0179140625,1.1872421875,2.78664453125,-0.94739453125,0.0303437499999997,2.552890625,1.175734375,14.30126171875,-20.20755859375,3.305046875,-0.140640625,0.6802578125,4.30625,0.96396484375,3.54465234375,7.20960546875,5.58183203125,14.09614453125,-4.442359375,6.75048828125,5.57194140625
-2.285546875,-0.26094921875,1.100875,4.1613515625,-2.8642578125,4.4738515625,3.93316015625,-16.57085546875,-2.139546875,-7.3729140625,1.7622421875,12.35564453125,-2.05339453125,-0.93265625,2.205890625,3.323734375,11.45226171875,-18.81155859375,2.815046875,1.205359375,5.3722578125,7.24125,1.11296484375,3.48965234375,9.59060546875,7.75283203125,13.33214453125,-3.566359375,6.42548828125,5.94694140625
0.654453125,2.66205078125,4.663875,8.1403515625,1.5737421875,6.1538515625,7.97216015625,-13.40085546875,-2.282546875,-6.9499140625,2.5512421875,19.94464453125,-1.95039453125,-1.13465625,2.236890625,5.555734375,7.84426171875,-16.73055859375,2.726046875,2.951359375,10.1282578125,10.75225,1.99196484375,3.46765234375,11.82260546875,10.19483203125,13.03414453125,-1.568359375,6.44048828125,5.87594140625
5.058453125,6.55305078125,9.127875,9.4123515625,5.0377421875,8.6398515625,8.62216015625,-7.06485546875,2.083453125,-5.2409140625,3.8592421875,24.69664453125,0.18160546875,0.26834375,3.153890625,7.975734375,5.19426171875,-13.74855859375,3.705046875,5.219359375,14.5682578125,14.67625,3.92496484375,3.82865234375,13.89660546875,12.64683203125,13.48814453125,1.417640625,6.85848828125,5.65594140625
9.671453125,10.52005078125,13.468875,8.1083515625,6.1537421875,11.2738515625,5.43416015625,0.115144531250001,9.786453125,-2.7189140625,5.2592421875,25.17264453125,4.23260546875,3.16434375,4.657890625,9.837734375,4.10726171875,-10.21955859375,5.642046875,7.309359375,17.4402578125,18.42125,6.53896484375,4.31765234375,15.13660546875,13.84483203125,14.36014453125,4.511640625,7.21248828125,5.10494140625
12.487453125,12.89505078125,15.930875,4.7483515625,4.1107421875,12.6768515625,-0.93183984375,5.38414453125,17.805453125,-0.7319140625,5.6432421875,19.85464453125,8.98660546875,6.39434375,5.689890625,9.708734375,3.79326171875,-7.11955859375,7.569046875,7.876359375,17.0732578125,20.93925,8.76996484375,4.10565234375,14.43460546875,12.18283203125,14.75714453125,6.338640625,6.67848828125,3.69994140625
11.767453125,12.11705078125,14.987875,0.1833515625,-0.7882578125,11.5218515625,-8.69383984375,6.81714453125,22.524453125,-0.808914062500001,3.8422421875,8.32064453125,12.60160546875,8.28234375,5.019890625,6.302734375,2.57726171875,-5.65455859375,8.159046875,5.682359375,12.4022578125,21.12225,9.36796484375,2.31465234375,10.99360546875,6.84583203125,13.73914453125,5.709640625,4.60248828125,1.05794140625
6.992453125,7.67005078125,10.310875,-4.4716484375,-7.1062578125,7.3358515625,-15.37883984375,4.09514453125,21.393453125,-3.7909140625,-0.5917578125,-7.74635546875,13.54560546875,7.47934375,1.983890625,-0.570265625,-1.01073828125,-6.66455859375,6.478046875,0.430359375,3.8852578125,18.39625,7.58696484375,-1.32934765625,5.03760546875,-1.40116796875,10.92614453125,2.321640625,0.99848828125,-2.60705859375
-0.718546874999999,0.52105078125,3.138875,-8.0266484375,-12.8292578125,0.9078515625,-18.70583984375,-1.44485546875,14.174453125,-9.3109140625,-6.9417578125,-24.59935546875,11.40060546875,3.65934375,-3.048109375,-9.564265625,-7.04273828125,-10.15455859375,2.546046875,-6.832640625,-6.3127421875,13.14125,3.64396484375,-6.17334765625,-2.00839453125,-10.28816796875,6.82514453125,-2.959359375,-3.30551171875,-6.42005859375
-8.941546875,-7.14194921875,-4.104125,-9.5286484375,-16.1582578125,-5.9141484375,-17.55483984375,-7.37585546875,3.158453125,-15.8679140625,-13.5097578125,-37.64135546875,7.05360546875,-2.27165625,-8.736109375,-18.162265625,-13.71073828125,-15.20655859375,-2.578953125,-14.011640625,-15.0177421875,6.68925,-1.30003515625,-10.82434765625,-7.98539453125,-16.89016796875,2.68314453125,-8.403359375,-6.98951171875,-9.15505859375
-14.897546875,-12.76094921875,-8.801125,-8.5936484375,-16.1412578125,-10.9841484375,-12.46883984375,-11.18285546875,-7.813546875,-21.4299140625,-18.2877578125,-43.19135546875,2.17060546875,-8.53565625,-13.331109375,-23.653265625,-18.09273828125,-20.31155859375,-7.228953125,-18.789640625,-19.2817421875,0.88725,-5.61303515625,-13.73234765625,-10.87239453125,-18.80916796875,-0.0328554687499985,-12.146359375,-8.83451171875,-9.76405859375
-16.633546875,-14.48994921875,-9.311125,-5.6086484375,-12.9272578125,-12.8131484375,-5.46483984375,-11.41385546875,-15.061546875,-24.2789140625,-19.8107578125,-39.84935546875,-1.67239453125,-13.24565625,-15.440109375,-24.270265625,-17.89173828125,-23.95255859375,-9.847953125,-19.596640625,-17.6147421875,-2.55175,-7.88403515625,-13.86734765625,-9.64639453125,-15.19616796875,-0.285855468749999,-12.956359375,-8.27351171875,-7.86205859375
-13.862546875,-12.00094921875,-5.742125,-1.6376484375,-7.6432578125,-11.1851484375,0.70716015625,-8.43885546875,-16.620546875,-23.6889140625,-17.7807578125,-28.92235546875,-3.65839453125,-15.15565625,-14.594109375,-19.919265625,-12.95273828125,-25.11155859375,-9.624953125,-16.243640625,-10.6237421875,-2.63875,-7.47703515625,-11.13334765625,-4.73639453125,-7.19516796875,2.08814453125,-10.680359375,-5.62051171875,-3.95605859375
-8.019546875,-6.57894921875,0.135875,1.9853515625,-2.0652578125,-7.1061484375,3.60716015625,-4.30085546875,-12.852546875,-20.1419140625,-13.1537578125,-13.87935546875,-3.83139453125,-14.04565625,-11.320109375,-12.196265625,-5.48373828125,-23.51455859375,-6.754953125,-9.944640625,-0.7497421875,0.60125,-4.67903515625,-6.35634765625,2.15060546875,2.43083203125,6.34414453125,-6.169359375,-1.87651171875,0.728941406250001
-1.535546875,-0.46694921875,5.814875,4.1603515625,1.8477421875,-2.2371484375,2.09616015625,-1.62385546875,-5.901546875,-15.0079140625,-7.6767578125,0.80764453125,-2.69739453125,-10.62365625,-6.806109375,-3.717265625,1.11926171875,-19.59455859375,-2.241953125,-2.749640625,8.7672578125,6.14825,-0.46603515625,-0.90134765625,8.74160546875,10.40183203125,11.17614453125,-0.815359375,1.75248828125,4.73994140625
3.215453125,4.16005078125,9.236875,4.3483515625,2.5617421875,1.7678515625,-3.14583984375,-2.15885546875,1.528453125,-9.9559140625,-3.1567578125,10.99064453125,-0.78939453125,-6.12065625,-2.425109375,2.890734375,3.97826171875,-14.32055859375,2.530046875,3.240359375,15.1262578125,12.25925,3.91796484375,3.81565234375,13.06460546875,14.19183203125,15.21514453125,3.999640625,4.31948828125,6.94494140625
4.798453125,6.00005078125,9.558875,2.6013515625,-0.3472578125,3.7518515625,-9.90083984375,-5.83485546875,7.345453125,-6.3779140625,-0.8067578125,14.04164453125,1.48960546875,-1.84765625,0.687890625,5.890734375,1.99826171875,-8.97955859375,6.267046875,6.555359375,16.8682578125,16.91825,7.33096484375,6.72865234375,14.06860546875,12.85383203125,17.46514453125,7.295640625,5.38648828125,6.88494140625
3.120453125,4.93705078125,7.204875,-0.5286484375,-5.7882578125,3.3338515625,-15.41483984375,-10.87085546875,10.650453125,-5.0169140625,-0.8967578125,9.72464453125,3.81560546875,1.18034375,1.935890625,4.979734375,-3.75673828125,-4.86655859375,8.144046875,6.733359375,14.2022578125,18.46225,9.03296484375,7.39565234375,11.86760546875,7.21783203125,17.57114453125,8.680640625,5.04848828125,4.88394140625
-0.692546875,1.87805078125,3.400875,-4.1056484375,-11.4312578125,0.9708515625,-17.58283984375,-14.86085546875,11.607453125,-5.8119140625,-2.7547578125,0.437644531250001,5.90360546875,2.47034375,1.431890625,1.304734375,-10.59273828125,-2.88355859375,8.032046875,4.370359375,8.7832578125,16.21425,8.87096484375,6.11165234375,7.61760546875,-0.44416796875,15.91514453125,8.375640625,3.82348828125,1.93994140625
-4.873546875,-1.72294921875,-0.451125,-7.0116484375,-14.7672578125,-2.2631484375,-15.70783984375,-16.08385546875,10.853453125,-8.0029140625,-5.1147578125,-9.62035546875,7.50560546875,2.09934375,-0.106109375,-3.077265625,-15.36373828125,-3.23455859375,6.476046875,0.822359375,3.0312578125,10.79425,7.28796484375,3.78465234375,3.07360546875,-7.16716796875,13.43814453125,7.076640625,2.44248828125,-0.60405859375
-7.835546875,-4.50794921875,-3.302125,-8.3076484375,-14.4032578125,-5.1381484375,-10.57083984375,-14.26685546875,8.908453125,-10.4969140625,-6.7237578125,-16.37035546875,8.33660546875,0.52634375,-1.726109375,-6.173265625,-15.80773828125,-5.42355859375,4.372046875,-2.408640625,-0.8647421875,3.82125,5.06996484375,1.51265234375,-0.12239453125,-10.39816796875,11.19014453125,5.623640625,1.52548828125,-1.62705859375
-8.847546875,-5.77194921875,-4.740125,-7.6246484375,-10.7602578125,-6.7621484375,-4.01683984375,-10.44885546875,5.958453125,-12.3499140625,-6.9357578125,-17.96635546875,8.00360546875,-1.66765625,-2.708109375,-6.973265625,-11.48273828125,-8.57855859375,2.510046875,-4.324640625,-1.8697421875,-2.80575,2.94696484375,0.0616523437499999,-1.15039453125,-9.11916796875,9.79714453125,4.614640625,1.29348828125,-0.778058593749999
-8.190546875,-5.63794921875,-4.931125,-5.3206484375,-5.7242578125,-6.8601484375,1.69916015625,-6.19285546875,2.122453125,-13.0959140625,-5.9367578125,-15.66835546875,6.16760546875,-3.95765625,-2.835109375,-5.792265625,-3.89373828125,-11.82955859375,1.273046875,-4.773640625,-0.4387421875,-7.58775,1.33796484375,-0.41534765625,-0.31139453125,-4.30416796875,9.21814453125,4.216640625,1.50648828125,1.35594140625
-6.731546875,-4.74794921875,-4.306125,-2.2846484375,-1.5472578125,-5.7401484375,4.67516015625,-2.72785546875,-2.120546875,-12.7469140625,-4.4667578125,-12.74935546875,2.90760546875,-5.86765625,-2.324109375,-3.810265625,4.25126171875,-14.52055859375,0.657046875,-4.252640625,1.9732578125,-9.71275,0.37396484375,-0.24234765625,1.31960546875,1.67483203125,8.95414453125,4.271640625,1.70248828125,3.63394140625
-5.295546875,-3.76694921875,-3.240125,0.4443515625,0.2047421875,-4.0381484375,4.08916015625,-0.56385546875,-5.781546875,-11.5959140625,-3.2597578125,-12.16335546875,-1.04539453125,-6.94465625,-1.564109375,-2.199265625,10.25026171875,-16.25555859375,0.497046875,-3.412640625,3.8982578125,-9.02975,0.0679648437499998,0.16265234375,2.63460546875,6.38183203125,8.51114453125,4.540640625,1.54448828125,5.02694140625
-4.286546875,-3.09994921875,-2.005125,1.9883515625,-0.9742578125,-2.4301484375,0.53916015625,0.30014453125,-7.739546875,-10.0559140625,-2.6797578125,-14.63035546875,-4.55839453125,-6.89365625,-0.892109375,-1.481265625,12.44626171875,-16.92855859375,0.624046875,-2.661640625,4.6252578125,-5.97775,0.37196484375,0.55165234375,3.08360546875,8.48383203125,7.69714453125,4.811640625,0.96548828125,5.06894140625
-3.766546875,-2.95994921875,-0.951125,1.7713515625,-4.8272578125,-1.4781484375,-4.30183984375,-0.11185546875,-7.434546875,-8.6669140625,-2.7667578125,-18.41835546875,-6.74239453125,-5.85165625,-0.590109375,-1.523265625,10.56226171875,-16.81355859375,0.824046875,-2.151640625,4.2392578125,-1.58375,1.04796484375,0.79265234375,2.71660546875,7.99283203125,6.56214453125,4.834640625,0.0374882812500001,3.83294140625
-3.766546875,-3.54794921875,-0.613125,-0.4086484375,-10.7742578125,-1.6151484375,-8.59783984375,-1.98585546875,-5.368546875,-8.0839140625,-3.5087578125,-20.79035546875,-7.49939453125,-4.53265625,-0.982109375,-1.988265625,5.37726171875,-16.56255859375,0.719046875,-2.012640625,3.0752578125,2.66225,1.56096484375,0.65565234375,1.81160546875,5.66483203125,5.14814453125,4.247640625,-1.24451171875,1.61494140625
-4.446546875,-5.03794921875,-1.506125,-4.2586484375,-18.0092578125,-3.1191484375,-11.25383984375,-5.47285546875,-2.982546875,-8.8759140625,-4.9777578125,-19.92535546875,-7.50839453125,-3.98565625,-2.394109375,-2.732265625,-1.76373828125,-16.94255859375,-0.137953125,-2.477640625,1.1862578125,5.26325,1.24996484375,-0.20934765625,0.52760546875,2.25283203125,3.41314453125,2.729640625,-2.96551171875,-1.27205859375
-5.941546875,-7.36694921875,-3.718125,-8.8786484375,-25.2792578125,-5.9421484375,-12.23083984375,-10.20385546875,-1.940546875,-11.1679140625,-7.1907578125,-15.98235546875,-7.62339453125,-5.00665625,-4.896109375,-3.832265625,-9.23073828125,-18.38255859375,-1.955953125,-3.717640625,-1.6547421875,5.38625,-0.24803515625,-2.02234765625,-1.09339453125,-1.73016796875,1.40414453125,0.325640625,-5.06151171875,-4.43905859375
-8.100546875,-10.07494921875,-6.689125,-12.8996484375,-30.8432578125,-9.5181484375,-12.16883984375,-15.10485546875,-3.248546875,-14.4059140625,-9.8757578125,-10.84335546875,-8.18539453125,-7.61665625,-8.049109375,-5.314265625,-15.26973828125,-20.65155859375,-4.433953125,-5.574640625,-5.4967421875,3.27325,-2.66103515625,-4.55834765625,-2.88639453125,-5.76416796875,-0.522855468749999,-2.368359375,-7.11851171875,-7.27805859375
-10.435546875,-12.42494921875,-9.458125,-14.9726484375,-32.9882578125,-12.8781484375,-11.76183984375,-18.76485546875,-6.753546875,-17.5209140625,-12.4507578125,-7.01435546875,-8.79939453125,-10.98465625,-10.992109375,-6.969265625,-18.42573828125,-22.98655859375,-6.839953125,-7.520640625,-9.8287421875,0.0272500000000004,-5.16603515625,-7.14134765625,-4.44039453125,-9.09916796875,-1.77085546875,-4.399359375,-8.45751171875,-9.04905859375
-12.360546875,-13.76594921875,-11.207125,-14.3876484375,-30.9202578125,-15.1051484375,-11.43083984375,-20.11485546875,-11.282546875,-19.4539140625,-14.3017578125,-6.49835546875,-8.68539453125,-13.88865625,-12.900109375,-8.459265625,-18.20273828125,-24.59755859375,-8.451953125,-8.958640625,-13.6887421875,-3.06975,-6.86803515625,-9.01034765625,-5.29439453125,-10.98916796875,-1.89085546875,-4.971359375,-8.51351171875,-9.23105859375
-13.480546875,-13.86894921875,-11.665125,-11.3986484375,-25.3602578125,-15.8301484375,-11.40283984375,-18.90685546875,-15.240546875,-19.7019140625,-15.1347578125,-10.07835546875,-7.31439453125,-15.36465625,-13.470109375,-9.549265625,-15.44773828125,-25.13055859375,-9.000953125,-9.609640625,-16.1727421875,-5.17975,-7.31403515625,-9.78334765625,-5.27639453125,-11.19816796875,-0.96985546875,-3.892359375,-7.20151171875,-7.86805859375
-13.654546875,-12.95894921875,-11.064125,-7.0466484375,-18.3222578125,-15.3271484375,-11.83483984375,-15.71985546875,-17.229546875,-18.5089140625,-15.0877578125,-16.98035546875,-4.81439453125,-15.10565625,-13.009109375,-10.172265625,-11.93273828125,-24.74555859375,-8.749953125,-9.625640625,-16.8367421875,-6.04775,-6.65603515625,-9.63234765625,-4.62239453125,-10.16516796875,0.369144531250001,-1.646359375,-4.97551171875,-5.55005859375
-12.812546875,-11.39394921875,-9.714125,-2.6126484375,-12.1672578125,-14.1591484375,-12.66483984375,-11.61685546875,-16.410546875,-16.5609140625,-14.4827578125,-24.76835546875,-1.93139453125,-13.40065625,-12.080109375,-10.201265625,-9.28773828125,-23.79955859375,-8.151953125,-9.295640625,-15.6557421875,-5.75875,-5.37103515625,-9.02034765625,-3.69339453125,-8.50116796875,1.40414453125,0.962640625,-2.51651171875,-3.01105859375
-10.771546875,-9.28694921875,-7.619125,0.916351562499999,-8.5422578125,-12.6961484375,-13.34783984375,-7.73085546875,-12.619546875,-14.4549140625,-13.4477578125,-29.71235546875,0.42860546875,-10.78865625,-11.023109375,-9.207265625,-8.06673828125,-22.48255859375,-7.399953125,-8.642640625,-12.7107421875,-4.42875,-3.84803515625,-8.26734765625,-2.56139453125,-6.27616796875,1.85414453125,3.278640625,-0.32951171875,-0.656058593749999
-7.329546875,-6.44894921875,-4.513125,3.0763515625,-7.8092578125,-10.9321484375,-12.93383984375,-4.91985546875,-6.408546875,-12.4009140625,-11.8017578125,-28.08735546875,1.73560546875,-7.75265625,-9.788109375,-6.606265625,-7.61673828125,-20.72055859375,-6.284953125,-7.341640625,-8.1047421875,-2.12975,-2.19003515625,-7.33834765625,-0.91839453125,-2.92116796875,2.05114453125,5.039640625,1.42548828125,1.54894140625
-2.646546875,-2.76894921875,-0.304125,3.8343515625,-9.1922578125,-8.7201484375,-10.64383984375,-3.49485546875,0.909453125,-10.3819140625,-9.3737578125,-18.33435546875,2.08560546875,-4.69565625,-8.186109375,-2.247265625,-6.76173828125,-18.41155859375,-4.496953125,-5.089640625,-2.3057421875,0.99325,-0.36503515625,-6.03734765625,1.51360546875,1.99983203125,2.61614453125,6.267640625,2.76948828125,3.73194140625
2.393453125,1.29405078125,4.445875,3.3853515625,-11.4242578125,-6.1911484375,-6.50383984375,-3.12485546875,7.364453125,-8.5339140625,-6.4547578125,-2.85635546875,2.00960546875,-2.07065625,-6.293109375,3.000734375,-4.74773828125,-15.73955859375,-2.094953125,-2.105640625,3.4402578125,4.57325,1.50396484375,-4.36634765625,4.45760546875,7.85083203125,3.90114453125,6.996640625,3.62248828125,5.67294140625
6.282453125,4.64205078125,8.502875,2.0723515625,-13.4052578125,-3.9481484375,-1.47883984375,-3.05185546875,10.793453125,-7.2989140625,-3.8787578125,12.27764453125,2.02060546875,-0.41865625,-4.596109375,7.349734375,-1.77573828125,-13.25455859375,0.322046875,0.766359375,7.2592578125,8.03125,3.04496484375,-2.67734765625,6.98660546875,12.85583203125,5.70514453125,7.147640625,3.73548828125,6.73494140625
7.584453125,6.07105078125,10.550875,0.4603515625,-14.4482578125,-2.7681484375,2.96316015625,-2.56185546875,9.679453125,-7.1149140625,-2.5217578125,20.27664453125,2.29360546875,-0.13465625,-3.658109375,9.045734375,1.21726171875,-11.61955859375,1.962046875,2.560359375,7.5802578125,10.74525,3.85796484375,-1.39834765625,8.09360546875,15.15483203125,7.48014453125,6.668640625,2.94048828125,6.30194140625
5.816453125,5.06405078125,10.000875,-0.6916484375,-14.1332578125,-3.0021484375,5.51416015625,-1.44585546875,4.011453125,-7.9259140625,-2.6137578125,17.62864453125,2.62360546875,-1.12965625,-3.574109375,7.578734375,3.25426171875,-11.21955859375,2.425046875,2.923359375,4.2382578125,12.23525,3.86696484375,-0.62034765625,7.48360546875,14.09983203125,8.78514453125,5.732640625,1.44648828125,4.32894140625
1.824453125,2.18605078125,7.407875,-0.7366484375,-12.1622578125,-4.2151484375,5.51816015625,-0.152855468749999,-4.424546875,-9.0219140625,-3.4767578125,6.34964453125,2.59160546875,-2.73265625,-3.746109375,4.155734375,3.83326171875,-11.96955859375,2.012046875,2.402359375,-1.2097421875,12.25025,3.42196484375,0.03165234375,5.83760546875,10.60383203125,9.55614453125,4.728640625,-0.15151171875,1.45994140625
-2.682546875,-1.21794921875,4.156875,0.4313515625,-8.5152578125,-5.4251484375,3.18716015625,0.45414453125,-12.617546875,-9.3809140625,-3.9377578125,-7.19635546875,1.82760546875,-3.95865625,-3.252109375,1.011734375,2.90026171875,-13.40855859375,1.511046875,2.059359375,-6.2977421875,10.77625,3.09096484375,1.09465234375,4.33660546875,6.25183203125,10.01114453125,4.026640625,-1.20351171875,-1.40105859375
-6.046546875,-3.73394921875,1.741875,2.2563515625,-3.7062578125,-5.6961484375,-0.419839843749999,-0.343855468749999,-17.554546875,-8.2289140625,-3.0537578125,-15.99935546875,0.33560546875,-3.94965625,-1.482109375,0.111734375,0.620261718749999,-14.87555859375,1.705046875,2.765359375,-8.9627421875,8.14125,3.34196484375,2.86365234375,3.88160546875,2.13883203125,10.42014453125,3.778640625,-1.34651171875,-3.61905859375
-7.344546875,-4.46794921875,1.145875,3.8753515625,1.2437421875,-4.5841484375,-3.64483984375,-2.47785546875,-17.451546875,-5.4169140625,-0.6027578125,-16.13635546875,-1.29639453125,-2.28865625,1.478890625,2.148734375,-2.63973828125,-15.63155859375,2.995046875,4.746359375,-8.4077421875,5.15425,4.40096484375,5.23365234375,4.66860546875,-1.48916796875,11.01614453125,3.967640625,-0.57051171875,-5.01105859375
-6.500546875,-3.24194921875,2.629875,4.6453515625,5.1987421875,-2.1831484375,-4.77183984375,-4.73385546875,-12.417546875,-1.4489140625,2.8922421875,-8.44335546875,-2.04139453125,0.89534375,4.942890625,6.353734375,-6.17873828125,-14.98755859375,5.312046875,7.582359375,-5.1587421875,3.02525,6.26096484375,7.83465234375,6.28060546875,-4.71416796875,12.01814453125,4.579640625,0.95648828125,-5.67805859375
-4.015546875,-0.46094921875,5.809875,4.4373515625,7.3567421875,1.0438515625,-2.73183984375,-5.02585546875,-4.321546875,2.7520859375,6.4922421875,2.41464453125,-0.98039453125,4.97034375,7.988890625,11.014734375,-9.01173828125,-12.57855859375,8.193046875,10.483359375,-0.6017421875,2.85025,8.68196484375,10.21665234375,8.03560546875,-7.35816796875,13.58014453125,5.647640625,3.02948828125,-5.80605859375
-0.643546875,3.13505078125,9.850875,3.5913515625,7.4587421875,4.4428515625,2.40316015625,-1.40985546875,4.035453125,6.1950859375,9.2892421875,10.64864453125,2.07860546875,8.97134375,9.854890625,14.320734375,-10.17973828125,-8.67555859375,10.947046875,12.616359375,3.6122578125,4.94625,11.15496484375,11.95365234375,9.27860546875,-8.94416796875,15.62814453125,7.107640625,5.40848828125,-5.61005859375
2.826453125,6.70805078125,13.698875,2.6993515625,5.7627421875,7.3698515625,9.40116015625,6.58014453125,10.038453125,8.1870859375,10.7792421875,12.38664453125,6.28260546875,11.90134375,10.212890625,15.164734375,-9.05573828125,-4.28155859375,12.863046875,13.405359375,6.1682578125,8.52225,12.95996484375,12.71565234375,9.57360546875,-9.04616796875,17.74814453125,8.624640625,7.75848828125,-5.34305859375
5.711453125,9.52505078125,16.379875,2.3843515625,2.9497421875,9.4208515625,16.30616015625,17.09814453125,12.172453125,8.5800859375,11.0092421875,7.54564453125,9.95260546875,13.08534375,9.278890625,13.585734375,-5.52873828125,-0.822558593749999,13.459046875,12.730359375,6.5562578125,11.95525,13.37496484375,12.34765234375,8.82160546875,-7.58016796875,19.28814453125,9.604640625,9.65748828125,-5.22605859375
7.543453125,11.13805078125,17.357875,3.0853515625,-0.00325781250000023,10.5678515625,21.03616015625,26.44814453125,10.376453125,7.7810859375,10.4412421875,-0.36835546875,11.28060546875,12.40134375,7.697890625,10.635734375,-0.128738281250001,0.422441406249998,12.635046875,10.948359375,5.2032578125,13.52825,11.98096484375,10.93665234375,7.29260546875,-4.85116796875,19.62314453125,9.423640625,10.70048828125,-5.34605859375
8.172453125,11.53105078125,16.784875,4.8923515625,-2.0432578125,11.0888515625,22.02016015625,30.80514453125,5.809453125,6.5380859375,9.6612421875,-6.30235546875,9.25260546875,10.28534375,6.223890625,7.784734375,5.99226171875,-1.10055859375,10.697046875,8.718359375,3.1512578125,12.23225,8.87996484375,8.80065234375,5.50460546875,-1.49216796875,18.45414453125,7.749640625,10.65148828125,-5.61905859375
7.848453125,11.16705078125,15.499875,7.5233515625,-2.3532578125,11.4178515625,18.87216015625,28.30314453125,0.356453125,5.6450859375,9.1432421875,-6.30935546875,4.35460546875,7.59534375,5.436890625,6.232734375,11.38626171875,-4.85755859375,8.300046875,6.773359375,1.5212578125,8.28325,4.78996484375,6.45765234375,4.04960546875,1.66283203125,16.02014453125,4.833640625,9.59848828125,-5.81205859375
7.220453125,10.85805078125,14.722875,10.5013515625,-0.6262578125,12.0348515625,12.90616015625,20.23014453125,-3.860546875,5.7230859375,9.1982421875,0.60864453125,-1.39039453125,5.41734375,5.647890625,6.522734375,14.89026171875,-9.27755859375,6.338046875,5.764359375,1.1442578125,3.11325,0.93596484375,4.58565234375,3.47460546875,3.89183203125,13.14314453125,1.584640625,8.05948828125,-5.55905859375
7.143453125,11.46105078125,15.545875,13.3533515625,2.7817421875,13.3408515625,6.99616015625,10.52514453125,-4.985546875,7.0630859375,10.0042421875,12.16464453125,-5.21839453125,4.79734375,6.943890625,8.520734375,16.07326171875,-12.26955859375,5.726046875,6.164359375,2.4372578125,-1.17475,-1.28303515625,3.90065234375,4.20460546875,5.00683203125,11.01414453125,-0.674359375,6.89948828125,-4.40005859375
8.234453125,13.40505078125,18.357875,15.6343515625,6.8157421875,15.3778515625,4.39116015625,3.78214453125,-2.072546875,9.4700859375,11.5192421875,23.86064453125,-4.95839453125,6.31634375,9.113890625,11.549734375,15.17726171875,-12.10955859375,7.000046875,8.074359375,5.3352578125,-2.66675,-0.86203515625,4.85565234375,6.37960546875,5.50483203125,10.68114453125,-0.781359375,6.98248828125,-1.97005859375
10.362453125,16.28305078125,22.451875,16.7673515625,9.8397421875,17.5098515625,6.82016015625,2.85614453125,4.297453125,12.1180859375,13.2582421875,30.81864453125,-0.25139453125,9.62834375,11.462890625,14.489734375,12.63526171875,-8.37555859375,9.866046875,10.953359375,9.1022578125,-0.49075,2.21296484375,7.23765234375,9.54960546875,6.09183203125,12.42314453125,1.603640625,8.66348828125,1.63394140625
12.469453125,18.78905078125,26.092875,16.0063515625,10.1187421875,18.4608515625,13.14016015625,7.49614453125,11.870453125,13.6350859375,14.1822421875,29.56764453125,7.03260546875,13.31534375,12.778890625,15.930734375,8.68226171875,-2.39155859375,13.053046875,13.518359375,12.2362578125,4.71325,6.72096484375,9.95465234375,12.50960546875,6.88883203125,15.40614453125,5.650640625,11.43448828125,5.57294140625
12.992453125,19.26305078125,27.235875,12.7843515625,6.6817421875,16.9298515625,19.68416015625,14.75414453125,17.457453125,12.6340859375,13.0342421875,19.22364453125,13.55060546875,15.38834375,11.757890625,14.592734375,3.42926171875,3.19944140625,14.760046875,14.154359375,12.8722578125,10.97725,10.61596484375,11.37865234375,13.61560546875,7.07883203125,17.97814453125,9.661640625,14.07448828125,8.46594140625
10.772453125,16.66605078125,24.655875,7.3003515625,0.1387421875,12.4708515625,22.30216015625,20.76114453125,18.370453125,8.5540859375,9.1112421875,1.89164453125,16.13860546875,14.30434375,7.796890625,10.020734375,-2.73073828125,5.67744140625,13.603046875,11.791359375,9.7372578125,15.85125,12.02996484375,10.18165234375,11.65860546875,5.54283203125,18.55914453125,11.936640625,15.31848828125,9.11794140625
5.878453125,11.39005078125,18.813875,0.8153515625,-7.2482578125,6.0378515625,18.74716015625,22.64814453125,13.777453125,2.2680859375,2.9662421875,-17.72235546875,13.43760546875,9.91534375,1.607890625,3.160734375,-8.89673828125,3.62444140625,9.498046875,6.727359375,3.1182578125,17.53425,10.26496484375,6.19365234375,6.76960546875,2.01983203125,16.57214453125,11.684640625,14.59348828125,7.33794140625
-0.214546875,5.24605078125,11.791875,-4.7136484375,-12.5492578125,-0.2621484375,9.90816015625,19.60714453125,5.137453125,-4.0979140625,-3.5717578125,-33.58335546875,6.53160546875,3.66734375,-4.863109375,-3.743265625,-13.85873828125,-2.34455859375,3.848046875,0.734359375,-4.9417421875,15.67125,6.14596484375,0.62865234375,0.62760546875,-2.25616796875,12.77014453125,9.354640625,12.29748828125,4.18494140625
-5.305546875,0.54305078125,6.250875,-7.5276484375,-13.6892578125,-4.1301484375,-0.667839843749999,12.82614453125,-4.534546875,-8.1719140625,-8.2227578125,-40.45135546875,-1.75739453125,-2.13065625,-9.292109375,-8.109265625,-16.57473828125,-9.95055859375,-1.154953125,-3.773640625,-11.5697421875,11.39525,1.49196484375,-4.52034765625,-4.29339453125,-5.13216796875,8.72414453125,6.189640625,9.42248828125,1.36294140625
-7.589546875,-1.12494921875,4.049875,-6.8766484375,-10.5312578125,-4.2481484375,-8.53683984375,4.70814453125,-12.093546875,-8.5699140625,-9.4347578125,-36.16335546875,-8.40839453125,-5.50165625,-10.160109375,-8.361265625,-16.58373828125,-16.41555859375,-3.672953125,-5.028640625,-14.5817421875,6.67025,-1.89903515625,-7.54134765625,-6.03639453125,-4.92716796875,5.87114453125,3.402640625,6.85448828125,0.17994140625
-6.521546875,0.39505078125,5.415875,-3.2376484375,-4.8322578125,-0.9591484375,-10.47983984375,-2.14085546875,-15.545546875,-5.5609140625,-7.1777578125,-22.83935546875,-11.60239453125,-5.71165625,-7.521109375,-4.795265625,-14.12073828125,-19.72455859375,-3.098953125,-2.821640625,-13.6057421875,3.35525,-3.09803515625,-7.80934765625,-4.15239453125,-1.58816796875,4.76314453125,1.578640625,4.89848828125,0.809941406250001
-2.907546875,3.98005078125,9.086875,2.0933515625,0.8397421875,4.0008515625,-5.99483984375,-5.78985546875,-14.551546875,-0.773914062500001,-2.8707578125,-6.06935546875,-11.23939453125,-3.37965625,-2.880109375,0.610734375000001,-9.90073828125,-19.28055859375,-0.167953125,1.532359375,-10.0657421875,2.53525,-2.21603515625,-5.87934765625,0.23560546875,3.26783203125,5.00714453125,0.654640625,3.33448828125,2.35894140625
1.702453125,8.01805078125,13.199875,7.6583515625,4.4837421875,8.5498515625,2.59116015625,-5.52085546875,-10.084546875,3.7840859375,1.4712421875,7.68764453125,-8.45839453125,0.15234375,1.726890625,5.343734375,-4.78873828125,-15.75255859375,3.677046875,6.075359375,-6.1397421875,4.34325,0.0249648437499999,-2.90734765625,5.23760546875,7.38083203125,5.80214453125,0.363640625,1.89548828125,3.62294140625
5.858453125,11.24905078125,16.290875,12.3343515625,5.5067421875,11.3628515625,11.43216015625,-1.97085546875,-3.691546875,6.7520859375,4.3042421875,14.11764453125,-4.68039453125,3.65234375,4.811890625,7.710734375,0.320261718749999,-10.42755859375,7.142046875,9.311359375,-3.4387421875,8.19325,2.91096484375,0.09965234375,9.27260546875,9.20983203125,6.60514453125,0.688640625,0.70648828125,3.94694140625
8.761453125,13.20905078125,17.863875,15.5073515625,4.6777421875,12.2978515625,17.10416015625,3.17314453125,3.124453125,7.8660859375,5.1882421875,12.83264453125,-0.84939453125,6.48134375,5.995890625,7.572734375,4.39226171875,-4.59555859375,9.592046875,10.806359375,-2.3077421875,13.08325,6.05496484375,2.67565234375,11.73060546875,8.73783203125,7.40914453125,1.927640625,0.30948828125,3.57494140625
10.322453125,14.13405078125,18.324875,17.0243515625,3.3757421875,12.0398515625,18.00116015625,7.77914453125,9.161453125,7.7030859375,4.6872421875,7.00264453125,2.73560546875,8.52734375,5.806890625,6.069734375,6.22826171875,0.730441406249998,10.996046875,11.046359375,-2.0437421875,17.82925,9.25396484375,4.76865234375,12.89960546875,7.30183203125,8.48014453125,4.320640625,1.24048828125,3.31794140625
10.832453125,14.49205078125,18.429875,17.0173515625,2.6507421875,11.3838515625,14.55316015625,9.93314453125,13.516453125,7.0310859375,3.7242421875,1.22764453125,6.03060546875,9.81234375,5.051890625,4.685734375,4.84026171875,4.80044140625,11.517046875,10.786359375,-1.7097421875,21.25725,12.15996484375,6.34265234375,13.39260546875,6.62783203125,9.86314453125,7.588640625,3.51548828125,3.85994140625
10.532453125,14.48505078125,18.636875,15.7233515625,2.6257421875,10.7118515625,8.52316015625,8.47014453125,15.557453125,6.2600859375,2.8982421875,-0.998355468750001,8.71660546875,10.17534375,4.250890625,4.291734375,0.082261718749999,7.02344140625,11.159046875,10.438359375,-0.9367421875,22.42825,14.10996484375,7.10365234375,13.55060546875,7.66883203125,11.07514453125,10.797640625,6.42148828125,5.19094140625
9.370453125,13.85905078125,18.768875,13.3583515625,2.4807421875,9.8468515625,2.07416015625,3.30014453125,14.969453125,5.2800859375,2.2042421875,1.19064453125,9.98560546875,9.24734375,3.404890625,4.743734375,-7.02173828125,6.97544140625,9.721046875,9.853359375,-0.2137421875,20.85625,14.30096484375,6.56865234375,13.19860546875,9.93083203125,11.24214453125,12.690640625,8.78848828125,6.52994140625
7.106453125,12.13105078125,18.182875,10.1423515625,0.9707421875,8.2738515625,-2.90683984375,-4.43885546875,11.872453125,3.7150859375,1.2402421875,6.06464453125,8.87460546875,6.72734375,2.161890625,5.155734375,-14.58073828125,4.56644140625,7.044046875,8.560359375,-0.5607421875,16.65825,12.20696484375,4.40065234375,11.84960546875,11.67883203125,9.56014453125,12.312640625,9.54048828125,6.74694140625
3.710453125,9.08505078125,16.315875,6.4163515625,-2.7872578125,5.6128515625,-5.19783984375,-12.43485546875,6.931453125,1.3350859375,-0.3027578125,10.47464453125,4.94860546875,2.74634375,0.230890625,4.585734375,-20.58573828125,0.28144140625,3.347046875,6.237359375,-2.8167421875,10.61425,7.98696484375,0.77365234375,9.17560546875,10.93383203125,5.80914453125,9.533640625,8.24048828125,5.03594140625
-0.253546875,5.17905078125,13.234875,2.7443515625,-8.6402578125,2.1068515625,-4.44983984375,-17.68985546875,1.370453125,-1.5779140625,-2.2417578125,11.42264453125,-1.14439453125,-1.89165625,-2.202109375,2.700734375,-23.56773828125,-4.69555859375,-0.583953125,3.129359375,-6.9457421875,4.08325,2.64096484375,-3.46034765625,5.44760546875,6.73883203125,0.64214453125,5.189640625,5.32848828125,1.47894140625
-3.604546875,1.58005078125,9.827875,-0.1086484375,-15.2062578125,-1.2251484375,-1.20283984375,-17.63385546875,-3.205546875,-4.1519140625,-3.8337578125,7.42264453125,-7.65539453125,-5.80265625,-4.324109375,0.0617343750000003,-22.88373828125,-8.69755859375,-3.530953125,0.146359375,-11.7487421875,-1.29375,-2.21703515625,-6.94134765625,1.68060546875,0.0128320312499999,-4.52585546875,0.772640625,1.98448828125,-2.80105859375
-5.001546875,-0.29994921875,7.429875,-1.3816484375,-20.3252578125,-2.9941484375,3.32316015625,-11.58785546875,-5.222546875,-5.2009140625,-4.1127578125,-0.677355468749999,-12.35839453125,-7.47065625,-5.001109375,-2.120265625,-18.79673828125,-10.13555859375,-4.283953125,-1.458640625,-15.2257421875,-4.11375,-4.93503515625,-8.28934765625,-0.65639453125,-6.54116796875,-8.02185546875,-2.205359375,-0.37051171875,-6.04805859375
-3.652546875,0.45705078125,7.111875,-0.598648437500001,-21.9952578125,-2.2061484375,7.63816015625,-1.66785546875,-3.703546875,-3.8039140625,-2.4527578125,-9.79935546875,-13.51639453125,-5.89765625,-3.371109375,-2.613265625,-12.52873828125,-8.18055859375,-2.210953125,-0.707640625,-15.4717421875,-3.71875,-4.49803515625,-6.72234765625,-0.30939453125,-9.62816796875,-8.64185546875,-2.861359375,-0.71351171875,-6.71505859375
0.175453125,3.70605078125,9.037875,2.1913515625,-19.3252578125,1.1028515625,10.41416015625,7.78914453125,1.266453125,0.1340859375,0.9892421875,-15.85435546875,-10.69639453125,-1.13865625,0.587890625,-0.830265625,-6.18373828125,-3.16755859375,2.332046875,2.506359375,-11.7217421875,-0.42675,-0.99403515625,-2.50234765625,3.01960546875,-7.19616796875,-6.24685546875,-1.306359375,1.08548828125,-4.31205859375
5.152453125,8.21205078125,12.301875,6.3283515625,-13.0792578125,5.7728515625,10.81216015625,12.21014453125,8.398453125,5.6390859375,5.2122421875,-15.74135546875,-4.99339453125,5.57334375,5.865890625,2.791734375,-2.24873828125,3.49744140625,8.008046875,7.189359375,-4.9687421875,4.62225,4.37996484375,3.04765234375,8.32160546875,0.15583203125,-1.89485546875,1.459640625,4.18448828125,0.24094140625
9.418453125,12.18705078125,15.317875,10.7033515625,-5.5212578125,9.9898515625,8.68316015625,9.14214453125,15.527453125,10.9610859375,8.7762421875,-9.10435546875,1.44660546875,12.21334375,10.738890625,6.925734375,-2.59373828125,9.90644140625,12.957046875,11.599359375,2.2962578125,9.91125,9.78496484375,8.03765234375,13.57960546875,9.18483203125,2.60614453125,4.048640625,7.17848828125,5.03194140625
11.403453125,14.10705078125,16.595875,14.1433515625,0.4487421875,12.0918515625,4.65516015625,-0.362855468749999,20.347453125,14.2870859375,10.4582421875,1.22764453125,6.42160546875,16.75634375,13.508890625,9.956734375,-7.32873828125,14.42644140625,15.556046875,14.028359375,7.1872578125,14.08725,13.49296484375,10.82165234375,16.68560546875,15.58683203125,5.54614453125,5.327640625,8.80048828125,8.14494140625
10.543453125,13.37905078125,15.475875,15.8793515625,2.5167421875,11.3098515625,0.0931601562500006,-12.09985546875,21.305453125,14.5240859375,9.8212421875,10.48164453125,8.70660546875,17.98834375,13.302890625,10.758734375,-14.33173828125,16.34544140625,15.102046875,13.630359375,7.8302578125,16.37325,14.58296484375,10.72365234375,16.46060546875,16.27083203125,6.10314453125,4.879640625,8.53348828125,8.63094140625
7.472453125,10.52105078125,12.436875,15.7843515625,-0.1172578125,8.0158515625,-3.28683984375,-20.74285546875,18.245453125,11.7170859375,7.3442421875,14.23364453125,8.48660546875,15.92834375,10.435890625,9.162734375,-20.13373828125,16.03444140625,12.050046875,10.767359375,4.2272578125,16.70325,13.21596484375,8.25465234375,13.16560546875,10.89183203125,4.63114453125,3.052640625,6.77848828125,6.87694140625
3.584453125,6.80505078125,8.805875,14.2583515625,-6.5532578125,3.3858515625,-4.20683984375,-22.52885546875,12.424453125,6.9130859375,4.0642421875,10.49064453125,6.95460546875,11.64534375,6.139890625,5.901734375,-21.84873828125,14.58544140625,7.673046875,6.687359375,-1.9317421875,15.55525,10.35996484375,4.71465234375,8.22060546875,1.79483203125,2.29514453125,0.619640625,4.50248828125,4.18294140625
0.265453125000001,3.60305078125,6.083875,11.8883515625,-14.7072578125,-1.2501484375,-2.60583984375,-17.12785546875,5.915453125,1.6160859375,1.0192421875,0.53164453125,5.40760546875,6.68434375,1.881890625,2.133734375,-18.81673828125,13.18144140625,3.431046875,2.831359375,-8.2347421875,13.62725,7.21996484375,1.48765234375,3.39360546875,-7.40016796875,0.361144531250002,-1.661359375,2.67448828125,1.95194140625
-1.663546875,1.84205078125,5.319875,9.2313515625,-22.0992578125,-4.8691484375,0.208160156250001,-7.59085546875,0.729453125,-2.7919140625,-1.1427578125,-11.78135546875,4.55260546875,2.44234375,-1.214109375,-1.028265625,-12.74973828125,12.57944140625,0.434046875,0.239359375,-12.5727421875,11.58525,4.73696484375,-0.51334765625,0.0506054687500002,-13.45816796875,-0.356855468749998,-3.304359375,1.87648828125,1.07094140625
-2.045546875,1.79805078125,6.825875,6.7633515625,-26.5542578125,-6.8831484375,2.32116015625,1.50314453125,-1.903546875,-5.4149140625,-2.2077578125,-21.72035546875,4.40460546875,-0.21965625,-2.581109375,-2.773265625,-6.45273828125,12.91944140625,-0.787953125,-0.645640625,-13.7227421875,9.94725,3.38696484375,-0.99634765625,-1.15939453125,-14.58216796875,0.345144531250002,-4.096359375,2.24648828125,1.76794140625
-1.166546875,3.20805078125,10.209875,4.8583515625,-26.7292578125,-7.0971484375,2.43016015625,6.53114453125,-1.798546875,-5.9409140625,-2.2157578125,-25.66735546875,4.64860546875,-1.10665625,-2.183109375,-2.669265625,-2.26673828125,13.83844140625,-0.264953125,0.108359375,-11.5137421875,9.03525,3.22596484375,-0.15434765625,-0.26439453125,-10.68716796875,2.19914453125,-3.990359375,3.62148828125,3.76594140625
0.480453125,5.47105078125,14.549875,3.6913515625,-22.4732578125,-5.6921484375,0.730160156250001,6.45814453125,0.393453125,-4.6029140625,-1.3137578125,-22.58935546875,5.00060546875,-0.60365625,-0.411109375,-0.735265625,-1.23173828125,14.72144140625,1.528046875,2.055359375,-6.8067421875,8.93025,4.01896484375,1.52165234375,2.16660546875,-3.20616796875,4.65514453125,-3.060359375,5.65448828125,6.46894140625
2.303453125,7.80405078125,18.574875,3.1503515625,-14.9262578125,-3.2141484375,-1.20183984375,2.83214453125,3.627453125,-2.0709140625,0.2302421875,-14.39235546875,5.28760546875,0.54434375,2.030890625,2.471734375,-3.17773828125,14.98944140625,3.831046875,4.476359375,-1.2797421875,9.46125,5.32996484375,3.38165234375,5.15360546875,5.34383203125,7.02614453125,-1.539359375,7.86548828125,9.05394140625
3.668453125,9.37905078125,20.968875,2.9033515625,-6.2012578125,-0.4671484375,-1.52383984375,-1.64085546875,6.856453125,0.7140859375,1.9602421875,-4.89535546875,5.31060546875,1.52934375,4.296890625,5.936734375,-7.24573828125,14.30944140625,5.798046875,6.505359375,3.0882578125,10.25725,6.60996484375,4.74665234375,7.52860546875,12.07683203125,8.64414453125,0.168640625,9.70148828125,10.64194140625
4.032453125,9.56405078125,20.829875,2.6263515625,1.3527421875,1.7008515625,0.48816015625,-4.83285546875,9.209453125,2.8080859375,3.2832421875,2.09664453125,4.77760546875,1.76134375,5.649890625,8.519734375,-12.29973828125,12.67444140625,6.738046875,7.395359375,4.7952578125,10.86225,7.32396484375,5.10465234375,8.31960546875,14.70783203125,9.07414453125,1.582640625,10.69348828125,10.58394140625
3.124453125,8.19905078125,18.115875,2.2243515625,5.9787421875,2.6448515625,3.80516015625,-6.13885546875,10.054453125,3.5740859375,3.6922421875,4.50364453125,3.42860546875,1.04134375,5.688890625,9.412734375,-17.08373828125,10.33444140625,6.324046875,6.807359375,3.4762578125,10.80025,7.10796484375,4.30465234375,7.17260546875,12.44183203125,8.30214453125,2.312640625,10.64048828125,8.77994140625
1.074453125,5.67905078125,13.717875,1.8513515625,7.0217421875,2.1118515625,6.31816015625,-6.22185546875,9.086453125,2.8870859375,3.0142421875,2.48064453125,1.25160546875,-0.41965625,4.455890625,8.450734375,-20.35773828125,7.64844140625,4.690046875,4.963359375,0.0522578124999997,9.62325,5.88996484375,2.64065234375,4.53760546875,6.29383203125,6.76514453125,2.193640625,9.71448828125,5.78494140625
-1.613546875,2.75705078125,9.062875,1.7063515625,4.9297421875,0.3378515625,6.35416015625,-6.09685546875,6.492453125,1.1450859375,1.5082421875,-2.23835546875,-1.39239453125,-2.11565625,2.409890625,6.138734375,-21.25973828125,4.97444140625,2.381046875,2.559359375,-3.7177421875,7.04825,3.92396484375,0.74765234375,1.47960546875,-1.33616796875,5.17214453125,1.324640625,8.38648828125,2.63694140625
-4.210546875,0.24705078125,5.536875,1.8143515625,0.8597421875,-1.9971484375,3.83716015625,-6.37985546875,3.060453125,-0.892914062500001,-0.2187578125,-7.35435546875,-3.80739453125,-3.42565625,0.247890625,3.449734375,-19.78373828125,2.67444140625,0.170046875,0.488359375,-6.0297421875,3.24725,1.73396484375,-0.64034765625,-0.76939453125,-7.60716796875,4.23514453125,0.0276406250000001,7.24248828125,0.47294140625
-5.946546875,-1.18194921875,4.047875,1.9683515625,-3.7862578125,-3.9851484375,0.27016015625,-7.11185546875,0.00145312499999994,-2.3499140625,-1.4377578125,-10.70135546875,-5.14439453125,-3.79465625,-1.339109375,1.512734375,-16.96873828125,1.15244140625,-1.206953125,-0.477640625,-5.7577421875,-0.93975,-0.0410351562500002,-0.95434765625,-1.30239453125,-10.26516796875,4.41214453125,-1.252359375,6.75148828125,0.11694140625
-6.225546875,-1.12694921875,4.820875,1.9003515625,-7.6892578125,-4.7751484375,-2.31583984375,-8.04785546875,-1.512546875,-2.5019140625,-1.5577578125,-10.61135546875,-4.67239453125,-2.88965625,-1.900109375,1.253734375,-14.44873828125,0.843441406249998,-1.296953125,0.0503593749999998,-2.8027421875,-4.14775,-0.85203515625,0.02265234375,0.13060546875,-8.38116796875,5.75914453125,-2.097359375,7.10348828125,1.78194140625
-4.849546875,0.43405078125,7.349875,1.4903515625,-9.7552578125,-3.8271484375,-2.58083984375,-9.04985546875,-0.840546875,-1.0139140625,-0.3167578125,-6.24035546875,-2.11539453125,-0.71065625,-1.331109375,3.086734375,-13.54273828125,2.06944140625,-0.0699531249999999,1.983359375,2.0072578125,-5.03275,-0.43603515625,2.09965234375,3.06460546875,-2.61516796875,7.91014453125,-2.283359375,8.14648828125,5.00194140625
-2.150546875,3.06105078125,10.555875,0.8993515625,-9.2472578125,-1.0591484375,-0.50383984375,-10.22185546875,1.897453125,1.9600859375,2.1512421875,2.01864453125,2.12160546875,2.40934375,0.159890625,6.720734375,-14.46773828125,4.84644140625,2.112046875,4.805359375,7.3452578125,-2.93775,1.10496484375,4.77765234375,6.51860546875,5.02683203125,10.20014453125,-1.875359375,9.43848828125,8.77494140625
1.079453125,5.97405078125,13.209875,0.541351562499999,-5.9732578125,3.0998515625,2.76916015625,-11.62785546875,5.953453125,5.8340859375,5.3862421875,12.19064453125,7.02560546875,5.92234375,2.174890625,11.182734375,-16.19273828125,8.77444140625,4.678046875,7.757359375,11.8722578125,1.72125,3.36496484375,7.44165234375,9.36060546875,11.83883203125,11.89214453125,-1.196359375,10.39448828125,11.89394140625
3.907453125,8.37005078125,14.523875,0.9433515625,-0.4442578125,7.7878515625,5.64516015625,-12.74485546875,10.357453125,9.8080859375,8.7602421875,20.80964453125,11.41360546875,9.25934375,4.264890625,15.089734375,-17.02273828125,13.09944140625,7.088046875,10.091359375,14.6222578125,7.57825,5.81596484375,9.58165234375,10.71960546875,15.36183203125,12.44714453125,-0.650359375,10.51448828125,13.36694140625
5.680453125,9.76305078125,14.535875,2.5083515625,6.1787421875,11.9648515625,6.95816015625,-12.24885546875,14.314453125,13.1070859375,11.6502421875,23.83964453125,14.49660546875,12.00234375,6.069890625,17.144734375,-15.57473828125,16.94444140625,9.010046875,11.310359375,15.2432578125,12.84825,7.99396484375,10.94665234375,10.31660546875,14.38083203125,11.72914453125,-0.533359375,9.58448828125,12.80594140625
6.261453125,10.12005078125,13.990875,5.2383515625,12.4187421875,14.7408515625,6.56116015625,-8.64185546875,17.360453125,15.1770859375,13.5742421875,18.47964453125,16.15560546875,13.93434375,7.395890625,16.656734375,-11.61673828125,19.55544140625,10.322046875,11.317359375,14.0382578125,15.97925,9.58696484375,11.55165234375,8.56360546875,9.53183203125,10.03014453125,-0.943359375,7.74848828125,10.58494140625
5.910453125,9.67505078125,13.717875,8.5343515625,16.9547421875,15.5988515625,5.36216015625,-1.52285546875,19.177453125,15.7620859375,14.2682421875,5.05364453125,16.68960546875,14.93334375,8.165890625,13.849734375,-6.33673828125,20.43144140625,10.967046875,10.365359375,11.7572578125,16.11525,10.39696484375,11.51965234375,6.33360546875,3.03183203125,7.86214453125,-1.855359375,5.39848828125,7.62194140625
4.913453125,8.60705078125,13.924875,11.2773515625,18.9837421875,14.4178515625,4.77016015625,7.42614453125,19.333453125,14.8890859375,13.7072421875,-12.31135546875,16.26360546875,14.85334375,8.313890625,9.762734375,-1.83673828125,19.35544140625,10.806046875,8.880359375,9.2152578125,13.25025,10.24796484375,10.91165234375,4.50760546875,-2.47516796875,5.64714453125,-3.227359375,2.95048828125,4.88994140625
3.358453125,6.87905078125,13.970875,12.3043515625,18.3657421875,11.4778515625,5.82716015625,14.73614453125,17.328453125,12.8400859375,12.1302421875,-27.03935546875,14.65560546875,13.58334375,7.790890625,5.833734375,-0.0197382812500013,16.46144140625,9.671046875,7.284359375,7.0012578125,8.18225,9.03396484375,9.71765234375,3.57860546875,-5.24316796875,3.54714453125,-5.007359375,0.70248828125,2.96194140625
1.279453125,4.42405078125,12.857875,11.0633515625,15.6087421875,7.5168515625,8.51316015625,16.82314453125,13.052453125,10.1500859375,10.0482421875,-33.00635546875,11.65660546875,11.29134375,6.737890625,3.399734375,-1.43673828125,12.38344140625,7.639046875,5.975359375,5.4762578125,2.36525,6.92296484375,8.05365234375,3.60360546875,-5.05016796875,1.57514453125,-7.006359375,-1.13051171875,1.90994140625
-1.016546875,1.50605078125,10.101875,8.0593515625,11.7377421875,3.6738515625,11.69816015625,12.07114453125,7.268453125,7.5770859375,8.1922421875,-27.51235546875,7.72560546875,8.62934375,5.628890625,3.272734375,-4.87273828125,8.27944140625,5.250046875,5.351359375,4.9492578125,-2.40375,4.52296484375,6.35865234375,4.42360546875,-2.79516796875,-0.150855468749999,-8.806359375,-2.29751171875,1.54094140625
-2.831546875,-1.11694921875,6.309875,4.7183515625,8.0987421875,1.1388515625,13.83916015625,2.06714453125,1.574453125,5.9430859375,7.2952421875,-12.73935546875,4.11460546875,6.59834375,5.134890625,5.453734375,-8.10073828125,5.50444140625,3.403046875,5.727359375,5.6972578125,-4.55675,2.75096484375,5.31065234375,5.86460546875,0.36583203125,-1.29985546875,-9.869359375,-2.50451171875,1.67294140625
-3.342546875,-2.43594921875,3.030875,2.7213515625,6.0617421875,0.6378515625,13.99916015625,-8.81085546875,-2.251546875,5.8230859375,7.7802421875,5.07564453125,2.19660546875,6.08234375,5.742890625,9.057734375,-9.34573828125,4.99844140625,2.908046875,7.127359375,7.7042578125,-3.46075,2.38696484375,5.44365234375,7.71260546875,3.60783203125,-1.50885546875,-9.842359375,-1.59151171875,2.21194140625
-2.100546875,-1.72694921875,1.955875,3.1693515625,6.6677421875,2.1118515625,12.47216015625,-15.31985546875,-3.129546875,7.2510859375,9.5072421875,18.42664453125,2.53260546875,7.33634375,7.408890625,12.572734375,-8.41773828125,6.77344140625,3.984046875,9.111359375,10.3522578125,0.14425,3.59396484375,6.73165234375,9.53760546875,6.40783203125,-0.721855468749999,-8.822359375,0.23448828125,3.01194140625
0.615453125,1.00005078125,3.972875,6.0493515625,10.2557421875,4.7888515625,10.65416015625,-13.86785546875,-1.220546875,9.6500859375,11.7682421875,21.91264453125,4.45660546875,9.80034375,9.492890625,14.433734375,-6.72473828125,9.86344140625,6.086046875,10.853359375,12.4762578125,4.36825,5.76896484375,8.49465234375,10.64760546875,8.26083203125,0.624144531250002,-7.362359375,2.33048828125,3.75794140625
3.858453125,4.99705078125,8.705875,10.2873515625,16.2667421875,7.5898515625,10.25116015625,-4.30485546875,2.184453125,12.0990859375,13.6202421875,14.62164453125,6.52560546875,12.39634375,11.084890625,13.737734375,-6.15973828125,12.85144140625,8.187046875,11.525359375,12.9272578125,7.10825,7.87096484375,9.75665234375,10.37760546875,8.66483203125,1.77214453125,-6.152359375,3.86648828125,4.06894140625
6.509453125,9.22705078125,14.817875,14.3583515625,23.3997421875,9.6718515625,12.29516015625,9.93314453125,5.416453125,13.8090859375,14.4052421875,0.47864453125,7.44060546875,14.13934375,11.534890625,10.767734375,-7.65173828125,14.64944140625,9.395046875,10.799359375,11.3792578125,7.21825,9.03496484375,9.86465234375,8.58460546875,7.52283203125,2.10814453125,-5.558359375,4.25048828125,3.79594140625
7.905453125,12.94905078125,20.834875,17.0103515625,30.0727421875,10.8048515625,16.36116015625,23.27114453125,7.356453125,14.5120859375,14.1182421875,-13.40935546875,6.72360546875,14.68034375,10.872890625,7.014734375,-10.45573828125,15.02244140625,9.458046875,9.129359375,8.7392578125,5.13925,9.05696484375,8.91265234375,5.94560546875,5.52083203125,1.56314453125,-5.374359375,3.46048828125,3.23194140625
8.129453125,15.98205078125,25.826875,17.6163515625,34.8527421875,11.3348515625,20.37316015625,30.23714453125,7.950453125,14.4570859375,13.3252421875,-19.69335546875,4.72860546875,14.36234375,9.758890625,4.545734375,-12.75273828125,14.49044140625,8.790046875,7.533359375,6.7522578125,2.47525,8.37496484375,7.63065234375,3.70860546875,4.00983203125,0.614144531250002,-5.009359375,1.98048828125,2.97694140625
7.800453125,18.52405078125,29.558875,16.0563515625,36.6127421875,11.7288515625,21.35516015625,27.65314453125,7.987453125,14.0660859375,12.6732421875,-13.97635546875,2.15060546875,13.81734375,8.963890625,4.931734375,-13.12373828125,13.73344140625,8.014046875,6.949359375,6.9192578125,0.779249999999999,7.60496484375,6.80565234375,2.98160546875,4.28483203125,-0.12685546875,-3.991359375,0.42748828125,3.49594140625
7.586453125,20.76405078125,32.154875,12.5023515625,34.5907421875,12.0808515625,17.05816015625,16.18014453125,8.421453125,13.5570859375,12.3852421875,2.80864453125,-0.38739453125,13.46534375,8.783890625,8.301734375,-11.70273828125,13.06044140625,7.436046875,7.600359375,9.4482578125,0.50225,7.03996484375,6.71165234375,4.02360546875,6.72083203125,-0.384855468749999,-2.383359375,-0.84051171875,4.72094140625
7.831453125,22.63805078125,33.696875,7.4633515625,28.6737421875,12.0038515625,7.66016015625,0.561144531250001,9.715453125,12.8560859375,12.1392421875,24.03064453125,-2.34439453125,13.33834375,8.875890625,13.127734375,-10.06873828125,12.35244140625,6.897046875,8.838359375,12.9632578125,0.90225,6.52796484375,6.97965234375,6.05760546875,10.37983203125,-0.347855468749998,-0.756359375,-1.81451171875,6.03094140625
8.480453125,23.84805078125,34.044875,2.0373515625,19.8497421875,10.9798515625,-3.62983984375,-12.02085546875,11.568453125,11.8130859375,11.3932421875,39.79064453125,-3.05639453125,13.27534375,8.620890625,16.943734375,-9.95773828125,11.47044140625,6.068046875,9.574359375,15.2202578125,0.940249999999999,5.77996484375,6.96865234375,7.74060546875,13.45683203125,-0.391855468749998,0.229640625,-2.62451171875,6.66494140625
9.236453125,24.07105078125,32.903875,-2.0756484375,10.3847421875,8.8148515625,-11.79083984375,-15.28185546875,13.082453125,10.4920859375,9.8862421875,41.65464453125,-1.73239453125,13.21534375,7.666890625,17.678734375,-11.83773828125,10.64844140625,4.866046875,9.006359375,14.4202578125,0.33925,4.74596484375,6.31065234375,7.99560546875,14.38283203125,-0.688855468749999,0.290640625,-3.28351171875,6.26394140625
9.768453125,23.16105078125,30.039875,-3.1186484375,3.2897421875,5.8388515625,-12.57083984375,-7.30285546875,13.251453125,9.2750859375,7.9182421875,27.45864453125,2.13860546875,13.28234375,6.219890625,14.826734375,-14.49773828125,10.47044140625,3.609046875,7.152359375,10.3012578125,-0.11275,3.71896484375,5.17465234375,6.63460546875,12.81083203125,-1.06585546875,-0.371359375,-3.63751171875,5.11894140625
9.853453125,21.20405078125,25.459875,-0.226648437500001,1.1757421875,2.7508515625,-4.98783984375,8.14314453125,11.518453125,8.6520859375,6.1932421875,3.08964453125,8.20460546875,13.60634375,4.886890625,9.709734375,-15.95273828125,11.39144140625,2.784046875,4.800359375,4.2642578125,0.69125,3.04096484375,4.07565234375,4.35360546875,9.68783203125,-1.25985546875,-1.374359375,-3.58351171875,3.90194140625
9.390453125,18.41605078125,19.484875,5.8563515625,5.0707421875,0.2828515625,7.92916015625,23.56214453125,8.117453125,8.8810859375,5.3372421875,-20.32935546875,14.95560546875,14.05134375,4.243890625,4.630734375,-14.92473828125,13.17744140625,2.612046875,2.946359375,-1.5317421875,2.96725,2.69096484375,3.41165234375,2.12660546875,6.31183203125,-1.33285546875,-2.575359375,-3.30751171875,3.07794140625
8.382453125,15.05805078125,12.724875,12.8953515625,13.8677421875,-1.1031484375,20.78216015625,32.01614453125,4.002453125,9.7860859375,5.5082421875,-32.40735546875,20.07960546875,14.14834375,4.453890625,1.537734375,-11.76373828125,14.78044140625,2.803046875,2.162359375,-5.4267421875,5.40725,2.15796484375,3.13465234375,0.52360546875,3.22083203125,-1.81385546875,-4.198359375,-3.28251171875,2.51694140625
7.007453125,11.47905078125,6.016875,18.1933515625,24.7067421875,-1.3171484375,28.80016015625,31.01714453125,0.450453125,10.9110859375,6.4062421875,-28.87235546875,21.44260546875,13.37734375,5.240890625,1.093734375,-8.16273828125,14.86544140625,2.762046875,2.378359375,-6.9607421875,5.76125,0.79596484375,2.87465234375,-0.50039453125,-0.0151679687500001,-3.35685546875,-6.512359375,-3.91451171875,1.67694140625
5.766453125,8.24305078125,0.323875,19.9483515625,34.1657421875,-0.4901484375,30.16116015625,23.64614453125,-1.391546875,11.8930859375,7.6292421875,-13.16635546875,18.21660546875,11.62734375,6.211890625,2.700734375,-5.96073828125,12.71844140625,2.106046875,3.183359375,-6.6137421875,2.33025,-1.57603515625,2.38565234375,-1.21639453125,-3.89516796875,-6.12085546875,-9.351359375,-5.12551171875,0.23294140625
5.483453125,6.08905078125,-3.510125,18.1003515625,39.6667421875,1.2658515625,26.24716015625,16.27514453125,-0.870546875,12.7440859375,9.0152421875,6.27064453125,11.47060546875,9.46734375,7.237890625,5.222734375,-5.88873828125,8.91044140625,1.069046875,4.300359375,-5.0147421875,-4.71375,-4.30603515625,1.89865234375,-1.60139453125,-7.86216796875,-9.41485546875,-11.940359375,-6.22651171875,-1.40905859375
6.946453125,5.60405078125,-5.127125,14.1603515625,40.3657421875,3.8848515625,20.07916015625,14.49214453125,1.956453125,13.7760859375,10.6472421875,20.88864453125,3.75860546875,7.93034375,8.528890625,7.753734375,-7.11073828125,5.13444140625,0.414046875,5.768359375,-2.3777421875,-13.17875,-6.15403515625,2.03365234375,-1.19739453125,-10.09116796875,-11.95085546875,-13.247359375,-6.28551171875,-2.22805859375
10.342453125,6.81205078125,-4.929125,10.2103515625,37.1347421875,7.1188515625,14.36916015625,19.92314453125,6.287453125,15.2600859375,12.5792421875,26.02364453125,-2.12739453125,7.90734375,10.322890625,9.913734375,-7.78473828125,3.28144140625,0.885046875,7.725359375,1.4242578125,-20.01375,-6.00503515625,3.31565234375,0.50860546875,-8.48916796875,-12.58085546875,-12.627359375,-4.73051171875,-1.24805859375
14.928453125,9.01305078125,-3.978125,7.7693515625,31.8067421875,10.2878515625,10.46716015625,29.86114453125,10.839453125,17.0990859375,14.5672421875,22.00064453125,-4.46239453125,9.57734375,12.490890625,11.625734375,-6.21773828125,4.34544140625,2.624046875,10.020359375,6.3282578125,-22.96175,-3.57403515625,5.68565234375,3.53460546875,-2.24516796875,-11.01185546875,-10.271359375,-1.78151171875,1.73194140625
19.202453125,10.98905078125,-3.589125,7.1683515625,26.1667421875,12.3158515625,8.43916015625,39.45814453125,14.289453125,18.7210859375,16.0002421875,12.47364453125,-3.22839453125,12.22034375,14.371890625,12.696734375,-1.95373828125,7.88644140625,4.959046875,12.005359375,11.5802578125,-21.61175,0.36696484375,8.35965234375,7.07760546875,7.13883203125,-8.04885546875,-7.166359375,1.58148828125,5.84394140625
21.460453125,11.42505078125,-4.863125,7.6193515625,21.1607421875,12.0688515625,7.61816015625,44.50514453125,15.652453125,19.2240859375,16.0482421875,1.75864453125,0.15860546875,14.47534375,14.950890625,12.567734375,3.74726171875,12.27144140625,6.643046875,12.651359375,15.6982578125,-17.36175,4.28696484375,10.10765234375,9.65660546875,16.07283203125,-5.26985546875,-4.652359375,4.02148828125,9.43094140625
20.486453125,9.40505078125,-8.340125,7.8343515625,16.7067421875,8.8448515625,7.08416015625,43.03614453125,14.443453125,17.7490859375,14.0002421875,-6.93635546875,3.71460546875,14.91034375,13.301890625,10.510734375,8.40426171875,15.49744140625,6.428046875,10.991359375,17.0652578125,-12.53575,6.55696484375,9.80365234375,9.70960546875,20.46983203125,-4.29885546875,-3.835359375,4.43648828125,10.78794140625
16.140453125,4.85805078125,-13.779125,6.8343515625,12.2677421875,2.8428515625,6.01016015625,35.48614453125,10.767453125,13.9900859375,9.6952421875,-11.76335546875,5.87660546875,12.71534375,9.124890625,6.226734375,9.66926171875,16.16944140625,3.727046875,6.727359375,14.9212578125,-9.16675,6.19296484375,7.02465234375,6.44460546875,17.91983203125,-6.01285546875,-5.100359375,2.48048828125,9.02894140625
9.598453125,-1.24294921875,-20.127125,4.5253515625,7.7897421875,-4.6191484375,4.04516015625,24.09714453125,5.421453125,8.5820859375,3.8432421875,-11.79035546875,6.10860546875,8.19234375,3.131890625,0.358734375,6.80926171875,14.18344140625,-0.957953125,0.626359375,10.0572578125,-8.05175,3.32896484375,2.39065234375,0.41560546875,9.10483203125,-10.05885546875,-7.925359375,-1.23451171875,4.61494140625
3.003453125,-7.16294921875,-25.818125,1.7563515625,4.2007421875,-11.4091484375,1.61116015625,12.15414453125,-0.156546875,3.0210859375,-2.0597578125,-6.95435546875,4.93260546875,2.74334375,-3.039109375,-5.554265625,1.33226171875,10.75244140625,-6.138953125,-5.636640625,4.5842578125,-8.47675,-0.80703515625,-2.62534765625,-6.59239453125,-2.53916796875,-14.98485546875,-11.081359375,-5.38551171875,-0.81405859375
-1.430546875,-11.09994921875,-29.370125,-0.170648437500001,2.9507421875,-15.4381484375,-0.17683984375,3.11614453125,-4.286546875,-0.9209140625,-6.2657578125,1.43064453125,3.47060546875,-1.71165625,-7.456109375,-9.750265625,-3.70173828125,7.77344140625,-9.974953125,-10.168640625,0.8442578125,-8.77475,-4.45703515625,-6.32134765625,-12.34839453125,-12.65716796875,-18.91485546875,-13.161359375,-8.53551171875,-5.22305859375
-2.376546875,-11.93494921875,-29.969125,-0.223648437500001,4.9457421875,-15.5881484375,-0.0468398437499999,-0.34985546875,-5.716546875,-1.9709140625,-7.4787578125,10.45664453125,2.84360546875,-3.57765625,-8.729109375,-11.062265625,-5.16673828125,6.86544140625,-11.072953125,-11.653640625,0.2582578125,-7.39475,-6.10503515625,-7.48234765625,-15.10439453125,-17.98316796875,-20.36785546875,-13.158359375,-9.71651171875,-7.06405859375
0.120453125,-9.61294921875,-27.724125,1.8193515625,9.7257421875,-12.1391484375,2.66216015625,2.77414453125,-4.197546875,0.120085937499999,-5.3547578125,16.47264453125,3.69360546875,-2.24565625,-6.574109375,-9.332265625,-1.27073828125,8.63444140625,-9.033953125,-9.788640625,2.8702578125,-3.87875,-5.07503515625,-5.78134765625,-14.13539453125,-17.36116796875,-18.80985546875,-10.849359375,-8.70151171875,-5.79405859375
4.841453125,-5.05094921875,-23.515125,5.2903515625,15.4847421875,-6.4581484375,7.44816015625,11.42314453125,-0.627546875,4.5210859375,-0.5997578125,16.80664453125,5.95660546875,1.69834375,-1.836109375,-5.279265625,7.77126171875,12.47744140625,-4.528953125,-5.225640625,7.7142578125,0.789249999999999,-1.70803515625,-1.77834765625,-9.77539453125,-11.58716796875,-14.73685546875,-6.830359375,-5.92451171875,-1.87605859375
10.024453125,0.29105078125,-18.613125,8.9773515625,19.8707421875,-0.3021484375,12.66916015625,22.69414453125,3.316453125,9.6930859375,5.3172421875,11.26664453125,8.93160546875,6.75034375,3.917890625,-0.0752656249999997,19.85726171875,16.95544140625,1.012046875,0.771359375,13.4762578125,4.67725,2.85696484375,3.37165234375,-3.15239453125,-2.65316796875,-9.40185546875,-2.242359375,-2.21451171875,3.51794140625
14.057453125,4.93405078125,-14.262125,11.6713515625,21.0357421875,4.7848515625,16.23216015625,32.75314453125,5.888453125,13.9660859375,10.6872421875,2.42464453125,11.62660546875,11.08834375,8.972890625,5.073734375,31.69926171875,20.48744140625,5.928046875,6.748359375,18.9682578125,5.93725,7.16196484375,8.31065234375,4.16560546875,7.06183203125,-4.31585546875,1.692640625,1.50748828125,8.92994140625
15.960453125,7.81405078125,-11.346125,12.6393515625,18.4497421875,7.7988515625,16.61516015625,38.12214453125,6.023453125,16.1130859375,14.1332421875,-5.46335546875,13.15660546875,13.27634375,12.017890625,9.233734375,39.90126171875,22.02644140625,8.890046875,11.431359375,23.2982578125,3.79825,9.98996484375,11.87265234375,10.54660546875,15.40583203125,-0.726855468749999,4.144640625,4.48048828125,13.04794140625
15.593453125,8.51905078125,-10.183125,11.8153515625,13.1457421875,8.3988515625,13.60416015625,36.86214453125,3.808453125,15.7310859375,15.0332421875,-8.26735546875,13.00460546875,12.79334375,12.533890625,11.925734375,42.14926171875,21.42344140625,9.337046875,14.035359375,25.9042578125,-1.01575,10.77096484375,13.41365234375,14.70360546875,20.94083203125,0.775144531250001,4.949640625,6.27648828125,15.10394140625
13.561453125,7.31105078125,-10.467125,9.6653515625,7.2797421875,6.8998515625,8.28916015625,29.19514453125,0.448453125,13.2990859375,13.6352421875,-3.69435546875,11.08660546875,10.14634375,10.885890625,13.178734375,38.08826171875,19.32044140625,7.603046875,14.414359375,26.5702578125,-6.66175,9.70896484375,12.96465234375,16.02260546875,23.22083203125,0.375144531250001,4.586640625,6.85448828125,15.08194140625
10.878453125,4.94805078125,-11.435125,6.8733515625,3.1697421875,4.1148515625,2.40916015625,17.33414453125,-2.298546875,9.9270859375,10.8512421875,7.73964453125,7.78760546875,6.54534375,8.063890625,13.379734375,29.45426171875,16.71044140625,4.691046875,13.005359375,25.4402578125,-11.03075,7.56896484375,11.13665234375,14.68560546875,22.74683203125,-1.17585546875,3.876640625,6.48548828125,13.62294140625
8.522453125,2.36405078125,-12.212125,4.0583515625,2.2587421875,1.0858515625,-2.41483984375,4.67414453125,-2.947546875,6.9080859375,7.8402421875,22.83564453125,3.99760546875,3.35034375,5.209890625,12.996734375,19.33826171875,14.45144140625,1.819046875,10.591359375,22.9472578125,-12.59375,5.26296484375,8.80765234375,11.48460546875,20.51983203125,-2.97285546875,3.554640625,5.58848828125,11.64094140625
7.074453125,0.30005078125,-12.215125,1.6353515625,4.5707421875,-1.2231484375,-5.05983984375,-5.31985546875,-0.961546875,5.2510859375,5.5632421875,36.87964453125,0.91160546875,1.53734375,3.182890625,12.292734375,10.91826171875,12.95044140625,-0.0689531249999999,7.957359375,19.6472578125,-10.95875,3.41896484375,6.72665234375,7.41560546875,17.40783203125,-4.39485546875,3.889640625,4.51948828125,9.86094140625
6.567453125,-0.95094921875,-11.418125,-0.1856484375,8.8597421875,-2.1951484375,-4.92483984375,-10.11985546875,2.990453125,5.3430859375,4.4762421875,45.40464453125,-0.53239453125,1.37234375,2.314890625,11.200734375,6.22726171875,12.06444140625,-0.631953125,5.613359375,15.9882578125,-7.09575,2.10996484375,5.21265234375,3.26360546875,13.73783203125,-5.36585546875,4.550640625,3.41848828125,8.53594140625
6.592453125,-1.55194921875,-10.308125,-1.3466484375,13.2967421875,-1.7501484375,-1.91783984375,-8.77585546875,7.310453125,6.8730859375,4.4742421875,45.81364453125,-0.27339453125,2.37934375,2.415890625,9.438734375,5.56126171875,11.17944140625,-0.179953125,3.705359375,12.2132578125,-3.16475,0.87496484375,4.12365234375,-0.58739453125,9.44983203125,-6.28885546875,4.790640625,2.19648828125,7.49894140625
6.617453125,-1.85894921875,-9.534125,-1.8376484375,16.3037421875,-0.3391484375,3.40816015625,-2.09685546875,10.156453125,9.0580859375,5.1022421875,38.28564453125,0.75460546875,3.63234375,2.989890625,6.836734375,7.79526171875,9.53544140625,0.608046875,2.167359375,8.5142578125,-1.74675,-0.91303515625,3.11165234375,-3.99939453125,4.71983203125,-7.67785546875,3.927640625,0.70748828125,6.50494140625
6.345453125,-2.08994921875,-9.447125,-1.6266484375,17.1517421875,1.3238515625,9.74216015625,7.64814453125,10.248453125,11.0350859375,5.8702421875,25.66064453125,1.21460546875,4.24534375,3.546890625,3.657734375,11.26126171875,6.71944140625,1.134046875,0.991359375,5.3212578125,-4.58275,-3.54503515625,1.98665234375,-6.76039453125,0.49583203125,-9.71185546875,1.827640625,-1.00351171875,5.58694140625
5.873453125,-2.16194921875,-9.844125,-0.718648437500001,16.0387421875,2.6078515625,15.19916015625,17.47814453125,7.387453125,12.1670859375,6.4402421875,12.32264453125,0.20860546875,3.75434375,3.806890625,0.627734375,14.47226171875,3.03644140625,1.179046875,0.333359375,3.3562578125,-11.46275,-6.68103515625,0.89365234375,-8.47639453125,-1.69616796875,-12.03885546875,-0.951359375,-2.60851171875,5.09894140625
5.520453125,-1.83894921875,-10.121125,0.635351562499999,13.6667421875,3.1338515625,17.85616015625,24.63914453125,2.388453125,12.1210859375,6.6122421875,2.46164453125,-2.24939453125,2.17034375,3.650890625,-1.429265625,16.28426171875,-0.582558593750001,0.850046875,0.348359375,3.2282578125,-20.14775,-9.52303515625,0.13165234375,-8.81939453125,-0.69416796875,-14.02285546875,-3.482359375,-3.66651171875,5.37194140625
5.445453125,-1.03794921875,-9.749125,1.8093515625,10.6537421875,2.7358515625,16.51316015625,27.38614453125,-3.434546875,10.8000859375,6.2042421875,-1.54135546875,-5.30639453125,-0.24565625,2.952890625,-2.087265625,15.81726171875,-3.10655859375,0.281046875,0.921359375,4.8882578125,-27.52675,-11.33003515625,-0.19234765625,-7.91439453125,3.29583203125,-15.20385546875,-5.046359375,-3.93151171875,6.28694140625
5.432453125,-0.0199492187499999,-8.667125,2.0033515625,7.2727421875,1.4338515625,11.35116015625,25.38214453125,-8.801546875,8.3140859375,5.0682421875,0.223644531250001,-7.69039453125,-3.18865625,1.560890625,-1.547265625,12.69426171875,-3.96455859375,-0.547953125,1.613359375,7.4782578125,-31.26875,-11.85503515625,-0.32234765625,-6.43639453125,8.52183203125,-15.60985546875,-5.510359375,-3.51351171875,7.18794140625
5.062453125,0.73905078125,-7.279125,0.7233515625,3.6867421875,-0.4781484375,4.09216015625,19.69514453125,-12.750546875,5.0510859375,3.2562421875,5.72264453125,-8.21739453125,-6.31265625,-0.487109375,-0.403265625,7.52126171875,-3.23855859375,-1.725953125,1.924359375,9.7652578125,-30.86975,-11.39503515625,-0.67534765625,-5.28239453125,12.55583203125,-15.67185546875,-5.269359375,-2.78351171875,7.25194140625
4.078453125,0.85705078125,-6.119125,-1.8196484375,0.3297421875,-2.4281484375,-2.64283984375,12.37514453125,-14.699546875,1.6840859375,1.1532421875,12.22164453125,-6.34239453125,-9.16065625,-2.790109375,0.763734375,1.96826171875,-1.48155859375,-3.201953125,1.605359375,10.7802578125,-27.57775,-10.52003515625,-1.53734765625,-5.08639453125,13.55483203125,-15.90385546875,-4.880359375,-2.13351171875,5.98294140625
2.583453125,0.26205078125,-5.535125,-4.7836484375,-2.0372578125,-3.8191484375,-6.59483984375,5.65314453125,-14.486546875,-1.0359140625,-0.6577578125,17.47664453125,-2.58739453125,-11.22265625,-4.732109375,1.608734375,-1.98373828125,0.58344140625,-4.734953125,0.734359375,10.1332578125,-23.49675,-9.76803515625,-2.91834765625,-5.99439453125,11.05083203125,-16.64285546875,-4.727359375,-1.81451171875,3.45894140625
0.918453125,-0.84794921875,-5.617125,-7.2196484375,-2.7302578125,-4.3941484375,-6.99483984375,1.04414453125,-12.402546875,-2.6149140625,-1.7287578125,20.33664453125,1.45160546875,-12.13565625,-5.863109375,1.960734375,-3.14873828125,2.30944140625,-6.041953125,-0.467640625,7.8822578125,-20.50275,-9.47903515625,-4.64134765625,-7.76739453125,5.87583203125,-17.96185546875,-4.878359375,-1.91051171875,0.20994140625
-0.586546875,-2.19794921875,-6.306125,-8.6476484375,-1.6432578125,-4.3381484375,-4.76683984375,-1.18585546875,-9.074546875,-3.0329140625,-2.0277578125,20.78064453125,3.74960546875,-11.84665625,-6.168109375,1.663734375,-1.72273828125,3.30144140625,-6.968953125,-1.846640625,4.3032578125,-19.48475,-9.73303515625,-6.47434765625,-10.00539453125,-0.41416796875,-19.68585546875,-5.113359375,-2.35851171875,-3.02905859375
-1.749546875,-3.55194921875,-7.468125,-9.2586484375,0.6137421875,-4.0551484375,-1.73083984375,-1.87985546875,-5.200546875,-2.6849140625,-1.9147578125,19.61964453125,2.90160546875,-10.59665625,-6.000109375,0.569734375,1.06326171875,3.57644140625,-7.515953125,-3.335640625,-0.1407421875,-20.10375,-10.31403515625,-8.16634765625,-12.23939453125,-6.10816796875,-21.39485546875,-4.993359375,-2.95051171875,-5.49905859375
-2.506546875,-4.68494921875,-8.846125,-9.6136484375,3.1037421875,-3.8491484375,0.52116015625,-2.30185546875,-1.332546875,-2.0899140625,-1.8657578125,18.06664453125,-1.05339453125,-8.77465625,-5.797109375,-1.327265625,3.81126171875,3.57044140625,-7.741953125,-4.835640625,-4.6947421875,-21.10875,-10.74403515625,-9.40234765625,-13.93239453125,-9.73116796875,-22.47485546875,-3.983359375,-3.34051171875,-6.54305859375
-2.861546875,-5.35294921875,-10.036125,-10.1126484375,5.1977421875,-3.8061484375,1.25016015625,-3.34685546875,2.134453125,-1.6239140625,-2.1957578125,17.13564453125,-6.56539453125,-6.77565625,-5.855109375,-3.799265625,5.64626171875,3.94244140625,-7.691953125,-6.152640625,-8.4017421875,-21.03475,-10.46503515625,-9.84434765625,-14.57939453125,-10.45816796875,-22.31885546875,-1.661359375,-3.16051171875,-5.80205859375
-2.900546875,-5.39494921875,-10.613125,-10.6586484375,6.9397421875,-3.8821484375,0.429160156250001,-5.08585546875,4.830453125,-1.4329140625,-2.9827578125,16.98364453125,-11.34639453125,-4.94565625,-6.261109375,-6.457265625,6.36226171875,5.20444140625,-7.414953125,-7.074640625,-10.4767421875,-18.95275,-9.13203515625,-9.29634765625,-13.92839453125,-8.47916796875,-20.61885546875,2.026640625,-2.21151171875,-3.44405859375
-2.808546875,-4.86394921875,-10.339125,-10.7126484375,8.8487421875,-4.0191484375,-1.73783984375,-6.81985546875,6.292453125,-1.4929140625,-4.1437578125,16.63064453125,-13.52439453125,-3.55465625,-6.941109375,-8.901265625,6.16126171875,7.40544140625,-7.006953125,-7.492640625,-10.6627421875,-14.92375,-6.84003515625,-7.83834765625,-12.14039453125,-4.96116796875,-17.57985546875,6.607640625,-0.60651171875,-0.199058593749999
-2.747546875,-3.99794921875,-9.267125,-9.6606484375,11.2557421875,-4.1541484375,-4.98583984375,-7.48385546875,6.049453125,-1.6689140625,-5.4657578125,14.54864453125,-12.51739453125,-2.74165625,-7.691109375,-10.756265625,5.34226171875,10.05844140625,-6.595953125,-7.409640625,-9.2017421875,-9.94775,-4.10903515625,-5.80334765625,-9.66339453125,-1.34216796875,-13.83885546875,11.185640625,1.27248828125,2.93594140625
-2.666546875,-3.01894921875,-7.677125,-7.2396484375,13.6717421875,-4.1501484375,-8.71483984375,-6.26185546875,3.864453125,-1.7289140625,-6.5697578125,9.99064453125,-9.17539453125,-2.45165625,-8.203109375,-11.585265625,4.19526171875,12.37244140625,-6.260953125,-6.848640625,-6.4737421875,-5.48575,-1.64903515625,-3.60034765625,-6.92339453125,1.59083203125,-10.17285546875,14.767640625,2.95148828125,5.16294140625
-2.294546875,-2.01194921875,-5.999125,-3.8246484375,14.7067421875,-3.7911484375,-11.75783984375,-3.18285546875,0.017453125,-1.4349140625,-6.9647578125,4.08464453125,-5.21139453125,-2.47865625,-8.156109375,-10.899265625,2.97226171875,13.63044140625,-5.995953125,-5.816640625,-2.7417421875,-2.78875,-0.0620351562500003,-1.57834765625,-4.15439453125,3.98483203125,-7.22885546875,16.612640625,4.02748828125,6.14494140625
-1.414546875,-1.06494921875,-4.796125,-0.4066484375,12.7607421875,-2.9341484375,-12.69183984375,0.622144531250001,-4.627546875,-0.725914062500001,-6.3157578125,-0.42635546875,-2.30039453125,-2.62165625,-7.412109375,-8.455265625,1.76726171875,13.52344140625,-5.778953125,-4.424640625,1.6702578125,-2.36375,0.32996484375,-0.0453476562499999,-1.55939453125,6.23883203125,-5.44485546875,16.428640625,4.19548828125,5.87994140625
-0.210546874999999,-0.46494921875,-4.693125,1.7593515625,7.1577421875,-1.7301484375,-10.65283984375,3.36314453125,-8.846546875,0.126085937499999,-4.7657578125,-0.949355468749999,-1.33339453125,-2.84365625,-6.188109375,-4.674265625,0.325261718749999,12.25544140625,-5.695953125,-3.045640625,5.9922578125,-3.81075,-0.48003515625,0.66365234375,0.41960546875,8.03183203125,-5.09185546875,14.396640625,3.24648828125,4.42694140625
0.689453125,-0.66194921875,-6.104125,1.7603515625,-0.9822578125,-0.6801484375,-5.99983984375,3.63014453125,-11.485546875,0.636085937499999,-2.9707578125,2.92264453125,-2.11039453125,-3.25765625,-5.012109375,-0.737265625,-1.86873828125,10.43044140625,-5.924953125,-2.250640625,8.9622578125,-6.05675,-2.21403515625,0.25665234375,1.12260546875,8.13983203125,-6.24185546875,11.110640625,1.15648828125,1.84394140625
0.616453125,-1.92294921875,-8.849125,-0.4306484375,-8.8122578125,-0.3501484375,-0.20883984375,1.38314453125,-11.858546875,0.4550859375,-1.7297578125,8.84164453125,-3.55139453125,-3.93865625,-4.380109375,1.916734375,-5.05973828125,8.79544140625,-6.562953125,-2.460640625,9.4312578125,-7.86775,-4.34103515625,-1.27834765625,0.10860546875,5.39483203125,-8.62985546875,7.487640625,-1.74651171875,-1.53605859375
-0.594546875,-3.98594921875,-12.009125,-3.8246484375,-12.8952578125,-0.9361484375,4.92816015625,-1.91485546875,-9.970546875,-0.308914062500001,-1.4537578125,13.19164453125,-4.32639453125,-4.74865625,-4.371109375,2.404734375,-8.59173828125,7.95544140625,-7.439953125,-3.580640625,7.2132578125,-8.35775,-6.18003515625,-3.49934765625,-2.35439453125,-0.0301679687500001,-11.56585546875,4.582640625,-4.72751171875,-4.86405859375
-2.396546875,-6.05894921875,-14.264125,-6.8676484375,-10.9172578125,-2.0621484375,8.09816015625,-4.19085546875,-6.541546875,-1.1029140625,-1.9307578125,13.46464453125,-3.62739453125,-5.38065625,-4.584109375,0.918734375000001,-10.89273828125,8.12744140625,-8.152953125,-4.982640625,3.4002578125,-7.29275,-7.13203515625,-5.63834765625,-5.25039453125,-6.25116796875,-14.12085546875,3.244640625,-6.85951171875,-6.95105859375
-3.865546875,-7.24294921875,-14.615125,-8.2656484375,-3.0092578125,-3.0431484375,8.66116015625,-4.13785546875,-2.797546875,-1.2969140625,-2.5657578125,9.69264453125,-1.67939453125,-5.61165625,-4.482109375,-1.470265625,-10.36873828125,9.03844140625,-8.335953125,-5.904640625,-0.2177421875,-5.12175,-6.98803515625,-7.02734765625,-7.36339453125,-10.64016796875,-15.55685546875,3.739640625,-7.46851171875,-6.90405859375
-4.296546875,-7.03994921875,-12.960125,-7.6236484375,8.1577421875,-3.3231484375,6.42916015625,-2.07985546875,-0.0165468750000001,-0.591914062500001,-2.8547578125,4.11764453125,0.33960546875,-5.48165625,-3.820109375,-3.507265625,-6.58573828125,10.06744140625,-7.915953125,-5.951640625,-2.2067421875,-2.73075,-6.07203515625,-7.46634765625,-7.99239453125,-11.38316796875,-15.68985546875,5.567640625,-6.49751171875,-4.73105859375
-3.544546875,-5.58494921875,-10.089125,-5.4996484375,18.6337421875,-2.7021484375,1.59516015625,0.28314453125,1.080453125,0.851085937499999,-2.6447578125,-0.251355468749999,0.98560546875,-5.20265625,-2.752109375,-4.360265625,-0.701738281250002,10.62444140625,-7.115953125,-5.250640625,-2.1817421875,-1.05075,-5.03803515625,-7.23734765625,-7.24839453125,-8.45716796875,-14.89785546875,7.675640625,-4.52351171875,-1.40905859375
-1.957546875,-3.46394921875,-7.133125,-2.9046484375,25.0267421875,-1.2751484375,-4.95683984375,1.01414453125,0.651453125,2.6010859375,-2.0407578125,-1.03635546875,-0.57739453125,-4.91665625,-1.588109375,-3.791265625,5.24326171875,10.50644140625,-6.222953125,-4.212640625,-0.7227421875,-0.71275,-4.45703515625,-6.76034765625,-5.79339453125,-3.43416796875,-13.78485546875,8.978640625,-2.41151171875,1.65894140625
-0.105546875,-1.37494921875,-4.961125,-0.719648437500001,25.7907421875,0.6638515625,-11.41383984375,-0.87485546875,-0.519546875,4.2200859375,-1.1847578125,2.73064453125,-4.07539453125,-4.58165625,-0.551109375,-2.035265625,9.57226171875,9.96344140625,-5.402953125,-3.196640625,1.1972578125,-1.89575,-4.51203515625,-6.27334765625,-4.34139453125,1.51783203125,-12.82585546875,8.858640625,-0.89651171875,3.37394140625
1.417453125,0.08605078125,-3.977125,0.5653515625,21.3927421875,2.6078515625,-15.41183984375,-4.94185546875,-1.701546875,5.3720859375,-0.1967578125,10.36664453125,-8.27939453125,-4.13765625,0.232890625,0.333734375000001,11.73826171875,9.41744140625,-4.729953125,-2.399640625,2.7172578125,-4.34975,-5.02803515625,-5.80134765625,-3.36639453125,4.62183203125,-12.25685546875,7.343640625,-0.36451171875,3.36994140625
2.057453125,0.43305078125,-4.336125,0.733351562499999,13.5977421875,3.8618515625,-15.06583984375,-9.67785546875,-2.760546875,5.7830859375,0.6882421875,19.62364453125,-11.70639453125,-3.73265625,0.592890625,2.452734375,12.17626171875,9.09844140625,-4.341953125,-1.996640625,3.2082578125,-7.50875,-5.73203515625,-5.35934765625,-3.16139453125,4.92583203125,-12.20385546875,4.922640625,-0.90651171875,1.92294140625
1.364453125,-0.72394921875,-6.200125,-0.3856484375,4.5407421875,3.7798515625,-10.06683984375,-13.33485546875,-4.123546875,5.2360859375,1.0312421875,27.16364453125,-13.39239453125,-3.75765625,0.267890625,3.316734375,11.57026171875,8.89044140625,-4.493953125,-2.264640625,2.1902578125,-10.68475,-6.50903515625,-5.14134765625,-4.00339453125,2.23983203125,-12.82585546875,2.211640625,-2.46051171875,-0.432058593749999
-0.846546875,-3.52994921875,-9.675125,-2.9196484375,-3.8332578125,2.1058515625,-2.07083984375,-14.70385546875,-6.246546875,3.6940859375,0.3512421875,29.62064453125,-13.26539453125,-4.59565625,-0.931109375,2.143734375,10.26426171875,8.46444140625,-5.411953125,-3.481640625,-0.6027421875,-13.33875,-7.42703515625,-5.45734765625,-6.12139453125,-2.98916796875,-14.27085546875,-0.289359375,-4.86551171875,-3.21205859375
-4.291546875,-7.62694921875,-14.447125,-6.6916484375,-9.8762578125,-0.8011484375,5.94216015625,-13.46285546875,-9.090546875,1.4740859375,-1.5117578125,25.04664453125,-11.93739453125,-6.28065625,-2.885109375,-1.176265625,8.22826171875,7.56244140625,-7.052953125,-5.653640625,-4.9337421875,-15.28475,-8.58003515625,-6.48334765625,-9.43439453125,-9.65816796875,-16.48985546875,-2.254359375,-7.78651171875,-6.02805859375
-8.146546875,-12.06294921875,-19.502125,-10.9476484375,-12.1942578125,-4.0611484375,10.97316015625,-10.04885546875,-12.028546875,-0.7369140625,-4.1457578125,13.96364453125,-10.15239453125,-8.36265625,-5.060109375,-5.881265625,5.40526171875,6.23244140625,-8.988953125,-8.316640625,-9.8747421875,-16.64675,-9.89803515625,-8.05334765625,-13.34039453125,-16.09116796875,-19.10285546875,-3.493359375,-10.68451171875,-8.47405859375
-11.278546875,-15.57494921875,-23.325125,-14.4566484375,-9.8852578125,-6.6011484375,11.17416015625,-5.37085546875,-14.215546875,-2.1219140625,-6.6807578125,-0.65035546875,-8.37239453125,-10.08365625,-6.678109375,-10.582265625,2.03026171875,4.86544140625,-10.553953125,-10.668640625,-14.0397421875,-17.57775,-11.10803515625,-9.68934765625,-16.82239453125,-20.47816796875,-21.47785546875,-3.946359375,-12.92751171875,-10.10105859375
-12.715546875,-17.12594921875,-24.562125,-16.0206484375,-3.1242578125,-7.5951484375,6.34816015625,-0.657855468749999,-15.075546875,-2.1159140625,-8.1997578125,-14.45735546875,-6.75339453125,-10.76165625,-7.091109375,-13.841265625,-1.28073828125,4.04244140625,-11.163953125,-11.924640625,-16.1607421875,-18.00775,-11.85103515625,-10.84034765625,-18.85539453125,-21.54816796875,-22.97585546875,-3.715359375,-14.00951171875,-10.53405859375
-12.102546875,-16.37294921875,-22.732125,-15.1216484375,6.3887421875,-6.8101484375,-2.19383984375,2.59914453125,-14.589546875,-0.6919140625,-8.1847578125,-23.29635546875,-5.39839453125,-10.12965625,-6.124109375,-14.740265625,-3.64673828125,4.26044140625,-10.607953125,-11.685640625,-15.6277421875,-17.66675,-11.87103515625,-11.14234765625,-18.84939453125,-19.03716796875,-23.21285546875,-3.072359375,-13.72051171875,-9.63205859375
-9.886546875,-13.81194921875,-18.525125,-12.2486484375,15.7227421875,-4.7211484375,-12.09983984375,2.93214453125,-13.253546875,1.5950859375,-6.7407578125,-24.56135546875,-4.58539453125,-8.46265625,-4.183109375,-13.195265625,-4.19073828125,5.67344140625,-9.142953125,-10.086640625,-12.6917421875,-16.37375,-11.15303515625,-10.54634765625,-16.88739453125,-13.74816796875,-22.18185546875,-2.390359375,-12.19351171875,-7.56605859375
-7.128546875,-10.56294921875,-13.512125,-8.6946484375,21.8267421875,-2.3011484375,-20.56383984375,-0.45985546875,-11.771546875,3.8030859375,-4.5047578125,-18.04635546875,-4.74039453125,-6.46265625,-2.062109375,-9.931265625,-2.37573828125,7.95944140625,-7.370953125,-7.705640625,-8.2697421875,-14.32075,-9.94803515625,-9.29034765625,-13.68039453125,-7.24516796875,-20.21385546875,-2.009359375,-9.82351171875,-4.78505859375
-4.997546875,-7.86594921875,-9.407125,-5.9296484375,22.8887421875,-0.5741484375,-25.00083984375,-6.99985546875,-10.669546875,5.0060859375,-2.3127578125,-6.01135546875,-6.18339453125,-4.94865625,-0.552109375,-6.138265625,1.70726171875,10.39544140625,-5.950953125,-5.282640625,-3.5427421875,-12.07375,-8.64803515625,-7.73934765625,-10.25139453125,-1.30616796875,-17.79285546875,-2.063359375,-7.11151171875,-1.86605859375
-4.184546875,-6.51094921875,-7.296125,-4.8896484375,19.1467421875,-0.1341484375,-23.80583984375,-14.53485546875,-10.025546875,4.7360859375,-0.7787578125,7.66464453125,-8.80239453125,-4.48765625,-0.087109375,-2.943265625,7.26626171875,12.15144140625,-5.296953125,-3.373640625,0.5122578125,-10.24075,-7.59303515625,-6.17134765625,-7.47539453125,2.72983203125,-15.29185546875,-2.348359375,-4.48951171875,0.70894140625
-4.553546875,-6.50294921875,-7.224125,-5.5876484375,12.6797421875,-0.8751484375,-16.95183984375,-19.99385546875,-9.482546875,3.2430859375,-0.0277578125,18.95564453125,-11.88039453125,-5.14265625,-0.568109375,-0.938265625,13.03026171875,12.66644140625,-5.381953125,-2.125640625,3.4432578125,-9.06275,-6.90403515625,-4.64834765625,-5.69939453125,4.49583203125,-12.79085546875,-2.364359375,-2.20951171875,2.74494140625
-5.261546875,-7.16694921875,-8.354125,-7.2386484375,6.3287421875,-2.0691484375,-6.13683984375,-20.75785546875,-8.527546875,1.3750859375,0.2452421875,25.13964453125,-14.23239453125,-6.45665625,-1.455109375,-0.0462656249999998,17.70126171875,11.90744140625,-5.792953125,-1.296640625,5.3822578125,-8.23975,-6.48703515625,-3.05234765625,-4.67339453125,4.70383203125,-10.10685546875,-1.583359375,-0.35051171875,4.35394140625
-5.316546875,-7.63594921875,-9.573125,-8.7956484375,2.2677421875,-2.7911484375,5.68216015625,-16.07885546875,-6.874546875,0.107085937499999,0.4362421875,25.53864453125,-14.68739453125,-7.71965625,-2.091109375,0.217734375,20.36226171875,10.34644140625,-6.000953125,-0.544640625,6.7542578125,-7.14775,-6.16303515625,-1.31134765625,-3.86739453125,4.61683203125,-7.03485546875,0.178640625,1.05248828125,5.73594140625
-4.259546875,-7.41594921875,-10.148125,-9.5356484375,0.9627421875,-2.5101484375,15.19116015625,-7.64385546875,-4.759546875,-0.00991406250000004,0.6482421875,21.26864453125,-12.70639453125,-8.36465625,-2.115109375,0.233734375,20.68326171875,8.68244140625,-5.713953125,0.199359375,7.7782578125,-5.32375,-5.85303515625,0.37465234375,-2.97539453125,5.09483203125,-3.66885546875,2.529640625,1.86048828125,6.86494140625
-2.502546875,-6.66394921875,-10.075125,-9.3636484375,1.0657421875,-1.4671484375,19.69016015625,1.17214453125,-2.993546875,0.851085937499999,0.5452421875,14.26964453125,-8.78139453125,-8.27665625,-1.709109375,-0.119265625,18.94026171875,7.45444140625,-5.089953125,0.540359375,8.1122578125,-2.87875,-5.65903515625,1.46765234375,-2.28039453125,5.83583203125,-0.552855468749998,4.595640625,1.78648828125,7.28394140625
-1.085546875,-6.03594921875,-9.946125,-8.6816484375,0.3597421875,-0.5171484375,17.85116015625,7.01214453125,-2.679546875,1.9250859375,-0.4417578125,6.35364453125,-4.30439453125,-7.81765625,-1.493109375,-1.420265625,15.93326171875,6.80144140625,-4.642953125,-0.200640625,6.9802578125,-0.604750000000001,-5.80603515625,1.32465234375,-2.55439453125,5.42483203125,1.48014453125,5.407640625,0.52748828125,6.26994140625
-1.006546875,-6.22694921875,-10.477125,-7.9836484375,-2.7652578125,-0.5121484375,10.09516015625,8.07714453125,-4.635546875,2.3530859375,-2.6657578125,-1.10235546875,-0.92139453125,-7.56665625,-2.083109375,-4.184265625,12.79026171875,6.47944140625,-4.884953125,-2.491640625,3.7932578125,0.324249999999999,-6.46303515625,-0.37034765625,-4.50939453125,2.33483203125,1.74814453125,4.393640625,-1.97651171875,3.33694140625
-2.587546875,-7.50894921875,-12.023125,-7.5316484375,-8.2402578125,-1.6901484375,-1.50583984375,4.58414453125,-8.818546875,1.6980859375,-5.8927578125,-6.84435546875,0.23460546875,-7.94565625,-3.646109375,-8.256265625,10.58326171875,6.08544140625,-5.965953125,-6.123640625,-1.1827421875,-1.06275,-7.58703515625,-3.28434765625,-8.16439453125,-3.75316796875,0.164144531250001,1.703640625,-5.33651171875,-1.23505859375
-5.317546875,-9.58794921875,-14.353125,-7.3546484375,-14.3822578125,-3.5651484375,-13.85283984375,-1.85285546875,-14.152546875,0.1410859375,-9.3167578125,-9.53435546875,-1.01739453125,-9.00665625,-5.798109375,-12.644265625,9.83626171875,5.30544140625,-7.587953125,-10.166640625,-6.6857421875,-4.94275,-8.90303515625,-6.49834765625,-12.63439453125,-11.34016796875,-2.64785546875,-1.827359375,-8.75751171875,-6.30805859375
-8.184546875,-11.81994921875,-16.773125,-7.4796484375,-18.9902578125,-5.3351484375,-23.80383984375,-9.16385546875,-18.934546875,-1.7589140625,-11.9897578125,-8.20135546875,-4.00439453125,-10.48265625,-7.895109375,-16.001265625,10.22926171875,4.04844140625,-9.238953125,-13.427640625,-11.0557421875,-10.44675,-10.07603515625,-9.00134765625,-16.56239453125,-17.78616796875,-5.69985546875,-5.092359375,-11.37051171875,-10.39005859375
-10.233546875,-13.59694921875,-18.442125,-8.0836484375,-20.6652578125,-6.4291484375,-29.13783984375,-15.41685546875,-21.586546875,-3.4929140625,-13.3577578125,-3.13735546875,-7.71239453125,-12.00765625,-9.439109375,-17.407265625,10.76026171875,2.41544140625,-10.544953125,-15.104640625,-13.1357421875,-15.99175,-10.93703515625,-10.27134765625,-18.88939453125,-20.85816796875,-8.18785546875,-7.275359375,-12.66651171875,-12.44705859375
-10.987546875,-14.62394921875,-18.726125,-9.3426484375,-19.4072578125,-6.8121484375,-29.11083984375,-19.09285546875,-21.317546875,-4.8769140625,-13.4997578125,3.69164453125,-11.33139453125,-13.32265625,-10.320109375,-16.861265625,10.28626171875,0.58944140625,-11.463953125,-15.174640625,-12.8627421875,-20.06075,-11.57903515625,-10.53534765625,-19.40039453125,-19.98316796875,-9.86885546875,-8.209359375,-12.73151171875,-12.44305859375
-10.582546875,-14.97694921875,-17.490125,-11.1356484375,-16.2472578125,-6.9201484375,-24.41783984375,-19.40685546875,-18.357546875,-5.9879140625,-12.9487578125,9.34464453125,-14.48239453125,-14.30965625,-10.766109375,-15.186265625,8.07426171875,-1.22555859375,-12.202953125,-14.290640625,-11.1577421875,-21.93975,-12.24403515625,-10.52634765625,-18.69139453125,-16.38116796875,-11.00885546875,-8.334359375,-12.13651171875,-11.25705859375
-9.596546875,-14.97394921875,-15.194125,-12.9176484375,-12.4122578125,-7.3151484375,-16.71183984375,-16.69785546875,-13.750546875,-6.9109140625,-12.2967578125,11.43464453125,-17.02039453125,-14.88665625,-11.078109375,-13.460265625,4.11826171875,-2.74355859375,-12.950953125,-13.310640625,-9.2657421875,-21.88175,-13.06903515625,-10.92634765625,-17.66039453125,-12.12916796875,-12.00985546875,-8.281359375,-11.56151171875,-10.07105859375
-8.698546875,-14.96494921875,-12.750125,-13.9436484375,-8.7942578125,-8.2711484375,-8.02983984375,-12.46485546875,-8.878546875,-7.5549140625,-11.8907578125,9.39964453125,-18.68739453125,-14.88165625,-11.361109375,-12.414265625,-0.833738281250001,-3.52255859375,-13.643953125,-12.803640625,-8.0557421875,-20.67675,-13.88603515625,-11.89034765625,-16.92139453125,-8.96516796875,-13.01085546875,-8.400359375,-11.40451171875,-9.67505859375
-8.318546875,-15.15094921875,-11.154125,-13.7026484375,-5.9952578125,-9.5861484375,-0.427839843749999,-8.79185546875,-5.002546875,-7.7089140625,-11.7917578125,4.62564453125,-19.00439453125,-14.07165625,-11.447109375,-12.183265625,-5.52773828125,-3.04655859375,-13.976953125,-12.850640625,-7.7247421875,-19.03275,-14.25303515625,-12.98134765625,-16.55939453125,-7.62116796875,-13.77385546875,-8.553359375,-11.63251171875,-10.14705859375
-8.486546875,-15.49294921875,-11.049125,-12.2356484375,-4.6222578125,-10.7611484375,4.20916015625,-7.34485546875,-2.926546875,-7.2429140625,-11.9187578125,-0.58235546875,-17.51739453125,-12.36865625,-11.076109375,-12.470265625,-8.71673828125,-1.01655859375,-13.637953125,-13.191640625,-8.0357421875,-17.23275,-13.72603515625,-13.52034765625,-16.30039453125,-7.95716796875,-13.87885546875,-8.291359375,-11.89951171875,-11.02905859375
-8.857546875,-15.72294921875,-12.386125,-10.0726484375,-5.2902578125,-11.3061484375,4.47516015625,-8.46485546875,-2.813546875,-6.2449140625,-12.1597578125,-4.37835546875,-14.15339453125,-9.98265625,-10.130109375,-12.869265625,-9.67873828125,2.39044140625,-12.547953125,-13.516640625,-8.7517421875,-15.16875,-12.15603515625,-13.04434765625,-15.86239453125,-9.46416796875,-13.03385546875,-7.221359375,-11.80751171875,-11.75105859375
-8.842546875,-15.43694921875,-14.366125,-7.8606484375,-8.1622578125,-10.9071484375,0.0521601562500003,-10.87885546875,-4.179546875,-4.9519140625,-12.3597578125,-6.15335546875,-9.35839453125,-7.38365625,-8.701109375,-13.066265625,-8.45373828125,6.52844140625,-10.896953125,-13.619640625,-9.8267421875,-12.54175,-9.78603515625,-11.54334765625,-15.14939453125,-11.57516796875,-11.24385546875,-5.279359375,-11.07651171875,-11.92905859375
-7.853546875,-14.25794921875,-15.743125,-5.9776484375,-12.4302578125,-9.4011484375,-7.74083984375,-12.36085546875,-6.112546875,-3.5729140625,-12.2347578125,-6.34235546875,-3.91939453125,-5.09465625,-6.960109375,-12.831265625,-5.69673828125,10.56844140625,-8.996953125,-13.387640625,-11.2067421875,-9.07375,-7.09903515625,-9.36034765625,-14.18739453125,-13.61216796875,-8.77385546875,-2.769359375,-9.61951171875,-11.42105859375
-5.622546875,-12.03294921875,-15.428125,-4.4266484375,-16.3512578125,-6.7951484375,-16.02983984375,-11.09785546875,-7.680546875,-2.1859140625,-11.4197578125,-5.59035546875,1.31760546875,-3.49565625,-5.053109375,-11.978265625,-2.34073828125,13.80744140625,-7.131953125,-12.743640625,-12.5647421875,-4.73775,-4.62203515625,-6.97034765625,-12.99139453125,-14.68516796875,-6.04685546875,-0.234359375,-7.56551171875,-10.27605859375
-2.451546875,-8.98094921875,-13.048125,-3.0356484375,-18.0172578125,-3.4231484375,-21.38983984375,-6.88885546875,-8.331546875,-0.7979140625,-9.6777578125,-4.05835546875,5.58160546875,-2.75365625,-3.136109375,-10.423265625,0.719261718749999,15.79344140625,-5.530953125,-11.691640625,-13.2937421875,0.0112500000000004,-2.81403515625,-4.81434765625,-11.55539453125,-13.93016796875,-3.57185546875,1.705640625,-5.29651171875,-8.72505859375
0.811453125,-5.71394921875,-9.173125,-1.7336484375,-16.3902578125,-0.0291484374999997,-21.40483984375,-1.28185546875,-8.078546875,0.504085937499999,-7.1377578125,-1.46035546875,8.15360546875,-2.86965625,-1.459109375,-8.339265625,2.81626171875,16.26844140625,-4.435953125,-10.406640625,-12.8397421875,4.13325,-2.05003515625,-3.27134765625,-9.99539453125,-11.04616796875,-1.88985546875,2.511640625,-3.41951171875,-7.20005859375
3.087453125,-3.09994921875,-5.100125,-0.678648437500001,-11.8782578125,2.3968515625,-15.93683984375,3.37514453125,-7.431546875,1.4690859375,-4.3927578125,2.24064453125,8.38060546875,-3.73665625,-0.377109375,-6.244265625,3.54726171875,15.07644140625,-4.121953125,-9.266640625,-11.1167421875,6.19225,-2.60203515625,-2.65334765625,-8.66339453125,-6.74216796875,-1.46985546875,1.873640625,-2.59951171875,-6.26905859375
3.451453125,-2.03994921875,-2.397125,-0.210648437500001,-6.1572578125,2.9728515625,-7.31083984375,5.15714453125,-7.152546875,1.7090859375,-2.3457578125,6.15264453125,5.89260546875,-5.20665625,-0.241109375,-4.922265625,2.70426171875,12.15044140625,-4.848953125,-8.756640625,-8.7207421875,4.85525,-4.56503515625,-3.18134765625,-8.10639453125,-2.66816796875,-2.54585546875,-0.186359375,-3.29351171875,-6.44905859375
1.407453125,-3.19594921875,-2.378125,-0.727648437500001,-1.4112578125,1.2758515625,0.80216015625,3.23914453125,-7.932546875,0.863085937499999,-1.8517578125,8.51264453125,0.96760546875,-7.12265625,-1.256109375,-5.147265625,0.275261718749999,7.60944140625,-6.726953125,-9.266640625,-6.7337421875,-0.451750000000001,-7.76003515625,-4.89234765625,-8.81339453125,-0.74316796875,-4.99285546875,-3.281359375,-5.50951171875,-7.95705859375
-2.924546875,-6.67394921875,-5.582125,-2.5096484375,0.5897421875,-2.4171484375,5.17116015625,-2.02885546875,-10.020546875,-1.1599140625,-3.2747578125,7.62264453125,-5.26439453125,-9.26765625,-3.314109375,-7.259265625,-3.34973828125,1.97044140625,-9.531953125,-10.836640625,-6.1447421875,-9.02175,-11.65003515625,-7.50934765625,-10.86139453125,-2.16416796875,-8.26285546875,-6.705359375,-8.69751171875,-10.50105859375
-8.635546875,-11.74294921875,-11.338125,-5.4626484375,-0.8022578125,-7.0691484375,4.47016015625,-9.30685546875,-12.935546875,-3.9499140625,-6.1687578125,3.11864453125,-11.01939453125,-11.25765625,-5.864109375,-10.793265625,-7.15073828125,-3.67455859375,-12.588953125,-12.969640625,-7.1817421875,-18.75075,-15.32903515625,-10.36334765625,-13.64839453125,-6.64016796875,-11.45585546875,-9.546359375,-11.84051171875,-13.24905859375
-14.041546875,-16.74094921875,-17.645125,-8.8696484375,-4.9122578125,-11.1501484375,-0.27983984375,-16.48385546875,-15.507546875,-6.5519140625,-9.3077578125,-3.36435546875,-14.50039453125,-12.47965625,-7.986109375,-14.456265625,-9.60273828125,-7.74155859375,-14.845953125,-14.694640625,-9.0327421875,-26.61675,-17.69103515625,-12.49034765625,-15.98739453125,-12.36616796875,-13.54685546875,-10.891359375,-13.74951171875,-15.07805859375
-17.070546875,-19.41194921875,-21.649125,-11.3636484375,-10.1262578125,-13.2191484375,-6.28783984375,-21.02585546875,-16.358546875,-7.6999140625,-11.1167578125,-8.68835546875,-14.66739453125,-12.21765625,-8.724109375,-16.579265625,-9.32073828125,-8.58655859375,-15.216953125,-14.936640625,-10.2407421875,-29.62375,-17.76203515625,-12.95034765625,-16.59839453125,-16.89716796875,-13.74485546875,-10.075359375,-13.46951171875,-15.03205859375
-15.995546875,-17.65994921875,-20.671125,-11.3166484375,-14.6892578125,-12.5311484375,-10.21283984375,-20.60785546875,-14.568546875,-6.2849140625,-10.3307578125,-9.63235546875,-11.64939453125,-9.92665625,-7.511109375,-15.848265625,-5.77273828125,-5.10155859375,-13.010953125,-13.001640625,-9.5117421875,-25.79575,-15.05403515625,-11.20134765625,-14.70639453125,-18.37916796875,-11.78285546875,-6.883359375,-10.59151171875,-12.75105859375
-10.127546875,-10.42494921875,-13.338125,-7.5576484375,-17.4662578125,-9.2501484375,-9.55383984375,-13.97285546875,-10.070546875,-1.8229140625,-6.4957578125,-4.39135546875,-6.50839453125,-5.47965625,-4.386109375,-11.851265625,0.537261718749999,2.86444140625,-8.181953125,-8.853640625,-6.3557421875,-14.77875,-9.71803515625,-7.28634765625,-10.34939453125,-16.32316796875,-7.95885546875,-1.568359375,-5.32651171875,-8.54705859375
-0.124546875,1.76405078125,-0.227125,-0.0836484375000008,-18.3102578125,-4.1721484375,-3.75883984375,-1.63085546875,-3.535546875,5.3150859375,-0.0807578125000004,6.66664453125,-0.49239453125,0.75134375,0.134890625,-5.151265625,8.54626171875,14.44644140625,-1.303953125,-3.029640625,-1.1527421875,2.09625,-2.43103515625,-1.74534765625,-4.19839453125,-11.48116796875,-2.90785546875,5.275640625,1.66048828125,-3.12205859375
12.200453125,16.84205078125,16.249875,9.7073515625,-17.9482578125,1.7218515625,5.44316015625,14.03714453125,4.024453125,13.9930859375,7.7592421875,21.21364453125,5.62860546875,7.97834375,5.335890625,3.017734375,17.24726171875,28.00944140625,6.658046875,3.645359375,5.1822578125,22.16525,5.84896484375,4.62065234375,2.82960546875,-5.20916796875,2.68614453125,12.880640625,9.48948828125,2.81294140625
12.200453125,16.84205078125,16.249875,9.7073515625,-17.9482578125,1.7218515625,5.44316015625,14.03714453125,4.024453125,13.9930859375,7.7592421875,21.21364453125,5.62860546875,7.97834375,5.335890625,3.017734375,17.24726171875,28.00944140625,6.658046875,3.645359375,5.1822578125,22.16525,5.84896484375,4.62065234375,2.82960546875,-5.20916796875,2.68614453125,12.880640625,9.48948828125,2.81294140625
