"Fp1","Fpz","Fp2","F7","F3","Fz","F4","F8","FC5","FC1","FC2","FC6","T7","C3","Cz","C4","T8","CP5","CP1","CP2","CP6","P7","P3","Pz","P4","P8","POz","O1","Oz","O2"
25.18333984375,15.7735625,20.78616015625,27.4223046875,20.23845703125,18.06450390625,17.7914609375,4.52891796875,11.815390625,16.96387890625,11.117109375,15.69120703125,14.7794765625,11.27084765625,22.4912109375,13.807796875,4.909375,11.938546875,11.7775,16.02828515625,13.65217578125,-0.454421875,4.81377734375,11.939515625,9.2487265625,14.31351171875,2.30848046875,12.118171875,-3.9491640625,12.704703125
16.94633984375,13.8105625,16.35916015625,25.0323046875,17.14245703125,15.61950390625,13.5654609375,4.91591796875,10.141390625,14.04187890625,10.795109375,14.10720703125,14.3914765625,6.73484765625,20.4262109375,13.287796875,6.135375,8.530546875,9.7785,16.37828515625,12.58617578125,-2.391421875,2.53077734375,11.025515625,11.1657265625,17.53151171875,2.70448046875,9.490171875,-4.0581640625,15.048703125
12.30833984375,12.7115625,13.76716015625,23.5643046875,15.75945703125,14.59150390625,11.4774609375,4.21691796875,9.342390625,12.56687890625,11.088109375,13.16220703125,14.1254765625,3.80584765625,19.3312109375,12.796796875,6.556375,6.319546875,8.3165,16.68528515625,11.77017578125,-3.881421875,1.01077734375,10.556515625,12.5157265625,19.23551171875,2.99348046875,8.110171875,-3.7101640625,17.022703125
10.78133984375,12.2505625,12.74016015625,22.5593046875,15.75845703125,14.65150390625,11.2004609375,2.81091796875,9.133390625,12.37787890625,11.734109375,12.45620703125,13.7764765625,2.49684765625,19.1562109375,12.117796875,6.033375,5.234546875,7.4525,16.76428515625,11.04617578125,-4.969421875,0.23277734375,10.484515625,13.0487265625,19.22951171875,2.97648046875,7.764171875,-3.1331640625,18.365703125
10.76433984375,11.8975625,12.47316015625,21.2443046875,16.21045703125,14.96850390625,11.6894609375,1.62991796875,8.967390625,12.81687890625,12.192109375,11.36520703125,13.1194765625,2.34084765625,19.5492109375,11.015796875,4.707375,4.846546875,7.0805,16.40628515625,10.18017578125,-5.732421875,-0.0302226562499999,10.592515625,12.6377265625,17.82051171875,2.45848046875,7.888171875,-2.6921640625,18.882703125
10.57333984375,11.1505625,12.14816015625,19.0703046875,16.14145703125,14.70250390625,11.7974609375,1.66891796875,8.387390625,13.08987890625,11.933109375,9.47220703125,12.0854765625,2.67284765625,20.0462109375,9.408796875,2.957375,4.659546875,6.9795,15.49428515625,9.00717578125,-6.132421875,-0.0452226562499998,10.590515625,11.3277265625,15.67451171875,1.38748046875,7.998171875,-2.6401640625,18.547703125
9.24333984375,9.7955625,11.32216015625,16.1013046875,15.01145703125,13.41550390625,10.8514609375,3.40391796875,7.224390625,12.63287890625,10.699109375,6.85220703125,10.8244765625,2.91184765625,20.2282109375,7.448796875,1.204375,4.371546875,6.8975,14.07328515625,7.54017578125,-6.005421875,0.0117773437500002,10.237515625,9.3367265625,13.52451171875,-0.0835195312499999,7.955171875,-2.9891640625,17.490703125
6.73733984375,7.9945625,10.01016015625,13.0133046875,12.88345703125,11.20850390625,8.8844609375,6.45191796875,5.590390625,11.29087890625,8.628109375,4.02220703125,9.6324765625,2.73484765625,19.8212109375,5.460796875,-0.307625,3.962546875,6.6445,12.32628515625,5.97817578125,-5.209421875,0.0867773437500003,9.439515625,6.9937265625,11.89851171875,-1.64951953125,7.936171875,-3.5891640625,15.907703125
3.67233984375,6.1615625,8.52916015625,10.7233046875,10.26845703125,8.58150390625,6.5014609375,9.71191796875,3.746390625,9.29787890625,6.185109375,1.65320703125,8.8024765625,2.09684765625,18.7422109375,3.798796875,-1.582625,3.596546875,6.1355,10.51428515625,4.63517578125,-3.798421875,0.17577734375,8.278515625,4.6647265625,10.99851171875,-2.99651953125,8.161171875,-4.3151640625,13.973703125
0.84133984375,4.7315625,7.27116015625,9.8273046875,7.78745703125,6.14950390625,4.4964609375,11.84191796875,1.941390625,7.09387890625,3.963109375,0.261207031250001,8.4834765625,1.15184765625,17.1092109375,2.706796875,-2.762625,3.426546875,5.3885,8.89528515625,3.80317578125,-2.111421875,0.24477734375,6.960515625,2.6677265625,10.75151171875,-3.94851953125,8.600171875,-5.1961640625,11.838703125
-1.20966015625,3.9525625,6.50616015625,10.1883046875,5.87145703125,4.38050390625,3.4594609375,11.80591796875,0.328390625,5.10887890625,2.461109375,0.0522070312500009,8.5964765625,0.13984765625,15.2052109375,2.258796875,-3.887625,3.443546875,4.4945,7.68428515625,3.61417578125,-0.702421875,0.18977734375,5.742515625,1.2227265625,10.96451171875,-4.49451953125,8.908171875,-6.3801640625,9.691703125
-2.38666015625,3.8075625,6.29216015625,10.9463046875,4.63745703125,3.45750390625,3.5434609375,9.28791796875,-1.047609375,3.62987890625,1.926109375,0.953207031250001,8.8334765625,-0.70315234375,13.3892109375,2.399796875,-4.720625,3.458546875,3.6005,7.04728515625,3.98017578125,-0.120421875,-0.10222265625,4.858515625,0.4327265625,11.48151171875,-4.69451953125,8.625171875,-7.9371640625,7.832703125
-2.95166015625,4.0775625,6.49816015625,10.9613046875,3.94145703125,3.28350390625,4.4584609375,4.88091796875,-2.189609375,2.77087890625,2.312109375,2.69320703125,8.7774765625,-1.18615234375,11.9902109375,3.026796875,-4.775625,3.235546875,2.8855,7.09528515625,4.65317578125,-0.646421875,-0.67322265625,4.476515625,0.2947265625,12.24851171875,-4.55651953125,7.496171875,-9.6951640625,6.632703125
-3.24766015625,4.4595625,6.89416015625,9.4383046875,3.53845703125,3.57750390625,5.6324609375,0.00791796875000106,-3.085609375,2.49287890625,3.324109375,4.84020703125,8.0934765625,-1.19215234375,11.2092109375,4.030796875,-3.605625,2.655546875,2.4985,7.83328515625,5.37017578125,-2.150421875,-1.44222265625,4.641515625,0.7107265625,13.25751171875,-3.99651953125,5.668171875,-11.2531640625,6.375703125
-3.49166015625,4.6935625,7.23416015625,6.3703046875,3.23245703125,3.99650390625,6.4634609375,-3.53408203125,-3.670609375,2.65087890625,4.529109375,6.83920703125,6.7174765625,-0.73215234375,11.0422109375,5.282796875,-1.182625,1.791546875,2.4935,9.10628515625,5.98717578125,-4.134421875,-2.25422265625,5.242515625,1.4897265625,14.41651171875,-2.93451953125,3.623171875,-12.1981640625,7.039703125
-3.76166015625,4.6465625,7.32516015625,2.5753046875,2.93945703125,4.23650390625,6.5534609375,-4.33808203125,-3.857609375,3.02987890625,5.496109375,8.12620703125,4.9294765625,0.02484765625,11.2702109375,6.588796875,1.897375,0.855546875,2.7965,10.57128515625,6.47017578125,-5.955421875,-2.96322265625,6.012515625,2.3387265625,15.45151171875,-1.44551953125,1.928171875,-12.3631640625,8.209703125
-4.08166015625,4.3405625,7.07016015625,-0.6666953125,2.68545703125,4.12350390625,5.8604609375,-2.09008203125,-3.609609375,3.39387890625,5.927109375,8.33520703125,3.2334765625,0.79684765625,11.5412109375,7.689796875,4.612375,0.0855468749999999,3.2225,11.77228515625,6.77117578125,-7.094421875,-3.51622265625,6.605515625,2.8977265625,15.95651171875,0.16548046875,0.969171875,-11.9561640625,9.192703125
-4.44866015625,3.9265625,6.52816015625,-2.1746953125,2.54345703125,3.67750390625,4.6894609375,2.27091796875,-2.986609375,3.55087890625,5.755109375,7.47320703125,2.1284765625,1.32384765625,11.5202109375,8.325796875,6.018375,-0.354453125,3.5515,12.29528515625,6.72817578125,-7.332421875,-3.95922265625,6.714515625,2.8227265625,15.56951171875,1.43848046875,0.822171875,-11.4581640625,9.351703125
-4.81566015625,3.6115625,5.91916015625,-1.3916953125,2.57445703125,3.13150390625,3.5504609375,7.11391796875,-2.121609375,3.40887890625,5.156109375,5.90120703125,1.9074765625,1.50984765625,11.0312109375,8.340796875,5.738375,-0.420453125,3.5975,11.91628515625,6.13317578125,-6.781421875,-4.37422265625,6.177515625,1.9267265625,14.18551171875,1.97048046875,1.268171875,-11.3711640625,8.450703125
-5.11966015625,3.5715625,5.56816015625,1.3563046875,2.78645703125,2.84850390625,2.9474609375,11.01491796875,-1.137609375,3.01387890625,4.471109375,4.16420703125,2.5984765625,1.46484765625,10.0912109375,7.754796875,4.125375,-0.192453125,3.2695,10.68528515625,4.89617578125,-5.768421875,-4.80522265625,5.042515625,0.2857265625,12.05551171875,1.63548046875,1.930171875,-11.9561640625,6.788703125
-5.34466015625,3.8895625,5.77716015625,4.9883046875,3.13245703125,3.15650390625,3.1884609375,13.37591796875,-0.0766093749999999,2.52087890625,4.055109375,2.77720703125,4.0454765625,1.42884765625,8.8662109375,6.769796875,2.028375,0.186546875,2.5995,8.89528515625,3.18717578125,-4.638421875,-5.20222265625,3.565515625,-1.7472734375,9.70551171875,0.67248046875,2.441171875,-13.0981640625,5.039703125
-5.49266015625,4.5215625,6.69116015625,8.1243046875,3.54045703125,4.17550390625,4.2704609375,14.36691796875,1.087390625,2.12187890625,4.121109375,2.07820703125,6.0144765625,1.63384765625,7.5922109375,5.674796875,0.327375,0.618546875,1.7295,6.96228515625,1.43317578125,-3.559421875,-5.41122265625,2.127515625,-3.6592734375,7.72451171875,-0.40451953125,2.607171875,-14.3581640625,3.879703125
-5.51966015625,5.2975625,8.19616015625,9.6813046875,3.91645703125,5.69650390625,5.8524609375,14.34191796875,2.329390625,1.92787890625,4.616109375,2.16220703125,8.2324765625,2.18084765625,6.5002109375,4.720796875,-0.489625,1.107546875,0.855500000000001,5.26728515625,0.16817578125,-2.456421875,-5.25122265625,1.098515625,-4.9642734375,6.52551171875,-1.05951953125,2.460171875,-15.1711640625,3.659703125
-5.36066015625,5.9385625,9.86716015625,9.2833046875,4.11745703125,7.18750390625,7.3134609375,13.24391796875,3.457390625,1.86087890625,5.202109375,2.84320703125,10.3544765625,2.94784765625,5.7112109375,3.995796875,-0.504625,1.687546875,0.120500000000001,3.99328515625,-0.22582421875,-1.137421875,-4.65222265625,0.679515625,-5.4002734375,6.19551171875,-1.00251953125,2.174171875,-15.1131640625,4.271703125
-5.02966015625,6.1165625,11.05116015625,7.3573046875,3.92945703125,7.94550390625,7.9344609375,10.55791796875,4.109390625,1.63687890625,5.360109375,3.64320703125,11.9524765625,3.59484765625,5.1532109375,3.385796875,-0.199625,2.273546875,-0.479499999999999,3.05028515625,0.25317578125,0.485578125,-3.78922265625,0.796515625,-5.0382734375,6.51251171875,-0.34751953125,1.902171875,-14.1121640625,5.270703125
-4.64966015625,5.5755625,11.12116015625,4.8963046875,3.14445703125,7.40350390625,7.1664609375,5.93491796875,3.938390625,0.89587890625,4.628109375,3.92220703125,12.5984765625,3.71784765625,4.5952109375,2.667796875,-0.088625,2.610546875,-1.0875,2.16028515625,1.18817578125,2.257578125,-3.06722265625,1.124515625,-4.2382734375,7.11251171875,0.47748046875,1.668171875,-12.4611640625,6.166703125
-4.32066015625,4.2815625,9.81416015625,3.0303046875,1.73245703125,5.45850390625,4.9164609375,-0.0200820312499994,2.878390625,-0.53912109375,2.881109375,3.12620703125,12.0594765625,3.10084765625,3.8152109375,1.688796875,-0.376625,2.406546875,-1.8645,1.06728515625,1.97717578125,3.834578125,-2.91422265625,1.261515625,-3.4552734375,7.68651171875,0.98648046875,1.381171875,-10.6621640625,6.692703125
-4.00566015625,2.5295625,7.45716015625,2.5633046875,0.00845703124999986,2.63350390625,1.6694609375,-5.53308203125,1.304390625,-2.43712109375,0.506109375,1.11220703125,10.4824765625,1.91084765625,2.8132109375,0.541796875,-0.866625,1.579546875,-2.8065,-0.239714843749999,2.18817578125,4.873578125,-3.51622265625,0.953515625,-2.9972734375,8.09751171875,0.92948046875,0.936171874999999,-9.1891640625,6.885703125
-3.53766015625,0.901562500000001,4.89316015625,3.6713046875,-1.37454296875,-0.0644960937500016,-1.6245390625,-8.35408203125,-0.0656093750000002,-4.13412109375,-1.674890625,-1.65379296875,8.4294765625,0.69484765625,1.8812109375,-0.406203125,-1.145625,0.398546875,-3.6595,-1.45671484375,1.81317578125,5.221578125,-4.65922265625,0.257515624999999,-2.8842734375,8.33251171875,0.42848046875,0.314171875,-8.3181640625,6.964703125
-2.73766015625,0.0415625000000013,3.12716015625,5.8743046875,-1.68154296875,-1.57749609375,-3.9195390625,-6.99808203125,-0.479609375,-4.81212109375,-2.735890625,-4.21279296875,6.6914765625,0.15184765625,1.4762109375,-0.676203125,-0.913625,-0.594453125,-3.9985,-2.10771484375,1.22017578125,5.019578125,-5.80822265625,-0.477484375,-2.8932734375,8.37651171875,-0.09951953125,-0.370828125,-8.0751640625,7.125703125
-1.54166015625,0.333562500000001,2.83416015625,8.2853046875,-0.489542968749999,-1.29349609375,-4.5195390625,-1.72608203125,0.460390625,-3.95312109375,-2.122890625,-5.56379296875,5.9324765625,0.77784765625,1.9362109375,0.0167968749999998,-0.232625,-0.856453125,-3.4665,-1.83371484375,0.852175781250001,4.659578125,-6.36222265625,-0.802484375000001,-2.7582734375,8.09651171875,-0.17451953125,-0.896828125000001,-8.3101640625,7.386703125
-0.09266015625,1.6635625,4.01116015625,9.9763046875,1.99545703125,0.655503906249999,-3.3955390625,5.40991796875,2.536390625,-1.70712109375,0.00710937499999975,-5.21179296875,6.3514765625,2.56784765625,3.2172109375,1.525796875,0.462375,-0.143453125,-2.0155,-0.65771484375,0.89117578125,4.597578125,-5.95222265625,-0.422484375000001,-2.3872734375,7.25451171875,0.47748046875,-1.031828125,-8.8311640625,7.564703125
1.21633984375,3.4235625,5.94716015625,10.3113046875,4.95045703125,3.45750390625,-1.1865390625,11.51591796875,4.933390625,1.08087890625,2.793109375,-3.44579296875,7.5514765625,4.94284765625,4.8242109375,3.272796875,0.613375,1.332546875,0.0105000000000004,0.972285156250001,1.14317578125,5.133578125,-4.60922265625,0.659515624999999,-1.9112734375,5.67151171875,1.79548046875,-0.657828125000001,-9.5131640625,7.395703125
1.84733984375,4.7965625,7.57016015625,9.1563046875,7.28545703125,6.01950390625,1.1054609375,14.25891796875,6.578390625,3.23687890625,5.064109375,-1.15279296875,8.7334765625,6.97484765625,6.0292109375,4.515796875,-0.103625,2.994546875,2.0035,2.39528515625,1.22217578125,6.257578125,-2.73122265625,2.154515625,-1.5702734375,3.45251171875,3.44448046875,0.145171875,-10.3171640625,6.729703125
1.39833984375,5.1475625,7.96116015625,6.9183046875,8.15445703125,7.45350390625,2.5654609375,12.89891796875,6.657390625,3.80887890625,5.894109375,0.66220703125,9.0954765625,7.80884765625,6.2292109375,4.714796875,-1.544625,4.182546875,3.3485,3.06228515625,0.84617578125,7.664578125,-0.90522265625,3.619515625,-1.5372734375,1.05151171875,4.97548046875,1.091171875,-11.2571640625,5.638703125
-0.14266015625,4.3105625,6.77216015625,4.3823046875,7.32745703125,7.41450390625,2.7134609375,8.40991796875,5.025390625,2.49587890625,5.006109375,1.33820703125,8.2084765625,7.03884765625,5.2462109375,3.765796875,-3.128625,4.454546875,3.6555,2.76828515625,0.0171757812500006,8.896578125,0.31877734375,4.607515625,-1.8242734375,-0.874488281250001,5.99048046875,1.764171875,-12.3641640625,4.387703125
-2.35966015625,2.6235625,4.33616015625,2.3833046875,5.25345703125,6.13550390625,1.6174609375,2.75491796875,2.273390625,-0.255121093750001,2.833109375,0.76820703125,6.1934765625,4.87184765625,3.3762109375,2.010796875,-4.125625,3.748546875,2.8855,1.68528515625,-1.00082421875,9.535578125,0.60877734375,4.804515625,-2.3132734375,-1.76448828125,6.24348046875,1.764171875,-13.6671640625,3.275703125
-4.62966015625,0.735562500000001,1.46216015625,1.4493046875,2.80045703125,4.22550390625,-0.2315390625,-2.12108203125,-0.585609375,-3.49712109375,0.246109375,-0.66479296875,3.6044765625,2.00184765625,1.2232109375,0.0557968750000004,-4.005625,2.345546875,1.3445,0.21128515625,-1.82982421875,9.351578125,-0.0712226562499998,4.128515625,-2.8422734375,-1.39448828125,5.65848046875,0.854171875,-15.1721640625,2.495703125
-6.39766015625,-0.7294375,-0.952839843750001,1.5853046875,0.82945703125,2.36650390625,-2.1815390625,-5.03808203125,-2.619609375,-6.23712109375,-1.882890625,-2.33479296875,1.1304765625,-0.71415234375,-0.596789062499999,-1.499203125,-2.715625,0.682546875,-0.4655,-1.23471484375,-2.15982421875,8.340578125,-1.50222265625,2.752515625,-3.3042734375,0.0455117187499994,4.31648046875,-0.959828125,-16.8451640625,2.065703125
-7.37866015625,-1.4574375,-2.29983984375,2.2743046875,-0.175542968749999,1.04050390625,-3.6915390625,-5.82708203125,-3.407609375,-7.87612109375,-3.058890625,-3.67579296875,-0.720523437500001,-2.64115234375,-1.7297890625,-2.301203125,-0.738625,-0.881453125,-2.0725,-2.37871484375,-1.89382421875,6.685578125,-3.33722265625,1.027515625,-3.6972734375,2.02551171875,2.39848046875,-3.429828125,-18.5831640625,1.855703125
-7.65866015625,-1.5684375,-2.49283984375,2.7043046875,-0.278542968749999,0.365503906249999,-4.4985390625,-5.17808203125,-3.194609375,-8.42012109375,-3.331890625,-4.41679296875,-1.8135234375,-3.63115234375,-2.2317890625,-2.381203125,1.116375,-2.210453125,-3.2465,-3.17071484375,-1.24882421875,4.681578125,-5.25222265625,-0.656484375000001,-4.1242734375,3.83651171875,0.14348046875,-6.134828125,-20.2151640625,1.653703125
-7.66866015625,-1.5164375,-1.95583984375,2.1373046875,-0.00454296875000004,0.078503906249999,-4.6635390625,-4.23808203125,-2.741609375,-8.40612109375,-3.211890625,-4.67479296875,-2.3955234375,-4.05315234375,-2.5437890625,-2.121203125,2.090375,-3.371453125,-4.0805,-3.75171484375,-0.737824218749999,2.660578125,-7.04522265625,-2.024484375,-4.7522734375,4.80651171875,-2.18351953125,-8.602828125,-21.5531640625,1.248703125
-7.98466015625,-1.8474375,-1.40683984375,0.271304687499999,-0.0615429687500004,-0.33949609375,-4.5045390625,-4.08608203125,-2.952609375,-8.58812109375,-3.414890625,-4.85479296875,-2.9485234375,-4.55915234375,-3.2727890625,-2.085203125,1.810375,-4.505453125,-4.9095,-4.35371484375,-0.997824218749999,0.914578125,-8.63722265625,-2.998484375,-5.7302734375,4.49251171875,-4.31251953125,-10.433828125,-22.4571640625,0.527703125
-9.02766015625,-2.9554375,-1.53983984375,-2.5816953125,-1.01254296875,-1.43349609375,-4.4915390625,-5.26608203125,-4.428609375,-9.56412109375,-4.544890625,-5.40879296875,-3.9575234375,-5.70215234375,-4.8817890625,-2.783203125,0.382375,-5.674453125,-6.0935,-5.19271484375,-2.48082421875,-0.347421875,-10.01722265625,-3.687484375,-7.1012734375,2.82351171875,-5.97951953125,-11.405828125,-22.8801640625,-0.448296875
-10.84366015625,-4.9054375,-2.74183984375,-5.6406953125,-3.01854296875,-3.50849609375,-5.0885390625,-7.57208203125,-7.136609375,-11.48912109375,-6.833890625,-6.55879296875,-5.6585234375,-7.62115234375,-7.4367890625,-4.443203125,-1.750625,-6.784453125,-7.7835,-6.37271484375,-5.16382421875,-1.016421875,-11.15322265625,-4.274484375,-8.7332734375,0.117511718749999,-6.96451953125,-11.504828125,-22.8671640625,-1.435296875
-13.09566015625,-7.3864375,-4.94283984375,-8.0476953125,-5.75254296875,-6.43649609375,-6.5605390625,-10.17208203125,-10.371609375,-13.98612109375,-10.007890625,-8.13779296875,-7.8745234375,-9.93515234375,-10.5267890625,-6.875203125,-4.052625,-7.605453125,-9.7705,-7.82671484375,-8.45882421875,-1.059421875,-11.95122265625,-4.862484375,-10.3012734375,-3.03448828125,-7.14351953125,-10.892828125,-22.5351640625,-2.105296875
-15.21766015625,-9.8044375,-7.65183984375,-9.2546953125,-8.49754296875,-9.64249609375,-8.8145390625,-12.01608203125,-13.053609375,-16.30012109375,-13.338890625,-9.66979296875,-10.0315234375,-11.89715234375,-13.3947890625,-9.503203125,-6.069625,-7.851453125,-11.5395,-9.31071484375,-11.40182421875,-0.470421875,-12.25422265625,-5.398484375,-11.3762734375,-5.98148828125,-6.54651953125,-9.818828125,-22.0421640625,-2.216296875
-16.64066015625,-11.4994375,-10.16383984375,-9.2046953125,-10.43054296875,-12.29049609375,-11.3915390625,-12.33408203125,-14.232609375,-17.63712109375,-15.904890625,-10.65279296875,-11.3885234375,-12.74915234375,-15.2227890625,-11.580203125,-7.508625,-7.313453125,-12.5065,-10.47571484375,-13.03682421875,0.722578125,-11.91922265625,-5.703484375,-11.5842734375,-8.21048828125,-5.37551953125,-8.556828125,-21.5621640625,-1.748296875
-17.01366015625,-12.0154375,-11.86683984375,-8.2826953125,-10.96554296875,-13.64249609375,-13.6535390625,-11.02308203125,-13.553609375,-17.52612109375,-16.961890625,-10.89579296875,-11.3815234375,-12.09915234375,-15.4797890625,-12.497203125,-8.258625,-5.989453125,-12.3175,-11.00671484375,-12.79882421875,2.403578125,-10.92522265625,-5.610484375,-10.7782734375,-9.46748828125,-3.98051953125,-7.389828125,-21.2471640625,-0.919296875000001
-16.39566015625,-11.3104375,-12.51583984375,-7.1526953125,-10.01954296875,-13.40449609375,-15.0865390625,-8.73308203125,-11.410609375,-16.05412109375,-16.279890625,-10.67779296875,-9.9175234375,-10.14115234375,-14.1877890625,-12.059203125,-8.385625,-4.175453125,-11.0495,-10.76671484375,-10.72282421875,4.307578125,-9.44622265625,-5.099484375,-9.1142734375,-9.75348828125,-2.78151953125,-6.619828125,-21.2011640625,-0.0802968750000002
-15.27266015625,-9.7894375,-12.31483984375,-6.5656953125,-8.04954296875,-11.87549609375,-15.5295390625,-6.59108203125,-8.721609375,-13.82812109375,-14.262890625,-10.61579296875,-7.4465234375,-7.59615234375,-11.9617890625,-10.589203125,-8.102625,-2.401453125,-9.2055,-9.89571484375,-7.44482421875,6.057578125,-7.85322265625,-4.354484375,-7.0092734375,-9.25148828125,-2.16551953125,-6.507828125,-21.4431640625,0.445703125
-14.30266015625,-8.1224375,-11.77283984375,-7.0836953125,-5.82154296875,-9.78549609375,-15.2095390625,-5.65208203125,-6.468609375,-11.69012109375,-11.784890625,-11.27179296875,-4.7975234375,-5.37315234375,-9.7507890625,-8.795203125,-7.681625,-1.190453125,-7.4805,-8.76871484375,-3.99582421875,7.348578125,-6.57822265625,-3.706484375,-5.0142734375,-8.24848828125,-2.35151953125,-7.140828125,-21.8721640625,0.504703125000001
-13.91866015625,-6.9114375,-11.37583984375,-8.7366953125,-4.02554296875,-7.89849609375,-14.5555390625,-6.37108203125,-5.248609375,-10.29312109375,-9.788890625,-12.76179296875,-2.8335234375,-4.11415234375,-8.3877890625,-7.444203125,-7.322625,-0.750453125,-6.4135,-7.83171484375,-1.44482421875,8.152578125,-5.89722265625,-3.448484375,-3.6212734375,-7.07048828125,-3.27251953125,-8.285828125,-22.2591640625,0.160703125
-14.06066015625,-6.3684375,-11.27783984375,-10.8086953125,-2.92054296875,-6.60149609375,-13.9105390625,-8.36608203125,-5.051609375,-9.75512109375,-8.826890625,-14.60179296875,-2.0655234375,-3.87015234375,-8.1787890625,-6.979203125,-7.048625,-0.800453125,-6.0845,-7.34171484375,-0.466824218749999,8.800578125,-5.73322265625,-3.630484375,-3.0602734375,-6.02548828125,-4.52651953125,-9.375828125,-22.3071640625,-0.334296875
-14.20766015625,-6.1884375,-11.19083984375,-12.0036953125,-2.21554296875,-5.72849609375,-13.3315390625,-10.60608203125,-5.325609375,-9.60312109375,-8.792890625,-15.93179296875,-2.4255234375,-4.08515234375,-8.7667890625,-7.284203125,-6.687625,-0.678453125,-6.0585,-7.19371484375,-1.01082421875,9.834578125,-5.63222265625,-3.960484375,-3.1742734375,-5.33048828125,-5.46951953125,-9.701828125,-21.7691640625,-0.653296875000001
-13.65366015625,-5.7364375,-10.54883984375,-11.0626953125,-1.25854296875,-4.71949609375,-12.5835390625,-11.93008203125,-5.272609375,-9.04612109375,-8.992890625,-15.94579296875,-3.2965234375,-3.90315234375,-9.3327890625,-7.757203125,-5.999625,0.297546875,-5.6285,-6.94871484375,-2.32982421875,11.714578125,-4.96522265625,-3.932484375,-3.4682734375,-5.05548828125,-5.46751953125,-8.738828125,-20.5711640625,-0.530296874999999
-11.85666015625,-4.4394375,-8.87183984375,-7.4976953125,0.56445703125,-3.00149609375,-11.3205390625,-11.64308203125,-4.246609375,-7.43212109375,-8.527890625,-14.26079296875,-3.8105234375,-2.64215234375,-9.0357890625,-7.649203125,-4.861625,2.420546875,-4.2385,-6.09071484375,-3.39182421875,14.535578125,-3.26822265625,-3.121484375,-3.3492734375,-5.13148828125,-4.18651953125,-6.436828125,-18.8601640625,0.140703125
-8.73866015625,-2.1284375,-6.08483984375,-1.9746953125,3.45745703125,-0.35849609375,-9.3235390625,-9.89408203125,-2.085609375,-4.60612109375,-6.762890625,-11.04679296875,-3.2615234375,-0.17015234375,-7.4297890625,-6.461203125,-3.382625,5.396546875,-1.8105,-4.34071484375,-3.42082421875,17.932578125,-0.52922265625,-1.442484375,-2.4112734375,-5.38148828125,-1.75051953125,-3.291828125,-16.9181640625,1.312703125
-4.78966015625,0.859562500000001,-2.61083984375,3.9243046875,7.06545703125,2.91650390625,-6.6645390625,-7.59108203125,0.810390625,-0.99812109375,-3.652890625,-6.91279296875,-1.4275234375,3.02584765625,-4.6587890625,-4.173203125,-1.850625,8.466546875,1.2005,-1.84071484375,-2.22682421875,21.227578125,2.77777734375,0.788515625,-0.5872734375,-5.56748828125,1.32248046875,-0.122828125000001,-15.0181640625,2.875703125
-0.90066015625,3.8495625,0.798160156249999,8.4213046875,10.63345703125,6.14550390625,-3.7465390625,-5.83208203125,3.691390625,2.58087890625,0.218109375,-2.68579296875,1.3644765625,6.08784765625,-1.3657890625,-1.232203125,-0.553625,10.784546875,4.0375,0.904285156250001,-0.14082421875,23.724578125,5.89677734375,3.015515625,1.8707265625,-5.43548828125,4.34848046875,2.296171875,-13.3031640625,4.728703125
2.00733984375,6.1215625,3.38116015625,10.3053046875,13.34345703125,8.55850390625,-1.2215390625,-5.18508203125,5.844390625,5.27487890625,3.865109375,0.81320703125,4.4174765625,8.19684765625,1.5992109375,1.650796875,0.372375,11.805546875,5.9825,3.25728515625,2.29217578125,24.996578125,8.11677734375,4.703515625,4.5387265625,-4.78548828125,6.73248046875,3.544171875,-11.7771640625,6.788703125
3.31933984375,7.1855625,4.64116015625,9.3713046875,14.65145703125,9.59650390625,0.222460937499999,-5.31108203125,6.903390625,6.49487890625,6.282109375,2.97020703125,6.9684765625,8.89284765625,3.4942109375,3.800796875,0.973375,11.479546875,6.6455,4.71928515625,4.61917578125,25.025578125,9.03777734375,5.562515625,6.9997265625,-3.54348828125,8.15548046875,3.649171875,-10.3721640625,8.938703125
2.89533984375,6.9375625,4.49616015625,6.3803046875,14.44845703125,9.10550390625,0.152460937499999,-5.26008203125,6.915390625,6.09487890625,6.840109375,3.54920703125,8.4724765625,8.18084765625,3.9062109375,4.819796875,1.397375,10.192546875,6.0775,5.09828515625,6.60517578125,24.148578125,8.66777734375,5.624515625,8.9747265625,-1.82148828125,8.62348046875,2.968171875,-9.0251640625,11.021703125
1.06333984375,5.6625625,3.26216015625,2.6643046875,13.03145703125,7.36650390625,-1.3675390625,-4.21208203125,6.187390625,4.37787890625,5.523109375,2.77020703125,8.7474765625,6.42184765625,2.8492109375,4.697796875,1.796375,8.538546875,4.6755,4.52428515625,8.15517578125,22.864578125,7.34977734375,5.169515625,10.3457265625,0.0915117187499987,8.39548046875,1.976171875,-7.7181640625,12.882703125
-1.49366015625,3.8875625,1.50916015625,-0.4226953125,10.92145703125,4.97750390625,-3.7515390625,-2.11308203125,5.057390625,1.94587890625,2.918109375,1.20720703125,7.9774765625,4.14184765625,0.7292109375,3.725796875,2.254375,7.074546875,2.9745,3.32528515625,9.16217578125,21.631578125,5.59877734375,4.544515625,11.1167265625,1.78251171875,7.83548046875,1.082171875,-6.4671640625,14.438703125
-3.94866015625,2.1665625,-0.153839843750001,-1.9806953125,8.65545703125,2.62950390625,-6.1295390625,0.284917968750001,3.738390625,-0.53512109375,-0.0518906250000004,-0.46879296875,6.5824765625,1.85784765625,-1.8027890625,2.320796875,2.758375,6.160546875,1.4375,1.86828515625,9.45317578125,20.728578125,3.92577734375,3.992515625,11.3447265625,2.85051171875,7.27848046875,0.540171875,-5.2821640625,15.718703125
-5.63266015625,0.886562500000001,-1.29483984375,-1.8106953125,6.62745703125,0.874503906249999,-7.7405390625,1.97391796875,2.298390625,-2.54112109375,-2.504890625,-1.77379296875,5.0274765625,-0.0271523437500001,-4.0587890625,0.856796875,3.218375,5.900546875,0.3405,0.449285156250001,8.88917578125,20.234578125,2.70377734375,3.588515625,11.1327265625,3.06551171875,6.95548046875,0.426171875,-4.1561640625,16.817703125
-6.28166015625,0.180562500000001,-1.75983984375,-0.3396953125,5.03645703125,-0.0414960937500002,-8.2445390625,2.36891796875,0.731390625,-3.81212109375,-3.911890625,-2.55079296875,3.6394765625,-1.26815234375,-5.5367890625,-0.434203125,3.507375,6.170546875,-0.248499999999999,-0.765714843749999,7.50217578125,20.060578125,2.08177734375,3.279515625,10.6237265625,2.47751171875,6.97148046875,0.665171875,-3.0851640625,17.804703125
-6.07466015625,-0.0664374999999993,-1.67283984375,1.6613046875,3.90845703125,-0.206496093750001,-7.8285390625,1.62291796875,-0.925609375,-4.37012109375,-4.231890625,-2.93179296875,2.5284765625,-1.80015234375,-6.0527890625,-1.501203125,3.531375,6.683546875,-0.448499999999999,-1.75871484375,5.49117578125,20.021578125,1.95077734375,2.942515625,9.9587265625,1.37451171875,7.29148046875,1.067171875,-2.1151640625,18.615703125
-5.48266015625,-0.136437499999999,-1.33383984375,3.3903046875,3.14645703125,0.0295039062499995,-7.0555390625,0.411917968750001,-2.524609375,-4.46512109375,-3.856890625,-3.17779296875,1.6354765625,-1.74315234375,-5.7817890625,-2.462203125,3.271375,7.080546875,-0.517499999999999,-2.64271484375,3.08717578125,19.914578125,2.01477734375,2.452515625,9.2087265625,0.121511718749998,7.75648046875,1.408171875,-1.3491640625,19.059703125
-5.05566015625,-0.348437499999999,-1.09183984375,4.2093046875,2.57445703125,0.216503906249999,-6.5505390625,-0.603082031249999,-3.839609375,-4.45612109375,-3.384890625,-3.50079296875,0.8574765625,-1.36815234375,-5.1707890625,-3.525203125,2.765375,7.046546875,-0.750499999999999,-3.58171484375,0.47417578125,19.598578125,1.95177734375,1.744515625,8.3527265625,-0.973488281250001,8.13748046875,1.541171875,-0.892164062499999,18.924703125
-5.24566015625,-0.9184375,-1.20283984375,3.7263046875,2.00645703125,-0.0114960937500008,-6.6875390625,-1.18808203125,-4.660609375,-4.66512109375,-3.349890625,-3.94679296875,0.173476562499999,-1.01315234375,-4.7597890625,-4.849203125,2.065375,6.434546875,-1.3265,-4.66371484375,-2.15282421875,19.078578125,1.59977734375,0.871515624999999,7.3587265625,-1.71348828125,8.25548046875,1.494171875,-0.7611640625,18.142703125
-6.23266015625,-1.8654375,-1.74983984375,1.8393046875,1.31245703125,-0.795496093750002,-7.4375390625,-1.56008203125,-4.875609375,-5.24712109375,-4.009890625,-4.38879296875,-0.326523437500001,-0.92815234375,-4.9517890625,-6.416203125,1.229375,5.345546875,-2.2005,-5.80271484375,-4.50482421875,18.524578125,1.05777734375,0.0115156249999995,6.2867265625,-1.98748828125,8.06148046875,1.474171875,-0.8271640625,16.861703125
-7.80966015625,-2.9994375,-2.61083984375,-1.2076953125,0.50845703125,-1.99749609375,-8.4595390625,-2.05908203125,-4.487609375,-6.13212109375,-5.256890625,-4.61979296875,-0.485523437499999,-1.14415234375,-5.8017890625,-7.990203125,0.389375,4.131546875,-3.1005,-6.73071484375,-6.21082421875,18.230578125,0.62677734375,-0.570484375,5.3377265625,-1.73148828125,7.65648046875,1.762171875,-0.8251640625,15.413703125
-9.42466015625,-3.9714375,-3.50283984375,-4.7636953125,-0.21054296875,-3.25749609375,-9.3135390625,-2.75308203125,-3.562609375,-7.04412109375,-6.665890625,-4.49279296875,-0.168523437499999,-1.41915234375,-6.9327890625,-9.169203125,-0.221625,3.296546875,-3.6085,-7.06371484375,-6.92682421875,18.501578125,0.66477734375,-0.593484375000001,4.8247265625,-0.92648828125,7.25148046875,2.545171875,-0.4581640625,14.174703125
-10.40366015625,-4.3664375,-4.04683984375,-7.7986953125,-0.51154296875,-4.11849609375,-9.6545390625,-3.30608203125,-2.184609375,-7.58012109375,-7.635890625,-4.02479296875,0.674476562500001,-1.30015234375,-7.6377890625,-9.508203125,-0.371625,3.331546875,-3.2995,-6.44071484375,-6.43782421875,19.513578125,1.41777734375,0.151515624999999,5.0677265625,0.36551171875,7.06848046875,3.776171875,0.457835937500001,13.398703125
-10.22366015625,-3.8554375,-3.89483984375,-9.1366953125,-0.0675429687500007,-4.21049609375,-9.3375390625,-3.20508203125,-0.466609375,-7.37512109375,-7.623890625,-3.41479296875,1.9784765625,-0.31815234375,-7.1927890625,-8.713203125,-0.0226249999999999,4.515546875,-1.9275,-4.70571484375,-4.75882421875,21.188578125,2.90877734375,1.684515625,6.2257265625,1.95951171875,7.22948046875,5.118171875,1.8478359375,13.095703125
-8.70766015625,-2.3594375,-2.88883984375,-7.9376953125,1.24845703125,-3.40849609375,-8.4155390625,-2.19408203125,1.412390625,-6.28512109375,-6.385890625,-2.95779296875,3.5724765625,1.75284765625,-5.2477890625,-6.842203125,0.550375,6.738546875,0.397500000000001,-2.08271484375,-2.20282421875,23.138578125,4.87977734375,3.726515625,8.1257265625,3.53751171875,7.64848046875,6.026171875,3.3398359375,13.046703125
-6.08966015625,-0.142437499999999,-1.18883984375,-4.2066953125,3.26345703125,-1.88349609375,-7.0715390625,-0.588082031249999,3.212390625,-4.49512109375,-4.104890625,-2.89179296875,5.2104765625,4.71284765625,-2.0847890625,-4.347203125,0.860375,9.462546875,3.1695,0.801285156250001,0.62217578125,24.756578125,6.84377734375,5.732515625,10.2457265625,4.72751171875,8.03548046875,5.969171875,4.4068359375,12.944703125
-2.93466015625,2.2725625,0.756160156249999,1.0373046875,5.57045703125,-0.00149609375000104,-5.5095390625,0.825917968750001,4.716390625,-2.44312109375,-1.291890625,-3.24779296875,6.6434765625,7.97284765625,1.4472109375,-1.901203125,0.508375,11.893546875,5.6715,3.13228515625,2.96317578125,25.446578125,8.27377734375,7.117515625,11.9027265625,5.24851171875,8.03648046875,4.736171875,4.6298359375,12.592703125
0.0943398437499998,4.3365625,2.42716015625,6.1893046875,7.72745703125,1.87350390625,-3.8775390625,1.32591796875,5.850390625,-0.590121093750001,1.475109375,-3.80779296875,7.7024765625,10.81684765625,4.3232109375,-0.0662031250000004,-0.532625,13.346546875,7.3165,4.29528515625,4.18017578125,24.911578125,8.84577734375,7.571515625,12.5687265625,5.01351171875,7.44848046875,2.635171875,3.9358359375,11.999703125
2.53433984375,5.7045625,3.49816015625,9.8513046875,9.42845703125,3.52950390625,-2.2585390625,0.847917968750001,6.700390625,0.79087890625,3.803109375,-4.19379296875,8.3514765625,12.71284765625,5.8302109375,0.968796875,-1.864625,13.569546875,7.9195,4.19428515625,4.02817578125,23.315578125,8.60277734375,7.237515625,12.1207265625,4.14451171875,6.35048046875,0.408171875,2.6248359375,11.328703125
4.25933984375,6.3385625,3.98616015625,11.4693046875,10.54245703125,4.92850390625,-0.720539062500001,0.143917968750001,7.408390625,1.68687890625,5.595109375,-4.03379296875,8.6934765625,13.49384765625,5.8542109375,1.438796875,-2.909625,12.841546875,7.7455,3.31228515625,2.78517578125,21.221578125,7.90177734375,6.628515625,10.8897265625,2.92051171875,5.05148046875,-1.134828125,1.1948359375,10.762703125
5.37233984375,6.4545625,4.16916015625,11.4163046875,11.06145703125,6.09750390625,0.658460937499999,0.303917968750001,8.040390625,2.26387890625,6.979109375,-3.11179296875,8.9134765625,13.32484765625,4.8342109375,1.829796875,-3.273625,11.765546875,7.3145,2.45428515625,1.16217578125,19.341578125,7.20777734375,6.324515625,9.4787265625,1.70151171875,3.91048046875,-1.530828125,0.0808359374999998,10.392703125
5.98933984375,6.3605625,4.37516015625,10.5373046875,11.03545703125,7.02850390625,1.8144609375,1.97491796875,8.542390625,2.70287890625,8.145109375,-1.43779296875,9.2024765625,12.54584765625,3.4472109375,2.576796875,-2.980625,10.922546875,7.0875,2.31028515625,-0.0218242187499991,18.221578125,6.83277734375,6.637515625,8.4527265625,0.835511718749999,3.13548046875,-0.877828125000001,-0.5161640625,10.168703125
6.14633984375,6.3015625,4.78516015625,9.5623046875,10.55645703125,7.66050390625,2.7414609375,4.86391796875,8.792390625,3.08587890625,9.185109375,0.759207031250001,9.6694765625,11.51684765625,2.2572109375,3.815796875,-2.441625,10.582546875,7.2185,3.10528515625,-0.21582421875,18.031578125,6.79177734375,7.424515625,8.0587265625,0.563511718749998,2.68048046875,0.270171875,-0.6681640625,9.917703125
5.87133984375,6.3695625,5.37116015625,8.7863046875,9.77345703125,7.94150390625,3.4914609375,7.84491796875,8.694390625,3.35187890625,10.032109375,3.12520703125,10.2984765625,10.52284765625,1.5052109375,5.302796875,-2.169625,10.647546875,7.4915,4.50128515625,0.63017578125,18.552578125,6.84777734375,8.166515625,8.1337265625,0.943511718749999,2.30848046875,1.219171875,-0.627164062499999,9.426703125
5.25533984375,6.5025625,5.94416015625,8.1253046875,8.84845703125,7.88350390625,4.1154609375,9.57591796875,8.226390625,3.34187890625,10.493109375,5.28520703125,10.9304765625,9.73484765625,1.0912109375,6.548796875,-2.442625,10.790546875,7.4785,5.80928515625,2.06317578125,19.335578125,6.68477734375,8.254515625,8.2587265625,1.85251171875,1.76048046875,1.486171875,-0.671164062499999,8.566703125
4.41033984375,6.5465625,6.25316015625,7.3633046875,7.89945703125,7.54550390625,4.5874609375,9.24091796875,7.448390625,2.88487890625,10.364109375,6.92420703125,11.2864765625,9.21184765625,0.7092109375,7.073796875,-3.117625,10.667546875,6.8115,6.37328515625,3.35117578125,19.922578125,6.10477734375,7.332515625,8.0327265625,3.05551171875,0.93148046875,0.976171874999999,-0.961164062499999,7.392703125
3.42033984375,6.3515625,6.09716015625,6.3563046875,6.96245703125,7.00750390625,4.8114609375,7.04591796875,6.485390625,1.91987890625,9.568109375,7.83720703125,11.0184765625,8.94084765625,0.0702109375000006,6.654796875,-3.689625,10.103546875,5.4185,5.90728515625,3.83617578125,20.006578125,5.14777734375,5.507515625,7.3267265625,4.31551171875,-0.04151953125,-0.0338281250000003,-1.4421640625,6.192703125
2.37133984375,5.8715625,5.45116015625,5.1313046875,6.04645703125,6.37450390625,4.7244609375,4.18291796875,5.511390625,0.58587890625,8.267109375,7.98620703125,9.8374765625,8.92284765625,-0.8767890625,5.473796875,-3.596625,9.187546875,3.6135,4.65528515625,3.30417578125,19.525578125,4.09377734375,3.336515625,6.3877265625,5.48051171875,-0.80451953125,-1.032828125,-1.8101640625,5.440703125
1.41333984375,5.2435625,4.53316015625,3.9043046875,5.22045703125,5.82150390625,4.4384609375,2.23991796875,4.722390625,-0.74912109375,6.876109375,7.53920703125,7.6734765625,9.20784765625,-1.8717890625,4.086796875,-2.553625,8.250546875,2.0025,3.28828515625,2.17617578125,18.667578125,3.35677734375,1.617515625,5.7457265625,6.51951171875,-0.90751953125,-1.422828125,-1.5761640625,5.622703125
0.74033984375,4.7605625,3.75616015625,3.0373046875,4.63645703125,5.57750390625,4.2494609375,2.38091796875,4.279390625,-1.60512109375,5.939109375,6.82620703125,4.8084765625,9.85684765625,-2.4707890625,3.194796875,-0.710625,7.705546875,1.2165,2.58628515625,1.35617578125,17.777578125,3.31177734375,1.056515625,5.9527265625,7.50251171875,0.00848046875000008,-0.716828125,-0.273164062499999,6.998703125
0.51333984375,4.7305625,3.55716015625,2.8973046875,4.44045703125,5.83750390625,4.4964609375,4.77391796875,4.238390625,-1.60612109375,5.887109375,6.18920703125,1.8444765625,10.83084765625,-2.3257890625,3.307796875,1.419375,7.829546875,1.5885,3.03828515625,1.77117578125,17.201578125,4.09077734375,1.929515625,7.2707265625,8.53251171875,1.99948046875,1.243171875,2.2538359375,9.384703125
0.79933984375,5.2805625,4.18216015625,3.6473046875,4.65145703125,6.64550390625,5.3404609375,8.60191796875,4.516390625,-0.68912109375,6.825109375,5.82020703125,-0.495523437499999,11.91584765625,-1.4157890625,4.479796875,3.185375,8.582546875,2.9415,4.58528515625,3.87317578125,17.115578125,5.46477734375,3.919515625,9.4687265625,9.67351171875,4.69348046875,4.117171875,5.6518359375,12.138703125
1.53033984375,6.2525625,5.56516015625,5.0803046875,5.09645703125,7.84250390625,6.6494609375,12.54291796875,4.920390625,0.83387890625,8.458109375,5.71120703125,-1.6525234375,12.75284765625,-0.0817890625000004,6.268796875,3.999375,9.602546875,4.6185,6.63128515625,7.38517578125,17.456578125,6.89877734375,6.216515625,11.8697265625,10.90051171875,7.35148046875,7.115171875,9.1028359375,14.376703125
2.46733984375,7.2455625,7.33816015625,6.6243046875,5.46245703125,9.09850390625,8.0474609375,15.37491796875,5.238390625,2.38987890625,10.205109375,5.74020703125,-1.4525234375,12.97984765625,1.1292109375,7.949796875,3.508375,10.357546875,5.7715,8.31928515625,11.36917578125,17.966578125,7.76477734375,7.858515625,13.6267265625,12.09951171875,9.12248046875,9.270171875,11.6428359375,15.334703125
3.25533984375,7.8075625,8.99816015625,7.5923046875,5.43345703125,10.01650390625,9.0834609375,16.39691796875,5.338390625,3.39287890625,11.425109375,5.80220703125,-0.1795234375,12.41984765625,1.7232109375,8.839796875,1.710375,10.400546875,5.7455,8.91328515625,14.56517578125,18.314578125,7.61377734375,8.119515625,14.0827265625,13.11251171875,9.35448046875,9.820171875,12.5418359375,14.691703125
3.60033984375,7.6435625,10.10916015625,7.5613046875,4.84245703125,10.26450390625,9.4004609375,15.55691796875,5.220390625,3.49187890625,11.657109375,5.87820703125,1.5444765625,11.21184765625,1.4712109375,8.571796875,-1.001625,9.572546875,4.3745,8.10528515625,15.84917578125,18.237578125,6.38677734375,6.783515625,13.0227265625,13.80751171875,7.84148046875,8.483171875,11.5718359375,12.668703125
3.45633984375,6.7525625,10.45616015625,6.6433046875,3.76245703125,9.69350390625,8.8324609375,13.29191796875,4.995390625,2.70787890625,10.780109375,5.99520703125,3.0264765625,9.80684765625,0.489210937500001,7.216796875,-3.924625,8.093546875,2.0635,6.13328515625,14.67517578125,17.668578125,4.46377734375,4.201515625,10.7717265625,14.13851171875,4.90148046875,5.565171875,9.0578359375,9.914703125
3.04933984375,5.4295625,10.07716015625,5.4303046875,2.49445703125,8.40350390625,7.4444609375,10.21991796875,4.800390625,1.41887890625,9.040109375,6.13020703125,3.8294765625,8.79584765625,-0.811789062499999,5.246796875,-6.275625,6.467546875,-0.362499999999999,3.69428515625,11.34917578125,16.795578125,2.55477734375,1.181515625,8.0937265625,14.19951171875,1.30048046875,1.898171875,5.7658359375,7.244703125
2.74333984375,4.1465625,9.20416015625,4.6353046875,1.45945703125,6.72450390625,5.5194609375,6.89691796875,4.726390625,0.18487890625,6.957109375,6.16120703125,3.9694765625,8.65284765625,-1.8867890625,3.371796875,-7.459625,5.263546875,-1.9695,1.69528515625,6.98717578125,16.003578125,1.43377734375,-1.271484375,5.9717265625,14.22151171875,-1.96751953125,-1.377828125,2.6948359375,5.367703125
2.87233984375,3.3445625,8.17116015625,4.6663046875,1.02145703125,5.10850390625,3.5034609375,3.79091796875,4.777390625,-0.49912109375,5.139109375,5.90620703125,3.8304765625,9.50984765625,-2.2357890625,2.287796875,-7.263625,4.844546875,-2.1025,0.91528515625,3.13417578125,15.682578125,1.60777734375,-2.310484375,5.2707265625,14.49251171875,-4.00451953125,-3.186828125,0.786835937500001,4.688703125
3.62733984375,3.2415625,7.32016015625,5.4423046875,1.33445703125,3.98050390625,1.8924609375,1.41191796875,4.873390625,-0.40212109375,4.078109375,5.26820703125,3.8404765625,11.06484765625,-1.5857890625,2.409796875,-5.880625,5.183546875,-0.6785,1.68828515625,1.11417578125,15.974578125,3.06277734375,-1.599484375,6.3847265625,15.18851171875,-4.34551953125,-2.945828125,0.5968359375,5.192703125
4.96833984375,3.7545625,6.91916015625,6.5323046875,2.27045703125,3.59550390625,1.0834609375,0.371917968750001,4.881390625,0.37187890625,4.003109375,4.37220703125,4.1374765625,12.66584765625,-0.00378906249999922,3.697796875,-3.777625,5.860546875,1.7565,3.72828515625,1.42817578125,16.644578125,5.22177734375,0.515515624999999,9.0277265625,16.22451171875,-3.15751953125,-0.848828125000001,2.0328359375,6.424703125
6.60333984375,4.5815625,7.11716015625,7.4793046875,3.48645703125,3.98050390625,1.2644609375,1.20691796875,4.688390625,1.49287890625,4.843109375,3.57920703125,4.4974765625,13.58684765625,2.1112109375,5.698796875,-1.493625,6.269546875,4.2815,6.24428515625,3.56017578125,17.178578125,7.20077734375,3.137515625,12.3237265625,17.25651171875,-1.16051953125,2.180171875,4.3518359375,7.639703125
8.13233984375,5.4035625,7.94116015625,8.0733046875,4.60945703125,4.99350390625,2.3884609375,4.03891796875,4.313390625,2.62287890625,6.309109375,3.32320703125,4.5574765625,13.38484765625,4.2152109375,7.770796875,0.530375,5.957546875,6.0345,8.31128515625,6.31217578125,17.083578125,8.24677734375,5.245515625,15.1967265625,17.85851171875,0.72948046875,4.887171875,6.4988359375,8.127703125
9.28733984375,6.0485625,9.30616015625,8.3913046875,5.42645703125,6.42050390625,4.2104609375,8.30391796875,3.972390625,3.57987890625,8.021109375,3.86020703125,4.1464765625,12.17084765625,5.8592109375,9.375796875,2.029375,4.913546875,6.6245,9.30228515625,8.46917578125,16.221578125,8.13977734375,6.190515625,16.8667265625,17.77251171875,1.85748046875,6.268171875,7.6278359375,7.570703125
10.05433984375,6.5265625,10.99216015625,8.6113046875,5.94345703125,8.01450390625,6.3634609375,12.77191796875,3.994390625,4.35587890625,9.583109375,5.09820703125,3.4474765625,10.57784765625,6.8292109375,10.254796875,2.883375,3.588546875,6.2535,9.13228515625,9.37117578125,14.936578125,7.29877734375,5.974515625,17.1667265625,17.03151171875,2.10548046875,6.010171875,7.5058359375,6.178703125
10.55733984375,6.9135625,12.63216015625,8.7673046875,6.27645703125,9.46950390625,8.4144609375,15.90991796875,4.608390625,4.97887890625,10.622109375,6.63520703125,2.8734765625,9.39884765625,7.0992109375,10.430796875,3.041375,2.622546875,5.5125,8.17528515625,9.11017578125,13.857578125,6.50577734375,5.140515625,16.5097265625,15.88351171875,1.84748046875,4.552171875,6.5288359375,4.503703125
10.85733984375,7.2095625,13.76116015625,8.6383046875,6.48545703125,10.39750390625,9.9114609375,16.47391796875,5.740390625,5.36787890625,10.811109375,7.95820703125,2.7624765625,9.12884765625,6.7122109375,10.085796875,2.488375,2.447546875,4.9855,6.96628515625,8.33917578125,13.501578125,6.42377734375,4.385515625,15.5847265625,14.59551171875,1.63148046875,2.742171875,5.3708359375,3.085703125
10.91133984375,7.2805625,13.97616015625,7.8663046875,6.49845703125,10.42950390625,10.4664609375,14.08291796875,6.992390625,5.33587890625,9.972109375,8.68720703125,3.1394765625,9.71084765625,5.7452109375,9.443796875,1.291375,3.037546875,4.9335,5.92228515625,7.86617578125,13.958578125,7.21777734375,4.168515625,15.0057265625,13.32251171875,1.86848046875,1.349171875,4.5828359375,2.200703125
10.64933984375,6.9405625,13.11816015625,6.2093046875,6.16745703125,9.41650390625,9.8704609375,9.49891796875,7.809390625,4.74387890625,8.208109375,8.72320703125,3.6894765625,10.62684765625,4.3912109375,8.710796875,-0.295625,3.969546875,5.2505,5.24328515625,8.27717578125,14.854578125,8.52977734375,4.582515625,15.1017265625,12.13351171875,2.70748046875,0.741171874999999,4.3828359375,1.884703125
10.07633984375,6.1165625,11.39616015625,3.7603046875,5.42545703125,7.60850390625,8.2324609375,4.41691796875,7.763390625,3.68787890625,6.001109375,8.26620703125,3.9454765625,11.25084765625,3.0342109375,8.093796875,-1.790625,4.719546875,5.6675,4.99728515625,9.70617578125,15.622578125,9.77977734375,5.496515625,15.9087265625,11.14351171875,4.13048046875,0.910171875,4.7378359375,2.101703125
9.30833984375,4.9685625,9.34516015625,1.0143046875,4.39845703125,5.64550390625,6.0204609375,0.824917968750001,6.811390625,2.55887890625,4.125109375,7.69620703125,3.5484765625,11.24284765625,2.2072109375,7.800796875,-2.580625,4.992546875,6.0245,5.24028515625,11.81017578125,15.869578125,10.57577734375,6.789515625,17.2517265625,10.60151171875,6.10848046875,1.716171875,5.5748359375,2.878703125
8.61233984375,3.8805625,7.65116015625,-1.2526953125,3.40545703125,4.33350390625,3.9584609375,0.183917968750001,5.373390625,1.89887890625,3.372109375,7.38120703125,2.4424765625,10.75584765625,2.4152109375,8.004796875,-2.166625,4.897546875,6.4105,6.06328515625,13.94817578125,15.621578125,10.96777734375,8.482515625,18.8707265625,10.83151171875,8.65648046875,3.119171875,6.9208359375,4.286703125
8.35433984375,3.2825625,6.87016015625,-2.2636953125,2.83345703125,4.27550390625,2.7414609375,2.76691796875,4.149390625,2.12487890625,4.185109375,7.48020703125,0.9064765625,10.32984765625,3.8892109375,8.752796875,-0.441625,4.855546875,7.0985,7.50728515625,15.47317578125,15.268578125,11.38477734375,10.654515625,20.4877265625,12.03751171875,11.73348046875,5.197171875,8.8468359375,6.303703125
8.80133984375,3.4205625,7.16516015625,-1.5886953125,2.93345703125,5.53250390625,2.6924609375,7.47991796875,3.733390625,3.27587890625,6.369109375,7.82020703125,-0.575523437499999,10.53984765625,6.3992109375,9.868796875,2.162375,5.310546875,8.3045,9.41428515625,15.98017578125,15.271578125,12.31777734375,13.249515625,21.8357265625,14.08951171875,15.07448046875,7.967171875,11.3088359375,8.684703125
9.89433984375,4.1895625,8.22216015625,0.6123046875,3.67845703125,7.53450390625,3.5764609375,12.29991796875,4.271390625,4.92087890625,9.075109375,7.96320703125,-1.5385234375,11.60384765625,9.2452109375,10.930796875,4.779375,6.437546875,9.9595,11.33228515625,15.39817578125,15.817578125,13.93877734375,15.910515625,22.6417265625,16.43851171875,18.11948046875,11.177171875,14.0058359375,10.942703125
11.20633984375,5.1615625,9.40816015625,3.6013046875,4.74545703125,9.30050390625,4.7044609375,15.16491796875,5.386390625,6.31487890625,11.109109375,7.47220703125,-1.7455234375,13.22584765625,11.4702109375,11.377796875,6.458375,8.002546875,11.6285,12.59228515625,13.89817578125,16.653578125,15.89977734375,17.988515625,22.6367265625,18.26151171875,20.13048046875,14.243171875,16.3918359375,12.461703125
12.15033984375,5.7655625,10.10016015625,6.3043046875,5.64645703125,9.89050390625,5.2854609375,14.86491796875,6.406390625,6.71087890625,11.444109375,6.22720703125,-1.2585234375,14.72484765625,12.2322109375,10.717796875,6.584375,9.446546875,12.6405,12.55028515625,11.72817578125,17.180578125,17.41477734375,18.752515625,21.5947265625,18.79651171875,20.46248046875,16.369171875,17.8308359375,12.715703125
12.25133984375,5.5535625,9.95516015625,7.6523046875,5.91145703125,8.81050390625,4.8324609375,11.46591796875,6.731390625,5.68987890625,9.687109375,4.55820703125,-0.399523437499999,15.36184765625,11.1482109375,8.770796875,5.169375,10.121546875,12.3845,10.88728515625,9.08217578125,16.742578125,17.60077734375,17.707515625,19.4347265625,17.68051171875,18.87848046875,16.821171875,17.8388359375,11.487703125
11.33133984375,4.3945625,9.01916015625,6.9513046875,5.26945703125,6.21350390625,3.3914609375,6.14691796875,6.111390625,3.37287890625,6.283109375,3.11420703125,0.372476562499999,14.67184765625,8.4632109375,5.819796875,2.826375,9.577546875,10.6195,7.82928515625,6.13417578125,14.953578125,15.90577734375,14.865515625,16.3317265625,15.13351171875,15.73248046875,15.263171875,16.3108359375,9.026703125
9.58633984375,2.5435625,7.67016015625,4.2103046875,3.75545703125,2.80350390625,1.4874609375,0.670917968750001,4.711390625,0.39287890625,2.351109375,2.52120703125,0.603476562500001,12.66284765625,4.9902109375,2.574796875,0.482375,7.778546875,7.6315,4.15728515625,3.18117578125,11.911578125,12.41377734375,10.822515625,12.7757265625,11.89051171875,11.90148046875,11.996171875,13.6288359375,6.016703125
7.55033984375,0.518562500000001,6.45216015625,0.2573046875,1.69845703125,-0.48349609375,-0.172539062500001,-3.23008203125,2.950390625,-2.36812109375,-0.797890625,3.03720703125,-0.0205234374999996,9.80284765625,1.8042109375,-0.0662031250000004,-1.060625,5.160546875,4.1395,0.946285156250001,0.749175781250001,8.192578125,7.84977734375,6.560515625,9.4837265625,8.89851171875,8.46948046875,7.926171875,10.5558359375,3.337703125
5.87833984375,-1.1354375,5.83616015625,-3.5266953125,-0.42054296875,-2.87349609375,-1.0785390625,-4.42108203125,1.259390625,-4.18212109375,-2.254890625,4.36320703125,-1.5625234375,6.78384765625,-0.195789062499999,-1.411203125,-1.463625,2.464546875,0.995500000000001,-0.874714843749999,-0.53382421875,4.615578125,3.28777734375,3.067515625,7.1527265625,6.94651171875,6.26848046875,4.229171875,7.9158359375,1.693703125
5.01533984375,-2.0764375,6.01416015625,-5.8056953125,-2.15954296875,-4.03249609375,-1.1615390625,-2.77608203125,-0.122609375,-4.78612109375,-1.894890625,5.75120703125,-3.7715234375,4.21784765625,-0.6527890625,-1.283203125,-0.935625,0.431546875,-1.1715,-0.92671484375,-0.23382421875,1.922578125,-0.29722265625,0.964515624999999,6.1717265625,6.37251171875,5.54348046875,1.865171875,6.2438359375,1.298703125
4.97533984375,-2.2644375,6.82016015625,-5.8896953125,-3.22254296875,-4.08949609375,-0.7635390625,0.746917968750001,-1.182609375,-4.41712109375,-0.349890625,6.35220703125,-6.1215234375,2.42784765625,0.179210937500001,-0.0962031249999997,-0.0386249999999999,-0.493453125,-2.1475,0.48028515625,1.58517578125,0.512578125,-2.38422265625,0.328515625,6.4537265625,6.99851171875,5.92648046875,1.222171875,5.6158359375,1.854703125
5.40133984375,-1.8984375,7.83916015625,-4.0056953125,-3.46354296875,-3.42149609375,-0.362539062500001,4.51591796875,-2.017609375,-3.57812109375,1.414109375,5.66520703125,-7.9755234375,1.41384765625,1.6752109375,1.380796875,0.660375,-0.295453125,-2.1325,2.53728515625,4.28217578125,0.338578125,-3.02422265625,0.770515624999999,7.4837265625,8.30451171875,6.72048046875,2.045171875,5.7488359375,2.812703125
5.83233984375,-1.2544375,8.63716015625,-1.0976953125,-2.83754296875,-2.37749609375,-0.2515390625,6.99891796875,-2.675609375,-2.69512109375,2.632109375,3.82620703125,-8.8295234375,0.95784765625,3.2132109375,2.409796875,0.880375,0.662546875,-1.5515,4.33228515625,6.83917578125,0.966578124999999,-2.68622265625,1.700515625,8.5667265625,9.72151171875,7.31748046875,3.652171875,6.2578359375,3.742703125
5.95133984375,-0.553437499999999,8.94916015625,1.6563046875,-1.37454296875,-1.12449609375,-0.3765390625,7.43191796875,-3.063609375,-1.89812109375,3.082109375,1.57120703125,-8.5315234375,0.77684765625,4.4312109375,2.624796875,0.726375,1.816546875,-0.835499999999999,5.24428515625,8.29017578125,1.720578125,-1.97722265625,2.612515625,9.1517265625,10.88351171875,7.51248046875,5.266171875,6.8588359375,4.546703125
5.69833984375,0.0995625000000011,8.74716015625,3.3673046875,0.76345703125,0.305503906249999,-0.447539062500002,6.02391796875,-2.994609375,-1.04212109375,3.062109375,-0.16579296875,-7.3785234375,0.65784765625,5.2682109375,2.139796875,0.545375,2.625546875,-0.251499999999999,5.14528515625,8.17217578125,1.895578125,-1.37622265625,3.255515625,9.0547265625,11.69251171875,7.53748046875,6.302171875,7.4368359375,5.382703125
5.25933984375,0.658562500000001,8.16116015625,3.7533046875,3.20945703125,1.84550390625,-0.213539062500002,3.64191796875,-2.364609375,0.0758789062499998,3.065109375,-0.783792968749999,-6.0185234375,0.52784765625,5.8482109375,1.385796875,0.629375,2.769546875,0.118500000000001,4.35328515625,6.76317578125,0.979578124999999,-1.09222265625,3.619515625,8.4957265625,12.22451171875,7.84548046875,6.532171875,7.9868359375,6.450703125
4.93433984375,1.0695625,7.35616015625,3.1313046875,5.39945703125,3.27150390625,0.327460937499999,1.27891796875,-1.295609375,1.48687890625,3.416109375,-0.338792968749999,-5.1635234375,0.45684765625,6.3232109375,0.823796875,0.959375,2.261546875,0.3295,3.39128515625,4.93417578125,-1.124421875,-1.07022265625,3.820515625,7.9187265625,12.56351171875,8.80148046875,6.110171875,8.5758359375,7.832703125
4.93233984375,1.2415625,6.43316015625,2.1173046875,6.71645703125,4.23150390625,0.921460937499999,-0.432082031249999,-0.135609375,2.96187890625,4.082109375,0.54520703125,-5.2365234375,0.56884765625,6.7542109375,0.687796875,1.159375,1.413546875,0.480500000000001,2.68528515625,3.64617578125,-3.985421875,-1.07822265625,3.962515625,7.7097265625,12.69751171875,10.46448046875,5.504171875,9.3308359375,9.476703125
5.20533984375,1.0935625,5.42616015625,1.2433046875,6.75045703125,4.40950390625,1.2564609375,-1.42208203125,0.730390625,4.10987890625,4.732109375,1.10420703125,-6.1505234375,0.95284765625,7.0782109375,0.899796875,0.718375,0.679546875,0.655500000000001,2.36528515625,3.41017578125,-6.704421875,-0.85422265625,4.056515625,7.9487265625,12.51451171875,12.53448046875,5.310171875,10.4258359375,11.255703125
5.47933984375,0.614562500000001,4.35216015625,0.6953046875,5.49245703125,3.72350390625,1.1554609375,-2.07208203125,1.086390625,4.57587890625,4.952109375,0.887207031250001,-7.3635234375,1.60284765625,7.1542109375,1.134796875,-0.709625,0.458546875,0.886500000000001,2.23428515625,4.02517578125,-8.204421875,-0.22122265625,4.004515625,8.3337265625,11.89051171875,14.47548046875,6.033171875,12.0148359375,13.028703125
5.42833984375,-0.129437499999999,3.24916015625,0.294304687499999,3.36045703125,2.40050390625,0.636460937499999,-2.86608203125,0.973390625,4.20687890625,4.442109375,-0.0777929687499999,-8.1775234375,2.41984765625,6.8402109375,0.979796875,-3.074625,0.941546875,1.1275,1.90428515625,4.73117578125,-7.639421875,0.84477734375,3.635515625,8.3177265625,10.79751171875,15.72848046875,7.902171875,14.1508359375,14.681703125
4.83133984375,-1.0334375,2.16616015625,-0.3776953125,1.00745703125,0.861503906249999,-0.162539062500001,-4.06108203125,0.608390625,3.08987890625,3.128109375,-1.43779296875,-8.1055234375,3.22984765625,6.0482109375,0.113796875,-5.882625,2.043546875,1.2725,1.00328515625,4.63217578125,-4.781421875,2.20777734375,2.798515625,7.3997265625,9.37651171875,15.93848046875,10.794171875,16.7198359375,16.134703125
3.62133984375,-1.9944375,1.16116015625,-1.7566953125,-0.96354296875,-0.478496093750001,-1.0805390625,-5.53208203125,0.245390625,1.51287890625,1.169109375,-2.81979296875,-7.1245234375,3.82084765625,4.7872109375,-1.532203125,-8.324625,3.438546875,1.2055,-0.61971484375,3.19217578125,-0.220421875,3.61977734375,1.457515625,5.4037265625,7.91751171875,15.06448046875,14.237171875,19.3958359375,17.291703125
1.92733984375,-2.8964375,0.33416015625,-4.0196953125,-2.20554296875,-1.37449609375,-1.9495390625,-6.83508203125,0.0743906249999999,-0.12512109375,-1.055890625,-3.99879296875,-5.7045234375,4.00784765625,3.2162109375,-3.674203125,-9.557625,4.662546875,0.876500000000001,-2.77371484375,0.58217578125,4.758578125,4.79977734375,-0.232484375000001,2.6407265625,6.76751171875,13.36048046875,17.461171875,21.6358359375,17.978703125
0.11733984375,-3.5794375,-0.12283984375,-6.8596953125,-2.68354296875,-1.76049609375,-2.5525390625,-7.41208203125,0.177390625,-1.39712109375,-2.992890625,-4.85079296875,-4.6075234375,3.73684765625,1.6912109375,-5.693203125,-9.038625,5.276546875,0.370500000000001,-4.92771484375,-2.29382421875,8.607578125,5.52677734375,-1.934484375,-0.1632734375,6.22751171875,11.26448046875,19.547171875,22.7948359375,17.958703125
-1.29266015625,-3.8584375,0.0381601562499991,-9.5076953125,-2.60854296875,-1.68249609375,-2.6295390625,-6.88008203125,0.490390625,-1.96012109375,-4.055890625,-5.23379296875,-4.5335234375,3.11284765625,0.685210937500001,-6.830203125,-6.758625,5.012546875,-0.116499999999999,-6.38371484375,-4.21582421875,10.118578125,5.70677734375,-3.211484375,-2.1322734375,6.45651171875,9.26548046875,19.715171875,22.3648359375,17.081703125
-1.91366015625,-3.6124375,0.95716015625,-11.0836953125,-2.32754296875,-1.25949609375,-1.9935390625,-5.29608203125,0.778390625,-1.69812109375,-3.850890625,-4.94979296875,-5.7745234375,2.32584765625,0.585210937499999,-6.504203125,-3.227625,3.842546875,-0.3855,-6.56871484375,-4.28582421875,8.893578125,5.37677734375,-3.692484375,-2.6042734375,7.42151171875,7.78648046875,17.650171875,20.2518359375,15.458703125
-1.73866015625,-2.9004375,2.47716015625,-11.1076953125,-2.22854296875,-0.699496093750001,-0.705539062500001,-3.20808203125,0.675390625,-0.82612109375,-2.416890625,-3.87679296875,-8.0675234375,1.50484765625,1.4562109375,-4.603203125,0.765375,1.952546875,-0.371499999999999,-5.29271484375,-2.41082421875,5.462578125,4.64177734375,-3.227484375,-1.4022734375,8.90151171875,7.07548046875,13.681171875,16.8818359375,13.504703125
-1.15066015625,-2.0054375,4.09516015625,-9.8056953125,-2.64154296875,-0.298496093750002,0.843460937499999,-1.35408203125,-0.154609375,0.14687890625,-0.283890625,-2.12779296875,-10.7195234375,0.63084765625,2.9552109375,-1.562203125,4.475375,-0.341453125,-0.213499999999999,-2.85371484375,0.735175781250001,0.968578125,3.60477734375,-1.970484375,1.1097265625,10.55051171875,7.13848046875,8.685171875,13.0558359375,11.788703125
-0.69366015625,-1.3434375,5.13316015625,-8.0206953125,-3.74854296875,-0.362496093750002,2.0514609375,-0.189082031249999,-1.827609375,0.62387890625,1.716109375,-0.0997929687499992,-12.9545234375,-0.44315234375,4.4792109375,1.810796875,7.393375,-2.700453125,-0.188499999999999,0.0842851562500009,4.16117578125,-3.383421875,2.33877734375,-0.332484375000001,4.2047265625,11.98751171875,7.71948046875,3.730171875,9.6158359375,10.736703125
-0.82066015625,-1.2714375,5.04216015625,-6.7686953125,-5.51254296875,-1.05949609375,2.3874609375,0.394917968750001,-4.144609375,0.207878906249999,2.825109375,1.68320703125,-14.2685234375,-1.87215234375,5.4352109375,4.672796875,9.276375,-4.852453125,-0.544499999999999,2.76028515625,7.06417578125,-6.810421875,0.90877734375,1.177515625,7.0767265625,12.86251171875,8.38748046875,-0.333828125,7.0918359375,10.375703125
-1.72066015625,-1.9004375,3.68416015625,-6.7116953125,-7.64354296875,-2.30149609375,1.6844609375,0.930917968750001,-6.637609375,-1.07212109375,2.716109375,2.81420703125,-14.6055234375,-3.67215234375,5.5272109375,6.459796875,10.093375,-6.630453125,-1.3305,4.59428515625,9.03517578125,-9.128421875,-0.56922265625,2.155515625,9.0907265625,12.91451171875,8.67948046875,-3.131828125,5.5378359375,10.272703125
-3.23866015625,-3.0224375,1.41216015625,-7.8406953125,-9.64854296875,-3.73449609375,0.240460937499999,1.93791796875,-8.726609375,-2.75212109375,1.621109375,3.17220703125,-14.2795234375,-5.63015234375,4.8792109375,7.016796875,9.987375,-7.940453125,-2.3295,5.34028515625,9.92817578125,-10.586421875,-1.90422265625,2.441515625,9.8987265625,12.02351171875,8.27648046875,-4.759828125,4.6198359375,9.774703125
-4.92466015625,-4.2134375,-1.09783984375,-9.5436953125,-10.97054296875,-4.86749609375,-1.3365390625,3.48591796875,-9.896609375,-4.14912109375,0.159109375,2.92720703125,-13.6935234375,-7.34815234375,3.9292109375,6.521796875,9.241375,-8.713453125,-3.1665,5.06828515625,9.63817578125,-11.545421875,-2.86522265625,2.127515625,9.4307265625,10.26751171875,7.10248046875,-5.584828125,3.8868359375,8.397703125
-6.24666015625,-5.0354375,-3.17383984375,-10.9816953125,-11.21054296875,-5.30949609375,-2.4365390625,5.03991796875,-9.870609375,-4.68812109375,-1.015890625,2.39720703125,-13.0665234375,-8.42915234375,3.1442109375,5.309796875,8.195375,-8.909453125,-3.5305,4.01228515625,8.06117578125,-12.245421875,-3.29422265625,1.439515625,7.8277265625,7.92851171875,5.32748046875,-5.996828125,3.0288359375,6.126703125
-6.86366015625,-5.2314375,-4.43483984375,-11.5116953125,-10.30854296875,-4.96149609375,-2.7215390625,5.67791796875,-8.713609375,-4.18612109375,-1.525890625,1.89120703125,-12.3445234375,-8.68615234375,2.7292109375,3.718796875,7.116375,-8.577453125,-3.3795,2.41828515625,5.30517578125,-12.763421875,-3.21622265625,0.576515624999999,5.3797265625,5.44451171875,3.26048046875,-6.239828125,2.0018359375,3.435703125
-6.74366015625,-4.8144375,-4.90583984375,-10.9076953125,-8.57554296875,-4.06149609375,-2.2455390625,4.57291796875,-6.813609375,-2.92412109375,-1.396890625,1.58120703125,-11.3395234375,-8.22515234375,2.5332109375,2.013796875,6.118375,-7.874453125,-3.0085,0.478285156250001,1.89117578125,-13.096421875,-2.86922265625,-0.404484375000001,2.4837265625,3.28551171875,1.21048046875,-6.379828125,0.969835937500001,1.035703125
-6.08566015625,-4.0234375,-4.91383984375,-9.3226953125,-6.55854296875,-3.06849609375,-1.4005390625,1.51691796875,-4.735609375,-1.49912109375,-0.985890625,1.46120703125,-9.9565234375,-7.35615234375,2.1782109375,0.369796875,5.209375,-7.030453125,-2.9115,-1.65871484375,-1.31782421875,-13.257421875,-2.61522265625,-1.580484375,-0.4342734375,1.79151171875,-0.63351953125,-6.357828125,0.1668359375,-0.500296875
-5.18166015625,-3.1954375,-4.87483984375,-7.1296953125,-4.81754296875,-2.45649609375,-0.7385390625,-2.80908203125,-3.005609375,-0.545121093750001,-0.785890625,1.36920703125,-8.3135234375,-6.42915234375,1.3192109375,-1.123203125,4.429375,-6.245453125,-3.5115,-3.83971484375,-3.49282421875,-13.283421875,-2.77522265625,-3.065484375,-3.0172734375,1.06351171875,-2.23551953125,-6.086828125,-0.2341640625,-1.005296875
-4.33266015625,-2.6214375,-5.09383984375,-4.7746953125,-3.74554296875,-2.53349609375,-0.726539062500001,-6.96908203125,-1.926609375,-0.46212109375,-1.199890625,1.05820703125,-6.6815234375,-5.69315234375,-0.148789062500001,-2.429203125,3.919375,-5.617453125,-4.9065,-5.86871484375,-4.21982421875,-13.194421875,-3.48022265625,-4.868484375,-5.0492734375,0.940511718749999,-3.66451953125,-5.501828125,-0.1881640625,-0.735296875
-3.79666015625,-2.4454375,-5.65883984375,-2.6946953125,-3.47654296875,-3.35049609375,-1.5565390625,-9.35208203125,-1.486609375,-1.27312109375,-2.376890625,0.325207031250001,-5.3315234375,-5.23715234375,-2.0177890625,-3.527203125,3.838375,-5.134453125,-6.7855,-7.52371484375,-3.65082421875,-12.959421875,-4.60022265625,-6.830484375,-6.4852734375,1.09351171875,-5.01051953125,-4.613828125,0.216835937500001,-0.162296874999999
-3.70766015625,-2.6564375,-6.47083984375,-1.2676953125,-3.89654296875,-4.69949609375,-3.0745390625,-8.99208203125,-1.408609375,-2.65612109375,-4.162890625,-0.85979296875,-4.4245234375,-5.02315234375,-3.8667890625,-4.404203125,4.197375,-4.732453125,-8.5855,-8.63171484375,-2.36482421875,-12.559421875,-5.81722265625,-8.685484375,-7.4372734375,1.14351171875,-6.31051953125,-3.590828125,0.755835937500001,0.273703125000001
-4.03666015625,-3.1384375,-7.37283984375,-0.7406953125,-4.72754296875,-6.21549609375,-4.8745390625,-6.18708203125,-1.330609375,-4.11212109375,-6.182890625,-2.28179296875,-4.0195234375,-4.95515234375,-5.2477890625,-5.077203125,4.785375,-4.377453125,-9.7725,-9.14971484375,-1.08282421875,-12.088421875,-6.76722265625,-10.170484375,-8.1202734375,0.796511718749999,-7.51551953125,-2.794828125,1.0988359375,0.338703125
-4.61866015625,-3.7224375,-8.25883984375,-1.0916953125,-5.62754296875,-7.50449609375,-6.4845390625,-2.43008203125,-1.006609375,-5.15912109375,-7.999890625,-3.55679296875,-4.1045234375,-4.93615234375,-5.8657890625,-5.587203125,5.272375,-4.083453125,-10.0675,-9.17271484375,-0.362824218749999,-11.764421875,-7.16422265625,-11.091484375,-8.7352734375,-0.0294882812500017,-8.45451953125,-2.680828125,0.9428359375,0.0497031250000006
-5.21066015625,-4.2244375,-9.09583984375,-1.9216953125,-6.27354296875,-8.23349609375,-7.5465390625,0.434917968750001,-0.415609375,-5.45612109375,-9.255890625,-4.32179296875,-4.5785234375,-4.87015234375,-5.6427890625,-5.964203125,5.382375,-3.854453125,-9.4965,-8.83571484375,-0.386824218749999,-11.781421875,-6.84322265625,-11.319484375,-9.3252734375,-1.12248828125,-8.83651953125,-3.516828125,0.229835937500001,-0.376296875
-5.48566015625,-4.4714375,-9.82983984375,-2.5526953125,-6.42754296875,-8.18949609375,-7.9005390625,1.25391796875,0.277390625,-4.85812109375,-9.767890625,-4.41879296875,-5.1915234375,-4.64515234375,-4.6597890625,-6.196203125,5.019375,-3.613453125,-8.2825,-8.20971484375,-0.93082421875,-12.107421875,-5.75922265625,-10.771484375,-9.7272734375,-2.05148828125,-8.33251953125,-5.121828125,-0.738164062499999,-0.640296874999999
-5.06566015625,-4.3424375,-10.31083984375,-2.3526953125,-5.98854296875,-7.29849609375,-7.5595390625,0.0909179687500012,0.867390625,-3.40612109375,-9.541890625,-3.94079296875,-5.5765234375,-4.14715234375,-3.0677890625,-6.219203125,4.260375,-3.193453125,-6.6835,-7.26571484375,-1.52482421875,-12.409421875,-3.97522265625,-9.446484375,-9.6492734375,-2.37848828125,-6.74751953125,-6.840828125,-1.3911640625,-0.508296874999999
-3.66866015625,-3.8044375,-10.28783984375,-1.1256953125,-5.02154296875,-5.64549609375,-6.6235390625,-2.05308203125,1.248390625,-1.28312109375,-8.716890625,-3.10779296875,-5.4095234375,-3.31715234375,-1.0287890625,-5.933203125,3.285375,-2.424453125,-4.8745,-5.91871484375,-1.68282421875,-12.216421875,-1.65122265625,-7.452484375,-8.8292734375,-1.90348828125,-4.16151953125,-7.808828125,-1.1891640625,0.102703125
-1.28866015625,-2.9084375,-9.51883984375,0.736304687499999,-3.72554296875,-3.46949609375,-5.2025390625,-3.94408203125,1.482390625,1.25687890625,-7.464890625,-2.06779296875,-4.5905234375,-2.18315234375,1.3112109375,-5.230203125,2.334375,-1.217453125,-2.8965,-4.11271484375,-1.12282421875,-11.216421875,1.00877734375,-5.000484375,-7.1742734375,-0.774488281250001,-0.93651953125,-7.371828125,0.0808359374999998,1.135703125
1.75633984375,-1.7524375,-7.88783984375,2.4693046875,-2.34054296875,-1.08749609375,-3.3825390625,-4.71408203125,1.773390625,3.96287890625,-5.898890625,-0.759792968749999,-3.2825234375,-0.82715234375,3.8202109375,-4.029203125,1.715375,0.404546875,-0.704499999999999,-1.87771484375,0.119175781250001,-9.470421875,3.82977734375,-2.331484375,-4.8032734375,0.601511718749999,2.41748046875,-5.387828125,2.1978359375,2.466703125
4.97733984375,-0.426437499999999,-5.49083984375,3.3623046875,-1.03354296875,1.20650390625,-1.2485390625,-4.08008203125,2.376390625,6.63387890625,-4.043890625,1.02320703125,-1.7515234375,0.65784765625,6.3732109375,-2.306203125,1.807375,2.339546875,1.7485,0.655285156250001,1.73417578125,-7.393421875,6.71477734375,0.350515624999999,-1.9852734375,1.79351171875,5.43348046875,-2.271828125,4.6308359375,3.951703125
7.90033984375,1.0215625,-2.64083984375,3.1193046875,0.151457031250001,3.21950390625,1.0944609375,-2.25308203125,3.480390625,9.10387890625,-1.874890625,3.42620703125,-0.162523437499999,2.17084765625,8.8252109375,-0.114203125,2.937375,4.440546875,4.4085,3.28328515625,3.33817578125,-5.543421875,9.59877734375,2.928515625,0.9877265625,2.57551171875,7.83348046875,1.201171875,6.7938359375,5.439703125
10.18033984375,2.5455625,0.198160156249999,1.9623046875,1.25245703125,4.85850390625,3.5054609375,0.280917968750001,5.105390625,11.20987890625,0.599109375,6.30920703125,1.4694765625,3.54784765625,10.9962109375,2.406796875,5.155375,6.495546875,7.0695,5.77928515625,4.71317578125,-4.381421875,12.33977734375,5.346515625,3.8787265625,3.02351171875,9.54048046875,4.200171875,8.2668359375,6.773703125
11.64133984375,4.0395625,2.51516015625,0.470304687499999,2.28645703125,6.07350390625,5.8004609375,2.96091796875,7.010390625,12.74687890625,3.241109375,9.18920703125,3.1254765625,4.52684765625,12.6842109375,5.011796875,8.043375,8.204546875,9.3755,7.92328515625,5.92417578125,-4.136421875,14.64377734375,7.532515625,6.5077265625,3.41451171875,10.60048046875,6.110171875,8.9038359375,7.811703125
12.29533984375,5.2865625,3.90016015625,-0.7106953125,3.16245703125,6.81350390625,7.7564609375,5.25291796875,8.700390625,13.49387890625,5.766109375,11.38620703125,4.5944765625,4.81084765625,13.7302109375,7.349796875,10.772375,9.206546875,10.8995,9.52628515625,7.22917578125,-4.791421875,16.10777734375,9.342515625,8.6967265625,4.03351171875,11.07848046875,6.703171875,8.8218359375,8.471703125
12.30933984375,6.0205625,4.18116015625,-1.1486953125,3.69845703125,7.02850390625,9.1454609375,6.69191796875,9.558390625,13.31987890625,7.815109375,12.32020703125,5.4614765625,4.22584765625,14.0822109375,9.046796875,12.484375,9.194546875,11.3205,10.46828515625,8.86617578125,-6.137421875,16.40077734375,10.588515625,10.2817265625,5.00651171875,11.03648046875,6.177171875,8.3288359375,8.765703125
11.91133984375,6.0735625,3.51716015625,-0.7626953125,3.73745703125,6.72750390625,9.8274609375,6.96591796875,9.118390625,12.29587890625,9.107109375,11.80420703125,5.3054765625,2.86284765625,13.8482109375,9.853796875,12.754375,8.049546875,10.6025,10.75128515625,10.86617578125,-7.845421875,15.48577734375,11.158515625,11.1917265625,6.25151171875,10.57748046875,5.056171875,7.8188359375,8.788703125
11.28733984375,5.4935625,2.36816015625,0.187304687499999,3.26845703125,6.03050390625,9.8304609375,6.06391796875,7.315390625,10.72887890625,9.565109375,10.19520703125,3.9524765625,1.11484765625,13.2802109375,9.780796875,11.830375,5.921546875,9.0725,10.51828515625,13.00217578125,-9.570421875,13.69377734375,11.107515625,11.5057265625,7.52251171875,9.87148046875,3.936171875,7.6228359375,8.647703125
10.54133984375,4.5265625,1.29616015625,1.2173046875,2.46145703125,5.15150390625,9.3464609375,4.32391796875,4.548390625,9.04987890625,9.318109375,8.26420703125,1.5914765625,-0.48815234375,12.6892109375,9.092796875,10.459375,3.179546875,7.2835,9.99728515625,14.85717578125,-11.066421875,11.59377734375,10.639515625,11.3997265625,8.48751171875,9.09448046875,3.177171875,7.8648359375,8.383703125
9.66033984375,3.4635625,0.672160156249999,1.7383046875,1.56745703125,4.30250390625,8.6324609375,2.24291796875,1.489390625,7.61587890625,8.586109375,6.82020703125,-1.3235234375,-1.54915234375,12.2862109375,8.155796875,9.424375,0.246546875,5.7515,9.36728515625,15.97317578125,-12.298421875,9.70477734375,9.978515625,11.0087265625,8.83651171875,8.32048046875,2.705171875,8.3938359375,7.954703125
8.48733984375,2.4635625,0.464160156249999,1.1873046875,0.76145703125,3.58050390625,7.8714609375,0.165917968750001,-1.241609375,6.55087890625,7.532109375,6.28620703125,-4.2875234375,-2.03915234375,12.0682109375,7.242796875,9.096375,-2.568453125,4.7115,8.67228515625,16.00517578125,-13.442421875,8.24677734375,9.221515625,10.3247265625,8.38451171875,7.44948046875,2.069171875,8.8448359375,7.288703125
6.79333984375,1.4925625,0.285160156249999,-0.7746953125,0.0444570312499994,2.92450390625,7.0934609375,-1.80508203125,-3.315609375,5.73887890625,6.208109375,6.51520703125,-6.9185234375,-2.29515234375,11.8222109375,6.426796875,9.294375,-5.132453125,4.0535,7.81228515625,14.79817578125,-14.749421875,7.10077734375,8.281515625,9.2027265625,7.13551171875,6.25648046875,0.755171874999999,8.8168359375,6.345703125
4.50233984375,0.413562500000001,-0.32183984375,-4.0416953125,-0.70254296875,2.18750390625,6.2094609375,-3.60108203125,-4.687609375,4.95787890625,4.624109375,6.95120703125,-8.9915234375,-2.79315234375,11.2762109375,5.602796875,9.514375,-7.404453125,3.4525,6.63628515625,12.39417578125,-16.322421875,5.97377734375,6.943515625,7.4637265625,5.27451171875,4.52448046875,-1.431828125,8.0838359375,5.120703125
1.90833984375,-0.8474375,-1.55883984375,-7.9456953125,-1.56854296875,1.27650390625,5.1294609375,-4.93308203125,-5.439609375,4.07187890625,2.858109375,6.99220703125,-10.3815234375,-3.80815234375,10.2982109375,4.619796875,9.322375,-9.292453125,2.5965,5.05828515625,9.04217578125,-17.960421875,4.67177734375,5.023515625,5.0477265625,3.09551171875,2.20148046875,-4.143828125,6.7128359375,3.598703125
-0.33866015625,-2.1734375,-3.24083984375,-11.4036953125,-2.47554296875,0.255503906249999,3.8814609375,-5.31808203125,-5.621609375,3.15487890625,1.134109375,6.32420703125,-10.9955234375,-5.22215234375,9.0062109375,3.431796875,8.601375,-10.571453125,1.3925,3.15128515625,5.22917578125,-19.219421875,3.26677734375,2.524515625,2.1447265625,0.908511718749999,-0.50651953125,-6.602828125,5.0548359375,1.750703125
-1.51466015625,-3.2444375,-4.89183984375,-13.3026953125,-3.16754296875,-0.63449609375,2.6764609375,-4.42608203125,-5.221609375,2.46787890625,-0.197890625,5.05320703125,-10.7885234375,-6.55415234375,7.7342109375,2.173796875,7.531375,-10.938453125,0.0215000000000005,1.16728515625,1.66517578125,-19.651421875,2.06777734375,-0.282484375000001,-0.7932734375,-1.02648828125,-3.18451953125,-7.998828125,3.5728359375,-0.402296874999999
-1.16366015625,-3.6884375,-5.99483984375,-12.9766953125,-3.33854296875,-1.08249609375,1.8604609375,-2.43508203125,-4.239609375,2.31087890625,-0.795890625,3.61220703125,-9.7985234375,-7.22215234375,6.8782109375,1.119796875,6.372375,-10.185453125,-1.1635,-0.540714843749999,-0.88482421875,-19.091421875,1.43577734375,-2.925484375,-3.1922734375,-2.53548828125,-5.35051953125,-7.943828125,2.6328359375,-2.711296875
0.65133984375,-3.2954375,-6.25083984375,-10.5396953125,-2.84354296875,-0.87449609375,1.7494609375,-0.0730820312499993,-2.798609375,2.81087890625,-0.496890625,2.51220703125,-8.1895234375,-6.86215234375,6.6792109375,0.534796875,5.274375,-8.369453125,-1.8355,-1.65471484375,-1.88082421875,-17.773421875,1.56377734375,-4.895484375,-4.5902734375,-3.54648828125,-6.63351953125,-6.704828125,2.3538359375,-4.887296875
3.28133984375,-2.1764375,-5.72283984375,-6.9166953125,-1.85954296875,-0.0664960937500005,2.4204609375,1.68391796875,-1.197609375,3.79687890625,0.554109374999999,2.09020703125,-6.2275234375,-5.55715234375,7.0702109375,0.520796875,4.239375,-5.892453125,-1.8545,-2.03271484375,-1.23682421875,-16.211421875,2.36077734375,-5.830484375,-4.8382734375,-4.07148828125,-6.86851953125,-5.040828125,2.6088359375,-6.590296875
5.65833984375,-0.765437499999999,-4.82083984375,-3.5256953125,-0.88554296875,0.950503906249999,3.6094609375,2.05791796875,0.113390625,4.81487890625,1.906109375,2.38020703125,-4.2415234375,-3.84215234375,7.6692109375,0.947796875,3.237375,-3.403453125,-1.3195,-1.76771484375,0.645175781250001,-14.927421875,3.50377734375,-5.617484375,-4.1302734375,-4.16548828125,-6.10651953125,-3.749828125,3.1628359375,-7.564296875
6.70933984375,0.338562500000001,-4.12683984375,-1.7166953125,-0.55254296875,1.54450390625,4.7594609375,0.814917968750001,0.654390625,5.29487890625,2.945109375,3.11720703125,-2.5775234375,-2.46015234375,7.9482109375,1.510796875,2.323375,-1.561453125,-0.494499999999999,-1.13471484375,3.04617578125,-14.181421875,4.60577734375,-4.410484375,-2.8872734375,-3.90648828125,-4.55851953125,-3.217828125,3.8478359375,-7.736296875
5.83733984375,0.591562500000001,-4.16183984375,-2.2216953125,-1.34054296875,1.08450390625,5.2194609375,-1.64908203125,0.0933906250000001,4.76687890625,3.110109375,3.83020703125,-1.5795234375,-2.02815234375,7.4532109375,1.837796875,1.642375,-0.774453125,0.295500000000001,-0.483714843749999,5.15417578125,-13.888421875,5.38777734375,-2.576484375,-1.5812734375,-3.41848828125,-2.53751953125,-3.262828125,4.6428359375,-7.253296875
3.17133984375,-0.304437499999999,-5.20383984375,-4.8706953125,-3.35754296875,-0.817496093750002,4.4834609375,-4.53708203125,-1.590609375,3.02787890625,2.077109375,3.98320703125,-1.5435234375,-2.80115234375,5.9412109375,1.596796875,1.319375,-1.087453125,0.750500000000001,-0.143714843749999,6.25117578125,-13.754421875,5.73177734375,-0.625484375000001,-0.6192734375,-2.93848828125,-0.45751953125,-3.379828125,5.5798359375,-6.448296875
-0.55866015625,-2.3104375,-7.22683984375,-8.6916953125,-6.29054296875,-4.13349609375,2.3834609375,-7.04508203125,-4.068609375,0.19887890625,-0.149890625,3.17420703125,-2.6285234375,-4.65415234375,3.3862109375,0.573796875,1.337375,-2.235453125,0.639500000000001,-0.37571484375,5.82917578125,-13.527421875,5.60877734375,0.868515624999999,-0.3162734375,-2.84848828125,1.18248046875,-3.177828125,6.5728359375,-5.796296875
-4.35666015625,-5.0524375,-9.90183984375,-12.3156953125,-9.51354296875,-8.39149609375,-0.814539062500001,-8.66708203125,-6.761609375,-3.30112109375,-3.233890625,1.34220703125,-4.7115234375,-7.18115234375,-0.0447890624999996,-1.249203125,1.517375,-3.791453125,-0.1595,-1.32271484375,3.73317578125,-13.158421875,5.00477734375,1.402515625,-0.8782734375,-3.56848828125,1.89148046875,-2.676828125,7.3358359375,-5.792296875
-7.26466015625,-7.9044375,-12.65883984375,-14.4616953125,-12.28354296875,-12.75349609375,-4.4615390625,-9.24708203125,-9.000609375,-6.84512109375,-6.565890625,-1.11979296875,-7.2975234375,-9.81615234375,-3.9577890625,-3.641203125,1.610375,-5.280453125,-1.5775,-2.94071484375,0.30617578125,-12.760421875,3.94077734375,0.718515624999999,-2.3452734375,-5.33548828125,1.39348046875,-2.235828125,7.5178359375,-6.764296875
-8.59766015625,-10.1614375,-14.82783984375,-14.3486953125,-13.95854296875,-16.25849609375,-7.7155390625,-8.89908203125,-10.211609375,-9.75012109375,-9.413890625,-3.48979296875,-9.5805234375,-11.95215234375,-7.7297890625,-6.148203125,1.443375,-6.261453125,-3.3105,-4.96771484375,-3.63482421875,-12.436421875,2.56677734375,-1.055484375,-4.5412734375,-8.02248828125,-0.18851953125,-2.236828125,6.9358359375,-8.713296875
-8.14266015625,-11.2754375,-15.86583984375,-11.9346953125,-14.23054296875,-18.15649609375,-9.8575390625,-7.94808203125,-10.087609375,-11.49612109375,-11.161890625,-5.07779296875,-10.7205234375,-13.11615234375,-10.6687890625,-8.248203125,1.014375,-6.441453125,-4.9005,-7.02471484375,-7.11782421875,-12.171421875,1.17177734375,-3.439484375,-7.1122734375,-11.15548828125,-2.35851953125,-2.811828125,5.6828359375,-11.312296875
-6.27366015625,-11.0804375,-15.59683984375,-7.9136953125,-13.25354296875,-18.21849609375,-10.5745390625,-6.89508203125,-8.697609375,-11.90612109375,-11.561890625,-5.59579296875,-10.2125234375,-13.15215234375,-12.2947890625,-9.589203125,0.460375,-5.804453125,-5.9345,-8.78271484375,-9.47982421875,-11.890421875,0.0627773437500003,-5.819484375,-9.6822734375,-14.12948828125,-4.51151953125,-3.828828125,4.0288359375,-14.084296875
-3.78866015625,-9.8434375,-14.27083984375,-3.4336953125,-11.56554296875,-16.80449609375,-10.0575390625,-6.31908203125,-6.445609375,-11.19012109375,-10.824890625,-5.29579296875,-8.1105234375,-12.26715234375,-12.5407890625,-10.122203125,-0.0566249999999999,-4.632453125,-6.2245,-10.08071484375,-10.62282421875,-11.572421875,-0.59122265625,-7.710484375,-11.9762734375,-16.45948828125,-6.24451953125,-5.047828125,2.2428359375,-16.606296875
-1.52366015625,-8.0984375,-12.40683984375,0.367304687499999,-9.80754296875,-14.63249609375,-8.8295390625,-6.69808203125,-3.906609375,-9.78712109375,-9.485890625,-4.75979296875,-4.9755234375,-10.89815234375,-11.7287890625,-10.047203125,-0.447625,-3.352453125,-5.8405,-10.88371484375,-10.89882421875,-11.292421875,-0.79522265625,-8.876484375,-13.8342734375,-17.90448828125,-7.47651953125,-6.252828125,0.536835937500001,-18.595296875
-0.00366015625000005,-6.3764375,-10.52583984375,2.7513046875,-8.41654296875,-12.42549609375,-7.4425390625,-8.22408203125,-1.600609375,-8.14612109375,-8.119890625,-4.55179296875,-1.5825234375,-9.49115234375,-10.3717890625,-9.624203125,-0.720625,-2.317453125,-4.9985,-11.16271484375,-10.75682421875,-11.134421875,-0.65122265625,-9.295484375,-15.1262734375,-18.45548828125,-8.33751953125,-7.241828125,-0.8571640625,-19.879296875
0.64833984375,-5.0174375,-8.97783984375,3.5613046875,-7.49654296875,-10.66249609375,-6.2755390625,-10.64708203125,0.152390625,-6.59812109375,-7.115890625,-4.95579296875,1.3854765625,-8.34615234375,-8.9677890625,-9.037203125,-0.953625,-1.670453125,-3.9385,-10.84771484375,-10.46682421875,-11.113421875,-0.27922265625,-9.079484375,-15.7312734375,-18.28348828125,-8.99151953125,-7.802828125,-1.6291640625,-20.366296875
0.60833984375,-4.1464375,-7.92083984375,3.1653046875,-6.92054296875,-9.53749609375,-5.4925390625,-13.20908203125,1.250390625,-5.35812109375,-6.613890625,-5.91579296875,3.5044765625,-7.59815234375,-7.8667890625,-8.394203125,-1.253625,-1.390453125,-2.8865,-9.92771484375,-10.11182421875,-11.189421875,0.16777734375,-8.442484375,-15.6202734375,-17.70148828125,-9.55951953125,-7.768828125,-1.4901640625,-20.087296875
0.19033984375,-3.7554375,-7.37683984375,2.2613046875,-6.54854296875,-9.04449609375,-5.1085390625,-14.80008203125,1.720390625,-4.58612109375,-6.545890625,-7.11079296875,4.6204765625,-7.25815234375,-7.2157890625,-7.797203125,-1.719625,-1.410453125,-2.0525,-8.56371484375,-9.75182421875,-11.316421875,0.47477734375,-7.689484375,-14.9542734375,-17.10848828125,-10.15051953125,-7.131828125,-0.3711640625,-19.272296875
-0.29766015625,-3.7584375,-7.27283984375,1.5693046875,-6.36154296875,-9.06049609375,-5.0185390625,-14.42608203125,1.634390625,-4.38612109375,-6.707890625,-8.05979296875,4.8014765625,-7.25115234375,-6.9677890625,-7.330203125,-2.380625,-1.696453125,-1.5895,-7.06671484375,-9.50582421875,-11.452421875,0.39977734375,-7.134484375,-14.0502734375,-16.86248828125,-10.86551953125,-6.093828125,1.4748359375,-18.345296875
-0.64066015625,-3.9964375,-7.43883984375,1.4883046875,-6.43154296875,-9.38949609375,-4.9935390625,-11.76508203125,1.103390625,-4.73112109375,-6.806890625,-8.23079296875,4.2954765625,-7.44715234375,-6.9437890625,-6.970203125,-3.141625,-2.231453125,-1.5185,-5.72471484375,-9.42582421875,-11.524421875,-0.20722265625,-6.948484375,-13.1922734375,-17.09948828125,-11.73151953125,-4.978828125,3.5598359375,-17.756296875
-0.73866015625,-4.2364375,-7.61783984375,1.8863046875,-6.77654296875,-9.77549609375,-4.7235390625,-7.41208203125,0.328390625,-5.40512109375,-6.528890625,-7.20679296875,3.4914765625,-7.68115234375,-6.9317890625,-6.517203125,-3.780625,-2.950453125,-1.6915,-4.61071484375,-9.29482421875,-11.399421875,-1.28322265625,-7.060484375,-12.4432734375,-17.63048828125,-12.60951953125,-4.070828125,5.3908359375,-17.765296875
-0.55066015625,-4.2254375,-7.52683984375,2.2053046875,-7.25154296875,-9.93849609375,-3.9315390625,-2.57608203125,-0.394609375,-6.04812109375,-5.647890625,-4.90579296875,2.8094765625,-7.80015234375,-6.7857890625,-5.660203125,-3.991625,-3.708453125,-1.8535,-3.55371484375,-8.59782421875,-10.935421875,-2.54222265625,-7.192484375,-11.6122734375,-18.01348828125,-13.19751953125,-3.489828125,6.6788359375,-18.327296875
-0.0796601562500001,-3.7874375,-6.98283984375,1.8663046875,-7.57154296875,-9.66549609375,-2.5235390625,1.49591796875,-0.787609375,-6.29912109375,-4.138890625,-1.75079296875,2.5354765625,-7.72815234375,-6.5087890625,-4.180203125,-3.495625,-4.322453125,-1.7875,-2.28871484375,-6.79582421875,-10.094421875,-3.59722265625,-7.036484375,-10.4052734375,-17.78048828125,-13.17451953125,-3.158828125,7.4048359375,-19.168296875
0.55133984375,-2.9304375,-6.03783984375,0.6513046875,-7.48854296875,-8.93349609375,-0.692539062500001,3.94491796875,-0.761609375,-5.99312109375,-2.244890625,1.37320703125,2.6844765625,-7.53115234375,-6.2917890625,-2.154203125,-2.169625,-4.696453125,-1.4535,-0.71271484375,-3.75082421875,-9.037421875,-4.15122265625,-6.449484375,-8.6772734375,-16.69848828125,-12.40251953125,-2.889828125,7.7528359375,-19.947296875
1.04633984375,-1.9084375,-5.02383984375,-1.1796953125,-7.00054296875,-7.99349609375,1.0954609375,4.41791796875,-0.505609375,-5.29712109375,-0.444890625,3.42820703125,2.9674765625,-7.41915234375,-6.4697890625,-0.0272031249999998,-0.183625,-4.915453125,-1.0505,0.943285156250001,-0.0138242187499991,-8.130421875,-4.16322265625,-5.563484375,-6.6122734375,-14.91248828125,-11.06751953125,-2.515828125,7.9578359375,-20.414296875
1.00433984375,-1.1794375,-4.46283984375,-3.1046953125,-6.43254296875,-7.34149609375,2.2264609375,3.01591796875,-0.401609375,-4.69012109375,0.660109375,3.66920703125,2.9174765625,-7.65215234375,-7.3997890625,1.503796875,1.973375,-5.228453125,-0.954499999999999,2.11928515625,3.23717578125,-7.802421875,-3.85922265625,-4.756484375,-4.7472734375,-12.90548828125,-9.64451953125,-1.985828125,8.1718359375,-20.501296875
0.10833984375,-1.2484375,-4.83683984375,-4.6656953125,-6.31854296875,-7.53549609375,2.1274609375,0.246917968750001,-0.808609375,-4.75612109375,0.533109375,1.97120703125,2.1104765625,-8.39515234375,-9.2947890625,1.762796875,3.643375,-5.902453125,-1.5245,2.15428515625,4.68517578125,-8.316421875,-3.58122265625,-4.457484375,-3.7652734375,-11.28148828125,-8.67951953125,-1.357828125,8.4108359375,-20.331296875
-1.70866015625,-2.4264375,-6.33583984375,-5.6456953125,-7.10954296875,-8.93549609375,0.485460937499999,-3.04508203125,-1.849609375,-5.86712109375,-1.098890625,-1.15579296875,0.4004765625,-9.59115234375,-12.0787890625,0.410796875,4.268375,-7.020453125,-2.8605,0.64028515625,3.56217578125,-9.568421875,-3.54222265625,-4.891484375,-4.1502734375,-10.47948828125,-8.48551953125,-0.714828125,8.6128359375,-20.138296875
-4.18666015625,-4.6274375,-8.70183984375,-6.0136953125,-8.89554296875,-11.48649609375,-2.6055390625,-5.88908203125,-3.322609375,-7.94112109375,-4.095890625,-4.82379296875,-1.9545234375,-10.93015234375,-15.3497890625,-2.361203125,3.631375,-8.369453125,-4.6695,-2.30771484375,0.12217578125,-11.059421875,-3.67222265625,-5.915484375,-5.9022734375,-10.58848828125,-8.96151953125,-0.0628281250000002,8.7368359375,-20.145296875
-6.78866015625,-7.3554375,-11.30883984375,-5.7876953125,-11.30754296875,-14.67849609375,-6.6195390625,-7.54108203125,-4.779609375,-10.42612109375,-7.902890625,-8.14579296875,-4.3645234375,-11.96015234375,-18.4807890625,-5.898203125,1.914375,-9.509453125,-6.3595,-6.03071484375,-4.48582421875,-12.076421875,-3.66222265625,-7.064484375,-8.5252734375,-11.37248828125,-9.66051953125,0.674171875,8.8078359375,-20.465296875
-8.87266015625,-9.9184375,-13.43383984375,-5.0016953125,-13.68554296875,-17.72449609375,-10.7415390625,-7.83308203125,-5.737609375,-12.55412109375,-11.711890625,-10.52679296875,-6.1525234375,-12.30215234375,-20.8467890625,-9.375203125,-0.419625,-9.999453125,-7.3215,-9.60471484375,-8.87182421875,-12.028421875,-3.18522265625,-7.810484375,-11.2932734375,-12.45648828125,-10.09551953125,1.553171875,8.8578359375,-21.089296875
-10.00566015625,-11.7384375,-14.59983984375,-3.8576953125,-15.40754296875,-19.89149609375,-14.1395390625,-7.27808203125,-5.907609375,-13.70612109375,-14.747890625,-11.78079296875,-6.8595234375,-11.87215234375,-22.0887890625,-12.143203125,-2.868625,-9.679453125,-7.2605,-12.24271484375,-12.12082421875,-10.757421875,-2.17322265625,-7.877484375,-13.5982734375,-13.55548828125,-10.05251953125,2.466171875,8.8468359375,-21.917296875
-10.20666015625,-12.6004375,-14.78883984375,-2.8326953125,-16.18754296875,-20.79549609375,-16.2545390625,-6.82608203125,-5.329609375,-13.69512109375,-16.532890625,-12.08079296875,-6.4395234375,-10.95315234375,-22.2687890625,-13.926203125,-5.120625,-8.812453125,-6.3595,-13.59871484375,-14.09682421875,-8.682421875,-0.96422265625,-7.400484375,-15.1672734375,-14.60448828125,-9.72251953125,3.092171875,8.6358359375,-22.810296875
-9.91066015625,-12.6914375,-14.39883984375,-2.5396953125,-16.16554296875,-20.50449609375,-16.9645390625,-7.36208203125,-4.370609375,-12.80812109375,-17.025890625,-11.81479296875,-5.2565234375,-10.07415234375,-21.8137890625,-14.816203125,-7.163625,-7.999453125,-5.2195,-13.84671484375,-15.25582421875,-6.659421875,-0.20522265625,-6.868484375,-16.0652734375,-15.74848828125,-9.56151953125,2.996171875,8.0498359375,-23.634296875
-9.66366015625,-12.4394375,-13.98183984375,-3.3636953125,-15.75854296875,-19.42249609375,-16.5455390625,-9.22808203125,-3.574609375,-11.60912109375,-16.556890625,-11.43479296875,-3.9085234375,-9.74015234375,-21.2747890625,-15.112203125,-9.210625,-7.887453125,-4.5905,-13.52471484375,-16.20582421875,-5.628421875,-0.56222265625,-6.868484375,-16.5592734375,-17.21848828125,-10.01351953125,1.843171875,6.9508359375,-24.329296875
-9.80066015625,-12.2464375,-13.90583984375,-5.1246953125,-15.39354296875,-18.02849609375,-15.4605390625,-12.00208203125,-3.424609375,-10.63512109375,-15.619890625,-11.33279296875,-2.9755234375,-10.17315234375,-21.0257890625,-15.110203125,-11.470625,-8.848453125,-5.0135,-13.22371484375,-17.34182421875,-6.196421875,-2.37622265625,-7.773484375,-16.9362734375,-19.15148828125,-11.24651953125,-0.394828125,5.3008359375,-24.959296875
-10.31166015625,-12.2614375,-14.15683984375,-7.0586953125,-15.27354296875,-16.64849609375,-14.1045390625,-14.64408203125,-4.100609375,-10.12912109375,-14.617890625,-11.72779296875,-2.7985234375,-11.20715234375,-21.0887890625,-14.955203125,-13.926625,-10.781453125,-6.5465,-13.29671484375,-18.67882421875,-8.371421875,-5.45822265625,-9.527484375,-17.3492734375,-21.44348828125,-13.05551953125,-3.329828125,3.1948359375,-25.682296875
-10.89666015625,-12.3354375,-14.37883984375,-8.1786953125,-15.28954296875,-15.36149609375,-12.6645390625,-15.95408203125,-5.345609375,-9.97212109375,-13.711890625,-12.59979296875,-3.3855234375,-12.36715234375,-21.1617890625,-14.600203125,-16.255625,-13.152453125,-8.7275,-13.72971484375,-19.91482421875,-11.559421875,-9.14222265625,-11.662484375,-17.7752734375,-23.72748828125,-14.96251953125,-6.252828125,0.8818359375,-26.621296875
-11.13566015625,-12.1814375,-14.12983984375,-7.8386953125,-15.14454296875,-14.08349609375,-11.1725390625,-15.18808203125,-6.581609375,-9.82912109375,-12.859890625,-13.69279296875,-4.4785234375,-13.11315234375,-20.8617890625,-13.924203125,-17.984625,-15.260453125,-10.8295,-14.24671484375,-20.61382421875,-14.838421875,-12.59222265625,-13.546484375,-18.0872734375,-25.50348828125,-16.47951953125,-8.414828125,-1.2861640625,-27.757296875
-10.75766015625,-11.6444375,-13.23383984375,-6.1856953125,-14.60854296875,-12.77049609375,-9.6825390625,-12.51208203125,-7.271609375,-9.44712109375,-12.009890625,-14.64679296875,-5.7495234375,-13.15615234375,-20.0447890625,-12.918203125,-18.787625,-16.603453125,-12.2725,-14.57371484375,-20.44282421875,-17.391421875,-15.19722265625,-14.753484375,-18.2132734375,-26.38148828125,-17.38451953125,-9.395828125,-3.0131640625,-28.937296875
-9.89966015625,-10.8844375,-11.96583984375,-4.1946953125,-13.73954296875,-11.58449609375,-8.4185390625,-8.98908203125,-7.304609375,-8.88612109375,-11.298890625,-15.20879296875,-6.9915234375,-12.66915234375,-18.9987890625,-11.817203125,-18.700625,-17.143453125,-12.9465,-14.68471484375,-19.35782421875,-18.846421875,-16.83422265625,-15.305484375,-18.2582734375,-26.28948828125,-17.84151953125,-9.355828125,-4.2241640625,-30.006296875
-9.12566015625,-10.3254375,-10.95483984375,-3.1976953125,-12.89154296875,-10.87549609375,-7.7265390625,-6.04108203125,-7.095609375,-8.50412109375,-11.058890625,-15.36179296875,-8.1625234375,-12.20415234375,-18.3427890625,-11.047203125,-18.066625,-17.290453125,-13.2155,-14.82471484375,-17.66482421875,-19.358421875,-17.82822265625,-15.624484375,-18.4862734375,-25.51248828125,-18.27651953125,-8.966828125,-5.1091640625,-30.896296875
-9.08466015625,-10.3754375,-10.81383984375,-4.1666953125,-12.48454296875,-10.95149609375,-7.8685390625,-4.68808203125,-7.274609375,-8.69612109375,-11.612890625,-15.26379296875,-9.2565234375,-12.33115234375,-18.6357890625,-10.996203125,-17.204625,-17.585453125,-13.6145,-15.31971484375,-15.92782421875,-19.376421875,-18.63422265625,-16.213484375,-19.1522734375,-24.50548828125,-19.04351953125,-9.007828125,-5.9401640625,-31.560296875
-10.02866015625,-11.1214375,-11.75183984375,-7.1826953125,-12.69954296875,-11.81349609375,-8.7865390625,-5.03608203125,-8.201609375,-9.54812109375,-12.985890625,-15.06079296875,-10.1175234375,-13.22415234375,-19.9597890625,-11.738203125,-16.086625,-18.297453125,-14.4175,-16.28071484375,-14.74282421875,-19.286421875,-19.46022265625,-17.267484375,-20.2982734375,-23.61648828125,-20.10151953125,-9.856828125,-6.8031640625,-31.822296875
-11.59066015625,-12.2034375,-13.42283984375,-11.3696953125,-13.32654296875,-13.04749609375,-10.0395390625,-6.29108203125,-9.671609375,-10.66712109375,-14.745890625,-14.71679296875,-10.4085234375,-14.48015234375,-21.7577890625,-12.919203125,-14.311625,-19.223453125,-15.3885,-17.44771484375,-14.46182421875,-19.178421875,-20.09622265625,-18.487484375,-21.6492734375,-22.91048828125,-20.95351953125,-11.234828125,-7.4721640625,-31.365296875
-12.94766015625,-12.9664375,-15.07483984375,-15.2566953125,-13.86854296875,-13.97249609375,-10.9575390625,-7.23508203125,-11.024609375,-11.30712109375,-16.124890625,-14.01279296875,-9.8035234375,-15.31715234375,-23.0597890625,-13.879203125,-11.451625,-19.809453125,-15.8935,-18.26771484375,-15.00782421875,-18.874421875,-20.09222265625,-19.243484375,-22.7212734375,-22.22948828125,-20.91351953125,-12.385828125,-7.5641640625,-29.957296875
-13.24766015625,-12.8004375,-15.92083984375,-17.3716953125,-13.82354296875,-13.95749609375,-10.9495390625,-6.87608203125,-11.571609375,-10.74312109375,-16.349890625,-12.70679296875,-8.2965234375,-15.02015234375,-22.9667890625,-13.985203125,-7.523625,-19.518453125,-15.3075,-18.18171484375,-15.92582421875,-18.174421875,-19.13522265625,-18.973484375,-23.0742734375,-21.42348828125,-19.56851953125,-12.603828125,-6.8781640625,-27.758296875
-12.04766015625,-11.4774375,-15.50383984375,-16.8476953125,-12.96254296875,-12.72949609375,-9.7825390625,-4.95808203125,-11.025609375,-8.68212109375,-15.034890625,-10.74779296875,-6.3465234375,-13.37915234375,-21.1287890625,-12.959203125,-3.186625,-18.209453125,-13.4555,-16.96371484375,-16.64282421875,-17.115421875,-17.36722265625,-17.562484375,-22.5652734375,-20.54548828125,-17.10751953125,-11.721828125,-5.6321640625,-25.413296875
-9.57166015625,-9.2854375,-13.90383984375,-13.8676953125,-11.43954296875,-10.50149609375,-7.6685390625,-2.09108203125,-9.643609375,-5.46012109375,-12.369890625,-8.36479296875,-4.7125234375,-10.85115234375,-17.9567890625,-11.016203125,0.507375,-16.278453125,-10.7805,-14.86471484375,-16.79982421875,-16.047421875,-15.40922265625,-15.439484375,-21.4142734375,-19.84848828125,-14.29751953125,-10.226828125,-4.4111640625,-23.773296875
-6.64066015625,-6.8734375,-11.65283984375,-9.6916953125,-9.66254296875,-7.84949609375,-5.1175390625,0.617917968750001,-8.023609375,-1.89212109375,-9.015890625,-5.97779296875,-4.0345234375,-8.35215234375,-14.4267890625,-8.717203125,2.630375,-14.464453125,-8.1355,-12.49771484375,-16.40282421875,-15.463421875,-14.04722265625,-13.345484375,-20.0392734375,-19.59448828125,-12.10351953125,-8.933828125,-3.8191640625,-23.395296875
-4.23666015625,-4.9144375,-9.44183984375,-6.1226953125,-8.03754296875,-5.40949609375,-2.6525390625,2.23291796875,-6.710609375,1.14087890625,-5.762890625,-3.95679296875,-4.4425234375,-6.77115234375,-11.5837890625,-6.655203125,2.806375,-13.418453125,-6.3285,-10.50871484375,-15.72082421875,-15.693421875,-13.78722265625,-11.920484375,-18.7982734375,-19.85948828125,-11.18351953125,-8.472828125,-4.1041640625,-24.173296875
-2.93466015625,-3.7804375,-7.77383984375,-4.6096953125,-6.73854296875,-3.56649609375,-0.564539062500001,2.52391796875,-5.911609375,3.11287890625,-3.175890625,-2.42779296875,-5.4785234375,-6.49215234375,-10.0397890625,-5.182203125,1.317375,-13.308453125,-5.7165,-9.25971484375,-15.04682421875,-16.688421875,-14.54822265625,-11.388484375,-17.8212734375,-20.47048828125,-11.57851953125,-8.935828125,-5.0031640625,-25.370296875
-2.60566015625,-3.4064375,-6.77383984375,-5.4896953125,-5.66954296875,-2.32449609375,1.1444609375,1.98291796875,-5.486609375,4.05987890625,-1.418890625,-1.26379296875,-6.3605234375,-7.20215234375,-9.7437890625,-4.322203125,-1.100625,-13.703453125,-6.0615,-8.70271484375,-14.52182421875,-18.012421875,-15.68522265625,-11.483484375,-17.0192734375,-21.12548828125,-12.72351953125,-9.875828125,-5.8951640625,-26.022296875
-2.56066015625,-3.3814375,-6.21583984375,-7.8536953125,-4.57654296875,-1.38049609375,2.6484609375,1.34791796875,-5.155609375,4.49387890625,-0.310890625,-0.25879296875,-6.4165234375,-8.06915234375,-10.0957890625,-3.869203125,-3.595625,-13.803453125,-6.6895,-8.47371484375,-14.11282421875,-19.049421875,-16.29822265625,-11.617484375,-16.2162734375,-21.56148828125,-13.72951953125,-10.576828125,-6.1191640625,-25.432296875
-1.97466015625,-3.1754375,-5.68983984375,-10.0566953125,-3.21254296875,-0.312496093750001,4.1414609375,1.06091796875,-4.680609375,5.13387890625,0.493109375,0.65920703125,-5.3805234375,-8.15715234375,-10.2757890625,-3.548203125,-5.462625,-12.852453125,-6.8135,-8.09971484375,-13.71382421875,-19.264421875,-15.63722265625,-11.173484375,-15.2892734375,-21.66648828125,-13.76651953125,-10.385828125,-5.2581640625,-23.470296875
-0.25766015625,-2.3504375,-4.77783984375,-10.5436953125,-1.42254296875,1.24650390625,5.7424609375,1.09891796875,-3.897609375,6.60387890625,1.318109375,1.37620703125,-3.4045234375,-6.81815234375,-9.5747890625,-3.126203125,-6.249625,-10.488453125,-5.8545,-7.20571484375,-13.22982421875,-18.385421875,-13.38722265625,-9.752484375,-14.2042734375,-21.44948828125,-12.35851953125,-8.949828125,-3.2481640625,-20.533296875
2.73133984375,-0.705437499999999,-3.19483984375,-8.5296953125,0.81445703125,3.47050390625,7.4874609375,1.21391796875,-2.665609375,9.18987890625,2.372109375,1.72020703125,-0.851523437499999,-3.95015234375,-7.6137890625,-2.443203125,-5.767625,-6.869453125,-3.6145,-5.61671484375,-12.59782421875,-16.469421875,-9.73322265625,-7.298484375,-12.9752734375,-20.95248828125,-9.50751953125,-6.288828125,-0.3271640625,-17.268296875
6.60933984375,1.6675625,-0.910839843750001,-4.3146953125,3.36745703125,6.25250390625,9.3374609375,1.28791796875,-0.885609375,12.71787890625,3.690109375,1.66220703125,1.9324765625,-0.0251523437499999,-4.4547890625,-1.425203125,-4.104625,-2.601453125,-0.3165,-3.39271484375,-11.77282421875,-13.868421875,-5.26122265625,-4.098484375,-11.6122734375,-20.17748828125,-5.68551953125,-2.790828125,3.0758359375,-14.280296875
10.56433984375,4.3785625,1.77016015625,0.8713046875,5.92845703125,9.16050390625,11.1484609375,1.48091796875,1.377390625,16.55887890625,5.120109375,1.38320703125,4.6774765625,4.06384765625,-0.586789062499999,-0.109203125,-1.687625,1.468546875,3.4685,-0.825714843749999,-10.72582421875,-11.159421875,-0.79622265625,-0.727484375,-10.1472734375,-19.11948828125,-1.71351953125,0.848171874999999,6.4408359375,-11.980296875
13.64833984375,6.8235625,4.25816015625,5.3753046875,8.04145703125,11.53350390625,12.6494609375,2.06491796875,3.795390625,19.79187890625,6.347109375,1.13820703125,7.1314765625,7.29784765625,3.1912109375,1.302796875,0.733375,4.493546875,6.9485,1.59228515625,-9.50182421875,-9.017421875,2.76177734375,2.055515625,-8.7302734375,-17.87148828125,1.41348046875,3.743171875,9.1828359375,-10.617296875
15.15233984375,8.3605625,5.87816015625,7.7533046875,9.24445703125,12.72150390625,13.5124609375,3.14491796875,5.812390625,21.52287890625,7.008109375,1.06820703125,8.9934765625,8.86484765625,6.0042109375,2.467796875,2.294375,5.849546875,9.3025,3.27828515625,-8.30482421875,-8.044421875,4.64477734375,3.480515625,-7.6972734375,-16.72148828125,2.78448046875,5.028171875,10.6898359375,-10.402296875
14.87633984375,8.5695625,6.17416015625,7.2873046875,9.27745703125,12.38750390625,13.5244609375,4.52391796875,6.838390625,21.25487890625,6.878109375,1.13520703125,9.9674765625,8.42884765625,7.1842109375,3.034796875,2.410375,5.317546875,9.9365,3.75228515625,-7.50082421875,-8.559421875,4.43277734375,3.019515625,-7.4872734375,-16.11148828125,1.87348046875,4.142171875,10.4288359375,-11.568296875
13.18133984375,7.4695625,5.16016015625,4.2323046875,8.25745703125,10.71450390625,12.7574609375,5.80791796875,6.498390625,19.13687890625,6.026109375,1.23920703125,9.9004765625,6.25184765625,6.5372109375,2.850796875,1.138375,3.182546875,8.7225,2.86728515625,-7.48282421875,-10.436421875,2.25277734375,0.641515624999999,-8.4012734375,-16.42848828125,-1.21251953125,1.108171875,8.1658359375,-14.235296875
10.86233984375,5.5565625,3.36516015625,-0.286695312500001,6.68645703125,8.37150390625,11.5914609375,6.62491796875,4.813390625,15.93587890625,4.826109375,1.37920703125,8.8954765625,3.11384765625,4.4512109375,2.073796875,-0.764625,0.184546875,6.0955,0.939285156250001,-8.41382421875,-13.061421875,-1.19922265625,-3.093484375,-10.3502734375,-17.73548828125,-5.66351953125,-3.355828125,4.2168359375,-18.142296875
8.86133984375,3.6075625,1.61316015625,-4.7056953125,5.24545703125,6.23150390625,10.5484609375,6.75191796875,2.237390625,12.71687890625,3.776109375,1.69920703125,7.3004765625,0.0548476562499998,1.7882109375,1.137796875,-2.185625,-2.711453125,2.9225,-1.32471484375,-10.02682421875,-15.505421875,-4.86322265625,-7.180484375,-12.7802734375,-19.62548828125,-10.16951953125,-7.995828125,-0.479164062499999,-22.481296875
7.89833984375,2.3555625,0.670160156249999,-7.6446953125,4.47545703125,4.98150390625,10.0484609375,6.11391796875,-0.442609375,10.39187890625,3.270109375,2.40120703125,5.5934765625,-1.98815234375,-0.4217890625,0.584796875,-2.207625,-4.665453125,0.2155,-3.06271484375,-11.62082421875,-16.859421875,-7.66522265625,-10.476484375,-14.8262734375,-21.29648828125,-13.32751953125,-11.426828125,-4.5601640625,-26.013296875
8.16933984375,2.2425625,0.984160156249999,-8.3836953125,4.56145703125,4.86050390625,10.2754609375,4.76591796875,-2.272609375,9.41887890625,3.468109375,3.64620703125,4.2244765625,-2.44115234375,-1.2937890625,0.911796875,-0.532625,-5.227453125,-1.1385,-3.51071484375,-12.27782421875,-16.551421875,-8.83422265625,-12.010484375,-15.5832734375,-21.79348828125,-14.04351953125,-12.566828125,-6.6501640625,-27.426296875
9.36033984375,3.3535625,2.63316015625,-6.9706953125,5.32345703125,5.67150390625,11.2104609375,2.92491796875,-2.365609375,9.75687890625,4.338109375,5.50720703125,3.4974765625,-1.16815234375,-0.3097890625,2.459796875,2.493375,-4.396453125,-0.572499999999999,-2.18771484375,-11.19282421875,-14.489421875,-8.03722265625,-11.197484375,-14.3892734375,-20.29748828125,-11.78551953125,-10.909828125,-5.7681640625,-25.741296875
10.93833984375,5.4995625,5.43916015625,-3.9556953125,6.41445703125,6.99950390625,12.7274609375,0.937917968750001,-0.198609375,11.04987890625,5.749109375,7.96620703125,3.4954765625,1.61184765625,2.6102109375,5.333796875,6.202375,-2.474453125,2.0495,1.01128515625,-7.97882421875,-10.985421875,-5.37022265625,-7.947484375,-11.0232734375,-16.41148828125,-6.64251953125,-6.577828125,-1.6161640625,-20.632296875
12.49933984375,8.3435625,9.07216015625,-0.0296953125000012,7.53645703125,8.47250390625,14.6544609375,-0.899082031249999,4.106390625,12.85987890625,7.537109375,10.90920703125,4.0934765625,5.46084765625,7.1032109375,9.343796875,10.021375,0.127546875,6.3835,5.76928515625,-2.84482421875,-6.550421875,-1.28422265625,-2.703484375,-5.7962734375,-10.36548828125,0.73948046875,-0.214828125,5.3018359375,-12.585296875
13.90533984375,11.4995625,13.10416015625,4.2073046875,8.56845703125,9.89650390625,16.7784609375,-2.53108203125,9.692390625,14.82387890625,9.503109375,14.13220703125,5.0044765625,9.81584765625,12.4372109375,13.998796875,13.708375,3.004546875,11.6505,11.38828515625,3.41817578125,-1.711421875,3.52377734375,3.624515625,0.4877265625,-3.04348828125,9.29048046875,7.187171875,13.7738359375,-2.851296875
13.90533984375,11.4995625,13.10416015625,4.2073046875,8.56845703125,9.89650390625,16.7784609375,-2.53108203125,9.692390625,14.82387890625,9.503109375,14.13220703125,5.0044765625,9.81584765625,12.4372109375,13.998796875,13.708375,3.004546875,11.6505,11.38828515625,3.41817578125,-1.711421875,3.52377734375,3.624515625,0.4877265625,-3.04348828125,9.29048046875,7.187171875,13.7738359375,-2.851296875
