"Fp1","Fpz","Fp2","F7","F3","Fz","F4","F8","FC5","FC1","FC2","FC6","T7","C3","Cz","C4","T8","CP5","CP1","CP2","CP6","P7","P3","Pz","P4","P8","POz","O1","Oz","O2"
-14.7811796875,-14.15354296875,-24.29206640625,-13.58375390625,-21.84652734375,-11.77146875,-12.7643359375,-7.43437890625,-21.68545703125,-23.272921875,-20.2645859375,-8.0598125,-3.2900703125,-20.269390625,-5.634078125,-12.4471171875,-5.84331640625,-7.88244140625,-13.642203125,-10.1219296875,-10.990484375,-5.84426171875,-18.3173203125,-9.6145625,-11.47785546875,-14.27572265625,-23.2324453125,-12.085828125,-13.1508359375,-1.56416015625
-22.3561796875,-16.02754296875,-26.82806640625,-19.09075390625,-24.81152734375,-13.38246875,-13.7613359375,-9.90837890625,-23.86845703125,-23.476921875,-20.0955859375,-8.7758125,-7.2030703125,-24.153390625,-5.802078125,-12.4031171875,-7.96131640625,-11.10144140625,-14.204203125,-10.2239296875,-12.484484375,-8.11826171875,-19.7953203125,-9.3395625,-10.75785546875,-13.77072265625,-22.4894453125,-11.423828125,-11.2218359375,-0.72116015625
-26.5181796875,-17.35854296875,-28.48306640625,-21.89975390625,-26.48452734375,-14.70246875,-14.9763359375,-12.80637890625,-24.88645703125,-23.622921875,-20.2695859375,-9.6678125,-9.4930703125,-26.661390625,-6.154078125,-13.0561171875,-9.59131640625,-13.30244140625,-14.958203125,-10.7179296875,-13.656484375,-9.02426171875,-20.8133203125,-9.8615625,-10.56685546875,-13.77972265625,-21.8134453125,-10.987828125,-10.0238359375,-0.20816015625
-27.2031796875,-17.99454296875,-29.12406640625,-21.87975390625,-26.78552734375,-15.58446875,-16.1123359375,-15.87237890625,-24.76945703125,-23.713921875,-20.6735859375,-10.4898125,-10.0340703125,-27.706390625,-6.795078125,-14.3221171875,-10.47531640625,-14.32644140625,-15.869203125,-11.6159296875,-14.480484375,-8.39126171875,-21.3103203125,-11.0965625,-10.94885546875,-14.22372265625,-21.1544453125,-10.864828125,-9.6558359375,-0.11016015625
-25.3471796875,-17.92754296875,-28.83906640625,-19.70975390625,-26.04452734375,-15.91446875,-16.7303359375,-18.47737890625,-23.95645703125,-23.742921875,-21.0165859375,-10.9118125,-9.2420703125,-27.594390625,-7.697078125,-15.8261171875,-10.46231640625,-14.26544140625,-16.800203125,-12.7479296875,-14.964484375,-6.44426171875,-21.3493203125,-12.6105625,-11.74985546875,-14.81372265625,-20.4044453125,-11.016828125,-9.9608359375,-0.39316015625
-22.3111796875,-17.30954296875,-27.88206640625,-16.49075390625,-24.83252734375,-15.66346875,-16.5253359375,-19.84037890625,-23.06345703125,-23.677921875,-20.9775859375,-10.7378125,-7.8730703125,-26.820390625,-8.645078125,-17.0701171875,-9.60931640625,-13.39944140625,-17.562203125,-13.8009296875,-15.119484375,-3.69026171875,-21.0943203125,-13.8155625,-12.66285546875,-15.20272265625,-19.4454453125,-11.240828125,-10.5738359375,-0.89416015625
-19.3281796875,-16.42254296875,-26.62406640625,-13.32075390625,-23.72452734375,-14.96046875,-15.5643359375,-19.46137890625,-22.59445703125,-23.490921875,-20.3965859375,-10.0378125,-6.6750703125,-25.875390625,-9.361078125,-17.6601171875,-8.20131640625,-12.12244140625,-17.993203125,-14.4479296875,-14.960484375,-0.73626171875,-20.7563203125,-14.2345625,-13.32585546875,-15.16272265625,-18.2124453125,-11.242828125,-11.0658359375,-1.37216015625
-17.1891796875,-15.58554296875,-25.48406640625,-11.00175390625,-23.10452734375,-14.11246875,-14.3103359375,-17.52537890625,-22.73145703125,-23.196921875,-19.3995859375,-9.1058125,-6.0840703125,-25.107390625,-9.690078125,-17.4491171875,-6.62331640625,-10.84544140625,-18.001203125,-14.4799296875,-14.526484375,1.88273828125,-20.5163203125,-13.6995625,-13.43085546875,-14.67472265625,-16.7404453125,-10.791828125,-11.1118359375,-1.59916015625
-16.1481796875,-15.03854296875,-24.81706640625,-9.90975390625,-23.03952734375,-13.50746875,-13.4183359375,-14.95137890625,-23.24445703125,-22.862921875,-18.3635859375,-8.2768125,-6.1140703125,-24.648390625,-9.699078125,-16.5481171875,-5.18331640625,-9.89044140625,-17.579203125,-13.8739296875,-13.866484375,3.83073828125,-20.4343203125,-12.3795625,-12.81685546875,-13.88172265625,-15.1484453125,-9.847828125,-10.6038359375,-1.43016015625
-15.9701796875,-14.86054296875,-24.78406640625,-10.03475390625,-23.29452734375,-13.45046875,-13.4033359375,-13.01437890625,-23.59645703125,-22.562921875,-17.7345859375,-7.7608125,-6.4640703125,-24.403390625,-9.596078125,-15.2291171875,-4.00631640625,-9.40844140625,-16.789203125,-12.7649296875,-12.998484375,4.99973828125,-20.4193203125,-10.6705625,-11.52185546875,-12.97372265625,-13.5954453125,-8.580828125,-9.6488359375,-0.81716015625
-16.1501796875,-14.96154296875,-25.29406640625,-11.10575390625,-23.45652734375,-14.01146875,-14.3833359375,-12.70837890625,-23.20445703125,-22.328921875,-17.8005859375,-7.5648125,-6.7560703125,-24.140390625,-9.577078125,-13.7861171875,-3.07031640625,-9.36544140625,-15.754203125,-11.3709296875,-11.910484375,5.45173828125,-20.2873203125,-9.0075625,-9.78685546875,-12.09472265625,-12.2044453125,-7.260828125,-8.4718359375,0.21183984375
-16.2321796875,-15.13654296875,-26.03306640625,-12.70075390625,-23.12352734375,-14.99646875,-15.9963359375,-14.19237890625,-21.76045703125,-22.107921875,-18.5285859375,-7.5128125,-6.7450703125,-23.621390625,-9.710078125,-12.4151171875,-2.32931640625,-9.61144140625,-14.631203125,-9.8979296875,-10.616484375,5.32173828125,-19.8903203125,-7.7055625,-7.97985546875,-11.32072265625,-11.0144453125,-6.126828125,-7.3088359375,1.56783984375
-16.0221796875,-15.13054296875,-26.55006640625,-14.29375390625,-22.04252734375,-16.00246875,-17.5193359375,-16.58737890625,-19.39745703125,-21.757921875,-19.5315859375,-7.2978125,-6.4040703125,-22.708390625,-9.913078125,-11.1721171875,-1.78531640625,-9.96644140625,-13.567203125,-8.4759296875,-9.204484375,4.74073828125,-19.2193203125,-6.8895625,-6.47385546875,-10.69572265625,-9.9934453125,-5.312828125,-6.3458359375,3.08583984375
-15.5481796875,-14.71154296875,-26.39206640625,-15.28475390625,-20.17952734375,-16.54046875,-18.1493359375,-18.30037890625,-16.64845703125,-21.094921875,-20.2175859375,-6.5998125,-5.8920703125,-21.408390625,-10.008078125,-10.0211171875,-1.46131640625,-10.27444140625,-12.675203125,-7.1729296875,-7.852484375,3.82373828125,-18.4373203125,-6.5205625,-5.53885546875,-10.27872265625,-9.0874453125,-4.867828125,-5.7148359375,4.51283984375
-14.9101796875,-13.76654296875,-25.25806640625,-15.17375390625,-17.72252734375,-16.20146875,-17.3383359375,-17.78537890625,-14.23045703125,-19.989921875,-20.0695859375,-5.2288125,-5.4540703125,-19.866390625,-9.836078125,-8.9331171875,-1.33731640625,-10.44244140625,-12.035203125,-6.0539296875,-6.778484375,2.67573828125,-17.8203203125,-6.4935625,-5.28385546875,-10.14272265625,-8.3204453125,-4.833828125,-5.5198359375,5.52483984375
-14.2271796875,-12.36754296875,-23.15706640625,-13.83875390625,-15.06252734375,-14.84646875,-15.0393359375,-14.43437890625,-12.75545703125,-18.483921875,-18.9165859375,-3.2648125,-5.3170703125,-18.346390625,-9.387078125,-7.9611171875,-1.32031640625,-10.47844140625,-11.702203125,-5.2349296875,-6.168484375,1.38973828125,-17.6553203125,-6.7215625,-5.66585546875,-10.34072265625,-7.8434453125,-5.295828125,-5.8458359375,5.79883984375
-13.6471796875,-10.78654296875,-20.46006640625,-11.71775390625,-12.72052734375,-12.72946875,-11.7683359375,-9.04537890625,-12.49045703125,-16.830921875,-17.0465859375,-1.0958125,-5.5950703125,-17.164390625,-8.852078125,-7.2441171875,-1.29131640625,-10.48144140625,-11.698203125,-4.8769296875,-6.108484375,0.0287382812500001,-18.1333203125,-7.1835625,-6.52385546875,-10.85572265625,-7.8984453125,-6.348828125,-6.7398359375,5.14183984375
-13.3091796875,-9.40954296875,-17.81306640625,-9.66575390625,-11.21052734375,-10.44546875,-8.4453359375,-3.52337890625,-13.25745703125,-15.442921875,-15.0955859375,0.6781875,-6.2210703125,-16.559390625,-8.528078125,-6.9431171875,-1.19131640625,-10.57444140625,-11.996203125,-5.0879296875,-6.544484375,-1.35026171875,-19.2413203125,-7.9055625,-7.62285546875,-11.57172265625,-8.6814453125,-7.988828125,-8.1248359375,3.61483984375
-13.2581796875,-8.60754296875,-15.92906640625,-8.52375390625,-10.87652734375,-8.71646875,-6.0723359375,0.0346210937499976,-14.55545703125,-14.736921875,-13.7655859375,1.4631875,-6.9690703125,-16.578390625,-8.649078125,-7.1471171875,-1.06131640625,-10.79244140625,-12.509203125,-5.8289296875,-7.286484375,-2.64326171875,-20.7253203125,-8.8905625,-8.68085546875,-12.26172265625,-10.1624453125,-9.963828125,-9.7238359375,1.60083984375
-13.4431796875,-8.57854296875,-15.32106640625,-8.70375390625,-11.74852734375,-8.09846875,-5.3623359375,0.345621093749997,-15.81845703125,-14.956921875,-13.5115859375,0.9601875,-7.5510703125,-17.053390625,-9.245078125,-7.8011171875,-0.99631640625,-11.01844140625,-13.081203125,-6.8589296875,-8.057484375,-3.64826171875,-22.1343203125,-10.0245625,-9.39785546875,-12.60872265625,-11.9804453125,-11.715828125,-11.0538359375,-0.25316015625
-13.7711796875,-9.23754296875,-16.07306640625,-10.00175390625,-13.46752734375,-8.71446875,-6.4483359375,-2.51837890625,-16.62445703125,-16.031921875,-14.3315859375,-0.6368125,-7.7500703125,-17.669390625,-10.114078125,-8.6781171875,-1.03031640625,-11.00744140625,-13.494203125,-7.7779296875,-8.557484375,-4.08226171875,-22.9663203125,-11.0355625,-9.48885546875,-12.25772265625,-13.4904453125,-12.520828125,-11.5558359375,-1.22816015625
-14.0821796875,-10.19954296875,-17.71706640625,-11.70175390625,-15.31752734375,-10.12846875,-8.7923359375,-7.22837890625,-16.75345703125,-17.503921875,-15.7265859375,-2.6628125,-7.5180703125,-18.048390625,-10.865078125,-9.4241171875,-1.05431640625,-10.48244140625,-13.507203125,-8.1389296875,-8.527484375,-3.69826171875,-22.8623203125,-11.5495625,-8.74985546875,-10.92472265625,-13.9914453125,-11.798828125,-10.8228359375,-0.799160156250001
-14.0491796875,-10.87954296875,-19.32206640625,-12.86875390625,-16.37852734375,-11.43046875,-11.3493359375,-11.80637890625,-16.10745703125,-18.587921875,-16.8835859375,-4.2548125,-6.9720703125,-17.827390625,-11.029078125,-9.6701171875,-0.84231640625,-9.26744140625,-12.911203125,-7.6109296875,-7.810484375,-2.42526171875,-21.7453203125,-11.2355625,-7.13585546875,-8.53272265625,-13.0264453125,-9.449828125,-8.8158359375,1.15283984375
-13.2101796875,-10.68454296875,-19.81906640625,-12.72675390625,-15.78752734375,-11.54446875,-12.9193359375,-14.39837890625,-14.63645703125,-18.381921875,-16.9755859375,-4.7148125,-6.2990703125,-16.725390625,-10.195078125,-9.1581171875,-0.17231640625,-7.37344140625,-11.560203125,-6.0979296875,-6.395484375,-0.45926171875,-19.8013203125,-9.9185625,-4.79085546875,-5.30272265625,-10.5764453125,-5.963828125,-5.9218359375,4.26083984375
-11.1811796875,-9.22054296875,-18.43906640625,-10.98075390625,-13.02252734375,-9.65046875,-12.5553359375,-13.90837890625,-12.31745703125,-16.161921875,-15.4615859375,-3.7248125,-5.5990703125,-14.595390625,-8.126078125,-7.8191171875,1.03168359375,-4.99544140625,-9.371203125,-3.7529296875,-4.436484375,1.78573828125,-17.3283203125,-7.6105625,-2.01085546875,-1.73272265625,-7.0464453125,-2.227828125,-2.8158359375,7.80983984375
-7.9051796875,-6.41954296875,-15.05206640625,-7.91675390625,-8.09752734375,-5.51546875,-9.8653359375,-10.28237890625,-9.19745703125,-11.671921875,-12.2405859375,-1.3458125,-4.7960703125,-11.453390625,-4.802078125,-5.7751171875,2.62868359375,-2.40144140625,-6.314203125,-0.876929687499999,-2.209484375,3.83273828125,-14.5563203125,-4.4705625,0.840144531249999,1.54427734375,-3.0774453125,0.849171875,-0.189835937500002,10.99083984375
-3.7161796875,-2.56454296875,-10.20806640625,-4.20575390625,-1.60152734375,0.424531249999999,-5.1313359375,-4.43437890625,-5.43945703125,-5.290921875,-7.6495859375,2.0991875,-3.6710703125,-7.480390625,-0.397078125,-3.2791171875,4.29368359375,0.19955859375,-2.455203125,2.2030703125,-0.0264843750000008,5.33773828125,-11.5743203125,-0.7545625,3.42114453125,3.94927734375,0.7115546875,2.696171875,1.5001640625,13.18183984375
0.7798203125,1.79845703125,-4.88406640625,-0.535753906249999,5.44547265625,7.20853125,0.778664062500003,2.09762109375,-1.35745703125,2.018078125,-2.3525859375,6.1351875,-2.0050703125,-3.027390625,4.723921875,-0.631117187500001,5.64868359375,2.71855859375,1.977796875,5.2210703125,1.845515625,6.20373828125,-8.3893203125,3.2154375,5.48114453125,5.11427734375,3.8985546875,3.242171875,2.1621640625,14.11183984375
4.8858203125,6.02145703125,-0.0670664062499995,2.66524609375,11.87147265625,13.63353125,6.6956640625,7.66862109375,2.61054296875,8.968078125,2.8414140625,10.2181875,0.282929687499999,1.403609375,9.990921875,1.9048828125,6.43568359375,5.15555859375,6.583796875,8.0010703125,3.234515625,6.57973828125,-5.0533203125,7.0974375,6.90714453125,4.97327734375,6.3255546875,2.869171875,2.0321640625,13.86883984375
8.0288203125,9.53445703125,3.59393359375,5.28024609375,16.68147265625,18.59753125,11.5166640625,11.09762109375,5.98754296875,14.365078125,7.1694140625,13.7941875,3.0559296875,5.270609375,14.694921875,4.1518828125,6.63668359375,7.54055859375,10.867796875,10.4480703125,4.090515625,6.76273828125,-1.7413203125,10.5704375,7.73014453125,3.76027734375,8.0515546875,2.222171875,1.5301640625,12.79283984375
9.9648203125,11.98045703125,5.94193359375,7.34624609375,19.33747265625,21.41153125,14.5256640625,12.12662109375,8.39454296875,17.497078125,10.1174140625,16.3751875,5.9769296875,8.174609375,18.186921875,6.0328828125,6.48668359375,9.89855859375,14.391796875,12.5250703125,4.490515625,7.05673828125,1.2946796875,13.3884375,8.10514453125,1.93727734375,9.2535546875,1.955171875,1.0851640625,11.32683984375
10.8618203125,13.28145703125,7.22493359375,8.87624609375,19.88047265625,21.98153125,15.5556640625,11.46962109375,9.66254296875,18.340078125,11.5474140625,17.6391875,8.5879296875,10.016609375,20.112921875,7.5558828125,6.37568359375,12.23955859375,16.901796875,14.2390703125,4.627515625,7.64473828125,3.8256796875,15.4074375,8.24914453125,0.0832773437499998,10.1115546875,2.506171875,0.993164062499998,9.88883984375
11.1498203125,13.62345703125,7.87293359375,9.82324609375,18.85947265625,20.78753125,14.9646640625,10.35562109375,9.88054296875,17.504078125,11.7134140625,17.5411875,10.4499296875,10.995609375,20.537921875,8.8108828125,6.69668359375,14.51955859375,18.383796875,15.6150703125,4.770515625,8.50473828125,5.7316796875,16.5904375,8.37514453125,-1.24272265625,10.7275546875,3.957171875,1.3451640625,8.79083984375
11.2708203125,13.39845703125,8.28293359375,10.18624609375,17.11547265625,18.67753125,13.4576640625,9.83862109375,9.37054296875,15.964078125,11.1604140625,16.3901875,11.2789296875,11.462609375,19.884921875,9.9638828125,7.68768359375,16.61455859375,19.005796875,16.6880703125,5.202515625,9.39673828125,7.0036796875,16.9894375,8.64514453125,-1.60572265625,11.0995546875,6.034171875,2.0341640625,8.21483984375
11.5388203125,13.06745703125,8.72093359375,10.12824609375,15.50747265625,16.57453125,11.8476640625,10.32462109375,8.60954296875,14.695078125,10.5484140625,14.8111875,11.0409296875,11.730609375,18.764921875,11.2278828125,9.34668359375,18.32855859375,19.010796875,17.5040703125,6.144515625,9.95573828125,7.6866796875,16.7034375,9.12914453125,-0.778722656249998,11.1555546875,8.227171875,2.8431640625,8.22283984375
12.1238203125,13.00845703125,9.31293359375,9.94124609375,14.66647265625,15.20753125,10.7986640625,11.61162109375,8.07354296875,14.350078125,10.4384140625,13.5441875,9.9309296875,11.948609375,17.773921875,12.7748828125,11.42368359375,19.46455859375,18.608796875,18.1090703125,7.700515625,9.86073828125,7.8236796875,15.8654375,9.81214453125,1.22827734375,10.8375546875,9.974171875,3.5781640625,8.79683984375
13.0268203125,13.36745703125,10.07893359375,9.84324609375,14.79847265625,14.88053125,10.6456640625,13.25462109375,8.01754296875,15.066078125,11.1064140625,13.1311875,8.2969296875,12.055609375,17.289921875,14.6398828125,13.51068359375,19.88755859375,17.931796875,18.5280703125,9.803515625,8.96973828125,7.4336796875,14.6424375,10.63214453125,4.17027734375,10.1865546875,10.843171875,4.1521640625,9.84383984375
14.0218203125,13.99245703125,10.94793359375,9.77724609375,15.61647265625,15.37153125,11.3256640625,14.90162109375,8.32654296875,16.433078125,12.4404140625,13.6921875,6.5229296875,11.823609375,17.311921875,16.6488828125,15.17668359375,19.54055859375,17.029796875,18.7390703125,12.214515625,7.38373828125,6.5176796875,13.2334375,11.50914453125,7.60127734375,9.3705546875,10.642171875,4.5891640625,11.18883984375
14.6998203125,14.49645703125,11.76193359375,9.44324609375,16.44447265625,16.00153125,12.4336640625,16.35862109375,8.54354296875,17.634078125,13.9634140625,14.9011875,4.9269296875,10.951609375,17.444921875,18.4158828125,16.09668359375,18.43755859375,15.877796875,18.6450703125,14.553515625,5.38973828125,5.0966796875,11.8304375,12.35414453125,10.94727734375,8.6235546875,9.448171875,4.9501640625,12.57383984375
14.6428203125,14.41145703125,12.29993359375,8.56224609375,16.47447265625,15.88853125,13.3846640625,17.47362109375,8.08054296875,17.737078125,14.9904140625,16.1791875,3.6589296875,9.215609375,17.075921875,19.4408828125,16.12968359375,16.66155859375,14.399796875,18.0910703125,16.392515625,3.35173828125,3.2426796875,10.5554375,13.04314453125,13.61427734375,8.1315546875,7.542171875,5.2621640625,13.70483984375
13.6198203125,13.39845703125,12.32793359375,7.15024609375,15.10147265625,14.30353125,13.6266640625,17.99962109375,6.50854296875,16.059078125,14.8914140625,16.9861875,2.6579296875,6.581609375,15.677921875,19.2928828125,15.34868359375,14.36555859375,12.524796875,16.9340703125,17.377515625,1.57673828125,1.1166796875,9.4384375,13.41514453125,15.13727734375,7.9455546875,5.313171875,5.4811640625,14.32883984375
11.6688203125,11.40345703125,11.68493359375,5.55324609375,12.19747265625,10.98453125,12.8386640625,17.64162109375,3.79554296875,12.473078125,13.3494140625,17.0561875,1.7179296875,3.265609375,13.100921875,17.8168828125,14.03368359375,11.78255859375,10.284796875,15.1420703125,17.339515625,0.23973828125,-1.0423203125,8.4534375,13.33014453125,15.31227734375,7.9965546875,3.175171875,5.5331640625,14.31983984375
9.1008203125,8.71745703125,10.37593359375,4.22424609375,8.21547265625,6.30153125,11.0546640625,16.26562109375,0.385542968750002,7.534078125,10.5224140625,16.4751875,0.662929687499999,-0.280390625000003,9.693921875,15.2448828125,12.58068359375,9.21055859375,7.874796875,12.8650703125,16.343515625,-0.62626171875,-2.9463203125,7.5724375,12.73614453125,14.24227734375,8.1665546875,1.499171875,5.3641640625,13.72183984375
6.4668203125,5.87645703125,8.60293359375,3.42724609375,4.06547265625,1.18253125,8.6446640625,14.10862109375,-2.90545703125,2.326078125,7.0124140625,15.5871875,-0.4890703125,-3.447390625,6.185921875,12.1178828125,11.34968359375,6.99355859375,5.621796875,10.4020703125,14.641515625,-1.08526171875,-4.3323203125,6.7744375,11.68914453125,12.26027734375,8.3665546875,0.554171875,4.9891640625,12.72483984375
4.4218203125,3.46045703125,6.70693359375,3.11724609375,0.797472656250001,-3.19346875,6.1716640625,11.75962109375,-5.19945703125,-1.901921875,3.6224140625,14.7671875,-1.4860703125,-5.641390625,3.371921875,9.0668828125,10.48268359375,5.44655859375,3.871796875,8.0820703125,12.548515625,-1.24226171875,-5.0433203125,6.0244375,10.30614453125,9.77727734375,8.5465546875,0.449171874999999,4.4831640625,11.58383984375
3.4598203125,1.88745703125,5.03693359375,3.03324609375,-0.80252734375,-5.84446875,4.1716640625,9.86662109375,-5.93245703125,-4.183921875,1.0354140625,14.1861875,-1.9590703125,-6.495390625,1.764921875,6.5648828125,9.82068359375,4.76355859375,2.867796875,6.1420703125,10.328515625,-1.20026171875,-5.0733203125,5.2724375,8.69914453125,7.15327734375,8.6805546875,1.105171875,3.9461640625,10.51483984375
3.6708203125,1.28345703125,3.83293359375,2.90924609375,-0.51152734375,-6.36246875,2.9716640625,8.77062109375,-5.10345703125,-4.184921875,-0.430585937500002,13.6871875,-1.6110703125,-6.019390625,1.407921875,4.7918828125,8.99168359375,4.92955859375,2.676796875,4.6740703125,8.158515625,-1.04326171875,-4.5553203125,4.4904375,6.95214453125,4.64727734375,8.7435546875,2.272171875,3.4751640625,9.65183984375
4.6938203125,1.46645703125,3.16993359375,2.60824609375,1.24547265625,-5.04346875,2.5946640625,8.33562109375,-3.26745703125,-2.320921875,-0.893585937499999,12.8411875,-0.3860703125,-4.604390625,1.922921875,3.6298828125,7.63568359375,5.71555859375,3.160796875,3.6430703125,6.151515625,-0.83926171875,-3.7073203125,3.7004375,5.13314453125,2.42127734375,8.7115546875,3.614171875,3.1401640625,9.03983984375
5.8588203125,2.01345703125,2.94293359375,2.10424609375,3.54647265625,-2.75646875,2.7826640625,8.08262109375,-1.29645703125,0.371078125000004,-0.801585937500001,11.1541875,1.4419296875,-2.892390625,2.682921875,2.7588828125,5.62368359375,6.72655859375,3.987796875,2.9130703125,4.375515625,-0.66026171875,-2.7613203125,2.9464375,3.30914453125,0.57027734375,8.5495546875,4.801171875,2.9821640625,8.65583984375
6.4068203125,2.39945703125,2.88193359375,1.40124609375,5.30247265625,-0.63046875,3.1026640625,7.50162109375,-0.0384570312499974,2.565078125,-0.744585937500002,8.3531875,3.3049296875,-1.587390625,2.987921875,1.7938828125,3.15968359375,7.49655859375,4.690796875,2.2700703125,2.841515625,-0.61326171875,-1.9523203125,2.2224375,1.53114453125,-0.863722656249999,8.1795546875,5.582171875,2.9791640625,8.41083984375
5.7468203125,2.17345703125,2.62693359375,0.525246093750001,5.63447265625,0.325531249999999,3.1096640625,6.33362109375,-0.00445703124999852,3.102078125,-1.2495859375,4.5961875,4.5209296875,-1.264390625,2.216921875,0.415882812499998,0.70868359375,7.59155859375,4.769796875,1.4380703125,1.488515625,-0.83526171875,-1.5263203125,1.4114375,-0.201855468750001,-1.88972265625,7.4565546875,5.804171875,3.0211640625,8.14983984375
3.7308203125,1.11545703125,1.85393359375,-0.378753906249999,4.20047265625,-0.42546875,2.4946640625,4.70862109375,-1.17845703125,1.417078125,-2.6115859375,0.4731875,4.5899296875,-2.200390625,-0.0230781250000014,-1.5241171875,-1.22531640625,6.72955859375,3.823796875,0.1310703125,0.211515624999999,-1.44826171875,-1.7373203125,0.2664375,-1.97785546875,-2.55872265625,6.1805546875,5.392171875,2.9191640625,7.66983984375
0.775820312499999,-0.675542968749999,0.41793359375,-0.996753906249999,1.33847265625,-2.76846875,1.1686640625,3.07162109375,-3.01045703125,-2.244921875,-4.8005859375,-3.1988125,3.4429296875,-4.286390625,-3.734078125,-3.9531171875,-2.35431640625,4.87055859375,1.670796875,-1.8629296875,-1.080484375,-2.50326171875,-2.7903203125,-1.5235625,-3.94385546875,-2.95372265625,4.1685546875,4.324171875,2.4541640625,6.77283984375
-2.3181796875,-2.82854296875,-1.59206640625,-0.97075390625,-2.07152734375,-6.00246875,-0.712335937499999,1.93162109375,-4.67345703125,-6.912921875,-7.4595859375,-5.6788125,1.5009296875,-7.094390625,-8.458078125,-6.5811171875,-2.75631640625,2.23055859375,-1.568203125,-4.5709296875,-2.413484375,-3.96126171875,-4.7363203125,-4.1795625,-6.21385546875,-3.16172265625,1.3575546875,2.614171875,1.4561640625,5.33683984375
-4.7591796875,-4.82954296875,-3.85706640625,-0.115753906249999,-4.96052734375,-9.13446875,-2.7793359375,1.53462109375,-5.43345703125,-11.265921875,-9.9975859375,-6.5328125,-0.523070312500001,-10.044390625,-13.362078125,-8.9611171875,-2.80831640625,-0.80044140625,-5.442203125,-7.7509296875,-3.736484375,-5.71326171875,-7.4043203125,-7.6715625,-8.73085546875,-3.24272265625,-2.1184453125,0.340171874999999,-0.115835937500002,3.38183984375
-6.0481796875,-6.18254296875,-5.89506640625,1.45624609375,-6.46252734375,-11.23146875,-4.5303359375,1.67162109375,-4.94045703125,-14.102921875,-11.7595859375,-5.7418125,-1.9230703125,-12.584390625,-17.451078125,-10.6201171875,-2.95231640625,-3.75444140625,-9.262203125,-10.8919296875,-4.933484375,-7.59126171875,-10.3793203125,-11.6155625,-11.21185546875,-3.21272265625,-5.8944453125,-2.298828125,-2.1048359375,1.10983984375
-6.0321796875,-6.56554296875,-7.17106640625,3.36624609375,-6.19652734375,-11.71746875,-5.4703359375,1.78062109375,-3.30245703125,-14.737921875,-12.2265859375,-3.6828125,-2.2620703125,-14.297390625,-19.857078125,-11.2161171875,-3.43131640625,-6.15944140625,-12.257203125,-13.3459296875,-5.855484375,-9.33626171875,-13.0723203125,-15.3135625,-13.20685546875,-3.04172265625,-9.4154453125,-4.923828125,-4.1418359375,-1.09816015625
-4.8441796875,-5.90754296875,-7.27706640625,5.09524609375,-4.33552734375,-10.51446875,-5.2773359375,1.29562109375,-0.963457031249998,-13.179921875,-11.1845859375,-1.0398125,-1.4710703125,-14.948390625,-20.099078125,-10.6551171875,-4.15331640625,-7.59744140625,-13.766203125,-14.5269296875,-6.343484375,-10.59326171875,-14.8223203125,-17.9275625,-14.22885546875,-2.68572265625,-12.0234453125,-6.990828125,-5.7188359375,-2.76916015625
-2.8551796875,-4.40254296875,-6.12406640625,6.13524609375,-1.50652734375,-8.04446875,-3.9223359375,0.0106210937499984,1.49754296875,-10.059921875,-8.7925859375,1.3611875,0.1759296875,-14.493390625,-18.230078125,-9.0971171875,-4.74431640625,-7.76344140625,-13.387203125,-14.0959296875,-6.256484375,-10.97326171875,-15.0503203125,-18.7165625,-13.91285546875,-2.10272265625,-13.1074453125,-7.919828125,-6.3508359375,-3.47716015625
-0.5881796875,-2.43754296875,-4.01806640625,6.15124609375,1.43447265625,-5.07046875,-1.7073359375,-1.73937890625,3.56754296875,-6.366921875,-5.5195859375,2.7681875,2.1739296875,-13.056390625,-14.807078125,-6.8771171875,-4.77431640625,-6.53344140625,-11.069203125,-12.0409296875,-5.502484375,-10.20026171875,-13.4213203125,-17.2775625,-12.11185546875,-1.26872265625,-12.2774453125,-7.302828125,-5.7608359375,-2.98216015625
1.4588203125,-0.483542968749999,-1.58206640625,5.12624609375,3.67747265625,-2.43146875,0.810664062500003,-3.24137890625,4.93554296875,-3.113921875,-2.0075859375,2.7531875,3.9629296875,-10.890390625,-10.700078125,-4.3901171875,-4.03931640625,-4.03444140625,-7.158203125,-8.6699296875,-4.084484375,-8.25926171875,-9.9893203125,-13.7105625,-8.95585546875,-0.165722656249999,-9.5284453125,-5.081828125,-3.9878359375,-1.30016015625
2.9798203125,1.01745703125,0.462933593749998,3.42524609375,4.68347265625,-0.793468750000001,2.9606640625,-3.84437890625,5.52354296875,-1.076921875,1.0894140625,1.4001875,5.1469296875,-8.364390625,-6.861078125,-2.0191171875,-2.69831640625,-0.686441406249999,-2.376203125,-4.5679296875,-2.132484375,-5.46526171875,-5.2563203125,-8.6555625,-4.84885546875,1.22527734375,-5.3134453125,-1.602828125,-1.3548359375,1.31683984375
3.8718203125,1.77345703125,1.54893359375,1.68824609375,4.32647265625,-0.49246875,4.1466640625,-3.37837890625,5.44154296875,-0.652921874999997,3.2384140625,-0.6848125,5.6499296875,-5.934390625,-4.117078125,-0.0841171875000022,-1.17531640625,2.84955859375,2.310796875,-0.485929687499999,0.104515624999999,-2.39826171875,-0.0883203124999987,-3.1365625,-0.38185546875,2.93627734375,-0.4494453125,2.493171875,1.6681640625,4.47283984375
4.1498203125,1.72945703125,1.45493359375,0.57824609375,2.91047265625,-1.46546875,4.0526640625,-2.23937890625,4.93054296875,-1.820921875,4.1484140625,-2.6118125,5.7259296875,-4.059390625,-2.975078125,1.2048828125,0.12668359375,5.82255859375,5.942796875,2.8270703125,2.335515625,0.26073828125,4.5276796875,1.7364375,3.81014453125,4.99027734375,4.1345546875,6.471171875,4.6421640625,7.75683984375
3.9268203125,1.08145703125,0.387933593749999,0.492246093750001,1.07347265625,-3.26346875,2.7626640625,-1.02337890625,4.31354296875,-4.151921875,3.8784140625,-3.5858125,5.7859296875,-3.038390625,-3.430078125,1.7868828125,1.06168359375,7.64355859375,7.853796875,4.8480703125,4.333515625,1.95273828125,7.8026796875,5.1104375,7.21014453125,7.34327734375,7.6875546875,9.723171875,7.2791640625,10.82483984375
3.4398203125,0.202457031250001,-1.10306640625,1.38324609375,-0.405527343749998,-5.14846875,0.752664062500001,-0.0493789062500021,3.94154296875,-6.879921875,2.8704140625,-3.2358125,6.1349296875,-2.860390625,-4.888078125,1.7698828125,1.74668359375,8.09355859375,7.902796875,5.4580703125,5.987515625,2.41473828125,9.4006796875,6.6304375,9.53614453125,9.82227734375,9.8645546875,11.911171875,9.4671640625,13.43683984375
2.9998203125,-0.49754296875,-2.34006640625,2.80824609375,-0.882527343749999,-6.29946875,-1.2653359375,0.818621093749998,4.08854296875,-9.085921875,1.8554140625,-1.7058125,6.7869296875,-3.199390625,-6.314078125,1.4088828125,2.37868359375,7.36655859375,6.525796875,4.9850703125,7.283515625,1.74573828125,9.5106796875,6.5164375,10.76914453125,12.10427734375,10.7685546875,13.008171875,11.2201640625,15.43983984375
2.8718203125,-0.70954296875,-2.78206640625,4.18224609375,-0.077527343749999,-6.10346875,-2.5733359375,1.95362109375,4.84554296875,-9.997921875,1.6194140625,0.4891875,7.4579296875,-3.564390625,-6.621078125,1.0278828125,3.01668359375,5.94955859375,4.569796875,4.0700703125,8.243515625,0.32173828125,8.7106796875,5.4314375,11.10014453125,13.79827734375,10.8315546875,13.234171875,12.5751640625,16.73983984375
3.1728203125,-0.31854296875,-2.21406640625,5.07024609375,1.81347265625,-4.38646875,-2.6903359375,3.58162109375,6.06854296875,-9.289921875,2.6884140625,2.7021875,7.7339296875,-3.516390625,-5.105078125,0.924882812499998,3.52368359375,4.41955859375,2.968796875,3.4120703125,8.893515625,-1.38026171875,7.6966796875,4.2124375,10.83614453125,14.58927734375,10.6085546875,12.920171875,13.5341640625,17.31883984375
3.8508203125,0.56345703125,-0.799066406250002,5.31524609375,4.19547265625,-1.48646875,-1.5383359375,5.54362109375,7.43054296875,-7.229921875,5.0874140625,4.3681875,7.3249296875,-2.837390625,-1.744078125,1.2608828125,3.66268359375,3.25355859375,2.388796875,3.5130703125,9.271515625,-2.94326171875,7.0316796875,3.5684375,10.30614453125,14.38327734375,10.5905546875,12.378171875,14.0661640625,17.25983984375
4.6768203125,1.65245703125,0.995933593749999,4.95024609375,6.30747265625,1.84253125,0.527664062500001,7.29762109375,8.54254296875,-4.595921875,8.2904140625,5.1371875,6.2429296875,-1.608390625,2.765921875,2.0048828125,3.27468359375,2.72255859375,3.005796875,4.5070703125,9.441515625,-4.11026171875,6.9906796875,3.8704375,9.80114453125,13.36727734375,11.0735546875,11.823171875,14.1731640625,16.74883984375
5.2738203125,2.59045703125,2.59693359375,4.03924609375,7.52647265625,4.67553125,2.8566640625,8.11762109375,9.10354296875,-2.372921875,11.4124140625,4.9611875,4.8209296875,-0.192390625000002,7.248921875,2.9448828125,2.39968359375,2.83955859375,4.492796875,6.1320703125,9.461515625,-4.79426171875,7.5426796875,5.0794375,9.52314453125,11.94527734375,12.1125546875,11.361171875,13.9391640625,16.01783984375
5.2598203125,3.09245703125,3.59493359375,2.64124609375,7.60547265625,6.24553125,4.7666640625,7.42862109375,9.02654296875,-1.358921875,13.5714140625,4.1191875,3.5329296875,0.919609374999997,10.471921875,3.7868828125,1.27668359375,3.41455859375,6.201796875,7.8490703125,9.359515625,-5.05226171875,8.4236796875,6.8094375,9.55214453125,10.58927734375,13.5315546875,11.040171875,13.5451640625,15.26583984375
4.4908203125,3.07445703125,3.96093359375,0.922246093750001,6.78747265625,6.25253125,5.8296640625,5.18562109375,8.50954296875,-1.831921875,14.2714140625,3.1131875,2.7219296875,1.342609375,11.627921875,4.2848828125,0.26368359375,4.19055859375,7.459796875,9.0750703125,9.132515625,-5.04726171875,9.2816796875,8.5154375,9.84214453125,9.67927734375,15.0105546875,10.906171875,13.2211640625,14.60183984375
3.2018203125,2.72245703125,4.07993359375,-0.718753906249999,5.72447265625,5.03953125,6.0376640625,2.11662109375,7.99454296875,-3.400921875,13.6324140625,2.4471875,2.4459296875,1.038609375,10.667921875,4.3628828125,-0.30131640625,4.99555859375,7.898796875,9.4550703125,8.802515625,-4.99526171875,9.8456796875,9.7284375,10.27914453125,9.40227734375,16.2195546875,11.019171875,13.1751640625,14.05283984375
1.9238203125,2.46545703125,4.56093359375,-1.66175390625,5.26747265625,3.50353125,5.7816640625,-0.387378906250001,8.03354296875,-5.091921875,12.3794140625,2.3971875,2.5479296875,0.403609374999998,8.353921875,4.1758828125,-0.21231640625,5.84855859375,7.659796875,9.0590703125,8.464515625,-5.09026171875,10.0526796875,10.2854375,10.79214453125,9.74427734375,16.9665546875,11.424171875,13.5251640625,13.60483984375
1.2798203125,2.83645703125,5.91293359375,-1.28075390625,6.18147265625,2.78853125,5.6696640625,-0.786378906250002,9.09354296875,-5.673921875,11.5664140625,2.9411875,2.8689296875,0.146609374999997,6.027921875,4.0628828125,0.53068359375,6.92355859375,7.361796875,8.3980703125,8.292515625,-5.42126171875,10.0916796875,10.4154375,11.44314453125,10.54027734375,17.2715546875,12.083171875,14.2431640625,13.25683984375
1.7668203125,4.23245703125,8.28293359375,0.727246093750001,8.86647265625,3.84553125,6.2436640625,1.84662109375,11.34354296875,-4.124921875,12.1474140625,3.8761875,3.3939296875,0.975609374999998,5.129921875,4.4048828125,1.70268359375,8.41255859375,7.797796875,8.1990703125,8.472515625,-5.92826171875,10.2976796875,10.6154375,12.40214453125,11.55827734375,17.3215546875,12.835171875,15.1721640625,13.03383984375
3.5708203125,6.70845703125,11.36193359375,4.09024609375,13.17147265625,7.03253125,7.7496640625,7.21862109375,14.53154296875,-0.0749218749999976,14.5684140625,5.0001875,4.1909296875,3.223609375,6.650921875,5.4418828125,2.92668359375,10.34555859375,9.509796875,9.0570703125,9.113515625,-6.44026171875,10.9516796875,11.3654375,13.82014453125,12.57227734375,17.3355546875,13.429171875,16.0791640625,12.96683984375
6.4238203125,9.90345703125,14.51993359375,7.98324609375,18.38147265625,11.92153125,10.0426640625,13.79462109375,18.01654296875,5.982078125,18.5584140625,6.2131875,5.2399296875,6.615609375,10.703921875,7.1728828125,3.83768359375,12.49055859375,12.487796875,11.1370703125,10.170515625,-6.77626171875,12.0946796875,12.8664375,15.69514453125,13.42127734375,17.4285546875,13.636171875,16.7491640625,13.05883984375
9.6518203125,13.16845703125,17.08093359375,11.36124609375,23.42247265625,17.42853125,12.6806640625,19.47562109375,20.98754296875,12.823078125,23.2464140625,7.5091875,6.3149296875,10.327609375,16.447921875,9.3768828125,4.26468359375,14.42355859375,16.147796875,14.1160703125,11.460515625,-6.85226171875,13.4716796875,14.9414375,17.80614453125,14.05027734375,17.5645546875,13.367171875,17.0631640625,13.26483984375
12.4668203125,15.81145703125,18.59793359375,13.38924609375,27.21247265625,22.23653125,15.1276640625,22.59162109375,22.78654296875,18.915078125,27.5194140625,8.8921875,7.0059296875,13.318609375,22.411921875,11.7268828125,4.32468359375,15.72755859375,19.568796875,17.3470703125,12.740515625,-6.73526171875,14.6416796875,17.1124375,19.76514453125,14.48527734375,17.5985546875,12.704171875,17.0141640625,13.50683984375
14.3268203125,17.33245703125,18.97593359375,13.71224609375,29.02547265625,25.30553125,16.9696640625,22.59462109375,23.13954296875,22.941078125,30.4564140625,10.3071875,6.8769296875,14.754609375,27.031921875,13.8878828125,4.34368359375,16.18355859375,21.841796875,20.1250703125,13.785515625,-6.61226171875,15.1586796875,18.7964375,21.12214453125,14.75927734375,17.3495546875,11.833171875,16.6581640625,13.66183984375
15.1098203125,17.56545703125,18.42393359375,12.48024609375,28.72147265625,26.21853125,18.0356640625,20.08462109375,22.21154296875,24.211078125,31.6174140625,11.6001875,5.6699296875,14.316609375,29.154921875,15.5798828125,4.65068359375,15.86355859375,22.373796875,21.9060703125,14.414515625,-6.67826171875,14.7336796875,19.5014375,21.49514453125,14.83227734375,16.6695546875,10.914171875,16.0371640625,13.54983984375
15.0408203125,16.70945703125,17.30993359375,10.20824609375,26.79247265625,25.24453125,18.3976640625,16.33562109375,20.53954296875,22.870078125,31.1054140625,12.5451875,3.4889296875,12.290609375,28.350921875,16.5858828125,5.35668359375,15.08755859375,21.070796875,22.4040703125,14.470515625,-7.00326171875,13.3256796875,18.9744375,20.67614453125,14.56527734375,15.4765546875,9.987171875,15.1301640625,12.94883984375
14.5438203125,15.24845703125,16.04393359375,7.61624609375,24.20647265625,23.15753125,18.2886640625,12.70562109375,18.88454296875,19.832078125,29.4474140625,12.9481875,0.8619296875,9.466609375,24.992921875,16.7668828125,6.24368359375,14.30055859375,18.343796875,21.6060703125,13.832515625,-7.44926171875,11.1496796875,17.2734375,18.69414453125,13.76627734375,13.7895546875,8.978171875,13.8771640625,11.65383984375
14.1068203125,13.79445703125,15.00993359375,5.45924609375,22.09147265625,20.94353125,18.0046640625,10.21562109375,18.02654296875,16.487078125,27.3904140625,12.7741875,-1.3990703125,6.859609375,20.136921875,16.1088828125,6.83468359375,13.90155859375,14.962796875,19.7360703125,12.463515625,-7.70726171875,8.6036796875,14.7374375,15.81414453125,12.31627734375,11.7365546875,7.784171875,12.2411640625,9.59683984375
14.1348203125,12.89645703125,14.53393359375,4.35524609375,21.36147265625,19.50253125,17.8396640625,9.36562109375,18.47254296875,14.243078125,25.6924140625,12.2301875,-2.5410703125,5.338609375,15.222921875,14.7988828125,6.64168359375,14.08455859375,11.809796875,17.2250703125,10.503515625,-7.46626171875,6.1646796875,11.9174375,12.49914453125,10.29827734375,9.5465546875,6.395171875,10.3031640625,6.95083984375
14.7978203125,12.89245703125,14.83293359375,4.60924609375,22.40247265625,19.42553125,18.0516640625,10.13962109375,20.24054296875,14.074078125,24.9594140625,11.7121875,-2.2330703125,5.333609375,11.671921875,13.2628828125,5.46168359375,14.77255859375,9.656796875,14.6730703125,8.324515625,-6.59526171875,4.2776796875,9.4754375,9.34114453125,8.08027734375,7.5255546875,4.981171875,8.3221640625,4.16583984375
15.9928203125,13.83545703125,15.95993359375,6.09624609375,24.98047265625,20.89653125,18.8196640625,12.14662109375,22.84754296875,16.227078125,25.5174140625,11.6031875,-0.7230703125,6.755609375,10.501921875,12.0888828125,3.56068359375,15.69055859375,8.986796875,12.7590703125,6.501515625,-5.22726171875,3.2696796875,8.0554375,6.96114453125,6.24727734375,5.9915546875,3.868171875,6.7101640625,1.87883984375
17.4738203125,15.50445703125,17.75893359375,8.29124609375,28.34947265625,23.68853125,20.1706640625,14.78162109375,25.53754296875,20.179078125,27.3184140625,12.0741875,1.2949296875,9.136609375,12.050921875,11.8128828125,1.60768359375,16.52255859375,9.898796875,12.0650703125,5.647515625,-3.68026171875,3.2916796875,8.1074375,5.83314453125,5.38927734375,5.2065546875,3.380171875,5.9051640625,0.68383984375
18.9848203125,17.45945703125,19.84893359375,10.44724609375,31.50047265625,27.21853125,21.9056640625,17.34662109375,27.57654296875,24.832078125,29.9194140625,13.0221875,3.0079296875,11.841609375,15.843921875,12.6768828125,0.40368359375,17.04155859375,12.077796875,12.8570703125,6.158515625,-2.30626171875,4.2796796875,9.7154375,6.11714453125,5.83827734375,5.2995546875,3.635171875,6.1591640625,0.86783984375
20.2728203125,19.15245703125,21.68193359375,11.85624609375,33.43147265625,30.62753125,23.6016640625,19.17062109375,28.46254296875,28.837078125,32.5684140625,14.1661875,3.8209296875,14.211609375,20.664921875,14.4898828125,0.51568359375,17.11555859375,14.850796875,14.9170703125,8.013515625,-1.34826171875,5.9386796875,12.4934375,7.55414453125,7.50127734375,6.1935546875,4.427171875,7.3631640625,2.25583984375
21.0428203125,20.04845703125,22.68393359375,12.10124609375,33.40447265625,32.94953125,24.7136640625,19.78662109375,27.99954296875,30.966078125,34.3774140625,15.1961875,3.5529296875,15.655609375,24.863921875,16.6528828125,2.01868359375,16.65755859375,17.329796875,17.5360703125,10.716515625,-0.86526171875,7.7746796875,15.6314375,9.51314453125,9.88327734375,7.5795546875,5.308171875,9.0411640625,4.25883984375
21.0148203125,19.78245703125,22.46693359375,11.19024609375,31.18147265625,33.39853125,24.7636640625,19.12962109375,26.31054296875,30.454078125,34.5874140625,15.8671875,2.4439296875,15.761609375,26.889921875,18.3458828125,4.43668359375,15.61655859375,18.640796875,19.7100703125,13.450515625,-0.73526171875,9.1966796875,18.1044375,11.17214453125,12.27927734375,8.9515546875,5.823171875,10.5231640625,6.12583984375
20.0408203125,18.28945703125,21.00293359375,9.52524609375,27.16547265625,31.69753125,23.5516640625,17.54762109375,23.82154296875,27.238078125,32.8344140625,16.0321875,1.0119296875,14.427609375,25.846921875,18.7958828125,6.91868359375,14.02255859375,18.192796875,20.4720703125,15.364515625,-0.69326171875,9.7016796875,19.0084375,11.80314453125,14.05527734375,9.7515546875,5.749171875,11.2491640625,7.25083984375
18.1808203125,15.89045703125,18.68793359375,7.69824609375,22.35347265625,28.25953125,21.2926640625,15.56762109375,21.19454296875,22.029078125,29.3434140625,15.6371875,-0.148070312500001,11.959609375,21.847921875,17.5868828125,8.58168359375,12.07855859375,15.911796875,19.2720703125,15.885515625,-0.41926171875,9.0666796875,17.9064375,11.04014453125,14.87527734375,9.5765546875,5.179171875,11.0101640625,7.40883984375
15.7118203125,13.24745703125,16.22393359375,6.24024609375,18.06147265625,24.10753125,18.6146640625,13.58162109375,19.16954296875,16.154078125,24.9354140625,14.7201875,-0.5610703125,9.039609375,16.012921875,14.8648828125,8.86068359375,10.18055859375,12.330796875,16.2500703125,14.926515625,0.34373828125,7.4616796875,15.0194375,9.03914453125,14.78527734375,8.3805546875,4.443171875,10.0211640625,6.79583984375
13.0938203125,11.14345703125,14.36093359375,5.43624609375,15.46047265625,20.51353125,16.3386640625,11.72962109375,18.30654296875,11.164078125,20.7724140625,13.3701875,-0.00907031250000045,6.541609375,10.084921875,11.3378828125,7.68268359375,8.83855859375,8.431796875,12.2290703125,12.912515625,1.67773828125,5.4006796875,11.1744375,6.43414453125,14.13327734375,6.5405546875,3.931171875,8.7871640625,5.89883984375
10.8668203125,10.15745703125,13.57893359375,5.26324609375,15.10347265625,18.47753125,15.1176640625,10.04262109375,18.72354296875,8.312078125,17.9024140625,11.6681875,1.3889296875,5.220609375,5.783921875,8.0008828125,5.38568359375,8.48355859375,5.302796875,8.4210703125,10.589515625,3.44473828125,3.5496796875,7.4934375,4.09114453125,13.37327734375,4.7225546875,3.919171875,7.8631640625,5.25183984375
9.4038203125,10.38245703125,13.89893359375,5.43824609375,16.65547265625,18.29753125,15.1116640625,8.63962109375,19.99154296875,8.074078125,16.8054140625,9.6761875,3.1959296875,5.388609375,4.139921875,5.7188828125,2.49968359375,9.23855859375,3.729796875,5.9220703125,8.703515625,5.33073828125,2.4616796875,4.9854375,2.76214453125,12.85827734375,3.6095546875,4.461171875,7.6021640625,5.20083984375
8.6738203125,11.37445703125,14.90093359375,5.55724609375,18.98847265625,19.42053125,15.9016640625,7.78362109375,21.29754296875,9.964078125,17.2024140625,7.5071875,4.7719296875,6.766609375,5.105921875,4.8748828125,-0.47631640625,10.80455859375,3.916796875,5.2570703125,7.703515625,6.95873828125,2.3676796875,4.2024375,2.78914453125,12.72327734375,3.6045546875,5.360171875,8.0221640625,5.76683984375
8.2438203125,12.36145703125,15.97393359375,5.31024609375,20.64147265625,20.71753125,16.7086640625,7.75062109375,21.79354296875,12.735078125,18.2234140625,5.4211875,5.4709296875,8.593609375,7.644921875,5.2628828125,-3.17731640625,12.54855859375,5.426796875,6.1750703125,7.585515625,8.00273828125,3.0796796875,5.0614375,3.97214453125,12.88027734375,4.6445546875,6.230171875,8.8111640625,6.66583984375
7.5418203125,12.60145703125,16.61693359375,4.63724609375,20.42647265625,21.02453125,16.7916640625,8.63762109375,20.94054296875,14.874078125,18.8534140625,3.8051875,4.8769296875,9.965609375,10.240921875,6.2348828125,-5.37031640625,13.75755859375,7.351796875,7.7920703125,7.965515625,8.26573828125,4.0786796875,6.8974375,5.66114453125,13.10527734375,6.2375546875,6.645171875,9.4831640625,7.44283984375
6.1768203125,11.70645703125,16.61993359375,3.71124609375,17.91347265625,19.67853125,15.8076640625,10.25062109375,18.67154296875,15.200078125,18.3954140625,3.0091875,2.9799296875,10.201609375,11.559921875,7.0288828125,-6.90231640625,13.91355859375,8.667796875,9.0190703125,8.304515625,7.70873828125,4.7376796875,8.7434375,7.05314453125,13.17427734375,7.6905546875,6.327171875,9.5951640625,7.68483984375
4.1058203125,9.79145703125,16.05593359375,2.77124609375,13.58747265625,16.78753125,13.9596640625,12.14262109375,15.37854296875,13.312078125,16.7534140625,3.1411875,0.2129296875,9.103609375,10.968921875,7.1058828125,-7.67031640625,12.88155859375,8.664796875,9.0670703125,8.184515625,6.47173828125,4.6006796875,9.7464375,7.54814453125,12.97627734375,8.4325546875,5.295171875,8.9501640625,7.19983984375
1.6548203125,7.38145703125,15.12993359375,1.95224609375,8.63047265625,13.14153125,11.8546640625,13.77962109375,11.76754296875,9.706078125,14.4084140625,3.9911875,-2.6890703125,7.006609375,8.716921875,6.3378828125,-7.65131640625,10.92255859375,7.222796875,7.7570703125,7.484515625,4.85373828125,3.5806796875,9.5174375,6.96514453125,12.54127734375,8.2465546875,3.881171875,7.6801640625,6.09183984375
-0.5761796875,5.14145703125,14.02593359375,1.23624609375,4.41747265625,9.83453125,10.1686640625,14.74162109375,8.63654296875,5.518078125,12.1234140625,5.1291875,-4.9970703125,4.608609375,5.732921875,4.9678828125,-6.98531640625,8.57355859375,4.815796875,5.5020703125,6.372515625,3.25173828125,1.9676796875,8.2314375,5.54114453125,11.97727734375,7.3025546875,2.592171875,6.1691640625,4.69783984375
-1.9701796875,3.55645703125,12.80993359375,0.509246093750001,1.94747265625,7.76453125,9.2846640625,14.82962109375,6.60754296875,1.998078125,10.5484140625,6.0861875,-6.2970703125,2.628609375,3.141921875,3.3958828125,-6.00231640625,6.41855859375,2.230796875,3.0150703125,5.147515625,2.03473828125,0.254679687500001,6.4574375,3.72614453125,11.35727734375,6.0125546875,1.881171875,4.8681640625,3.41683984375
-2.2371796875,2.74445703125,11.43493359375,-0.36375390625,1.48247265625,7.23753125,9.1246640625,14.04562109375,5.90754296875,-0.0269218749999958,9.9234140625,6.4911875,-6.6490703125,1.468609375,1.753921875,1.9548828125,-5.13431640625,4.85855859375,0.182796874999999,0.9430703125,4.052515625,1.39373828125,-1.1113203125,4.8424375,1.96514453125,10.65127734375,4.8125546875,1.957171875,4.0941640625,2.52583984375
-1.5921796875,2.47245703125,9.82293359375,-1.45975390625,2.54347265625,7.88153125,9.2246640625,12.52262109375,6.32354296875,-0.427921874999999,10.0394140625,6.1141875,-6.4880703125,1.087609375,1.780921875,0.789882812499998,-4.73431640625,3.99655859375,-0.955203125000001,-0.360929687499999,3.181515625,1.26073828125,-1.9073203125,3.8364375,0.548144531249999,9.75027734375,3.9815546875,2.709171875,3.9001640625,2.07683984375
-0.5821796875,2.34845703125,7.98193359375,-2.70075390625,4.23147265625,8.88853125,9.0036640625,10.49062109375,7.34454296875,0.306078125000003,10.4004140625,4.8551875,-6.3490703125,1.129609375,2.896921875,-0.130117187500002,-4.91731640625,3.68255859375,-1.214203125,-0.876929687499999,2.495515625,1.35373828125,-2.1673203125,3.5524375,-0.431855468750001,8.54127734375,3.5625546875,3.774171875,4.0761640625,1.90483984375
0.274820312500001,2.03345703125,6.04793359375,-3.81075390625,5.65547265625,9.40953125,8.0416640625,8.25962109375,8.38054296875,1.376078125,10.4784140625,2.7391875,-6.5700703125,1.195609375,4.482921875,-0.933117187500002,-5.53831640625,3.65455859375,-0.923203125000001,-0.8369296875,1.902515625,1.32573828125,-2.0833203125,3.8004375,-1.05885546875,6.99627734375,3.3895546875,4.687171875,4.2581640625,1.73083984375
0.710820312500001,1.36245703125,4.22793359375,-4.42275390625,6.24847265625,8.89253125,6.2406640625,6.16362109375,8.95254296875,2.019078125,9.9074140625,-0.0438124999999996,-7.1510703125,1.019609375,5.877921875,-1.7511171875,-6.30931640625,3.65055859375,-0.527203125,-0.6059296875,1.316515625,0.91573828125,-1.8763203125,4.2054375,-1.52485546875,5.21227734375,3.2005546875,5.064171875,4.0861640625,1.29283984375
0.7098203125,0.35045703125,2.69693359375,-4.30875390625,5.88247265625,7.23053125,3.8306640625,4.49562109375,8.79554296875,1.748078125,8.5784140625,-3.1038125,-7.8210703125,0.500609374999996,6.533921875,-2.6611171875,-6.94131640625,3.45855859375,-0.436203125,-0.5739296875,0.675515624999999,0.0537382812500001,-1.7053203125,4.3524375,-2.06885546875,3.37927734375,2.7585546875,4.720171875,3.3501640625,0.45483984375
0.400820312499999,-0.871542968749999,1.54193359375,-3.56875390625,4.80147265625,4.75153125,1.2426640625,3.44862109375,7.91254296875,0.463078125000003,6.6384140625,-5.9248125,-8.2590703125,-0.331390625000001,6.147921875,-3.6741171875,-7.25031640625,2.96055859375,-0.907203125000001,-1.0499296875,-0.0524843750000006,-1.12026171875,-1.6333203125,3.9154375,-2.91385546875,1.69027734375,1.9355546875,3.730171875,2.0621640625,-0.767160156250001
-0.0191796874999994,-2.12854296875,0.77593359375,-2.61575390625,3.44247265625,2.07453125,-1.0713359375,3.07262109375,6.57154296875,-1.555921875,4.4184140625,-8.0368125,-8.2720703125,-1.365390625,4.746921875,-4.7591171875,-7.18831640625,2.16655859375,-1.976203125,-2.1779296875,-0.880484375,-2.30526171875,-1.6403203125,2.7284375,-4.22885546875,0.25527734375,0.7305546875,2.378171875,0.441164062499999,-2.24116015625
-0.3741796875,-3.24254296875,0.387933593749999,-1.94875390625,2.23347265625,-0.134468750000002,-2.7933359375,3.24662109375,5.20754296875,-3.766921875,2.3134140625,-9.1928125,-7.8660703125,-2.446390625,2.668921875,-5.8731171875,-6.81731640625,1.21755859375,-3.441203125,-3.8839296875,-1.804484375,-3.16126171875,-1.6573203125,0.835437499999999,-6.06785546875,-0.93972265625,-0.771445312499999,1.040171875,-1.2038359375,-3.81316015625
-0.596179687500001,-4.06154296875,0.37693359375,-1.86875390625,1.44047265625,-1.41546875,-3.7963359375,3.69762109375,4.25054296875,-5.553921875,0.656414062499998,-9.4108125,-7.1690703125,-3.413390625,0.418921874999999,-6.9611171875,-6.28131640625,0.331558593750001,-4.926203125,-5.8949296875,-2.793484375,-3.45626171875,-1.5943203125,-1.5085625,-8.31685546875,-1.97472265625,-2.4334453125,0.0341718750000002,-2.5988359375,-5.38316015625
-0.7191796875,-4.47054296875,0.735933593749998,-2.30275390625,1.13147265625,-1.65846875,-4.1213359375,4.08462109375,3.94254296875,-6.440921875,-0.346585937500002,-8.8938125,-6.3320703125,-4.124390625,-1.512078125,-7.9351171875,-5.75931640625,-0.27144140625,-6.032203125,-7.8259296875,-3.766484375,-3.15526171875,-1.3613203125,-3.8995625,-10.66885546875,-2.90272265625,-4.0754453125,-0.468828125,-3.5868359375,-6.90616015625
-0.770179687500001,-4.41854296875,1.42893359375,-2.84875390625,1.24147265625,-1.07146875,-3.8933359375,4.11762109375,4.25654296875,-6.235921875,-0.628585937500002,-7.8818125,-5.4680703125,-4.473390625,-2.797078125,-8.6661171875,-5.41231640625,-0.437441406249999,-6.524203125,-9.3099296875,-4.592484375,-2.41226171875,-0.878320312500001,-5.9125625,-12.69485546875,-3.69072265625,-5.4824453125,-0.462828125,-4.1318359375,-8.33216015625
-0.7131796875,-3.93554296875,2.35593359375,-3.03575390625,1.66447265625,-0.0194687500000015,-3.2543359375,3.61462109375,4.95454296875,-5.065921875,-0.235585937500002,-6.5548125,-4.6680703125,-4.425390625,-3.326078125,-9.0071171875,-5.33431640625,-0.13444140625,-6.428203125,-10.1189296875,-5.141484375,-1.50726171875,-0.129320312499999,-7.2565625,-13.97485546875,-4.22272265625,-6.4324453125,-0.0908281249999998,-4.2808359375,-9.56316015625
-0.517179687500001,-3.13854296875,3.34793359375,-2.62975390625,2.29447265625,1.12153125,-2.3373359375,2.52362109375,5.73254296875,-3.314921875,0.6934140625,-5.0188125,-4.0430703125,-4.068390625,-3.200078125,-8.8301171875,-5.50331640625,0.49055859375,-6.001203125,-10.2069296875,-5.353484375,-0.75926171875,0.758679687499999,-7.8775625,-14.23785546875,-4.37072265625,-6.7774453125,0.390171875,-4.1428359375,-10.47016015625
-0.2321796875,-2.20754296875,4.20993359375,-1.75075390625,3.01947265625,2.06953125,-1.2693359375,0.970621093749997,6.34554296875,-1.479921875,1.9444140625,-3.3828125,-3.7500703125,-3.601390625,-2.642078125,-8.0781171875,-5.78431640625,1.11655859375,-5.571203125,-9.6729296875,-5.266484375,-0.46326171875,1.5076796875,-7.9295625,-13.44785546875,-4.07472265625,-6.5194453125,0.673171875,-3.8668359375,-10.95416015625
0.0448203125000006,-1.35154296875,4.78493359375,-0.714753906249999,3.70047265625,2.65953125,-0.208335937499998,-0.693378906250002,6.63154296875,-0.0119218749999987,3.2484140625,-1.8678125,-3.9630703125,-3.245390625,-1.876078125,-6.8111171875,-5.99231640625,1.36355859375,-5.375203125,-8.6829296875,-4.994484375,-0.81526171875,1.7926796875,-7.6535625,-11.79485546875,-3.38772265625,-5.8074453125,0.519171875,-3.5988359375,-10.99816015625
0.237820312499998,-0.772542968749999,4.98093359375,0.230246093750001,4.15847265625,2.79253125,0.630664062500001,-1.98637890625,6.46054296875,0.798078125000004,4.3074140625,-0.8578125,-4.7950703125,-3.142390625,-1.057078125,-5.2301171875,-5.99131640625,0.964558593750001,-5.447203125,-7.4129296875,-4.673484375,-1.84826171875,1.4496796875,-7.2165625,-9.61985546875,-2.46072265625,-4.8634453125,-0.118828125,-3.3928359375,-10.64416015625
0.289820312499998,-0.630542968749999,4.74593359375,1.03824609375,4.19647265625,2.36053125,0.984664062500002,-2.53837890625,5.71954296875,0.856078125000003,4.8384140625,-0.8218125,-6.2100703125,-3.299390625,-0.283078125000001,-3.6521171875,-5.76831640625,-0.101441406249998,-5.624203125,-6.0319296875,-4.423484375,-3.41026171875,0.618679687499998,-6.6235625,-7.29785546875,-1.48472265625,-3.8534453125,-1.026828125,-3.1618359375,-9.93416015625
0.126820312500001,-1.01254296875,4.05393359375,1.79524609375,3.65647265625,1.23253125,0.604664062500001,-2.29737890625,4.39254296875,0.243078125000004,4.6414140625,-2.0828125,-7.9560703125,-3.608390625,0.369921874999999,-2.4421171875,-5.44831640625,-1.60144140625,-5.633203125,-4.7019296875,-4.318484375,-5.21126171875,-0.286320312499999,-5.7555625,-5.14685546875,-0.60972265625,-2.8054453125,-1.792828125,-2.6888359375,-8.86316015625
-0.302179687500001,-1.89754296875,2.93293359375,2.55124609375,2.50147265625,-0.668468750000001,-0.639335937499999,-1.50537890625,2.68454296875,-0.830921874999998,3.6794140625,-4.5558125,-9.5920703125,-3.896390625,0.849921875,-1.9001171875,-5.24631640625,-3.14644140625,-5.246203125,-3.5639296875,-4.389484375,-6.90226171875,-0.768320312500002,-4.5115625,-3.38385546875,0.0882773437500006,-1.6284453125,-1.997828125,-1.7578359375,-7.41316015625
-0.9731796875,-3.17154296875,1.48593359375,3.21024609375,0.848472656249999,-3.25146875,-2.6853359375,-0.514378906250002,1.03954296875,-2.093921875,2.1134140625,-7.6348125,-10.6540703125,-4.003390625,1.121921875,-2.1831171875,-5.39831640625,-4.37144140625,-4.419203125,-2.7459296875,-4.631484375,-8.18426171875,-0.514320312500001,-2.9625625,-2.13685546875,0.606277343750001,-0.226445312499999,-1.434828125,-0.298835937500002,-5.63816015625
-1.8061796875,-4.66054296875,-0.124066406250002,3.54824609375,-1.06452734375,-6.22446875,-5.2623359375,0.341621093749998,-0.0384570312499974,-3.313921875,0.2424140625,-10.4048125,-10.8700703125,-3.896390625,1.102921875,-3.2601171875,-6.07831640625,-5.11544140625,-3.357203125,-2.3719296875,-5.041484375,-8.91726171875,0.424679687499999,-1.4175625,-1.48685546875,0.95427734375,1.3455546875,-0.258828125000001,1.4991640625,-3.74916015625
-2.7581796875,-6.18754296875,-1.72706640625,3.32924609375,-2.97052734375,-9.18646875,-7.9583359375,0.754621093749998,-0.246457031249999,-4.376921875,-1.6125859375,-12.0778125,-10.3120703125,-3.754390625,0.581921874999999,-4.9311171875,-7.31331640625,-5.51644140625,-2.473203125,-2.5789296875,-5.632484375,-9.19726171875,1.6116796875,-0.3555625,-1.47885546875,1.11027734375,2.7955546875,1.008171875,3.2131640625,-2.12016015625
-3.8291796875,-7.61954296875,-3.17806640625,2.41524609375,-4.65752734375,-11.75446875,-10.3443359375,0.453621093749998,0.330542968750002,-5.309921875,-3.2355859375,-12.4038125,-9.3490703125,-3.947390625,-0.750078125000001,-6.8941171875,-8.93231640625,-5.94944140625,-2.259203125,-3.4979296875,-6.415484375,-9.32826171875,2.3816796875,-0.275562499999999,-2.10985546875,1.01627734375,3.6495546875,1.658171875,4.3141640625,-1.17216015625
-5.0071796875,-8.90054296875,-4.39306640625,0.82724609375,-6.03652734375,-13.67346875,-12.1273359375,-0.679378906250001,1.21754296875,-6.238921875,-4.5805859375,-11.7498125,-8.4660703125,-4.884390625,-3.131078125,-8.8381171875,-10.58431640625,-6.83144140625,-3.126203125,-5.1849296875,-7.354484375,-9.66526171875,2.1276796875,-1.5025625,-3.29785546875,0.61827734375,3.4505546875,1.107171875,4.3791640625,-1.19216015625
-6.2551796875,-10.05054296875,-5.38306640625,-1.27575390625,-7.14852734375,-14.87146875,-13.2453359375,-2.46337890625,1.70654296875,-7.287921875,-5.7415859375,-10.8208125,-8.0460703125,-6.796390625,-6.537078125,-10.5101171875,-11.85831640625,-8.39044140625,-5.212203125,-7.5469296875,-8.339484375,-10.40626171875,0.6026796875,-4.0275625,-4.86885546875,-0.0757226562499991,2.0095546875,-0.782828125,3.2891640625,-2.17816015625
-7.5621796875,-11.11254296875,-6.24106640625,-3.62575390625,-8.10652734375,-15.44446875,-13.8503359375,-4.43237890625,1.14254296875,-8.488921875,-6.8565859375,-10.2128125,-8.2490703125,-9.563390625,-10.576078125,-11.7361171875,-12.43431640625,-10.50244140625,-8.247203125,-10.2879296875,-9.199484375,-11.44026171875,-1.8953203125,-7.4255625,-6.55885546875,-0.95272265625,-0.441445312499999,-3.554828125,1.3131640625,-3.80516015625
-8.9111796875,-12.06954296875,-7.06406640625,-5.85975390625,-8.99052734375,-15.57246875,-14.1863359375,-6.02537890625,-0.772457031249999,-9.713921875,-7.9785859375,-10.1038125,-8.9920703125,-12.650390625,-14.541078125,-12.4181171875,-12.21231640625,-12.66744140625,-11.547203125,-12.9309296875,-9.758484375,-12.35626171875,-4.5813203125,-10.9165625,-8.06685546875,-1.81872265625,-3.2854453125,-6.287828125,-0.966835937500002,-5.53816015625
-10.1871796875,-12.80954296875,-7.84106640625,-7.57475390625,-9.76152734375,-15.42046875,-14.4383359375,-6.85937890625,-3.76845703125,-10.689921875,-9.0115859375,-10.2278125,-9.9880703125,-15.222390625,-17.605078125,-12.5191171875,-11.34931640625,-14.17644140625,-14.200203125,-14.9369296875,-9.894484375,-12.64226171875,-6.4803203125,-13.5805625,-9.11885546875,-2.46572265625,-5.7534453125,-7.979828125,-2.8668359375,-6.83416015625
-11.1481796875,-13.15154296875,-8.42506640625,-8.46275390625,-10.25852734375,-15.08446875,-14.6503359375,-6.91537890625,-7.04245703125,-11.117921875,-9.7335859375,-10.1298125,-10.8350703125,-16.450390625,-19.112078125,-12.0641171875,-10.18331640625,-14.40344140625,-15.404203125,-15.8719296875,-9.595484375,-11.95726171875,-6.8513203125,-14.6645625,-9.54385546875,-2.76072265625,-7.2284453125,-7.993828125,-3.8548359375,-7.37016015625
-11.5581796875,-12.93254296875,-8.60906640625,-8.43275390625,-10.29252734375,-14.62446875,-14.7273359375,-6.52337890625,-9.55145703125,-10.820921875,-9.9065859375,-9.5048125,-11.1450703125,-15.861390625,-18.822078125,-11.1411171875,-9.08931640625,-13.10544140625,-14.776203125,-15.5659296875,-8.978484375,-10.32526171875,-5.5213203125,-13.8565625,-9.32985546875,-2.72272265625,-7.4814453125,-6.345828125,-3.7548359375,-7.17516015625
-11.3111796875,-12.08754296875,-8.24406640625,-7.58775390625,-9.75252734375,-14.07646875,-14.5193359375,-6.15037890625,-10.42745703125,-9.827921875,-9.3735859375,-8.4168125,-10.6970703125,-13.530390625,-16.981078125,-9.9041171875,-8.34631640625,-10.54344140625,-12.492203125,-14.1719296875,-8.265484375,-8.13526171875,-2.9593203125,-11.4185625,-8.64885546875,-2.54672265625,-6.7434453125,-3.724828125,-2.8188359375,-6.61816015625
-10.4221796875,-10.69154296875,-7.32006640625,-6.09075390625,-8.65452734375,-13.43546875,-13.9203359375,-6.13137890625,-9.32545703125,-8.350921875,-8.1325859375,-7.2878125,-9.5290703125,-10.017390625,-14.179078125,-8.5671171875,-8.08431640625,-7.36544140625,-9.206203125,-12.1239296875,-7.716484375,-5.96026171875,-0.0603203125,-8.1185625,-7.82685546875,-2.57472265625,-5.5964453125,-1.228828125,-1.6298359375,-6.25516015625
-8.9771796875,-8.95054296875,-5.99906640625,-4.08375390625,-7.13452734375,-12.64346875,-12.9323359375,-6.53737890625,-6.55945703125,-6.680921875,-6.3495859375,-6.6548125,-7.9320703125,-6.118390625,-11.128078125,-7.3821171875,-8.31631640625,-4.35144140625,-5.802203125,-9.9949296875,-7.546484375,-4.30126171875,2.2276796875,-4.9755625,-7.25385546875,-3.17872265625,-4.7284453125,0.0871718749999992,-0.854835937500002,-6.58816015625
-7.1581796875,-7.15054296875,-4.59106640625,-1.75075390625,-5.41352734375,-11.62146875,-11.6723359375,-7.22137890625,-2.98445703125,-5.091921875,-4.3305859375,-6.8188125,-6.3420703125,-2.608390625,-8.480078125,-6.5691171875,-8.96831640625,-2.16444140625,-3.098203125,-8.3319296875,-7.848484375,-3.42826171875,3.2406796875,-2.9095625,-7.23685546875,-4.59972265625,-4.6584453125,-0.335828125000001,-0.944835937500001,-7.83316015625
-5.3051796875,-5.59554296875,-3.48206640625,0.54824609375,-3.76552734375,-10.35646875,-10.3253359375,-7.92937890625,0.306542968750001,-3.787921875,-2.4345859375,-7.6148125,-5.2200703125,-0.0463906250000008,-6.677078125,-6.2251171875,-9.88731640625,-1.19644140625,-1.610203125,-7.4799296875,-8.564484375,-3.34526171875,2.7766796875,-2.4285625,-7.86985546875,-6.79972265625,-5.5484453125,-2.341828125,-1.9478359375,-9.81716015625
-3.8581796875,-4.54754296875,-3.01806640625,2.21824609375,-2.48752734375,-8.95446875,-9.0793359375,-8.36437890625,2.36154296875,-2.906921875,-0.962585937500002,-8.4698125,-4.9550703125,1.310609375,-5.849078125,-6.2701171875,-10.83631640625,-1.51644140625,-1.444203125,-7.4799296875,-9.494484375,-3.86626171875,1.0846796875,-3.4835625,-8.99285546875,-9.42772265625,-7.1794453125,-5.185828125,-3.5188359375,-12.04716015625
-3.2021796875,-4.17954296875,-3.37806640625,2.56824609375,-1.85452734375,-7.63946875,-8.0923359375,-8.23437890625,2.64754296875,-2.537921875,-0.0685859375,-8.7538125,-5.8010703125,1.513609375,-5.774078125,-6.4701171875,-11.52931640625,-2.90744140625,-2.324203125,-8.0679296875,-10.365484375,-4.71126171875,-1.2723203125,-5.5355625,-10.25785546875,-11.94072265625,-9.0714453125,-7.920828125,-5.1058359375,-13.93316015625
-3.5511796875,-4.53954296875,-4.50506640625,1.13724609375,-2.06652734375,-6.71746875,-7.4863359375,-7.36637890625,1.13954296875,-2.743921875,0.258414062499998,-8.1868125,-7.7870703125,0.830609374999998,-6.002078125,-6.5291171875,-11.69831640625,-4.96444140625,-3.717203125,-8.7809296875,-10.913484375,-5.57426171875,-3.6083203125,-7.7725625,-11.24285546875,-13.79472265625,-10.6744453125,-9.794828125,-6.1998359375,-15.04116015625
-4.8991796875,-5.51354296875,-6.11006640625,-1.93775390625,-3.18252734375,-6.49746875,-7.3443359375,-5.85637890625,-1.78845703125,-3.556921875,0.127414062499998,-7.0108125,-10.6170703125,-0.389390625000001,-6.073078125,-6.2091171875,-11.17531640625,-7.22144140625,-5.019203125,-9.1379296875,-10.943484375,-6.17126171875,-5.3073203125,-9.3815625,-11.57785546875,-14.62972265625,-11.5384453125,-10.470828125,-6.5138359375,-15.23816015625
-6.9991796875,-6.85954296875,-7.78206640625,-5.79575390625,-5.08752734375,-7.19046875,-7.7103359375,-4.09137890625,-5.56645703125,-4.964921875,-0.366585937500002,-5.8188125,-13.6620703125,-1.847390625,-5.752078125,-5.4451171875,-9.96231640625,-9.25544140625,-5.785203125,-8.8259296875,-10.375484375,-6.28126171875,-5.9833203125,-9.8095625,-11.05385546875,-14.36072265625,-11.4264453125,-10.025828125,-6.0378359375,-14.68316015625
-9.4001796875,-8.29954296875,-9.15906640625,-9.14275390625,-7.51552734375,-8.80546875,-8.5963359375,-2.58137890625,-9.58945703125,-6.886921875,-1.2195859375,-5.1958125,-16.1120703125,-3.385390625,-5.138078125,-4.4151171875,-8.29031640625,-10.77544140625,-5.921203125,-7.8429296875,-9.285484375,-5.80926171875,-5.6063203125,-8.9395625,-9.70985546875,-13.17672265625,-10.3924453125,-8.814828125,-4.9878359375,-13.69816015625
-11.6251796875,-9.64554296875,-10.09906640625,-10.88575390625,-10.12352734375,-11.12846875,-9.9703359375,-1.72337890625,-13.32145703125,-9.169921875,-2.5345859375,-5.4228125,-17.2850703125,-5.025390625,-4.637078125,-3.5251171875,-6.60931640625,-11.68944140625,-5.736203125,-6.5279296875,-7.931484375,-4.84426171875,-4.5303203125,-7.1385625,-7.87085546875,-11.46572265625,-8.7764453125,-7.309828125,-3.7168359375,-12.63716015625
-13.4091796875,-10.84954296875,-10.71906640625,-10.69775390625,-12.57652734375,-13.77846875,-11.7273359375,-1.67137890625,-16.31045703125,-11.593921875,-4.4275859375,-6.4018125,-16.9370703125,-6.917390625,-4.789078125,-3.2621171875,-5.46531640625,-12.13244140625,-5.798203125,-5.4569296875,-6.725484375,-3.66626171875,-3.4113203125,-5.1275625,-6.07485546875,-9.70272265625,-7.1194453125,-5.964828125,-2.6188359375,-11.78616015625
-14.7541796875,-11.93854296875,-11.25906640625,-9.09075390625,-14.57452734375,-16.27646875,-13.6343359375,-2.33737890625,-18.20045703125,-13.875921875,-6.8845859375,-7.7718125,-15.3650703125,-9.181390625,-5.990078125,-3.9681171875,-5.27131640625,-12.37844140625,-6.647203125,-5.1969296875,-6.074484375,-2.64626171875,-2.9653203125,-3.7035625,-4.88685546875,-8.30372265625,-5.9744453125,-5.128828125,-2.0528359375,-11.32316015625
-15.7461796875,-12.87654296875,-11.86606640625,-6.98975390625,-15.83752734375,-18.11246875,-15.3253359375,-3.49537890625,-18.74445703125,-15.675921875,-9.6325859375,-9.1168125,-13.2380703125,-11.702390625,-8.232078125,-5.6401171875,-6.12131640625,-12.66844140625,-8.493203125,-6.0389296875,-6.187484375,-2.08126171875,-3.6713203125,-3.4195625,-4.66485546875,-7.51972265625,-5.7014453125,-4.994828125,-2.2608359375,-11.30016015625
-16.3361796875,-13.48054296875,-12.44506640625,-5.16375390625,-16.09052734375,-18.81946875,-16.3653359375,-4.89237890625,-17.85345703125,-16.643921875,-12.1475859375,-10.1578125,-11.2400703125,-14.049390625,-11.034078125,-7.8601171875,-7.72431640625,-13.02744140625,-11.064203125,-7.8359296875,-6.953484375,-2.04626171875,-5.5323203125,-4.3725625,-5.39985546875,-7.37172265625,-6.3204453125,-5.572828125,-3.2998359375,-11.65116015625
-16.3171796875,-13.45354296875,-12.67506640625,-3.90975390625,-15.12552734375,-18.09446875,-16.3933359375,-6.31937890625,-15.65045703125,-16.498921875,-13.7955859375,-10.8098125,-9.7370703125,-15.580390625,-13.615078125,-9.9351171875,-9.50731640625,-13.18644140625,-13.661203125,-10.0329296875,-7.986484375,-2.34226171875,-8.0233203125,-6.1735625,-6.70785546875,-7.66672265625,-7.5074453125,-6.689828125,-4.9948359375,-12.22516015625
-15.4611796875,-12.51254296875,-12.16706640625,-3.09575390625,-12.90652734375,-15.91346875,-15.2693359375,-7.55837890625,-12.48145703125,-15.123921875,-14.0655859375,-11.1028125,-8.6260703125,-15.682390625,-15.213078125,-11.1501171875,-10.82531640625,-12.66744140625,-15.407203125,-11.8819296875,-8.797484375,-2.57626171875,-10.2633203125,-8.1235625,-7.98885546875,-8.08472265625,-8.7334453125,-8.031828125,-6.9488359375,-12.82216015625
-13.6601796875,-10.56154296875,-10.66306640625,-2.41275390625,-9.67652734375,-12.58046875,-13.1463359375,-8.30537890625,-8.85845703125,-12.643921875,-12.7665859375,-11.0248125,-7.4580703125,-14.008390625,-15.365078125,-11.0351171875,-11.20231640625,-10.99944140625,-15.585203125,-12.7159296875,-8.998484375,-2.30826171875,-11.3483203125,-9.5045625,-8.67085546875,-8.29872265625,-9.4744453125,-9.237828125,-8.6398359375,-13.23616015625
-11.0001796875,-7.78154296875,-8.17306640625,-1.60675390625,-5.96652734375,-8.67646875,-10.4373359375,-8.20137890625,-5.35945703125,-9.421921875,-10.1135859375,-10.4698125,-5.7470703125,-10.624390625,-14.048078125,-9.4961171875,-10.50231640625,-7.97944140625,-13.900203125,-12.1729296875,-8.420484375,-1.22626171875,-10.6893203125,-9.8375625,-8.39985546875,-8.09672265625,-9.4034453125,-10.021828125,-9.5878359375,-13.30116015625
-7.7911796875,-4.60154296875,-5.00606640625,-0.56975390625,-2.49052734375,-4.92046875,-7.6693359375,-7.03937890625,-2.48945703125,-5.985921875,-6.6545859375,-9.3138125,-3.2990703125,-6.018390625,-11.649078125,-6.7731171875,-8.94731640625,-3.84944140625,-10.558203125,-10.2689296875,-7.127484375,0.71673828125,-8.2273203125,-8.9915625,-7.11985546875,-7.44972265625,-8.4794453125,-10.270828125,-9.5328359375,-12.94316015625
-4.5211796875,-1.53954296875,-1.67106640625,0.68924609375,0.0644726562500004,-1.98046875,-5.3153359375,-5.00337890625,-0.529457031249997,-2.890921875,-3.0875859375,-7.5738125,-0.3490703125,-0.964390625000004,-8.788078125,-3.2861171875,-6.99531640625,0.722558593750001,-6.145203125,-7.3329296875,-5.331484375,3.28173828125,-4.4293203125,-7.1445625,-5.03485546875,-6.50172265625,-6.9094453125,-10.043828125,-8.5258359375,-12.21216015625
-1.7061796875,0.96045703125,1.29393359375,2.10324609375,1.25547265625,-0.28146875,-3.6613359375,-2.69637890625,0.527542968750002,-0.560921874999998,-0.0455859375000003,-5.4778125,2.5449296875,3.704609375,-6.054078125,0.501882812499998,-5.14631640625,4.87755859375,-1.419203125,-3.8629296875,-3.305484375,6.04073828125,-0.0923203125000001,-4.6535625,-2.52085546875,-5.50972265625,-5.0354453125,-9.479828125,-6.9018359375,-11.27716015625
0.258820312499999,2.62945703125,3.47493359375,3.54224609375,1.01047265625,0.110531249999999,-2.7873359375,-0.900378906250001,0.90454296875,0.803078125000003,2.0454140625,-3.4238125,4.7719296875,7.315609375,-3.824078125,4.1368828125,-3.77431640625,7.88055859375,2.887796875,-0.3999296875,-1.327484375,8.54873828125,3.9366796875,-1.9435625,-0.0308554687500013,-4.73072265625,-3.1914453125,-8.687828125,-5.1208359375,-10.35616015625
1.1418203125,3.39245703125,4.65893359375,4.79324609375,-0.384527343750001,-0.529468750000001,-2.6153359375,-0.190378906250002,0.854542968750003,1.232078125,3.0104140625,-1.8238125,5.9099296875,9.476609375,-2.240078125,7.1688828125,-3.03431640625,9.33455859375,6.202796875,2.5380703125,0.330515625,10.49273828125,7.0136796875,0.5804375,1.98714453125,-4.32172265625,-1.5974453125,-7.693828125,-3.5718359375,-9.62916015625
0.8638203125,3.34045703125,4.85093359375,5.60524609375,-2.38452734375,-1.70746875,-2.9663359375,-0.642378906250002,0.550542968750001,0.941078125000004,2.8994140625,-0.9258125,5.8609296875,10.126609375,-1.307078125,9.1848828125,-2.83231640625,9.25255859375,8.204796875,4.5240703125,1.422515625,11.75673828125,8.8386796875,2.5884375,3.19414453125,-4.26872265625,-0.3144453125,-6.471828125,-2.4348359375,-9.16516015625
-0.4351796875,2.71845703125,4.27293359375,5.82924609375,-4.31852734375,-2.84246875,-3.5843359375,-1.80037890625,0.109542968750002,0.290078125000001,1.9604140625,-0.6998125,4.8599296875,9.542609375,-0.943078125,9.8968828125,-2.87331640625,7.97855859375,8.881796875,5.3080703125,1.790515625,12.40773828125,9.4726796875,3.8774375,3.42714453125,-4.38272265625,0.7205546875,-5.021828125,-1.6638359375,-8.90416015625
-2.3021796875,1.87545703125,3.30993359375,5.51924609375,-5.54652734375,-3.40446875,-4.1723359375,-2.91737890625,-0.292457031249999,-0.277921874999997,0.578414062499998,-0.8548125,3.4029296875,8.277609375,-0.969078125000001,9.2478828125,-2.80331640625,6.04255859375,8.513796875,4.8940703125,1.431515625,12.62173828125,9.2386796875,4.3834375,2.73614453125,-4.37972265625,1.6065546875,-3.425828125,-1.0798359375,-8.69316015625
-4.0801796875,1.15345703125,2.36393359375,4.86224609375,-5.64152734375,-3.07346875,-4.4653359375,-3.35237890625,-0.427457031249997,-0.364921874999997,-0.836585937500001,-0.9948125,2.0729296875,6.970609375,-1.139078125,7.4558828125,-2.39531640625,3.96255859375,7.560796875,3.5420703125,0.512515624999999,12.60073828125,8.5536796875,4.1664375,1.34214453125,-4.01872265625,2.3595546875,-1.853828125,-0.517835937500001,-8.38516015625
-5.2271796875,0.760457031250001,1.67493359375,4.02724609375,-4.56252734375,-1.89246875,-4.3363359375,-2.90637890625,-0.15645703125,0.213078125000003,-2.0015859375,-0.8538125,1.3109296875,6.084609375,-1.259078125,4.9608828125,-1.68231640625,2.09855859375,6.489796875,1.6690703125,-0.703484375,12.46673828125,7.7566796875,3.3594375,-0.448855468750001,-3.24072265625,2.8345546875,-0.531828125000001,0.0261640624999977,-7.94516015625
-5.5921796875,0.695457031250001,1.23193359375,3.11024609375,-2.70352734375,-0.293468750000001,-3.8583359375,-1.89537890625,0.43054296875,1.315078125,-2.8555859375,-0.4808125,1.2269296875,5.752609375,-1.290078125,2.2978828125,-0.93331640625,0.595558593750001,5.612796875,-0.3049296875,-1.945484375,12.21673828125,7.0196796875,2.1274375,-2.32785546875,-2.22672265625,2.7565546875,0.306171875,0.348164062499999,-7.51216015625
-5.3921796875,0.79345703125,0.857933593749998,2.20724609375,-0.74952734375,1.07353125,-3.2683359375,-0.912378906250002,1.02154296875,2.520078125,-3.5445859375,-0.2348125,1.5839296875,5.804609375,-1.330078125,-0.0421171875000024,-0.48031640625,-0.562441406249999,5.013796875,-2.0669296875,-3.003484375,11.71473828125,6.3546796875,0.6364375,-4.04185546875,-1.33472265625,1.8665546875,0.457171875,0.127164062499999,-7.34816015625
-5.0071796875,0.84145703125,0.384933593749999,1.46924609375,0.60747265625,1.63953125,-2.8263359375,-0.437378906250002,1.25854296875,3.329078125,-4.2815859375,-0.5548125,1.9669296875,5.934609375,-1.502078125,-1.7151171875,-0.50831640625,-1.47844140625,4.583796875,-3.4529296875,-3.753484375,10.75873828125,5.6796796875,-0.9565625,-5.41185546875,-0.918722656249999,0.1075546875,-0.186828125,-0.890835937500001,-7.69516015625
-4.7781796875,0.71345703125,-0.197066406250002,1.03824609375,0.95047265625,1.17453125,-2.6453359375,-0.540378906250002,0.951542968750001,3.435078125,-5.1765859375,-1.6118125,2.0189296875,5.880609375,-1.836078125,-2.5361171875,-0.95031640625,-2.30044140625,4.147796875,-4.4099296875,-4.153484375,9.18473828125,4.9036796875,-2.4945625,-6.32585546875,-1.13772265625,-2.2644453125,-1.564828125,-2.6908359375,-8.60816015625
-4.8831796875,0.429457031250001,-0.72706640625,0.919246093750001,0.286472656250002,-0.128468750000001,-2.6133359375,-0.857378906250002,0.172542968750001,2.895078125,-6.1105859375,-3.1098125,1.6029296875,5.520609375,-2.210078125,-2.4571171875,-1.53531640625,-3.18544140625,3.576796875,-4.9179296875,-4.214484375,6.98173828125,3.9856796875,-3.8135625,-6.71985546875,-1.84972265625,-4.7234453125,-3.404828125,-4.9188359375,-9.88416015625
-5.2851796875,0.11045703125,-0.970066406250002,0.922246093750001,-1.00652734375,-1.75146875,-2.4693359375,-0.878378906250003,-0.824457031249999,2.103078125,-6.7575859375,-4.3918125,0.774929687499999,4.878609375,-2.367078125,-1.5321171875,-1.92531640625,-4.26244140625,2.826796875,-4.9529296875,-3.970484375,4.33673828125,2.9286796875,-4.7595625,-6.58685546875,-2.67372265625,-6.6634453125,-5.299828125,-7.0018359375,-11.11216015625
-5.7621796875,-0.121542968749999,-0.767066406250002,0.74724609375,-2.40552734375,-3.10046875,-1.9853359375,-0.354378906250002,-1.78045703125,1.551078125,-6.7465859375,-4.8318125,-0.3490703125,4.040609375,-2.050078125,0.0698828124999977,-1.85931640625,-5.58844140625,1.887796875,-4.5129296875,-3.458484375,1.55073828125,1.7446796875,-5.2415625,-5.98385546875,-3.17172265625,-7.6524453125,-6.879828125,-8.4088359375,-11.85816015625
-6.0741796875,-0.23454296875,-0.130066406250002,0.15724609375,-3.52452734375,-3.79246875,-1.1253359375,0.468621093749999,-2.59145703125,1.516078125,-5.8945859375,-4.2018125,-1.7140703125,3.026609375,-1.198078125,2.0568828125,-1.22331640625,-7.14444140625,0.712796874999999,-3.7039296875,-2.729484375,-1.12126171875,0.3986796875,-5.3045625,-5.04785546875,-3.06072265625,-7.6014453125,-8.003828125,-8.9178359375,-11.86616015625
-6.1381796875,-0.313542968749999,0.747933593749998,-0.888753906249999,-4.29752734375,-3.81946875,-0.0893359374999978,0.970621093749997,-3.33045703125,1.856078125,-4.3865859375,-2.7888125,-3.3120703125,1.741609375,-0.0940781250000011,4.0118828125,-0.0623164062500003,-8.85044140625,-0.807203125000001,-2.7959296875,-1.881484375,-3.59426171875,-1.2053203125,-5.1715625,-4.00185546875,-2.35572265625,-6.8124453125,-8.814828125,-8.7258359375,-11.20216015625
-6.0731796875,-0.53054296875,1.56993359375,-2.19475390625,-4.94852734375,-3.52546875,0.751664062500002,0.600621093749998,-4.14345703125,2.057078125,-2.7815859375,-1.2418125,-5.0450703125,0.0526093749999994,0.671921874999999,5.4218828125,1.42068359375,-10.59444140625,-2.807203125,-2.2229296875,-1.109484375,-5.93326171875,-3.1603203125,-5.2265625,-3.16185546875,-1.38272265625,-5.8594453125,-9.631828125,-8.3528359375,-10.25716015625
-6.0851796875,-1.05854296875,2.02393359375,-3.37975390625,-5.77052734375,-3.39946875,0.985664062500001,-0.687378906250002,-5.12145703125,1.517078125,-1.8325859375,-0.2648125,-6.6090703125,-2.057390625,0.424921874999999,5.7518828125,2.85068359375,-12.23344140625,-5.367203125,-2.4919296875,-0.706484375,-8.22026171875,-5.4653203125,-5.9125625,-2.91385546875,-0.677722656249999,-5.3964453125,-10.748828125,-8.3938359375,-9.61016015625
-6.3301796875,-1.98554296875,1.86993359375,-3.99675390625,-6.86852734375,-3.81746875,0.308664062500002,-2.33437890625,-6.22245703125,-0.0799218749999966,-2.1795859375,-0.3358125,-7.5470703125,-4.366390625,-1.299078125,4.5808828125,3.73868359375,-13.59644140625,-8.395203125,-4.0169296875,-1.003484375,-10.41326171875,-7.9413203125,-7.5425625,-3.61285546875,-0.758722656249999,-5.9224453125,-12.249828125,-9.2298359375,-9.77916015625
-6.8301796875,-3.22554296875,1.01793359375,-3.68275390625,-8.01152734375,-4.86446875,-1.3343359375,-3.54037890625,-7.24645703125,-2.504921875,-4.0485859375,-1.5318125,-7.4560703125,-6.410390625,-4.486078125,1.7868828125,3.65168359375,-14.46644140625,-11.543203125,-6.9029296875,-2.212484375,-12.28426171875,-10.2083203125,-10.0825625,-5.40585546875,-1.87372265625,-7.5964453125,-13.929828125,-10.8218359375,-10.95916015625
-7.4341796875,-4.51154296875,-0.414066406250001,-2.33875390625,-8.73452734375,-6.30246875,-3.6903359375,-3.83637890625,-7.87945703125,-5.003921875,-7.1055859375,-3.5288125,-6.2230703125,-7.601390625,-8.538078125,-2.3011171875,2.44368359375,-14.59044140625,-14.209203125,-10.7959296875,-4.273484375,-13.48426171875,-11.7453203125,-13.0545625,-8.07385546875,-3.85072265625,-10.1594453125,-15.357828125,-12.6898359375,-12.88116015625
-7.8631796875,-5.49354296875,-2.10806640625,-0.266753906249999,-8.63852734375,-7.70646875,-6.2663359375,-3.41937890625,-7.80545703125,-6.627921875,-10.5835859375,-5.7798125,-4.1380703125,-7.445390625,-12.423078125,-6.9171171875,0.36468359375,-13.75644140625,-15.717203125,-14.9069296875,-6.795484375,-13.69226171875,-12.0643203125,-15.6565625,-11.02885546875,-6.13472265625,-13.0194453125,-16.054828125,-14.1198359375,-14.89516015625
-7.8851796875,-5.91654296875,-3.66106640625,1.84224609375,-7.69652734375,-8.68746875,-8.5093359375,-3.00337890625,-6.88045703125,-6.708921875,-13.6055859375,-7.7928125,-1.8130703125,-5.787390625,-15.070078125,-11.0551171875,-2.02531640625,-11.92644140625,-15.593203125,-18.2549296875,-9.166484375,-12.80226171875,-10.9213203125,-17.0765625,-13.49985546875,-8.01272265625,-15.4724453125,-15.705828125,-14.5068359375,-16.25216015625
-7.5131796875,-5.73654296875,-4.74006640625,3.15924609375,-6.33552734375,-9.08346875,-9.9953359375,-3.26937890625,-5.25945703125,-5.200921875,-15.5375859375,-9.3328125,0.0639296874999999,-2.958390625,-15.844078125,-13.7911171875,-4.08831640625,-9.35044140625,-13.799203125,-20.0269296875,-10.786484375,-11.02826171875,-8.4773203125,-16.8455625,-14.82085546875,-8.89872265625,-16.9744453125,-14.303828125,-13.6478359375,-16.45116015625
-6.9971796875,-5.12154296875,-5.19606640625,3.12224609375,-5.21552734375,-8.98046875,-10.5443359375,-4.35337890625,-3.36045703125,-2.690921875,-16.1745859375,-10.4278125,1.0389296875,0.326609374999997,-14.792078125,-14.5651171875,-5.35931640625,-6.53244140625,-10.772203125,-19.8569296875,-11.293484375,-8.86326171875,-5.2733203125,-15.0275625,-14.67785546875,-8.55172265625,-17.3164453125,-12.151828125,-11.8478359375,-15.44416015625
-6.5881796875,-4.33254296875,-5.08706640625,1.76624609375,-4.85752734375,-8.58346875,-10.2273359375,-5.76537890625,-1.68745703125,-0.0849218749999991,-15.7015859375,-11.1708125,1.0719296875,3.272609375,-12.517078125,-13.3221171875,-5.68131640625,-4.05344140625,-7.245203125,-17.9079296875,-10.664484375,-6.89126171875,-2.0213203125,-12.1635625,-13.18985546875,-7.12772265625,-16.6334453125,-9.758828125,-9.7688359375,-13.60916015625
-6.2901796875,-3.56854296875,-4.60206640625,-0.244753906249999,-5.35352734375,-8.04346875,-9.2703359375,-6.78537890625,-0.612457031249999,1.839078125,-14.4905859375,-11.5018125,0.5129296875,5.356609375,-9.798078125,-10.4411171875,-5.18631640625,-2.34244140625,-3.929203125,-14.7159296875,-9.156484375,-5.55426171875,0.6776796875,-8.9995625,-10.78985546875,-5.06072265625,-15.2474453125,-7.646828125,-8.1128359375,-11.54116015625
-5.8411796875,-2.85654296875,-3.92906640625,-1.92275390625,-6.34452734375,-7.35646875,-7.9033359375,-6.98937890625,-0.251457031249998,2.751078125,-12.8745859375,-11.1578125,-0.1100703125,6.496609375,-7.212078125,-6.5211171875,-4.15031640625,-1.53944140625,-1.228203125,-10.8999296875,-7.125484375,-4.97126171875,2.5526796875,-6.1535625,-7.97785546875,-2.83572265625,-13.4504453125,-6.154828125,-7.3008359375,-9.77516015625
-4.8761796875,-2.06754296875,-3.14206640625,-2.43275390625,-7.21852734375,-6.38946875,-6.2533359375,-6.48337890625,-0.460457031249998,2.833078125,-11.0165859375,-9.8708125,-0.337070312500001,6.992609375,-4.966078125,-2.1571171875,-2.84631640625,-1.49044140625,0.855796874999999,-6.9319296875,-4.858484375,-4.92426171875,3.6936796875,-3.9105625,-5.12785546875,-0.78272265625,-11.3784453125,-5.314828125,-7.2988359375,-8.57916015625
-3.1461796875,-1.04754296875,-2.19606640625,-1.47975390625,-7.42952734375,-5.01346875,-4.3703359375,-5.70437890625,-0.894457031249999,2.580078125,-8.9515859375,-7.6538125,0.0539296874999993,7.279609375,-2.989078125,2.1588828125,-1.50331640625,-1.87644140625,2.567796875,-3.0949296875,-2.530484375,-5.00426171875,4.3956796875,-2.2645625,-2.46485546875,0.97727734375,-9.0674453125,-4.892828125,-7.7078359375,-7.92616015625
-0.6781796875,0.208457031250001,-1.03606640625,0.55524609375,-6.76252734375,-3.24646875,-2.3503359375,-5.04337890625,-1.14545703125,2.482078125,-6.7495859375,-4.9268125,0.9969296875,7.641609375,-1.174078125,5.9888828125,-0.34431640625,-2.38544140625,4.092796875,0.361070312500001,-0.306484375,-4.85826171875,4.9126796875,-1.1325625,-0.186855468750002,2.41927734375,-6.6464453125,-4.552828125,-8.0218359375,-7.61716015625
2.1168203125,1.48045703125,0.268933593749999,2.81224609375,-5.42952734375,-1.33346875,-0.425335937499998,-4.63737890625,-0.933457031249997,2.757078125,-4.6505859375,-2.3488125,2.1839296875,8.040609375,0.399921874999999,8.8868828125,0.39868359375,-2.86844140625,5.329796875,3.0640703125,1.551515625,-4.38126171875,5.2676796875,-0.5605625,1.41714453125,3.46427734375,-4.4634453125,-4.063828125,-7.9138359375,-7.47816015625
4.5258203125,2.41245703125,1.49393359375,4.37624609375,-3.95752734375,0.332531249999999,1.0966640625,-4.44837890625,-0.309457031249998,3.288078125,-3.0535859375,-0.4548125,3.1809296875,8.157609375,1.432921875,10.4388828125,0.577683593749999,-3.38044140625,5.902796875,4.5130703125,2.686515625,-3.74226171875,5.2376796875,-0.740562499999999,1.99414453125,3.92727734375,-3.0294453125,-3.406828125,-7.3768359375,-7.47116015625
5.8508203125,2.71045703125,2.35393359375,4.75224609375,-2.91552734375,1.41253125,1.9976640625,-4.49437890625,0.284542968750003,3.748078125,-2.3475859375,0.6461875,3.5719296875,7.625609375,1.576921875,10.4008828125,0.23368359375,-4.10344140625,5.376796875,4.2690703125,2.790515625,-3.26426171875,4.5026796875,-1.8785625,1.28714453125,3.57027734375,-2.7924453125,-2.777828125,-6.6868359375,-7.68716015625
5.7638203125,2.29445703125,2.65393359375,4.07124609375,-2.66152734375,1.79253125,2.2856640625,-4.98037890625,0.20654296875,3.804078125,-2.7065859375,1.2561875,3.0859296875,6.277609375,0.651921874999999,8.8258828125,-0.41031640625,-5.22144140625,3.535796875,2.2050703125,1.762515625,-3.24826171875,2.8536796875,-4.0065625,-0.703855468750001,2.22827734375,-3.8864453125,-2.493828125,-6.2388359375,-8.24516015625
4.4308203125,1.32945703125,2.36193359375,2.91224609375,-3.20252734375,1.62053125,2.1856640625,-6.14337890625,-0.97645703125,3.291078125,-3.9835859375,1.7901875,1.7049296875,4.272609375,-1.243078125,6.0858828125,-1.07931640625,-6.81644140625,0.566796875,-1.3429296875,-0.226484375,-3.85426171875,0.351679687499999,-6.8825625,-3.66485546875,-0.110722656249999,-6.0384453125,-2.853828125,-6.3728359375,-9.19616015625
2.3378203125,0.125457031250001,1.62093359375,1.85324609375,-4.25052734375,1.18753125,2.0116640625,-7.87637890625,-3.11445703125,2.273078125,-5.7365859375,2.4081875,-0.2920703125,2.022609375,-3.757078125,2.7868828125,-1.59431640625,-8.81844140625,-2.945203125,-5.5989296875,-2.796484375,-5.06826171875,-2.6313203125,-10.0125625,-7.04985546875,-3.26972265625,-8.6384453125,-4.006828125,-7.2248359375,-10.46516015625
0.036820312499998,-1.00154296875,0.703933593749998,1.09524609375,-5.38652734375,0.780531249999999,1.9996640625,-9.46637890625,-5.46545703125,1.014078125,-7.3735859375,2.8731875,-2.3540703125,0.0296093749999962,-6.390078125,-0.390117187500001,-1.92231640625,-10.99044140625,-6.190203125,-9.5439296875,-5.467484375,-6.72126171875,-5.5143203125,-12.7735625,-10.23485546875,-6.90572265625,-10.9614453125,-5.861828125,-8.6628359375,-11.84916015625
-2.0111796875,-1.84054296875,-0.0670664062499995,0.383246093750001,-6.26952734375,0.58453125,2.1956640625,-9.82337890625,-7.10545703125,-0.142921874999999,-8.3395859375,2.7011875,-3.7860703125,-1.304390625,-8.589078125,-2.8481171875,-2.11231640625,-12.96444140625,-8.407203125,-12.2059296875,-7.766484375,-8.53426171875,-7.6843203125,-14.5835625,-12.65385546875,-10.54272265625,-12.3994453125,-8.081828125,-10.3058359375,-13.06216015625
-3.5191796875,-2.33454296875,-0.447066406250002,-0.769753906249999,-6.78952734375,0.633531249999999,2.4456640625,-8.19437890625,-7.48545703125,-0.913921874999996,-8.3035859375,1.4881875,-3.9950703125,-1.815390625,-9.854078125,-4.1821171875,-2.18831640625,-14.33444140625,-9.137203125,-12.9469296875,-9.299484375,-10.18826171875,-8.6893203125,-15.0505625,-13.88785546875,-13.62772265625,-12.6414453125,-10.174828125,-11.6458359375,-13.79916015625
-4.4431796875,-2.55254296875,-0.383066406250002,-2.71875390625,-7.09352734375,0.813531249999999,2.4916640625,-4.86637890625,-6.74645703125,-1.189921875,-7.2785859375,-0.7918125,-2.7940703125,-1.632390625,-9.867078125,-4.2481171875,-2.11631640625,-14.81144140625,-8.350203125,-11.6319296875,-9.812484375,-11.40626171875,-8.3793203125,-14.0655625,-13.70285546875,-15.63072265625,-11.7164453125,-11.623828125,-12.2268359375,-13.82316015625
-4.9531796875,-2.62254296875,-0.0230664062500026,-5.38675390625,-7.48152734375,0.91053125,2.1236640625,-1.20937890625,-5.59845703125,-1.053921875,-5.6295859375,-3.6538125,-0.589070312500001,-1.082390625,-8.602078125,-3.1901171875,-1.86031640625,-14.32044140625,-6.413203125,-8.6459296875,-9.243484375,-12.00626171875,-6.9273203125,-11.8325625,-12.10485546875,-16.17272265625,-9.9324453125,-12.017828125,-11.8138359375,-13.04616015625
-5.2731796875,-2.66754296875,0.39493359375,-8.20275390625,-8.20352734375,0.71853125,1.3136640625,1.03362109375,-4.87445703125,-0.710921874999997,-3.9585859375,-6.2608125,1.7209296875,-0.511390625000001,-6.362078125,-1.4351171875,-1.47131640625,-13.00344140625,-3.955203125,-4.7659296875,-7.756484375,-11.90126171875,-4.7353203125,-8.8265625,-9.38785546875,-15.15172265625,-7.7254453125,-11.155828125,-10.4628359375,-11.55416015625
-5.5161796875,-2.77754296875,0.67693359375,-10.36575390625,-9.29252734375,0.133531249999999,0.222664062500002,0.713621093749998,-5.07245703125,-0.391921874999998,-2.8895859375,-7.8088125,3.1539296875,-0.127390625000004,-3.740078125,0.366882812499998,-1.10731640625,-11.16244140625,-1.667203125,-0.944929687499999,-5.727484375,-11.06126171875,-2.2843203125,-5.6785625,-6.12585546875,-12.78672265625,-5.4914453125,-9.100828125,-8.4758359375,-9.56416015625
-5.6701796875,-3.00554296875,0.74393359375,-11.29775390625,-10.51752734375,-0.81046875,-0.885335937499999,-2.18237890625,-6.14845703125,-0.287921874999999,-2.8455859375,-7.9478125,3.1509296875,0.021609374999997,-1.489078125,1.5118828125,-0.93931640625,-9.18544140625,-0.119203125,1.9270703125,-3.664484375,-9.47826171875,0.00867968749999903,-2.9935625,-3.04385546875,-9.54572265625,-3.4734453125,-6.144828125,-6.2438359375,-7.32316015625
-5.6761796875,-3.36754296875,0.61593359375,-10.94675390625,-11.48452734375,-1.96446875,-1.7773359375,-6.62237890625,-7.59945703125,-0.523921874999996,-3.8855859375,-6.9728125,1.8629296875,-0.0133906250000031,-0.301078125,1.4878828125,-1.02031640625,-7.46844140625,0.379796875,3.2520703125,-2.050484375,-7.18626171875,1.8696796875,-1.1755625,-0.794855468750001,-6.00372265625,-1.7244453125,-2.712828125,-4.0958359375,-5.01716015625
-5.4721796875,-3.82854296875,0.380933593750001,-9.71475390625,-11.81352734375,-3.10546875,-2.3263359375,-11.03737890625,-8.72345703125,-1.120921875,-5.6815859375,-5.6638125,0.0589296875,-0.138390625000003,-0.543078125000001,0.176882812499999,-1.22231640625,-6.32044140625,-0.161203125,2.8720703125,-1.188484375,-4.32226171875,3.1966796875,-0.3225625,0.252144531249998,-2.70672265625,-0.1674453125,0.750171874999999,-2.2118359375,-2.74716015625
-5.0111796875,-4.30054296875,0.163933593749999,-8.12375390625,-11.32452734375,-4.01346875,-2.5413359375,-13.91637890625,-8.92045703125,-1.991921875,-7.6645859375,-4.8828125,-1.2950703125,-0.252390625000004,-2.098078125,-2.1011171875,-1.31531640625,-5.88244140625,-1.457203125,1.0740703125,-1.122484375,-1.21526171875,4.0226796875,-0.2585625,0.104144531249998,-0.0867226562500001,1.2655546875,3.819171875,-0.668835937500001,-0.598160156250001
-4.3191796875,-4.67354296875,0.0949335937499995,-6.51975390625,-10.12952734375,-4.56346875,-2.5413359375,-14.29537890625,-7.95345703125,-2.940921875,-9.2695859375,-5.1378125,-1.5220703125,-0.269390625000003,-4.420078125,-4.7451171875,-1.11531640625,-6.10544140625,-3.073203125,-1.5519296875,-1.689484375,1.59973828125,4.4396796875,-0.6725625,-0.918855468750001,1.56427734375,2.5135546875,6.083171875,0.444164062499999,1.26883984375
-3.5351796875,-4.84254296875,0.290933593749997,-5.02475390625,-8.57452734375,-4.77146875,-2.4663359375,-12.02737890625,-6.06145703125,-3.703921875,-10.1405859375,-6.3318125,-0.5140703125,-0.117390625000002,-6.746078125,-7.0961171875,-0.57631640625,-6.76944140625,-4.556203125,-4.3299296875,-2.627484375,3.49873828125,4.5346796875,-1.2705625,-2.34885546875,2.12027734375,3.3595546875,7.171171875,0.968164062499998,2.58183984375
-2.7691796875,-4.71354296875,0.852933593749999,-3.64475390625,-7.03752734375,-4.70146875,-2.3633359375,-7.76637890625,-3.87145703125,-3.976921875,-10.1735859375,-7.7938125,1.3149296875,0.291609374999997,-8.326078125,-8.6291171875,0.23768359375,-7.53344140625,-5.536203125,-6.6619296875,-3.643484375,4.02473828125,4.3646796875,-1.8535625,-3.72785546875,1.63827734375,3.5465546875,6.860171875,0.723164062499999,3.04983984375
-1.9071796875,-4.20754296875,1.84693359375,-2.39775390625,-5.71652734375,-4.35046875,-2.1403359375,-2.68537890625,-2.10845703125,-3.487921875,-9.4365859375,-8.6078125,3.2979296875,1.071609375,-8.592078125,-9.0291171875,1.24668359375,-8.02944140625,-5.782203125,-8.1209296875,-4.440484375,3.12273828125,3.9806796875,-2.3055625,-4.71185546875,0.36127734375,2.9565546875,5.181171875,-0.373835937500001,2.51483984375
-0.626179687500001,-3.29954296875,3.21393359375,-1.37075390625,-4.57852734375,-3.63346875,-1.6393359375,1.94362109375,-1.26645703125,-2.112921875,-8.0925859375,-8.0818125,4.8159296875,2.314609375,-7.317078125,-8.2191171875,2.40468359375,-7.99044140625,-5.231203125,-8.4799296875,-4.753484375,1.19573828125,3.4576796875,-2.5425625,-5.09985546875,-1.34372265625,1.7295546875,2.447171875,-2.2198359375,1.06383984375
1.3388203125,-2.06554296875,4.70493359375,-0.69775390625,-3.46852734375,-2.51546875,-0.806335937499998,5.12962109375,-1.37945703125,0.0180781250000024,-6.3865859375,-6.1128125,5.4979296875,4.005609375,-4.708078125,-6.3431171875,3.68268359375,-7.35744140625,-3.977203125,-7.7179296875,-4.425484375,-1.06226171875,2.9026796875,-2.4715625,-4.82085546875,-3.11072265625,0.257554687500001,-0.818828125,-4.5258359375,-0.97016015625
3.9328203125,-0.68454296875,5.93793359375,-0.436753906249999,-2.28452734375,-1.15046875,0.194664062500001,6.37862109375,-1.99645703125,2.512078125,-4.6395859375,-3.2498125,5.2999296875,6.002609375,-1.360078125,-3.7441171875,5.02168359375,-6.28244140625,-2.235203125,-6.0089296875,-3.478484375,-2.93526171875,2.4576796875,-2.0025625,-3.92085546875,-4.68772265625,-0.951445312499999,-3.995828125,-6.8668359375,-3.10216015625
6.7918203125,0.60845703125,6.55993359375,-0.417753906249999,-1.08452734375,0.115531249999998,1.0086640625,5.71962109375,-2.40345703125,4.833078125,-3.2205859375,-0.4188125,4.4659296875,8.096609375,1.952921875,-0.898117187500002,6.29868359375,-5.01844140625,-0.273203125,-3.6759296875,-2.103484375,-3.92626171875,2.2866796875,-1.0835625,-2.52885546875,-5.97172265625,-1.4514453125,-6.463828125,-8.7518359375,-4.82716015625
9.4208203125,1.60545703125,6.40193359375,-0.212753906249999,-0.077527343749999,0.860531249999999,1.2566640625,3.57362109375,-2.00145703125,6.480078125,-2.4505859375,1.5021875,3.3959296875,10.058609375,4.542921875,1.7068828125,7.33968359375,-3.78544140625,1.645796875,-1.1129296875,-0.590484375000001,-3.86326171875,2.5516796875,0.2474375,-0.820855468750001,-6.94172265625,-1.0044453125,-7.716828125,-9.7258359375,-5.74916015625
11.3688203125,2.18245703125,5.53593359375,0.637246093750001,0.46847265625,0.759531249999998,0.731664062500002,0.552621093749998,-0.661457031249999,7.146078125,-2.4995859375,2.0541875,2.4879296875,11.645609375,6.001921875,3.7118828125,7.98468359375,-2.70644140625,3.317796875,1.3320703125,0.799515625,-2.88026171875,3.3436796875,1.8604375,1.03314453125,-7.53972265625,0.356554687500001,-7.499828125,-9.4878359375,-5.68016015625
12.3348203125,2.31845703125,4.23493359375,2.26324609375,0.361472656250001,-0.267468750000001,-0.467335937499998,-2.70437890625,1.17454296875,6.808078125,-3.2915859375,1.3621875,2.0169296875,12.596609375,6.310921875,5.0108828125,8.14068359375,-1.80444140625,4.611796875,3.4650703125,1.932515625,-1.29826171875,4.6376796875,3.5764375,2.92814453125,-7.59372265625,2.3785546875,-5.900828125,-7.9868359375,-4.66316015625
12.2458203125,2.08845703125,2.86793359375,4.25824609375,-0.40952734375,-1.97546875,-1.9433359375,-5.66437890625,2.68654296875,5.739078125,-4.4775859375,0.0191875000000001,2.0679296875,12.709609375,5.838921875,5.7578828125,7.82868359375,-1.03644140625,5.484796875,5.2970703125,2.841515625,0.52873828125,6.2956796875,5.2404375,4.85614453125,-6.84472265625,4.7225546875,-3.322828125,-5.4208359375,-2.89716015625
11.2608203125,1.61545703125,1.76193359375,5.78824609375,-1.67652734375,-3.87146875,-3.1823359375,-8.03137890625,3.05854296875,4.413078125,-5.5615859375,-1.2408125,2.5269296875,11.945609375,5.186921875,6.2398828125,7.19068359375,-0.350441406249999,5.964796875,6.9640703125,3.667515625,2.32573828125,8.1226796875,6.7724375,6.88114453125,-5.07972265625,7.1005546875,-0.316828125000001,-2.1518359375,-0.630160156250001
9.6388203125,1.01045703125,1.05193359375,5.96724609375,-3.19152734375,-5.46046875,-3.8233359375,-9.78437890625,1.83054296875,3.332078125,-6.1455859375,-1.9308125,3.1339296875,10.487609375,4.866921875,6.6488828125,6.47168359375,0.24355859375,6.115796875,8.5470703125,4.538515625,3.92873828125,9.9156796875,8.1464375,9.04614453125,-2.28872265625,9.3395546875,2.634171875,1.4021640625,1.92583984375
7.5798203125,0.308457031250001,0.608933593749999,4.28224609375,-4.76552734375,-6.50746875,-3.8613359375,-11.03837890625,-0.91245703125,2.806078125,-6.1765859375,-2.0408125,3.6129296875,8.694609375,4.987921875,6.9058828125,5.94168359375,0.632558593750002,5.978796875,9.9100703125,5.438515625,5.24373828125,11.4836796875,9.3144375,11.24914453125,1.24027734375,11.3285546875,5.272171875,4.8431640625,4.59583984375
5.1998203125,-0.535542968750001,0.122933593749998,0.852246093750001,-6.33652734375,-7.13546875,-3.6483359375,-11.76537890625,-4.57545703125,2.847078125,-5.9925859375,-1.9748125,3.7949296875,7.001609375,5.191921875,6.6618828125,5.78368359375,0.640558593750001,5.527796875,10.6740703125,6.181515625,6.21473828125,12.6376796875,10.1384375,13.18414453125,4.94227734375,12.9335546875,7.548171875,7.8211640625,7.19383984375
2.6438203125,-1.56954296875,-0.674066406250002,-3.56675390625,-7.88952734375,-7.65846875,-3.6593359375,-11.68937890625,-8.26245703125,3.225078125,-6.0915859375,-2.2538125,3.6819296875,5.806609375,4.904921875,5.5098828125,5.98768359375,0.146558593750001,4.692796875,10.3990703125,6.502515625,6.81373828125,13.2246796875,10.4334375,14.43714453125,8.14027734375,13.9795546875,9.507171875,10.0591640625,9.49983984375
0.207820312500001,-2.71754296875,-1.78006640625,-7.78975390625,-9.28652734375,-8.28146875,-4.1473359375,-10.51837890625,-11.07445703125,3.689078125,-6.7535859375,-3.1338125,3.4059296875,5.388609375,3.764921875,3.3038828125,6.35168359375,-0.77244140625,3.476796875,8.8850703125,6.224515625,7.08573828125,13.2126796875,10.1004375,14.71414453125,10.27927734375,14.3335546875,11.161171875,11.4001640625,11.29283984375
-1.6421796875,-3.67754296875,-2.84006640625,-10.55175390625,-10.14252734375,-8.88946875,-4.9163359375,-8.33037890625,-12.34445703125,4.178078125,-7.7825859375,-4.3968125,3.1759296875,5.870609375,1.941921875,0.381882812499999,6.61368359375,-1.77644140625,2.076796875,6.3980703125,5.398515625,7.18673828125,12.7626796875,9.2714375,14.05014453125,11.11527734375,14.0165546875,12.475171875,11.8641640625,12.42483984375
-2.3501796875,-3.98854296875,-3.29606640625,-10.92575390625,-9.90552734375,-9.06246875,-5.4043359375,-5.70237890625,-11.75745703125,4.858078125,-8.5645859375,-5.4698125,3.2449296875,7.208609375,0.113921874999999,-2.5051171875,6.64568359375,-2.34444140625,0.858796874999999,3.6390703125,4.308515625,7.37173828125,12.1986796875,8.2844375,12.81514453125,10.76827734375,13.2245546875,13.419171875,11.6361640625,12.86283984375
-1.4711796875,-3.28154296875,-2.72906640625,-8.69775390625,-8.14852734375,-8.33746875,-5.0393359375,-3.41137890625,-9.39045703125,5.944078125,-8.4345859375,-5.7828125,3.8689296875,9.190609375,-0.888078125000001,-4.5291171875,6.53368359375,-2.01244140625,0.172796875,1.4330703125,3.338515625,7.89673828125,11.8496796875,7.4934375,11.48714453125,9.59227734375,12.2125546875,13.972171875,10.9811640625,12.65983984375
1.0488203125,-1.54154296875,-1.17306640625,-4.50675390625,-4.91552734375,-6.53846875,-3.6253359375,-1.94337890625,-5.73045703125,7.437078125,-7.1005859375,-5.1208125,5.1939296875,11.419609375,-0.578078125000001,-5.1751171875,6.47868359375,-0.645441406249999,0.145796875,0.335070312500001,2.762515625,8.86873828125,11.8736796875,7.0464375,10.37114453125,7.96627734375,11.1345546875,14.078171875,10.1061640625,11.88383984375
4.6708203125,0.798457031250001,0.809933593749999,0.37624609375,-0.859527343749999,-3.95346875,-1.4863359375,-1.20437890625,-1.64945703125,9.009078125,-4.8275859375,-3.7078125,7.1059296875,13.360609375,0.887921875,-4.4621171875,6.59968359375,1.44155859375,0.612796874999999,0.3970703125,2.608515625,10.16273828125,12.1546796875,6.8224375,9.47114453125,6.14627734375,9.9625546875,13.610171875,9.0901640625,10.57183984375
8.3798203125,3.03345703125,2.40593359375,4.57324609375,2.95547265625,-1.22446875,0.720664062500003,-0.672378906250001,1.78054296875,10.134078125,-2.2845859375,-1.9998125,9.1839296875,14.497609375,2.817921875,-2.8501171875,6.81068359375,3.60555859375,1.222796875,1.2400703125,2.683515625,11.45473828125,12.3686796875,6.5504375,8.59314453125,4.23727734375,8.5555546875,12.420171875,7.8901640625,8.75483984375
11.1288203125,4.52945703125,2.98393359375,7.15624609375,5.50147265625,0.96853125,2.3736640625,0.130621093749998,3.66454296875,10.381078125,-0.169585937500003,-0.3668125,10.8559296875,14.559609375,4.403921875,-0.963117187500002,6.87368359375,5.16455859375,1.640796875,2.3250703125,2.733515625,12.39473828125,12.1606796875,6.0164375,7.58014453125,2.28827734375,6.8035546875,10.472171875,6.4571640625,6.51883984375
12.3158203125,5.04845703125,2.44193359375,7.95924609375,6.23947265625,2.23853125,3.1936640625,1.20562109375,3.67654296875,9.679078125,1.1284140625,1.0961875,11.7149296875,13.694609375,5.173921875,0.745882812499998,6.61668359375,5.70755859375,1.738796875,3.2740703125,2.655515625,12.81673828125,11.3586796875,5.2324375,6.50914453125,0.415277343750001,4.7845546875,7.981171875,4.8641640625,4.07883984375
11.9888203125,4.85545703125,1.26193359375,7.52224609375,5.34947265625,2.63853125,3.3506640625,2.02562109375,2.24154296875,8.387078125,1.6704140625,2.5311875,11.7899296875,12.452609375,5.199921875,2.1898828125,6.12068359375,5.25455859375,1.661796875,4.0330703125,2.609515625,12.87273828125,10.1066796875,4.4674375,5.71714453125,-1.13372265625,2.8195546875,5.445171875,3.3771640625,1.80083984375
10.7368203125,4.56545703125,0.25793359375,6.73524609375,3.61347265625,2.57853125,3.3096640625,1.93362109375,0.333542968750002,7.144078125,1.8474140625,4.1031875,11.5269296875,11.556609375,4.975921875,3.6078828125,5.73368359375,4.21855859375,1.738796875,4.8280703125,2.946515625,12.97073828125,8.8256796875,4.1094375,5.62814453125,-2.03372265625,1.3585546875,3.491171875,2.3691640625,0.11783984375
9.3818203125,4.76445703125,0.142933593749998,6.35724609375,2.02247265625,2.58853125,3.5316640625,0.706621093749998,-1.01245703125,6.568078125,2.0924140625,5.7931875,11.4639296875,11.549609375,5.068921875,5.3048828125,5.86468359375,3.18955859375,2.265796875,5.9310703125,3.965515625,13.52173828125,7.9866796875,4.4194375,6.44714453125,-2.05172265625,0.753554687500001,2.571171875,2.1111640625,-0.650160156250001
8.5858203125,5.65645703125,1.15093359375,6.65524609375,1.27947265625,3.01653125,4.1836640625,-1.17737890625,-1.25245703125,6.959078125,2.5934140625,7.3261875,11.8349296875,12.500609375,5.730921875,7.3358828125,6.70668359375,2.65055859375,3.275796875,7.3870703125,5.661515625,14.65273828125,7.8466796875,5.3314375,7.94014453125,-1.22272265625,1.0425546875,2.709171875,2.5561640625,-0.485160156250001
8.5348203125,6.92645703125,2.89893359375,7.33324609375,1.48047265625,3.81653125,5.0406640625,-2.77637890625,-0.59845703125,8.140078125,3.1704140625,8.2741875,12.4189296875,13.931609375,6.682921875,9.3448828125,8.07768359375,2.75355859375,4.475796875,8.8820703125,7.626515625,16.08373828125,8.3076796875,6.4474375,9.46114453125,0.0962773437500015,1.9065546875,3.496171875,3.3071640625,0.26783984375
8.8778203125,7.92945703125,4.58293359375,7.76324609375,2.13247265625,4.54653125,5.6126640625,-3.26237890625,0.17754296875,9.532078125,3.3864140625,8.2501875,12.7449296875,15.053609375,7.218921875,10.6828828125,9.48968359375,3.31055859375,5.377796875,9.8470703125,9.190515625,17.27273828125,8.9956796875,7.2164375,10.23814453125,1.33527734375,2.8345546875,4.342171875,3.8111640625,1.04583984375
9.0288203125,8.05745703125,5.39093359375,7.35824609375,2.51047265625,4.63253125,5.4506640625,-2.45437890625,0.272542968750003,10.425078125,2.8134140625,7.0911875,12.5049296875,15.204609375,6.603921875,10.7208828125,10.38868359375,3.97955859375,5.548796875,9.7340703125,9.726515625,17.75073828125,9.5106796875,7.2104375,9.74714453125,1.95227734375,3.3885546875,4.838171875,3.6741640625,1.33583984375
8.6108203125,7.08445703125,4.89893359375,5.89824609375,2.11847265625,3.73253125,4.4096640625,-0.959378906250002,-0.629457031249999,10.298078125,1.3104140625,4.9661875,11.8229296875,14.216609375,4.518921875,9.1858828125,10.44368359375,4.49555859375,4.824796875,8.3100703125,8.956515625,17.41473828125,9.6526796875,6.3144375,7.96614453125,1.66627734375,3.4175546875,4.955171875,2.8841640625,0.91383984375
7.7128203125,5.29245703125,3.23693359375,3.66324609375,0.986472656250001,1.98653125,2.7556640625,0.197621093749998,-2.20545703125,9.048078125,-0.848585937500001,2.3511875,11.2169296875,12.491609375,1.283921875,6.3338828125,9.71668359375,4.78255859375,3.389796875,5.8090703125,7.100515625,16.55973828125,9.4966796875,4.7764375,5.39314453125,0.593277343750001,3.0985546875,4.985171875,1.8251640625,-0.0351601562500004
6.7978203125,3.32745703125,0.98193359375,1.34724609375,-0.367527343749998,-0.0154687500000001,1.0476640625,0.231621093749999,-3.73145703125,7.024078125,-3.0645859375,-0.1138125,11.2729296875,10.765609375,-2.252078125,2.8828828125,8.62068359375,4.90455859375,1.700796875,2.8770703125,4.794515625,15.66873828125,9.2866796875,3.0794375,2.83714453125,-0.79572265625,2.8205546875,5.287171875,1.0801640625,-0.977160156250001
6.4348203125,1.89345703125,-1.11206640625,-0.211753906249999,-1.24552734375,-1.49946875,-0.120335937499998,-0.884378906250001,-4.50845703125,4.882078125,-4.6515859375,-1.8318125,12.2899296875,9.747609375,-5.056078125,-0.248117187500002,7.69968359375,4.95755859375,0.318796874999999,0.339070312500001,2.826515625,15.13073828125,9.2676796875,1.7434375,1.10214453125,-1.87172265625,2.9685546875,6.044171875,1.1401640625,-1.26216015625
7.0028203125,1.45645703125,-2.42806640625,-0.39975390625,-1.15652734375,-1.86046875,-0.360335937499999,-2.44537890625,-4.21845703125,3.315078125,-5.1015859375,-2.4138125,14.0949296875,9.831609375,-6.314078125,-2.2741171875,7.34968359375,4.99955859375,-0.297203125000001,-1.1099296875,1.804515625,15.08273828125,9.5576796875,1.1244375,0.676144531249999,-2.14972265625,3.7255546875,7.151171875,2.1671640625,-0.465160156250001
8.4428203125,2.08645703125,-2.69806640625,0.858246093750001,-0.0665273437499998,-0.947468750000001,0.395664062500002,-3.62537890625,-3.08645703125,2.768078125,-4.2705859375,-1.7298125,16.1379296875,10.974609375,-5.745078125,-2.8031171875,7.64868359375,5.04455859375,0.0777968749999989,-1.1589296875,1.897515625,15.41773828125,10.0986796875,1.3094375,1.55914453125,-1.53472265625,4.9625546875,8.253171875,3.8511640625,1.30183984375
10.1568203125,3.52145703125,-2.03906640625,3.06424609375,1.61247265625,0.867531249999999,1.9536640625,-4.20537890625,-1.77645703125,3.279078125,-2.3825859375,0.1291875,17.7709296875,12.752609375,-3.721078125,-1.9071171875,8.36968359375,5.06355859375,1.396796875,0.0370703125000009,2.783515625,15.89273828125,10.6616796875,2.1284375,3.30714453125,-0.39172265625,6.2575546875,8.864171875,5.4601640625,3.30583984375
11.2018203125,5.37045703125,-0.811066406249999,5.44724609375,3.25847265625,2.89053125,4.0166640625,-4.80137890625,-1.07445703125,4.531078125,0.113414062499999,2.9311875,18.5419296875,14.573609375,-1.073078125,0.00588281249999767,9.14968359375,5.01155859375,3.408796875,1.9870703125,3.835515625,16.25173828125,10.9176796875,3.2584375,5.24814453125,0.633277343750001,7.0565546875,8.526171875,6.0741640625,4.45983984375
10.7728203125,7.31945703125,0.611933593749999,7.39424609375,4.36847265625,4.46353125,6.3256640625,-6.39037890625,-1.51145703125,6.077078125,2.7754140625,6.3831875,18.3399296875,15.960609375,1.333921875,2.4288828125,9.69068359375,4.85255859375,5.792796875,4.1280703125,4.458515625,16.32573828125,10.5766796875,4.3724375,6.79414453125,0.947277343750001,6.9175546875,6.971171875,4.9891640625,3.85183984375
8.6808203125,9.21245703125,1.99693359375,8.71524609375,4.77447265625,5.30053125,8.7256640625,-9.50737890625,-3.12145703125,7.585078125,5.3384140625,10.2101875,17.3579296875,16.752609375,3.040921875,4.9798828125,9.89068359375,4.58155859375,8.290796875,6.0980703125,4.387515625,16.08373828125,9.5616796875,5.2834375,7.69814453125,0.33327734375,5.7485546875,4.263171875,2.1011640625,1.26483984375
5.4908203125,11.02745703125,3.28093359375,9.60624609375,4.68447265625,5.58353125,11.1396640625,-13.77437890625,-5.47245703125,8.953078125,7.7634140625,14.1941875,15.9629296875,17.127609375,4.167921875,7.4878828125,9.83868359375,4.23255859375,10.776796875,7.8430703125,3.794515625,15.63073828125,8.0926796875,6.0054375,8.12714453125,-0.935722656249999,3.8995546875,0.846171875,-1.9498359375,-2.63316015625
5.4908203125,11.02745703125,3.28093359375,9.60624609375,4.68447265625,5.58353125,11.1396640625,-13.77437890625,-5.47245703125,8.953078125,7.7634140625,14.1941875,15.9629296875,17.127609375,4.167921875,7.4878828125,9.83868359375,4.23255859375,10.776796875,7.8430703125,3.794515625,15.63073828125,8.0926796875,6.0054375,8.12714453125,-0.935722656249999,3.8995546875,0.846171875,-1.9498359375,-2.63316015625
