"Fp1","Fpz","Fp2","F7","F3","Fz","F4","F8","FC5","FC1","FC2","FC6","T7","C3","Cz","C4","T8","CP5","CP1","CP2","CP6","P7","P3","Pz","P4","P8","POz","O1","Oz","O2"
-10.24272265625,-12.39293359375,-15.57245703125,-9.40133203125,-5.08817578125,-9.0733984375,-18.3559453125,-18.8218515625,-11.16769921875,-8.86691796875,-12.4441640625,-24.76446484375,-8.47146484375,-6.3684609375,-12.4379453125,-18.8958671875,-20.74892578125,-10.871625,-6.80883203125,-9.754140625,-15.089078125,-10.7199765625,-9.50610546875,-2.00816015625,-0.625121093749998,-14.251765625,-14.29529296875,-12.05848046875,-7.68384375,-4.1136875
1.28927734375,1.18306640625,-2.93245703125,-3.15133203125,1.23882421875,-2.6623984375,-5.3329453125,-9.7698515625,-6.14269921875,0.82408203125,-1.0511640625,-10.41546484375,2.24653515625,3.1715390625,-2.3149453125,-4.7628671875,-12.41692578125,-1.200625,-0.27283203125,0.518859375,-4.191078125,-2.6729765625,0.12289453125,6.38083984375,8.66087890625,-5.743765625,-7.08229296875,-6.30948046875,-3.19084375,-1.2456875
7.50427734375,8.28106640625,4.25054296875,-0.0623320312500004,3.98782421875,0.8326015625,2.6300546875,-4.8218515625,-3.12569921875,5.62708203125,5.2578359375,-1.08446484375,7.44753515625,7.8075390625,3.0280546875,3.6591328125,-6.46192578125,3.812375,2.95116796875,6.094859375,2.547921875,2.5540234375,5.11789453125,10.46783984375,13.87287890625,-0.105765625,-3.23229296875,-3.08948046875,-0.39784375,1.0373125
8.87227734375,9.32806640625,6.25454296875,0.32566796875,3.39782421875,1.5016015625,5.4430546875,-3.7358515625,-1.98869921875,5.81008203125,6.5098359375,3.10653515625,7.34553515625,7.8095390625,3.7290546875,6.4141328125,-2.58092578125,4.537375,3.11516796875,7.157859375,5.340921875,5.3840234375,5.87689453125,10.64783984375,15.27587890625,2.862234375,-2.27029296875,-1.52948046875,1.30015625,3.2103125
7.32027734375,6.58206640625,4.85354296875,-0.55233203125,0.79482421875,0.2606015625,4.3730546875,-5.0008515625,-2.06769921875,3.06208203125,4.1908359375,3.29453515625,3.83953515625,4.8445390625,1.3280546875,5.0881328125,-0.0499257812500002,2.679375,1.44416796875,5.221859375,5.463921875,6.9340234375,4.12289453125,8.55483984375,14.22987890625,3.961234375,-2.81429296875,-0.0754804687499999,2.82815625,5.6013125
4.92927734375,2.66606640625,2.10754296875,-1.23433203125,-2.20717578125,-1.7253984375,1.1850546875,-6.7928515625,-2.62669921875,-0.55591796875,0.3258359375,1.00453515625,-0.56146484375,0.9265390625,-2.1579453125,1.7531328125,1.56307421875,0.161375,-0.62883203125,2.156859375,4.311921875,8.1570234375,1.76789453125,6.00283984375,12.25387890625,3.873234375,-3.56429296875,2.29251953125,4.58615625,7.8783125
3.06127734375,-0.50893359375,-0.47745703125,-0.98833203125,-4.33817578125,-3.4773984375,-2.4649453125,-7.7848515625,-3.11669921875,-3.38291796875,-3.2641640625,-2.41746484375,-3.70946484375,-2.3154609375,-4.9749453125,-1.8108671875,2.24707421875,-1.627625,-2.01583203125,-0.529140625,2.824921875,9.4220234375,0.14989453125,4.23983984375,10.43087890625,2.903234375,-3.85229296875,5.43551953125,6.19615625,9.2163125
2.15127734375,-2.09993359375,-2.19645703125,-0.0203320312499997,-4.93117578125,-4.3763984375,-5.2919453125,-7.5198515625,-3.22069921875,-4.45591796875,-5.3401640625,-5.94946484375,-4.38046484375,-3.8934609375,-5.9959453125,-4.4228671875,1.86307421875,-2.041625,-2.16683203125,-1.966140625,1.393921875,10.6490234375,-0.14810546875,3.76183984375,9.27687890625,1.169234375,-3.60529296875,8.33351953125,6.89815625,8.9363125
1.87427734375,-2.25993359375,-3.05745703125,0.82266796875,-3.97317578125,-4.2153984375,-6.5489453125,-6.3608515625,-2.87769921875,-3.59291796875,-5.4181640625,-8.92646484375,-2.50046484375,-3.5204609375,-4.8829453125,-5.6058671875,0.45507421875,-1.081625,-1.05783203125,-1.963140625,-0.0120781249999998,11.6220234375,0.85289453125,4.45383984375,8.81887890625,-1.167765625,-3.04729296875,9.87851953125,6.14015625,6.9753125
1.48527734375,-1.80193359375,-3.52245703125,0.64466796875,-2.01117578125,-3.1843984375,-6.1389453125,-5.1128515625,-2.30169921875,-1.31891796875,-3.7761640625,-11.05746484375,0.97753515625,-1.5864609375,-2.0779453125,-5.5638671875,-1.66992578125,0.787375,0.92716796875,-0.893140625,-1.652078125,12.2150234375,2.76089453125,5.86083984375,8.75587890625,-3.821765625,-2.41629296875,9.65051953125,3.97615625,3.8943125
0.34227734375,-1.61793359375,-4.06545703125,-0.87233203125,0.14482421875,-1.6943984375,-4.4999453125,-4.4628515625,-1.84969921875,1.45608203125,-1.1761640625,-12.30646484375,4.62953515625,1.1005390625,1.5010546875,-4.8678671875,-3.95992578125,2.956375,3.26316796875,0.644859375,-3.689078125,12.5110234375,5.13489453125,7.56083984375,8.76587890625,-6.324765625,-1.73929296875,8.24951953125,1.14815625,0.664312499999999
-1.60072265625,-2.08393359375,-4.75545703125,-3.17533203125,1.81482421875,-0.1223984375,-2.2539453125,-4.5598515625,-1.76569921875,3.91508203125,1.5938359375,-12.65146484375,7.27853515625,3.7505390625,4.9470546875,-3.9918671875,-5.72092578125,5.017375,5.58916796875,2.257859375,-5.871078125,12.7900234375,7.74289453125,9.45883984375,8.83887890625,-8.020765625,-0.74529296875,6.97651953125,-1.16484375,-1.5916875
-3.74172265625,-2.91893359375,-5.23545703125,-5.13833203125,2.66982421875,1.3266015625,0.0430546875000002,-5.0748515625,-2.02169921875,5.62008203125,4.0078359375,-12.00946484375,8.41453515625,5.8785390625,7.6840546875,-3.0758671875,-6.41292578125,6.853375,7.80416796875,3.901859375,-7.560078125,13.2910234375,10.51889453125,11.72883984375,9.28987890625,-8.278765625,0.92070703125,6.97651953125,-1.92384375,-1.9606875
-5.28872265625,-3.56393359375,-5.10845703125,-5.80133203125,2.66582421875,2.5256015625,1.9450546875,-5.6268515625,-2.40469921875,6.44408203125,5.7848359375,-10.37346484375,8.07353515625,7.2725390625,9.4650546875,-2.0758671875,-6.02192578125,8.429375,9.88716796875,5.657859375,-8.121078125,13.9060234375,13.26589453125,14.44283984375,10.43587890625,-6.871765625,3.29870703125,8.42051953125,-0.81984375,-0.1406875
-5.76172265625,-3.64393359375,-4.30345703125,-4.96933203125,1.90882421875,3.3106015625,3.1070546875,-6.1088515625,-2.65269921875,6.40808203125,6.7728359375,-7.94846484375,6.52953515625,7.8625390625,10.2280546875,-0.9838671875,-5.10992578125,9.596375,11.68116796875,7.441859375,-7.286078125,14.1370234375,15.51489453125,17.29483984375,12.27887890625,-4.131765625,5.94370703125,10.42751953125,1.59715625,3.4123125
-5.15972265625,-3.11293359375,-3.08145703125,-3.23333203125,0.61582421875,3.4946015625,3.3630546875,-6.6368515625,-2.49669921875,5.63008203125,6.9278359375,-5.14546484375,4.16453515625,7.6775390625,10.0380546875,0.1211328125,-4.39792578125,10.128375,12.86616796875,8.949859375,-5.206078125,13.4510234375,16.71989453125,19.67183984375,14.49887890625,-0.694765625,8.17070703125,11.76451953125,4.37515625,7.7763125
-3.80672265625,-2.16193359375,-1.84245703125,-1.55733203125,-0.93017578125,2.9606015625,2.7440546875,-7.3208515625,-1.69769921875,4.29308203125,6.2988359375,-2.53346484375,1.48053515625,6.7955390625,9.0290546875,1.0851328125,-4.24192578125,9.831375,13.06916796875,9.773859375,-2.302078125,11.6550234375,16.54389453125,20.91383984375,16.61187890625,2.860234375,9.40770703125,11.68551953125,6.73315625,11.9963125
-2.17472265625,-1.11293359375,-0.99645703125,-0.80433203125,-2.50017578125,1.6976015625,1.3510546875,-8.1608515625,-0.17769921875,2.52408203125,4.9368359375,-0.83246484375,-0.95646484375,5.2485390625,7.3050546875,1.6371328125,-4.43492578125,8.551375,11.98316796875,9.499859375,0.853921875,8.9630234375,14.93389453125,20.50883984375,18.09087890625,6.143234375,9.36270703125,10.24051953125,8.30715625,15.3353125
-0.73972265625,-0.30893359375,-0.85145703125,-1.42733203125,-3.99617578125,-0.1953984375,-0.7119453125,-9.0688515625,1.82430078125,0.36508203125,2.8788359375,-0.73546484375,-2.67546484375,3.0185390625,4.9190546875,1.4321328125,-4.39692578125,6.206375,9.51416796875,7.863859375,3.659921875,5.8340234375,12.08889453125,18.25383984375,18.48887890625,8.871234375,8.01970703125,8.03051953125,9.06115625,17.3203125
0.15827734375,0.0640664062499998,-1.44245703125,-3.33733203125,-5.33817578125,-2.4503984375,-3.2029453125,-9.8628515625,3.82530078125,-2.05291796875,0.3088359375,-2.46346484375,-3.41946484375,0.2475390625,2.0630546875,0.3271328125,-3.51592578125,2.971375,5.95616796875,5.000859375,5.698921875,2.8260234375,8.48689453125,14.44283984375,17.63587890625,10.803234375,5.65870703125,5.80651953125,9.13615625,17.7653125
0.35327734375,0.04806640625,-2.45145703125,-5.95533203125,-6.31417578125,-4.5953984375,-5.5959453125,-10.2848515625,5.36930078125,-4.32791796875,-2.2891640625,-5.44546484375,-3.22146484375,-2.5984609375,-0.7719453125,-1.3858671875,-1.47592578125,-0.564625,2.03716796875,1.566859375,6.882921875,0.4980234375,4.88889453125,9.92283984375,15.78187890625,11.760234375,2.83270703125,4.16151953125,8.75515625,16.8013125
-0.25672265625,-0.24893359375,-3.41245703125,-8.46633203125,-6.64117578125,-6.0943984375,-7.2379453125,-10.1548515625,6.26130078125,-5.89391796875,-4.2541640625,-8.52546484375,-2.44146484375,-4.8714609375,-2.9169453125,-3.1018671875,1.52707421875,-3.575625,-1.32183203125,-1.507140625,7.338921875,-0.7519765625,2.10589453125,5.80483984375,13.45687890625,11.625234375,0.16570703125,3.35251953125,8.11815625,14.8143125
-1.76272265625,-0.84593359375,-4.01845703125,-10.15733203125,-6.19717578125,-6.5903984375,-7.7029453125,-9.5348515625,6.60030078125,-6.33691796875,-5.0781640625,-10.59646484375,-1.64046484375,-6.0824609375,-3.8639453125,-4.2958671875,4.80607421875,-5.384625,-3.40083203125,-3.458140625,7.167921875,-0.8209765625,0.66389453125,3.00983984375,11.17887890625,10.375234375,-1.91529296875,3.28151953125,7.36815625,12.3593125
-4.06872265625,-1.83793359375,-4.22445703125,-10.64133203125,-5.13417578125,-6.0493984375,-6.9959453125,-8.6968515625,6.66430078125,-5.58691796875,-4.6301640625,-11.12646484375,-1.22246484375,-6.0804609375,-3.4919453125,-4.7758671875,7.49107421875,-5.709625,-3.92783203125,-3.977140625,6.388921875,0.1480234375,0.66789453125,1.98183984375,9.29887890625,8.209234375,-3.25129296875,3.70151953125,6.66915625,10.1023125
-6.69372265625,-3.19493359375,-4.15345703125,-9.93033203125,-3.80817578125,-4.7173984375,-5.4869453125,-7.9468515625,6.78230078125,-3.89991796875,-3.1461640625,-10.23946484375,-1.11646484375,-4.9864609375,-2.0429453125,-4.6618671875,8.90507421875,-4.650625,-3.07183203125,-3.190140625,5.052921875,1.9240234375,1.89589453125,2.67483984375,8.01587890625,5.619234375,-3.83829296875,4.45751953125,6.27415625,8.6873125
-8.94772265625,-4.74493359375,-4.03845703125,-8.44233203125,-2.63117578125,-3.0143984375,-3.7479453125,-7.5308515625,7.21430078125,-1.77891796875,-1.1351640625,-8.50646484375,-0.88246484375,-3.1024609375,-0.0259453125000001,-4.2738671875,8.73607421875,-2.602625,-1.31183203125,-1.568140625,3.310921875,4.2290234375,3.91389453125,4.63783984375,7.36587890625,3.200234375,-3.76729296875,5.50851953125,6.37715625,8.4093125
-10.37272265625,-6.35993359375,-4.23245703125,-6.91033203125,-1.97917578125,-1.4503984375,-2.4139453125,-7.6588515625,8.07830078125,0.11608203125,0.7348359375,-6.66646484375,-0.16846484375,-0.8744609375,1.8950546875,-4.0318671875,7.01907421875,-0.160625,0.70616796875,0.187859375,1.331921875,6.6520234375,6.12089453125,7.10983984375,7.15487890625,1.292234375,-3.28629296875,6.75751953125,6.87815625,8.9133125
-11.01072265625,-8.03893359375,-5.08845703125,-6.10533203125,-2.07117578125,-0.5143984375,-1.9799453125,-8.4688515625,9.35430078125,1.16908203125,1.8368359375,-5.34546484375,0.94053515625,1.1995390625,3.0900546875,-4.2818671875,4.12107421875,2.068375,2.35916796875,1.366859375,-0.726078125,8.7040234375,7.89989453125,9.26183984375,7.03387890625,-0.144765625,-2.76329296875,7.95551953125,7.38215625,9.3283125
-11.20972265625,-9.76193359375,-6.71045703125,-6.45633203125,-2.86617578125,-0.4993984375,-2.5819453125,-9.9008515625,10.88730078125,1.08008203125,1.8228359375,-4.84846484375,1.99553515625,2.7345390625,3.2190546875,-5.0818671875,0.76707421875,3.705375,3.26316796875,1.570859375,-2.635078125,10.0290234375,8.87589453125,10.51883984375,6.72787890625,-1.322765625,-2.51329296875,8.81051953125,7.49215625,8.8643125
-11.27372265625,-11.35393359375,-8.82645703125,-7.87233203125,-4.08617578125,-1.3993984375,-3.9529453125,-11.6478515625,12.32330078125,-0.0489179687500001,0.7198359375,-5.14946484375,2.51753515625,3.5205390625,2.3480546875,-6.1848671875,-2.10992578125,4.683375,3.35516796875,0.851859375,-4.085078125,10.5620234375,9.04289453125,10.72083984375,6.19587890625,-2.336765625,-2.65729296875,9.10651953125,7.07415625,7.3623125
-11.26872265625,-12.52993359375,-10.94045703125,-9.87333203125,-5.37117578125,-2.9263984375,-5.6099453125,-13.2718515625,13.10830078125,-1.84391796875,-1.1491640625,-6.02946484375,2.31353515625,3.4765390625,0.8570546875,-7.2328671875,-3.73792578125,5.111375,2.81716796875,-0.413140625,-4.829078125,10.4730234375,8.65189453125,10.03183984375,5.58087890625,-3.093765625,-3.16229296875,8.75451953125,6.24415625,5.3253125
-11.05472265625,-12.99993359375,-12.53345703125,-11.83933203125,-6.37517578125,-4.5863984375,-7.0489453125,-14.3308515625,12.72530078125,-3.79391796875,-3.2721640625,-7.16346484375,1.67353515625,2.6825390625,-0.7159453125,-7.9288671875,-3.83992578125,5.177375,1.97516796875,-1.746140625,-4.790078125,10.0590234375,8.05989453125,8.77583984375,5.08987890625,-3.392765625,-3.91829296875,7.86251953125,5.19315625,3.4983125
-10.39772265625,-12.51893359375,-13.16445703125,-13.18633203125,-6.73317578125,-5.7623984375,-7.8019453125,-14.4268515625,11.11630078125,-5.26391796875,-4.9651640625,-8.10546484375,1.36153515625,1.5205390625,-1.7649453125,-8.0298671875,-2.63492578125,5.184375,1.26316796875,-2.672140625,-4.015078125,9.6870234375,7.68089453125,7.37883984375,4.95087890625,-3.033765625,-4.73229296875,6.82651953125,4.09215625,2.4053125
-9.15572265625,-10.96993359375,-12.54545703125,-13.47133203125,-6.08417578125,-5.8533984375,-7.4829453125,-13.2858515625,8.87730078125,-5.58191796875,-5.4911640625,-8.38146484375,2.24053515625,0.6655390625,-1.7469453125,-7.3448671875,-0.57892578125,5.529375,1.14916796875,-2.826140625,-2.601078125,9.6990234375,7.88789453125,6.28583984375,5.35487890625,-1.922765625,-5.34929296875,6.23351953125,3.08415625,2.1313125
-7.47372265625,-8.54093359375,-10.69945703125,-12.52033203125,-4.27017578125,-4.5283984375,-5.9519453125,-10.9298515625,6.96130078125,-4.34491796875,-4.3631640625,-7.76046484375,4.64053515625,0.7315390625,-0.4249453125,-5.8678671875,1.87507421875,6.437375,1.91216796875,-2.106140625,-0.748078125,10.1820234375,8.78489453125,5.78283984375,6.30187890625,-0.208765625,-5.60829296875,6.48851953125,2.25915625,2.3723125
-5.77972265625,-5.76593359375,-8.02745703125,-10.52233203125,-1.52517578125,-1.9213984375,-3.4189453125,-7.7818515625,6.09930078125,-1.69891796875,-1.6151640625,-6.43046484375,7.92753515625,1.8805390625,1.9760546875,-3.8778671875,4.37507421875,7.707375,3.45716796875,-0.764140625,1.205921875,10.8460234375,10.07089453125,5.84483984375,7.51787890625,1.715234375,-5.56529296875,7.49651953125,1.63215625,2.6853125
-4.50172265625,-3.27493359375,-5.12945703125,-7.95333203125,1.60482421875,1.4246015625,-0.3119453125,-4.5158515625,6.43930078125,1.71808203125,2.2288359375,-4.79446484375,10.74053515625,3.7675390625,4.8990546875,-1.7678671875,6.65907421875,8.796375,5.38216796875,0.782859375,2.910921875,11.2120234375,11.23389453125,6.25083984375,8.62587890625,3.395234375,-5.39929296875,8.73751953125,1.19915625,2.7943125
-3.75772265625,-1.46693359375,-2.50845703125,-5.34333203125,4.54382421875,4.8226015625,2.9730546875,-1.7698515625,7.62530078125,5.11908203125,6.4268359375,-3.09546484375,11.76853515625,5.8165390625,7.7620546875,0.2081328125,8.52507421875,9.191375,7.23116796875,2.224859375,4.184921875,10.9570234375,11.90989453125,6.80083984375,9.39587890625,4.533234375,-5.22029296875,9.63351953125,0.99815625,2.7373125
-3.35272265625,-0.41793359375,-0.48445703125,-3.07433203125,6.88782421875,7.6876015625,6.1340546875,0.0311484375000006,9.08030078125,7.84208203125,10.2258359375,-1.29546484375,10.45953515625,7.4955390625,10.1280546875,1.9611328125,9.78207421875,8.715375,8.69516796875,3.442859375,5.006921875,10.0730234375,12.03589453125,7.40383984375,9.81087890625,5.006234375,-5.01929296875,9.81451953125,1.03515625,2.7183125
-3.01872265625,-0.01393359375,0.745542968749999,-1.35233203125,8.37382421875,9.6126015625,8.8250546875,0.6921484375,10.20830078125,9.42108203125,12.9468359375,0.705535156250001,7.24753515625,8.4285390625,11.6870546875,3.3881328125,10.29707421875,7.577375,9.62416796875,4.388859375,5.372921875,8.7610234375,11.74489453125,7.99183984375,9.93387890625,4.762234375,-4.77729296875,9.15351953125,1.18615625,2.8573125
-2.57372265625,-0.0399335937500001,1.10854296875,-0.26433203125,8.80182421875,10.3516015625,10.5900546875,0.239148437500001,10.54230078125,9.61708203125,14.0668359375,2.82653515625,3.28953515625,8.4305390625,12.2230546875,4.2911328125,10.17807421875,6.237375,9.97616796875,4.989859375,5.272921875,7.2930234375,11.21289453125,8.47483984375,9.82187890625,3.832234375,-4.52029296875,7.73951953125,1.25615625,3.1233125
-1.90272265625,-0.18693359375,0.72854296875,0.17966796875,8.07182421875,9.8266015625,10.9840546875,-1.0788515625,9.90030078125,8.48308203125,13.3618359375,4.72153515625,-0.0804648437499999,7.5605390625,11.6700546875,4.4961328125,9.89407421875,5.187375,9.78716796875,5.187859375,4.779921875,5.9500234375,10.60989453125,8.79583984375,9.55387890625,2.449234375,-4.25229296875,5.86851953125,1.16515625,3.4593125
-0.95172265625,-0.15093359375,-0.115457031250001,0.0146679687499995,6.28582421875,8.1476015625,9.7370546875,-2.9038515625,8.49430078125,6.36108203125,10.9848359375,5.83953515625,-1.96046484375,6.0995390625,10.1580546875,3.9491328125,10.05207421875,4.705375,9.15416796875,4.965859375,4.056921875,4.9480234375,10.03789453125,8.94183984375,9.20987890625,1.027234375,-3.95129296875,3.94751953125,0.99115625,3.8373125
0.16027734375,0.15506640625,-1.17445703125,-0.68233203125,3.79282421875,5.6126015625,6.8620546875,-4.9448515625,6.84730078125,3.76408203125,7.3988359375,5.55953515625,-2.22446484375,4.4575390625,7.9810546875,2.6881328125,10.92907421875,4.698375,8.22116796875,4.307859375,3.200921875,4.3440234375,9.45589453125,8.87483984375,8.76287890625,-0.0777656249999999,-3.64929296875,2.30551953125,0.81715625,4.1573125
1.09527734375,0.53406640625,-2.32145703125,-1.76233203125,1.16482421875,2.7076015625,2.7620546875,-7.0398515625,5.53430078125,1.27808203125,3.2988359375,3.51353515625,-1.36346484375,3.1065390625,5.5840546875,0.8431328125,12.20707421875,4.860375,7.20616796875,3.233859375,2.166921875,4.0510234375,8.76089453125,8.54483984375,8.07887890625,-0.741765625,-3.44129296875,1.10551953125,0.62115625,4.2073125
1.44127734375,0.68306640625,-3.43645703125,-2.95233203125,-0.91517578125,0.0836015625000002,-1.6909453125,-9.0338515625,4.90930078125,-0.48691796875,-0.4591640625,-0.0124648437499992,0.0115351562500001,2.5225390625,3.5400546875,-1.2778671875,13.18807421875,4.995375,6.43816796875,1.919859375,0.879921875,3.9730234375,7.96089453125,7.99683984375,7.06987890625,-1.023765625,-3.36729296875,0.42951953125,0.35815625,3.8163125
0.89427734375,0.37306640625,-4.35645703125,-3.92333203125,-1.90417578125,-1.6033984375,-5.3569453125,-10.7178515625,4.93330078125,-1.07491796875,-3.0621640625,-4.00846484375,1.49553515625,2.9945390625,2.3810546875,-3.2328671875,13.23507421875,5.154375,6.24516796875,0.688859375,-0.637078125,4.0930234375,7.22489453125,7.36483984375,5.79487890625,-1.046765625,-3.37929296875,0.33651953125,0.0581562499999997,2.9953125
-0.68572265625,-0.54893359375,-5.01345703125,-4.47733203125,-1.72517578125,-2.0153984375,-7.3349453125,-11.9268515625,5.19230078125,-0.47491796875,-4.1081640625,-7.18846484375,2.81253515625,4.3305390625,2.2680546875,-4.7018671875,12.04407421875,5.418375,6.69016796875,-0.240140625,-2.305078125,4.3800234375,6.67189453125,6.69083984375,4.36087890625,-0.982765625,-3.47929296875,0.775519531250001,-0.22984375,1.8703125
-3.22872265625,-2.17393359375,-5.56345703125,-4.67833203125,-0.86217578125,-1.3543984375,-7.4069453125,-12.6258515625,5.12530078125,0.75408203125,-3.8451640625,-8.64746484375,3.67853515625,5.7995390625,2.8170546875,-5.6948671875,9.66307421875,5.649375,7.41516796875,-0.948140625,-4.052078125,4.7230234375,6.21189453125,5.80083984375,2.81587890625,-1.024765625,-3.83629296875,1.53251953125,-0.53584375,0.5623125
-6.29472265625,-4.36993359375,-6.23545703125,-4.74333203125,-0.0721757812499999,-0.2523984375,-6.0619453125,-12.8198515625,4.38230078125,1.77708203125,-3.0101640625,-8.23746484375,3.92653515625,6.5015390625,3.3170546875,-6.4378671875,6.42307421875,5.543375,7.81716796875,-1.720140625,-5.725078125,5.0380234375,5.64889453125,4.46883984375,1.23687890625,-1.215765625,-4.63529296875,2.35151953125,-0.91384375,-0.795687500000001
-9.03472265625,-6.64093359375,-7.07545703125,-4.79833203125,0.06982421875,0.5936015625,-4.1619453125,-12.4498515625,3.04430078125,1.94608203125,-2.4031640625,-6.54446484375,3.67753515625,5.8925390625,3.1690546875,-7.0938671875,2.87007421875,4.879375,7.41216796875,-2.761140625,-7.002078125,5.3700234375,4.90589453125,2.67583984375,-0.139121093749997,-1.321765625,-5.85229296875,3.10051953125,-1.31984375,-1.9426875
-10.46672265625,-8.25393359375,-7.87345703125,-4.77633203125,-0.57117578125,0.7436015625,-2.5739453125,-11.4868515625,1.50930078125,1.06908203125,-2.5251640625,-4.59246484375,3.20853515625,4.0455390625,2.1720546875,-7.6378671875,-0.34392578125,3.668375,6.10016796875,-4.034140625,-7.489078125,5.7930234375,4.06289453125,0.678839843750001,-0.949121093749998,-0.973765625,-7.22829296875,3.72851953125,-1.63284375,-2.5306875
-9.91172265625,-8.55193359375,-8.27545703125,-4.50533203125,-1.71817578125,0.1536015625,-1.8819453125,-10.0658515625,0.21030078125,-0.58991796875,-3.4241640625,-3.39146484375,2.63953515625,1.5765390625,0.5650546875,-7.8908671875,-2.53192578125,2.126375,4.19716796875,-5.272140625,-6.928078125,6.2320234375,3.26889453125,-1.11916015625,-0.873121093749997,0.0312343750000001,-8.41429296875,4.14751953125,-1.75384375,-2.3046875
-7.24872265625,-7.16893359375,-7.92245703125,-3.84933203125,-2.84717578125,-0.8593984375,-2.1529453125,-8.4348515625,-0.57169921875,-2.44091796875,-4.7091640625,-3.40846484375,1.82153515625,-0.6244609375,-1.0769453125,-7.5768671875,-2.98692578125,0.616375,2.31816796875,-6.037140625,-5.277078125,6.4840234375,2.71789453125,-2.28816015625,0.270878906250003,1.597234375,-9.07729296875,4.26151953125,-1.62184375,-1.2136875
-2.93172265625,-4.15593359375,-6.57845703125,-2.78833203125,-3.42817578125,-1.7993984375,-2.9329453125,-6.7998515625,-0.73169921875,-3.79091796875,-5.7491640625,-4.33146484375,0.54153515625,-1.7464609375,-2.0749453125,-6.4328671875,-1.13992578125,-0.429625,1.13416796875,-5.869140625,-2.690078125,6.3930234375,2.67289453125,-2.47116015625,2.50987890625,3.442234375,-8.92329296875,4.13951953125,-1.13284375,0.6013125
2.05227734375,-0.0979335937500001,-4.34545703125,-1.48033203125,-3.22217578125,-2.3063984375,-3.5969453125,-5.3488515625,-0.38469921875,-4.21891796875,-6.0741640625,-5.36746484375,-1.22246484375,-1.4764609375,-2.0099453125,-4.4548671875,2.98107421875,-0.713625,1.04516796875,-4.558140625,0.451921875,5.9710234375,3.36189453125,-1.52716015625,5.65387890625,5.275234375,-7.78029296875,4.05751953125,-0.14284375,2.8703125
6.31927734375,3.87306640625,-1.78545703125,-0.28833203125,-2.50017578125,-2.4153984375,-3.8289453125,-4.3878515625,0.08430078125,-3.86291796875,-5.7261640625,-5.83746484375,-3.22946484375,-0.2174609375,-1.0049453125,-2.0928671875,8.38407421875,-0.257625,1.95016796875,-2.384140625,3.524921875,5.3680234375,4.79089453125,0.332839843750001,9.24387890625,6.900234375,-5.70829296875,4.37151953125,1.44215625,5.2883125
8.49927734375,6.43706640625,0.28054296875,0.35066796875,-1.92017578125,-2.5503984375,-3.7939453125,-4.3248515625,0.11030078125,-3.33591796875,-5.2361640625,-5.54946484375,-5.04946484375,1.1275390625,0.3330546875,-0.1138671875,13.36207421875,0.631375,3.31416796875,-0.0331406250000004,5.831921875,4.8330234375,6.71389453125,2.63683984375,12.67787890625,8.279234375,-2.99129296875,5.34951953125,3.61315625,7.6503125
7.83027734375,6.69706640625,1.20354296875,0.14266796875,-2.11517578125,-3.1973984375,-3.8919453125,-5.3798515625,-0.76269921875,-3.29491796875,-5.2231640625,-4.76646484375,-6.20846484375,1.7075390625,1.2930546875,0.7991328125,16.35907421875,1.581375,4.49616796875,1.761859375,6.907921875,4.6620234375,8.76589453125,4.86783984375,15.43087890625,9.522234375,-0.0302929687500004,7.04951953125,6.24615625,9.9083125
4.53927734375,4.59006640625,0.78454296875,-0.90533203125,-3.27317578125,-4.5443984375,-4.4089453125,-7.3228515625,-2.56969921875,-4.03191796875,-5.9841640625,-3.95446484375,-6.40446484375,1.1585390625,1.4310546875,0.3551328125,16.75207421875,2.316375,5.06416796875,2.541859375,6.662921875,5.0400234375,10.55389453125,6.61383984375,17.14987890625,10.711234375,2.69170703125,9.19651953125,9.00315625,12.0023125
-0.23872265625,0.86606640625,-0.73545703125,-2.50333203125,-5.01717578125,-6.3233984375,-5.3259453125,-9.4928515625,-4.85469921875,-5.33391796875,-7.3301640625,-3.50646484375,-5.69746484375,-0.3014609375,0.7330546875,-1.2828671875,14.98107421875,2.673375,4.92416796875,2.213859375,5.308921875,5.8580234375,11.67189453125,7.56583984375,17.59987890625,11.691234375,4.59670703125,11.14651953125,11.26515625,13.6093125
-4.87772265625,-3.22593359375,-2.80345703125,-4.16333203125,-6.56117578125,-7.9063984375,-6.3109453125,-11.0718515625,-6.85969921875,-6.58391796875,-8.6581640625,-3.49046484375,-4.48646484375,-2.0394609375,-0.4059453125,-3.5648671875,12.08907421875,2.603375,4.30216796875,1.042859375,3.257921875,6.7670234375,11.80189453125,7.56783984375,16.69387890625,12.095234375,5.17770703125,12.16251953125,12.33115625,14.2013125
-7.79672265625,-6.33593359375,-4.66845703125,-5.30133203125,-7.03417578125,-8.5703984375,-6.8219453125,-11.4388515625,-7.82969921875,-6.99091796875,-9.1941640625,-3.54046484375,-3.27246484375,-3.2854609375,-1.3439453125,-5.6768671875,9.10107421875,2.216375,3.63116796875,-0.419140625,1.086921875,7.4450234375,10.91589453125,6.73283984375,14.65287890625,11.657234375,4.30570703125,11.88051953125,11.86215625,13.4463125
-8.03772265625,-7.46493359375,-5.62945703125,-5.40433203125,-5.88917578125,-7.8663984375,-6.4129453125,-10.4638515625,-7.31969921875,-5.99891796875,-8.3961640625,-3.12146484375,-2.39146484375,-3.4944609375,-1.5189453125,-6.8478671875,6.59907421875,1.699375,3.31716796875,-1.561140625,-0.606078125,7.7630234375,9.31089453125,5.41383984375,12.02487890625,10.423234375,2.34670703125,10.52851953125,10.12715625,11.4983125
-5.69972265625,-6.40593359375,-5.41345703125,-4.30933203125,-3.26417578125,-5.9433984375,-5.1149453125,-8.6308515625,-5.39469921875,-3.71091796875,-6.3581640625,-2.05346484375,-1.94146484375,-2.6794609375,-0.8619453125,-6.7838671875,4.65107421875,1.106375,3.44116796875,-2.079140625,-1.508078125,7.6660234375,7.35489453125,3.94883984375,9.41287890625,8.645234375,-0.10329296875,8.64751953125,7.78015625,8.8443125
-1.94872265625,-3.87393359375,-4.37645703125,-2.37533203125,-0.02317578125,-3.6013984375,-3.5679453125,-6.8318515625,-2.61169921875,-0.99591796875,-3.9081640625,-0.81146484375,-1.85846484375,-1.4404609375,0.0820546874999999,-5.8668671875,3.10107421875,0.269375,3.65816796875,-2.177140625,-1.771078125,6.9910234375,5.24489453125,2.44883984375,7.16087890625,6.523234375,-2.58129296875,6.64351953125,5.40915625,5.9073125
1.52927734375,-1.13493359375,-3.27245703125,-0.36733203125,2.61482421875,-1.9553984375,-2.6819453125,-5.8888515625,0.22330078125,0.91108203125,-2.2031640625,-0.25546484375,-2.00746484375,-0.5824609375,0.4650546875,-4.8538671875,1.97007421875,-0.982625,3.42816796875,-2.342140625,-1.822078125,5.5280234375,3.04689453125,0.87283984375,5.32087890625,4.136234375,-4.86229296875,4.60651953125,3.30715625,2.8723125
3.26627734375,0.57706640625,-2.80245703125,0.91266796875,3.63782421875,-1.8873984375,-3.0899453125,-6.1508515625,2.34630078125,1.03708203125,-2.1171640625,-1.01646484375,-2.32146484375,-0.6594609375,-0.3509453125,-4.3758671875,1.53207421875,-2.593625,2.38816796875,-2.955140625,-2.022078125,3.2290234375,0.86189453125,-0.778160156249999,3.81687890625,1.521234375,-6.85629296875,2.43951953125,1.52615625,-0.2036875
2.50827734375,0.49106640625,-3.32545703125,0.97666796875,2.61882421875,-3.6593984375,-4.8069453125,-7.4158515625,3.22230078125,-0.93191796875,-3.8421640625,-3.08046484375,-2.97946484375,-1.8134609375,-2.5109453125,-4.6458671875,1.96407421875,-4.321625,0.55216796875,-4.072140625,-2.496078125,0.2970234375,-1.14810546875,-2.40816015625,2.54387890625,-1.262765625,-8.54429296875,0.0345195312500004,-0.0178437500000004,-3.2506875
-0.62472265625,-1.52093359375,-4.80445703125,-0.16333203125,-0.19017578125,-6.8183984375,-7.2499453125,-9.1308515625,2.63430078125,-4.58391796875,-6.8741640625,-5.82746484375,-4.41746484375,-3.8644609375,-5.6659453125,-5.4978671875,2.99407421875,-5.954625,-1.72483203125,-5.472140625,-3.180078125,-2.8759765625,-2.83510546875,-3.89316015625,1.39787890625,-4.123765625,-9.97129296875,-2.60048046875,-1.44384375,-6.1026875
-5.20972265625,-4.89793359375,-6.85445703125,-1.97733203125,-3.96617578125,-10.3833984375,-9.5019453125,-10.6348515625,0.79130078125,-8.91991796875,-10.2301640625,-8.37746484375,-6.98846484375,-6.3684609375,-9.1049453125,-6.5438671875,3.99707421875,-7.351625,-3.86383203125,-6.758140625,-3.904078125,-5.7619765625,-4.05110546875,-5.08216015625,0.356878906250003,-6.852765625,-11.14129296875,-5.21548046875,-2.74684375,-8.4256875
-9.81672265625,-8.55993359375,-8.84345703125,-3.59433203125,-7.58817578125,-13.2183984375,-10.6919453125,-11.3928515625,-1.66269921875,-12.65491796875,-12.8191640625,-9.99746484375,-10.42746484375,-8.6624609375,-11.9609453125,-7.3508671875,4.40607421875,-8.324625,-5.22883203125,-7.487140625,-4.463078125,-7.7529765625,-4.57010546875,-5.74216015625,-0.450121093749997,-9.078765625,-11.89829296875,-7.30548046875,-3.69184375,-9.7376875
-13.09572265625,-11.38593359375,-10.19245703125,-4.20233203125,-10.06217578125,-14.4993984375,-10.4199453125,-11.2558515625,-3.90169921875,-14.71491796875,-13.8721640625,-10.45046484375,-13.68846484375,-10.0654609375,-13.5369453125,-7.6878671875,3.95307421875,-8.640625,-5.37583203125,-7.397140625,-4.772078125,-8.3749765625,-4.20110546875,-5.66316015625,-0.856121093749998,-10.454765625,-12.02929296875,-8.35048046875,-3.97184375,-9.6736875
-14.36872265625,-12.75793359375,-10.68345703125,-3.49833203125,-10.92517578125,-14.0633984375,-8.9849453125,-10.5788515625,-5.33369921875,-14.69791796875,-13.2641640625,-10.07446484375,-15.40146484375,-10.2004609375,-13.6169453125,-7.6888671875,2.60207421875,-8.186625,-4.29183203125,-6.619140625,-5.004078125,-7.5639765625,-3.01310546875,-4.87716015625,-0.880121093749997,-10.948765625,-11.50829296875,-8.16748046875,-3.51884375,-8.3466875
-13.82572265625,-12.73493359375,-10.52045703125,-1.84633203125,-10.31017578125,-12.3903984375,-7.1639453125,-9.9828515625,-5.82369921875,-12.93891796875,-11.4621640625,-9.50746484375,-14.66046484375,-9.1184609375,-12.4919453125,-7.7238671875,0.45607421875,-7.042625,-2.39983203125,-5.604140625,-5.476078125,-5.7069765625,-1.37810546875,-3.69816015625,-0.758121093749997,-10.875765625,-10.58129296875,-6.99648046875,-2.60184375,-6.4046875
-12.20272265625,-11.79693359375,-10.07845703125,-0.05033203125,-8.68817578125,-10.2633984375,-5.7039453125,-9.9208515625,-5.58269921875,-10.18491796875,-9.1631640625,-9.21646484375,-11.57546484375,-7.1464609375,-10.7029453125,-8.0428671875,-2.21492578125,-5.380625,-0.30983203125,-4.804140625,-6.360078125,-3.4059765625,0.25589453125,-2.53116015625,-0.743121093749998,-10.627765625,-9.58729296875,-5.28148046875,-1.61884375,-4.6706875
-10.33872265625,-10.50993359375,-9.67545703125,1.04166796875,-6.58717578125,-8.3733984375,-4.9689453125,-10.4498515625,-4.92069921875,-7.23791796875,-6.9691640625,-9.25646484375,-7.26146484375,-4.7204609375,-8.7929453125,-8.5958671875,-4.99592578125,-3.413625,1.42816796875,-4.443140625,-7.537078125,-1.2479765625,1.55689453125,-1.70416015625,-0.955121093749998,-10.422765625,-8.79929296875,-3.44948046875,-0.86084375,-3.7126875
-8.91072265625,-9.37593359375,-9.53345703125,0.86766796875,-4.48317578125,-7.1373984375,-4.9479453125,-11.3598515625,-4.10169921875,-4.80491796875,-5.3001640625,-9.38246484375,-3.28346484375,-2.3654609375,-7.2379453125,-9.1688671875,-7.46992578125,-1.494625,2.41016796875,-4.559140625,-8.742078125,0.271023437499999,2.29889453125,-1.46016015625,-1.43012109375,-10.302765625,-8.41729296875,-1.89348046875,-0.45584375,-3.6806875
-8.29172265625,-8.73493359375,-9.74245703125,-0.62633203125,-2.78517578125,-6.6733984375,-5.4089453125,-12.3758515625,-3.31969921875,-3.42091796875,-4.3961640625,-9.31946484375,-0.84646484375,-0.6474609375,-6.4069453125,-9.5738671875,-9.30592578125,-0.120625,2.41816796875,-5.114140625,-9.746078125,0.806023437499999,2.33889453125,-1.94916015625,-2.18312109375,-10.232765625,-8.58729296875,-0.951480468749999,-0.40784375,-4.3486875
-8.42972265625,-8.61993359375,-10.16545703125,-2.90333203125,-1.78217578125,-6.8393984375,-6.0119453125,-13.2188515625,-2.73269921875,-3.31991796875,-4.2841640625,-8.92546484375,-0.22846484375,0.0355390625,-6.4429453125,-9.6868671875,-10.18492578125,0.303375,1.49016796875,-5.974140625,-10.351078125,0.3140234375,1.70289453125,-3.12016015625,-3.13412109375,-10.094765625,-9.29729296875,-0.76648046875,-0.58284375,-5.2356875
-8.88472265625,-8.75293359375,-10.44545703125,-5.02133203125,-1.63117578125,-7.3473984375,-6.4339453125,-13.6068515625,-2.57169921875,-4.37591796875,-4.7991640625,-8.28346484375,-0.86246484375,-0.3814609375,-7.1979453125,-9.4538671875,-9.80692578125,-0.301625,-0.0568320312500004,-6.899140625,-10.373078125,-0.8879765625,0.61389453125,-4.68916015625,-4.07812109375,-9.701765625,-10.33829296875,-1.20948046875,-0.78484375,-5.8226875
-9.12072265625,-8.78993359375,-10.25945703125,-6.10633203125,-2.40717578125,-7.9353984375,-6.5549453125,-13.3578515625,-3.19969921875,-6.23091796875,-5.7291640625,-7.71046484375,-1.95346484375,-1.6724609375,-8.3549453125,-8.9798671875,-8.13592578125,-1.696625,-1.76883203125,-7.662140625,-9.748078125,-2.3239765625,-0.676105468749999,-6.30116015625,-4.82112109375,-8.947765625,-11.45129296875,-2.04048046875,-0.94284375,-5.8646875
-8.83172265625,-8.58593359375,-9.55445703125,-5.80433203125,-4.06817578125,-8.4773984375,-6.5129453125,-12.5138515625,-4.96169921875,-8.41791796875,-6.9181640625,-7.58246484375,-3.07346484375,-3.4654609375,-9.5789453125,-8.5258671875,-5.64392578125,-3.508625,-3.24283203125,-8.166140625,-8.646078125,-3.6009765625,-2.03410546875,-7.71016015625,-5.31712109375,-7.924765625,-12.48629296875,-3.11448046875,-1.21584375,-5.5376875
-8.02072265625,-8.17893359375,-8.50345703125,-4.36433203125,-6.25317578125,-8.8963984375,-6.4749453125,-11.2998515625,-7.78669921875,-10.35291796875,-8.1751640625,-7.96346484375,-4.25346484375,-5.2864609375,-10.5329453125,-8.2768671875,-3.15392578125,-5.338625,-4.18283203125,-8.373140625,-7.385078125,-4.4959765625,-3.38210546875,-8.75816015625,-5.58012109375,-6.834765625,-13.33029296875,-4.36548046875,-1.78584375,-5.2186875
-6.84972265625,-7.62093359375,-7.29745703125,-2.36433203125,-8.19217578125,-9.0343984375,-6.3999453125,-9.9938515625,-10.91969921875,-11.35591796875,-9.1591640625,-8.45746484375,-5.69646484375,-6.6004609375,-10.8619453125,-8.1368671875,-1.39592578125,-6.830625,-4.39883203125,-8.194140625,-6.241078125,-4.9209765625,-4.53910546875,-9.27316015625,-5.53712109375,-5.820765625,-13.76429296875,-5.66748046875,-2.59884375,-5.1356875
-5.55072265625,-6.92193359375,-6.09445703125,-0.34033203125,-8.98817578125,-8.6903984375,-6.1139453125,-8.8518515625,-13.14669921875,-10.93591796875,-9.5211640625,-8.53846484375,-7.48946484375,-7.0124609375,-10.3379453125,-7.8598671875,-0.68392578125,-7.799625,-3.88183203125,-7.573140625,-5.402078125,-4.9579765625,-5.28210546875,-9.14516015625,-5.09012109375,-4.996765625,-13.53129296875,-6.83848046875,-3.36684375,-5.2646875
-4.41772265625,-6.15593359375,-5.11045703125,1.38966796875,-8.16317578125,-7.8263984375,-5.6159453125,-8.0928515625,-13.42169921875,-9.14791796875,-9.1731640625,-8.08246484375,-9.48646484375,-6.5214609375,-9.0559453125,-7.3818671875,-0.91592578125,-8.327625,-2.89183203125,-6.665140625,-5.026078125,-4.8969765625,-5.54410546875,-8.48516015625,-4.30712109375,-4.586765625,-12.56729296875,-7.80348046875,-3.85084375,-5.5136875
-3.74272265625,-5.49393359375,-4.60145703125,2.70766796875,-5.95617578125,-6.6753984375,-5.1899453125,-7.8468515625,-11.42569921875,-6.63591796875,-8.3791640625,-7.51246484375,-11.28346484375,-5.4944609375,-7.4249453125,-6.9128671875,-1.75192578125,-8.613625,-1.87483203125,-5.814140625,-5.178078125,-5.0719765625,-5.45010546875,-7.61216015625,-3.45712109375,-4.876765625,-11.10229296875,-8.64648046875,-4.04284375,-5.8526875
-3.66572265625,-5.12693359375,-4.70445703125,3.54966796875,-3.19017578125,-5.6463984375,-5.2019453125,-8.0708515625,-7.71769921875,-4.28691796875,-7.5591640625,-7.42446484375,-12.31446484375,-4.3834609375,-5.9219453125,-6.7098671875,-2.76892578125,-8.713625,-1.20883203125,-5.315140625,-5.705078125,-5.5889765625,-5.17010546875,-6.85016015625,-2.82412109375,-5.956765625,-9.51929296875,-9.46648046875,-4.07584375,-6.2456875
-4.12272265625,-5.20193359375,-5.35245703125,3.75366796875,-0.87017578125,-5.1283984375,-5.8269453125,-8.5878515625,-3.52869921875,-2.83091796875,-7.0501640625,-8.10046484375,-12.13346484375,-3.5074609375,-4.8969453125,-6.8478671875,-3.61892578125,-8.493625,-1.03183203125,-5.248140625,-6.262078125,-6.2449765625,-4.82210546875,-6.38316015625,-2.54512109375,-7.541765625,-8.16829296875,-10.25348046875,-4.06184375,-6.5656875
-4.92772265625,-5.82193359375,-6.32245703125,3.05966796875,0.20082421875,-5.3433984375,-6.9429453125,-9.2428515625,-0.32369921875,-2.62991796875,-7.0061640625,-9.32146484375,-10.69846484375,-3.0424609375,-4.5259453125,-7.1888671875,-4.12792578125,-7.827625,-1.27983203125,-5.516140625,-6.515078125,-6.7179765625,-4.51710546875,-6.28516015625,-2.60612109375,-9.039765625,-7.28429296875,-10.88848046875,-4.02884375,-6.6386875
-5.84572265625,-6.93693359375,-7.28745703125,1.36266796875,-0.29417578125,-6.2533984375,-8.1589453125,-9.9848515625,0.76730078125,-3.60091796875,-7.3721640625,-10.46946484375,-8.37046484375,-3.0514609375,-4.8129453125,-7.4458671875,-4.28992578125,-6.745625,-1.78983203125,-5.934140625,-6.273078125,-6.7529765625,-4.35210546875,-6.54816015625,-2.87512109375,-9.762765625,-6.93129296875,-11.19048046875,-3.92484375,-6.3396875
-6.57572265625,-8.20193359375,-7.81445703125,-0.93433203125,-2.03817578125,-7.5313984375,-8.9249453125,-10.7838515625,-0.51769921875,-5.22591796875,-7.8821640625,-10.83746484375,-5.67846484375,-3.4164609375,-5.5389453125,-7.2448671875,-4.15892578125,-5.365625,-2.34983203125,-6.263140625,-5.457078125,-6.2059765625,-4.29310546875,-7.04216015625,-3.12612109375,-9.169765625,-6.95429296875,-10.92648046875,-3.65084375,-5.6616875
-6.80172265625,-9.03293359375,-7.50545703125,-2.90333203125,-4.23117578125,-8.6603984375,-8.7809453125,-11.5338515625,-3.44169921875,-6.74691796875,-8.1781640625,-10.02646484375,-3.12946484375,-3.8354609375,-6.3299453125,-6.2928671875,-3.80492578125,-3.795625,-2.75183203125,-6.294140625,-4.071078125,-5.0429765625,-4.15410546875,-7.54216015625,-3.13912109375,-7.159765625,-7.07329296875,-9.91648046875,-3.15184375,-4.7726875
-6.32872265625,-8.91593359375,-6.25445703125,-3.53733203125,-6.01617578125,-9.2013984375,-7.6729453125,-12.0318515625,-6.70269921875,-7.55491796875,-8.0361640625,-8.24746484375,-1.16746484375,-3.9974609375,-6.8599453125,-4.6398671875,-3.34592578125,-2.189625,-2.90583203125,-6.009140625,-2.303078125,-3.4179765625,-3.78610546875,-7.89316015625,-2.89812109375,-4.290765625,-7.12129296875,-8.24548046875,-2.57684375,-4.0666875
-5.15972265625,-7.70693359375,-4.36745703125,-2.33833203125,-6.87817578125,-9.0213984375,-6.0599453125,-12.0058515625,-9.11669921875,-7.46191796875,-7.5141640625,-6.24346484375,-0.11646484375,-3.7924609375,-7.0039453125,-2.7378671875,-2.90992578125,-0.805625,-2.90083203125,-5.630140625,-0.559078125,-1.7089765625,-3.25210546875,-8.12616015625,-2.65312109375,-1.660765625,-7.18829296875,-6.36048046875,-2.28584375,-4.0296875
-3.43872265625,-5.65993359375,-2.37745703125,0.39266796875,-6.75317578125,-8.3123984375,-4.6719453125,-11.1718515625,-10.06969921875,-6.66091796875,-6.8491640625,-4.80546484375,-0.0284648437499999,-3.3194609375,-6.8019453125,-1.1788671875,-2.52092578125,0.0873749999999999,-2.91583203125,-5.429140625,0.695921875,-0.3789765625,-2.77510546875,-8.37616015625,-2.72112109375,-0.413765625,-7.48129296875,-4.85448046875,-2.61984375,-4.9466875
-1.39372265625,-3.30693359375,-0.78145703125,3.71966796875,-5.89817578125,-7.4423984375,-4.1409453125,-9.4048515625,-9.60069921875,-5.51391796875,-6.2821640625,-4.29646484375,-0.66846484375,-2.7874609375,-6.3419453125,-0.3688671875,-2.09392578125,0.344375,-3.08883203125,-5.529140625,1.143921875,0.2210234375,-2.57910546875,-8.74716015625,-3.26312109375,-1.210765625,-8.12029296875,-4.15348046875,-3.67084375,-6.7056875
0.59327734375,-1.32993359375,0.0635429687499998,6.49266796875,-4.75017578125,-6.7913984375,-4.7699453125,-6.9768515625,-8.25569921875,-4.42391796875,-5.9921640625,-4.59146484375,-1.74446484375,-2.4554609375,-5.7679453125,-0.4468671875,-1.62192578125,-0.0646250000000002,-3.49183203125,-5.908140625,0.659921875,-0.0789765625000003,-2.82810546875,-9.31016015625,-4.26512109375,-4.034765625,-9.08329296875,-4.35548046875,-5.26084375,-8.8996875
2.00727734375,-0.34493359375,-0.0314570312500004,7.84666796875,-3.76417578125,-6.5913984375,-6.4399453125,-4.5528515625,-6.80369921875,-3.73991796875,-6.0761640625,-5.31946484375,-3.05846484375,-2.5754609375,-5.2789453125,-1.3608671875,-1.34392578125,-1.104625,-4.15783203125,-6.508140625,-0.711078125,-1.2619765625,-3.62210546875,-10.12616015625,-5.62412109375,-8.278765625,-10.26129296875,-5.26848046875,-7.06084375,-11.0546875
2.48027734375,-0.54693359375,-0.95645703125,7.59666796875,-3.17817578125,-6.7503984375,-8.5309453125,-2.8178515625,-5.84069921875,-3.55791796875,-6.4311640625,-6.07146484375,-4.36046484375,-3.2124609375,-4.9919453125,-2.8638671875,-1.61892578125,-2.610625,-5.02983203125,-7.226140625,-2.689078125,-3.0629765625,-4.89510546875,-11.14516015625,-7.12812109375,-12.910765625,-11.44929296875,-6.49448046875,-8.67584375,-12.7156875
2.06427734375,-1.51893359375,-2.24645703125,6.29366796875,-2.82517578125,-6.8113984375,-10.0299453125,-2.0228515625,-5.47869921875,-3.57891796875,-6.6661640625,-6.48446484375,-5.11946484375,-4.1184609375,-4.7879453125,-4.4828671875,-2.59492578125,-4.204625,-5.90183203125,-7.845140625,-4.727078125,-4.9789765625,-6.33310546875,-12.11416015625,-8.42512109375,-16.736765625,-12.33829296875,-7.57848046875,-9.71484375,-13.4896875
1.15527734375,-2.52193359375,-3.30745703125,4.84266796875,-2.25817578125,-6.1893984375,-9.9899453125,-1.9268515625,-5.34769921875,-3.28391796875,-6.3001640625,-6.36346484375,-4.70046484375,-4.8754609375,-4.4099453125,-5.6958671875,-4.01292578125,-5.447625,-6.50783203125,-8.141140625,-6.226078125,-6.4979765625,-7.53810546875,-12.71716015625,-9.17012109375,-18.852765625,-12.68029296875,-8.28348046875,-9.98984375,-13.2146875
0.14727734375,-3.01893359375,-3.78645703125,3.96166796875,-1.12317578125,-4.5943984375,-8.1109453125,-2.1188515625,-4.89669921875,-2.32791796875,-5.1121640625,-5.79346484375,-2.88346484375,-5.1924609375,-3.7279453125,-6.2028671875,-5.28692578125,-6.098625,-6.70783203125,-8.070140625,-6.837078125,-7.4059765625,-8.28310546875,-12.83016015625,-9.26212109375,-19.053765625,-12.49929296875,-8.75148046875,-9.67184375,-12.1436875
-0.75072265625,-2.92893359375,-3.68345703125,3.89366796875,0.59582421875,-2.2573984375,-4.9119453125,-2.3088515625,-3.69769921875,-0.73691796875,-3.2851640625,-5.02046484375,-0.18946484375,-5.0044609375,-2.8379453125,-5.9868671875,-5.73792578125,-6.164625,-6.51483203125,-7.765140625,-6.548078125,-7.7959765625,-8.55310546875,-12.55616015625,-8.85412109375,-17.827765625,-12.04629296875,-9.32648046875,-9.14984375,-10.8316875
-1.42172265625,-2.45693359375,-3.15445703125,4.49466796875,2.60882421875,0.2256015625,-1.3839453125,-2.3678515625,-1.62269921875,1.20808203125,-1.2311640625,-4.17346484375,2.37253515625,-4.3164609375,-1.9149453125,-5.1288671875,-4.89992578125,-5.691625,-5.94583203125,-7.322140625,-5.515078125,-7.7989765625,-8.34910546875,-12.02416015625,-8.15312109375,-15.938765625,-11.53529296875,-10.14948046875,-8.69184375,-9.7696875
-1.75372265625,-1.85993359375,-2.34045703125,5.43866796875,4.48182421875,2.2126015625,1.5210546875,-2.2528515625,1.04930078125,3.14108203125,0.6398359375,-3.18546484375,3.91353515625,-3.1164609375,-1.0649453125,-3.7018671875,-2.82592578125,-4.648625,-4.92883203125,-6.676140625,-3.961078125,-7.3989765625,-7.60110546875,-11.23716015625,-7.28212109375,-14.017765625,-10.98729296875,-10.99948046875,-8.29084375,-9.1416875
-1.70872265625,-1.37293359375,-1.38545703125,6.33366796875,5.74182421875,3.2726015625,3.2100546875,-1.9798515625,3.58830078125,4.66908203125,2.0308359375,-1.99846484375,4.13953515625,-1.5034609375,-0.3409453125,-1.8658671875,-0.19592578125,-3.065625,-3.42283203125,-5.725140625,-2.216078125,-6.5389765625,-6.30910546875,-10.16316015625,-6.34812109375,-12.445765625,-10.34129296875,-11.51948046875,-7.82784375,-8.9076875
-1.39772265625,-1.18293359375,-0.48145703125,6.77866796875,5.99882421875,3.2916015625,3.5810546875,-1.6018515625,5.02230078125,5.44508203125,2.8088359375,-0.76646484375,3.42953515625,0.1875390625,0.2040546875,0.0701328125000003,1.97007421875,-1.203625,-1.57283203125,-4.470140625,-0.700078125,-5.3129765625,-4.68110546875,-8.85916015625,-5.50412109375,-11.420765625,-9.61029296875,-11.53648046875,-7.29884375,-8.9826875
-1.02472265625,-1.35693359375,0.19754296875,6.49466796875,5.14282421875,2.5006015625,3.0200546875,-1.1478515625,4.62230078125,5.35108203125,3.0708359375,0.199535156250001,2.52853515625,1.5045390625,0.5520546875,1.7471328125,2.82907421875,0.480375,0.28016796875,-3.015140625,0.257921875,-4.0119765625,-3.06810546875,-7.47116015625,-4.88012109375,-10.988765625,-8.88529296875,-11.13548046875,-6.82584375,-9.2876875
-0.81472265625,-1.85993359375,0.54154296875,5.43966796875,3.46282421875,1.3706015625,2.1810546875,-0.6168515625,2.35630078125,4.60008203125,3.1058359375,0.60153515625,2.04753515625,2.1105390625,0.7590546875,2.8721328125,2.05307421875,1.518375,1.74716796875,-1.518140625,0.544921875,-3.0099765625,-1.80610546875,-6.16416015625,-4.49612109375,-11.078765625,-8.26229296875,-10.53548046875,-6.52884375,-9.6986875
-0.98972265625,-2.66293359375,0.455542968749999,3.80666796875,1.52582421875,0.3806015625,1.6140546875,-0.0498515624999989,-1.03869921875,3.61108203125,3.1928359375,0.282535156250001,2.07953515625,1.9355390625,0.8970546875,3.2281328125,-0.19392578125,1.612375,2.56316796875,-0.202140625,0.212921875,-2.6069765625,-1.11910546875,-5.10016015625,-4.29512109375,-11.568765625,-7.80829296875,-9.92948046875,-6.41484375,-10.0176875
-1.66772265625,-3.75193359375,-0.12645703125,1.94466796875,-0.0621757812499997,-0.1923984375,1.5010546875,0.4431484375,-4.38569921875,2.79108203125,3.4338359375,-0.664464843749999,2.26853515625,1.2205390625,1.0070546875,2.7211328125,-3.41692578125,0.808375,2.72616796875,0.693859375,-0.596078125,-2.8499765625,-1.03510546875,-4.38916015625,-4.17012109375,-12.313765625,-7.51529296875,-9.32948046875,-6.31484375,-9.9856875
-2.67072265625,-4.94593359375,-1.09245703125,0.25166796875,-0.85617578125,-0.3373984375,1.7130546875,0.761148437500001,-6.57769921875,2.40208203125,3.7528359375,-1.81946484375,2.22153515625,0.4645390625,1.1240546875,1.5341328125,-6.87992578125,-0.411625,2.54516796875,1.066859375,-1.604078125,-3.4059765625,-1.29610546875,-3.98916015625,-3.93212109375,-13.069765625,-7.22229296875,-8.49648046875,-5.89084375,-9.3266875
-3.55072265625,-5.86293359375,-2.13545703125,-0.96833203125,-0.72817578125,-0.2623984375,1.9650546875,0.8591484375,-7.02969921875,2.47808203125,3.9668359375,-2.61546484375,1.82453515625,0.1995390625,1.2630546875,0.1251328125,-9.74292578125,-1.317625,2.47316796875,1.007859375,-2.415078125,-3.6979765625,-1.47110546875,-3.72816015625,-3.37912109375,-13.515765625,-6.67829296875,-7.11048046875,-4.83184375,-7.9096875
-3.97872265625,-6.22493359375,-2.99045703125,-1.68733203125,0.00282421875000027,-0.3533984375,1.8820546875,0.655148437499999,-5.92969921875,2.70108203125,3.7808359375,-2.76246484375,1.19953515625,0.5845390625,1.2740546875,-1.0778671875,-11.35892578125,-1.419625,2.75216796875,0.623859375,-2.743078125,-3.3059765625,-1.31610546875,-3.55516015625,-2.53712109375,-13.454765625,-5.82029296875,-5.16948046875,-3.19884375,-5.9956875
-4.14472265625,-6.19693359375,-3.69745703125,-2.19533203125,0.62482421875,-1.0673984375,1.0560546875,-0.0308515625000005,-4.10269921875,2.44508203125,2.8248359375,-2.55346484375,0.51053515625,1.1605390625,0.7700546875,-2.0148671875,-11.58392578125,-0.871625,3.15516796875,-0.165140625,-2.655078125,-2.2999765625,-1.04410546875,-3.71316015625,-1.81812109375,-12.952765625,-4.95629296875,-3.20748046875,-1.58484375,-4.2446875
-4.67172265625,-6.30393359375,-4.50645703125,-2.88633203125,0.41582421875,-2.6883984375,-0.7319453125,-1.3138515625,-2.51669921875,1.13908203125,0.8928359375,-2.64746484375,-0.0894648437499999,1.1105390625,-0.6449453125,-2.9358671875,-10.78792578125,-0.360625,3.12916796875,-1.533140625,-2.517078125,-1.1569765625,-1.15610546875,-4.57516015625,-1.80312109375,-12.182765625,-4.57729296875,-2.02648046875,-0.79284375,-3.3246875
-6.06372265625,-6.96493359375,-5.52945703125,-3.91333203125,-0.84617578125,-5.0503984375,-3.2499453125,-2.9968515625,-1.73069921875,-1.26191796875,-1.7711640625,-3.52946484375,-0.45446484375,-0.1234609375,-2.9899453125,-4.0348671875,-9.57792578125,-0.578625,2.22216796875,-3.445140625,-2.674078125,-0.3729765625,-1.99010546875,-6.25016015625,-2.78512109375,-11.134765625,-4.92829296875,-2.10448046875,-1.26084375,-3.3936875
-8.20372265625,-8.10893359375,-6.54645703125,-5.04233203125,-2.67717578125,-7.4873984375,-5.8249453125,-4.5398515625,-1.68169921875,-4.13891796875,-4.4571640625,-5.13746484375,-0.59146484375,-2.4014609375,-5.7499453125,-5.1838671875,-8.45692578125,-1.758625,0.43716796875,-5.510140625,-3.191078125,-0.1849765625,-3.42910546875,-8.38116015625,-4.51612109375,-9.568765625,-5.79229296875,-3.24748046875,-2.74584375,-3.9726875
-10.27972265625,-9.16193359375,-7.10645703125,-5.79933203125,-4.14517578125,-9.0973984375,-7.6319453125,-5.3198515625,-1.89569921875,-6.48991796875,-6.2881640625,-6.86346484375,-0.81546484375,-4.9414609375,-8.0759453125,-5.9738671875,-7.61792578125,-3.591625,-1.74983203125,-7.123140625,-3.835078125,-0.5569765625,-5.00610546875,-10.29816015625,-6.32612109375,-7.279765625,-6.64829296875,-4.70748046875,-4.47984375,-4.2806875
-11.12472265625,-9.30993359375,-6.74845703125,-5.74033203125,-4.34217578125,-9.1333984375,-7.9949453125,-4.9528515625,-1.86369921875,-7.38091796875,-6.5841640625,-7.80046484375,-1.60646484375,-6.7174609375,-9.1569453125,-5.9228671875,-6.92592578125,-5.437625,-3.62283203125,-7.724140625,-4.178078125,-1.2949765625,-6.17410546875,-11.32416015625,-7.44812109375,-4.339765625,-6.97429296875,-5.58848046875,-5.58184375,-3.7176875
-9.77372265625,-7.88693359375,-5.20345703125,-4.67133203125,-2.80417578125,-7.3103984375,-6.5619453125,-3.4538515625,-1.31969921875,-6.31491796875,-5.0971640625,-7.08546484375,-3.21446484375,-6.9624609375,-8.5359453125,-4.6748671875,-6.11292578125,-6.647625,-4.54683203125,-7.001140625,-3.768078125,-2.1379765625,-6.54710546875,-11.05616015625,-7.34512109375,-1.145765625,-6.47229296875,-5.24548046875,-5.46284375,-2.1736875
-6.04172265625,-4.78393359375,-2.59045703125,-2.78933203125,0.26482421875,-3.9573984375,-3.4439453125,-1.2608515625,-0.35469921875,-3.47691796875,-2.1351640625,-4.33246484375,-5.41446484375,-5.5554609375,-6.3249453125,-2.2288671875,-5.08692578125,-6.903625,-4.27083203125,-5.055140625,-2.371078125,-2.8989765625,-6.09110546875,-9.55316015625,-5.98912109375,1.638234375,-5.21929296875,-3.59248046875,-4.10084375,-0.0936875000000006
-0.79872265625,-0.68193359375,0.47854296875,-0.68233203125,3.99682421875,0.0516015625000001,0.6950546875,0.9141484375,0.64830078125,0.23508203125,1.4808359375,0.0375351562499997,-7.62846484375,-3.1494609375,-3.2469453125,0.9191328125,-4.12492578125,-6.406625,-3.09283203125,-2.469140625,-0.199078125,-3.5849765625,-5.20610546875,-7.39316015625,-3.95012109375,3.224234375,-3.69329296875,-1.20748046875,-2.08684375,1.6873125
4.35127734375,3.19706640625,3.12954296875,0.91466796875,7.20082421875,3.6186015625,4.8040546875,2.4121484375,1.24330078125,3.56508203125,4.7088359375,4.88953515625,-9.24446484375,-0.8544609375,-0.3429453125,3.9391328125,-3.66592578125,-5.723625,-1.70483203125,-0.0871406250000002,2.148921875,-4.3469765625,-4.53110546875,-5.41816015625,-2.11712109375,3.038234375,-2.54029296875,0.91551953125,-0.32384375,2.3843125
7.87027734375,5.71606640625,4.71354296875,1.52666796875,8.89282421875,5.9036015625,7.8460546875,3.0021484375,1.21330078125,5.50708203125,6.7688359375,8.91053515625,-9.83446484375,0.3875390625,1.5410546875,6.1081328125,-3.83792578125,-5.357625,-0.78283203125,1.422859375,4.046921875,-5.2349765625,-4.51710546875,-4.26016015625,-1.14712109375,1.168234375,-2.16229296875,1.89251953125,0.48615625,1.7653125
9.01527734375,6.37006640625,5.14754296875,1.17966796875,8.70782421875,6.6646015625,9.1720546875,2.9701484375,0.66130078125,5.75708203125,7.4688359375,11.19453515625,-9.25346484375,0.2735390625,2.1310546875,7.1491328125,-4.19192578125,-5.424625,-0.58883203125,1.894859375,5.166921875,-6.0359765625,-5.15110546875,-4.02016015625,-1.09812109375,-1.502765625,-2.47329296875,1.39251953125,0.19515625,0.3093125
8.05027734375,5.39306640625,4.84254296875,0.30766796875,6.96682421875,6.2616015625,8.6450546875,2.8331484375,-0.13769921875,4.72708203125,7.1508359375,11.53253515625,-7.61946484375,-0.8284609375,1.7230546875,7.2221328125,-3.96492578125,-5.684625,-0.88883203125,1.619859375,5.530921875,-6.3989765625,-6.02710546875,-4.33916015625,-1.52312109375,-3.723765625,-3.04329296875,-0.28048046875,-0.86284375,-1.1726875
5.99427734375,3.54206640625,4.38254296875,-0.55233203125,4.48782421875,5.4196015625,6.6400546875,2.9801484375,-0.92369921875,3.25608203125,6.4378359375,10.39553515625,-5.20346484375,-2.1584609375,0.9420546875,6.7561328125,-2.61392578125,-5.768625,-1.11583203125,1.111859375,5.402921875,-6.0539765625,-6.59910546875,-4.67716015625,-1.81712109375,-4.552765625,-3.39629296875,-2.39148046875,-2.14884375,-2.0646875
4.11827734375,1.77606640625,4.25754296875,-1.00233203125,2.34182421875,4.9446015625,4.0070546875,3.5421484375,-1.41569921875,2.31508203125,5.9988359375,8.72053515625,-2.28246484375,-2.8364609375,0.5030546875,6.3091328125,-0.18492578125,-5.303625,-0.62483203125,0.905859375,5.188921875,-4.9229765625,-6.36410546875,-4.52316015625,-1.50512109375,-3.787765625,-3.19329296875,-4.06548046875,-3.14584375,-2.1866875
3.37027734375,0.86606640625,4.67054296875,-0.90833203125,1.52782421875,5.4286015625,1.8390546875,4.4391484375,-1.19669921875,2.68708203125,6.3348359375,7.47853515625,0.87553515625,-2.1314609375,0.9900546875,6.3801328125,2.66607421875,-4.000625,1.02616796875,1.397859375,5.281921875,-3.1269765625,-5.00210546875,-3.55016015625,-0.422121093749997,-1.988765625,-2.29629296875,-4.63048046875,-3.50584375,-1.7176875
3.91827734375,1.00706640625,5.37254296875,-0.43633203125,2.55382421875,6.9976015625,0.9960546875,5.4111484375,0.17030078125,4.60008203125,7.5518359375,7.14553515625,3.83453515625,0.2185390625,2.5860546875,7.1151328125,4.89207421875,-1.819625,3.79116796875,2.621859375,5.793921875,-1.0229765625,-2.58810546875,-1.79116015625,1.14887890625,-0.214765625,-0.86429296875,-3.96048046875,-3.23084375,-1.0726875
5.14927734375,1.75006640625,5.74754296875,0.01866796875,5.12182421875,9.2316015625,1.6930546875,6.0661484375,2.79330078125,7.54708203125,9.2898359375,7.50553515625,5.88553515625,3.7855390625,4.9470546875,8.1741328125,5.48207421875,0.895375,7.03716796875,4.177859375,6.398921875,0.8440234375,0.323894531250001,0.313839843750001,2.51587890625,0.461234375,0.63670703125,-2.55848046875,-2.71084375,-0.7826875
6.20527734375,2.41406640625,5.25054296875,0.0866679687499996,8.24482421875,11.4036015625,3.5390546875,6.0911484375,6.19930078125,10.54008203125,10.9668359375,8.01153515625,6.24453515625,7.5975390625,7.4070546875,8.9961328125,4.00707421875,3.535375,9.81116796875,5.481859375,6.590921875,1.9710234375,2.94589453125,2.17083984375,2.97387890625,-0.469765625,1.67570703125,-1.19248046875,-2.45484375,-1.2576875
6.59427734375,2.63906640625,3.89354296875,-0.33833203125,10.73482421875,12.8856015625,5.8950546875,5.5221484375,9.42230078125,12.63608203125,12.1698359375,8.36353515625,4.46253515625,10.5775390625,9.3680546875,9.2751328125,1.01807421875,5.524375,11.33816796875,6.198859375,6.146921875,2.1480234375,4.68789453125,3.43283984375,2.31487890625,-2.584765625,2.01470703125,-0.39148046875,-2.67684375,-2.4936875
6.37727734375,2.55806640625,2.31654296875,-1.09133203125,11.71382421875,13.4066015625,8.1680546875,4.7721484375,11.37930078125,13.32408203125,12.8318359375,8.71453515625,0.72553515625,11.9495390625,10.5260546875,9.1631328125,-2.05992578125,6.503375,11.37616796875,6.426859375,5.369921875,1.4700234375,5.37289453125,4.16583984375,1.01687890625,-4.730765625,1.85470703125,-0.21948046875,-3.11184375,-3.9986875
5.91227734375,2.55706640625,1.41054296875,-1.90633203125,10.91382421875,13.0566015625,9.8910546875,4.3751484375,11.33330078125,12.59308203125,13.1148359375,9.42153515625,-4.08146484375,11.4365390625,10.8490546875,9.0891328125,-3.57292578125,6.360375,10.24016796875,6.549859375,4.912921875,0.1800234375,5.15789453125,4.69983984375,-0.0271210937499973,-5.671765625,1.65870703125,-0.40548046875,-3.20684375,-5.0046875
5.58727734375,2.99606640625,1.87354296875,-2.51533203125,8.75282421875,12.1696015625,10.7810546875,4.7291484375,9.26830078125,10.86508203125,13.2368359375,10.71853515625,-8.51246484375,9.3405390625,10.4970546875,9.4811328125,-2.41392578125,5.241375,8.58716796875,6.988859375,5.421921875,-1.3989765625,4.38789453125,5.37383984375,0.0418789062500018,-4.687765625,1.88770703125,-0.560480468749999,-2.44084375,-4.8196875
5.75627734375,4.10206640625,3.94854296875,-2.61533203125,6.17982421875,11.1996015625,10.8500546875,5.9791484375,5.97430078125,8.87708203125,13.3688359375,12.56953515625,-10.93546484375,6.4775390625,9.7910546875,10.5741328125,1.44807421875,3.574375,7.12416796875,8.010859375,7.215921875,-2.8379765625,3.48189453125,6.36183984375,1.66987890625,-1.814765625,2.78970703125,-0.35948046875,-0.60884375,-3.1166875
6.69227734375,5.90206640625,7.29254296875,-1.89433203125,4.27382421875,10.5646015625,10.3910546875,7.9651484375,2.70930078125,7.42008203125,13.5568359375,14.65753515625,-10.19846484375,3.8695390625,9.0940546875,12.2611328125,6.89307421875,1.945375,6.29316796875,9.564859375,10.055921875,-3.6879765625,2.76789453125,7.52783984375,4.64787890625,2.227234375,4.24370703125,0.26351953125,1.99115625,-0.1496875
8.45027734375,8.12706640625,10.99054296875,-0.22433203125,3.72482421875,10.4486015625,9.7890546875,10.1841484375,0.62430078125,6.96408203125,13.6468359375,16.45353515625,-6.29546484375,2.2785390625,8.6060546875,14.0351328125,12.03607421875,0.801375,6.06916796875,11.194859375,13.102921875,-3.7209765625,2.29689453125,8.38283984375,8.08687890625,6.278234375,5.71570703125,0.98151953125,4.54515625,3.2133125
10.78427734375,10.28506640625,13.88654296875,2.17466796875,4.53882421875,10.7196015625,9.3490546875,11.9311484375,0.30530078125,7.48108203125,13.3768359375,17.45153515625,-0.44646484375,1.9365390625,8.2710546875,15.2051328125,15.00507421875,0.302375,6.05316796875,12.209859375,15.257921875,-3.0359765625,1.87889453125,8.30683984375,10.77487890625,9.152234375,6.50370703125,1.23751953125,6.05815625,5.7983125
13.23227734375,11.90906640625,15.13554296875,4.77466796875,6.15482421875,11.0596015625,9.2800546875,12.6301484375,1.69630078125,8.59508203125,12.6248359375,17.46353515625,5.56653515625,2.6705390625,7.9260546875,15.3471328125,14.76007421875,0.434375,5.85116796875,12.124859375,15.770921875,-1.8939765625,1.38189453125,7.00783984375,11.80087890625,10.108234375,6.21270703125,0.70151953125,5.93915625,6.7163125
15.23127734375,12.74806640625,14.59654296875,6.94166796875,7.80682421875,11.1706015625,9.6680546875,12.1141484375,4.29230078125,9.86608203125,11.5498359375,16.66653515625,10.30553515625,4.1765390625,7.4940546875,14.5621328125,11.49407421875,1.180375,5.42416796875,10.988859375,14.659921875,-0.4989765625,0.95489453125,4.81583984375,11.00987890625,9.100234375,5.05470703125,-0.42648046875,4.37115625,5.8283125
16.16427734375,12.70006640625,12.73454296875,8.14666796875,8.85582421875,10.9006015625,10.3340546875,10.6311484375,7.38530078125,10.95108203125,10.4628359375,15.30353515625,13.16753515625,6.1485390625,7.0290546875,13.3031328125,6.37807421875,2.507375,5.12016796875,9.309859375,12.598921875,1.0130234375,0.92289453125,2.54283984375,8.94387890625,6.639234375,3.68870703125,-1.56348046875,2.14815625,3.7063125
15.50527734375,11.72506640625,10.26754296875,8.13466796875,8.98982421875,10.2716015625,10.7920546875,8.6661484375,10.24230078125,11.64408203125,9.5928359375,13.43153515625,14.30053515625,8.2695390625,6.6490546875,12.0141328125,0.96807421875,4.265375,5.42116796875,7.735859375,10.458921875,2.4910234375,1.51489453125,1.05483984375,6.43887890625,3.486234375,2.78670703125,-2.18248046875,0.16115625,1.2403125
13.13627734375,9.93706640625,7.90654296875,7.05666796875,8.31982421875,9.4926015625,10.5490546875,6.7881484375,12.28030078125,11.93808203125,9.0438359375,11.06053515625,14.23053515625,10.2485390625,6.5130546875,10.9781328125,-3.30292578125,6.209375,6.66116796875,6.805859375,8.918921875,3.8070234375,2.73589453125,0.91783984375,4.26887890625,0.428234375,2.73570703125,-2.05348046875,-1.00284375,-0.7676875
9.58027734375,7.73806640625,6.23954296875,5.45166796875,7.31582421875,8.9406015625,9.5400546875,5.5651484375,13.20330078125,12.04008203125,8.9178359375,8.51853515625,13.48753515625,11.8685390625,6.8140546875,10.3781328125,-5.38892578125,8.114375,8.86916796875,6.845859375,8.316921875,4.9600234375,4.42689453125,2.25383984375,2.96487890625,-1.834765625,3.57370703125,-1.19648046875,-1.15784375,-1.8106875
5.86027734375,5.73206640625,5.61354296875,4.03366796875,6.55982421875,9.0326015625,8.3190546875,5.4231484375,13.05930078125,12.22308203125,9.3848359375,6.56053515625,12.35753515625,12.9675390625,7.6830546875,10.3541328125,-4.78992578125,9.818375,11.72616796875,7.917859375,8.633921875,6.0470234375,6.31689453125,4.72583984375,2.72987890625,-2.859765625,5.05870703125,0.26851953125,-0.42284375,-1.7486875
3.08427734375,4.48806640625,6.07654296875,3.40166796875,6.44482421875,10.0286015625,7.8160546875,6.5271484375,12.19630078125,12.65208203125,10.6308359375,6.11253515625,10.89253515625,13.3915390625,9.0980546875,11.0021328125,-1.65592578125,11.204375,14.66916796875,9.822859375,9.614921875,7.1470234375,8.07789453125,7.66583984375,3.45887890625,-2.585765625,6.79770703125,2.24951953125,0.95315625,-0.7376875
2.06027734375,4.39206640625,7.47854296875,3.85866796875,7.04782421875,11.9076015625,8.8750546875,8.7941484375,11.13730078125,13.33408203125,12.7508359375,7.83553515625,9.15253515625,13.0585390625,10.8910546875,12.4031328125,3.26607421875,12.226375,17.11516796875,12.227859375,10.991921875,8.2680234375,9.44789453125,10.36583984375,4.90587890625,-1.279765625,8.45970703125,4.74851953125,2.79615625,0.9743125
3.05227734375,5.57606640625,9.60754296875,5.34766796875,8.16382421875,14.3326015625,11.7620546875,11.9641484375,10.37230078125,14.16108203125,15.5928359375,11.73353515625,7.43353515625,12.0315390625,12.7940546875,14.5891328125,8.85307421875,12.907375,18.65116796875,14.791859375,12.638921875,9.3550234375,10.32889453125,12.32683984375,6.83587890625,0.685234375,9.90470703125,7.77851953125,5.06615625,3.2053125
5.61727734375,7.76706640625,12.12454296875,7.40666796875,9.36582421875,16.6596015625,15.8230546875,15.5661484375,10.12930078125,14.85508203125,18.5718359375,16.89953515625,6.20553515625,10.4295390625,14.3740546875,17.3161328125,13.86107421875,13.165375,19.01816796875,17.103859375,14.434921875,10.2130234375,10.66689453125,13.24383984375,8.93987890625,2.922234375,11.04070703125,11.04751953125,7.62415625,5.7243125
8.61427734375,10.17906640625,14.39354296875,9.20266796875,10.10082421875,18.0436015625,19.5450546875,18.8361484375,10.26930078125,14.91308203125,20.6498359375,21.63353515625,5.83053515625,8.2785390625,14.9820546875,19.8681328125,17.17907421875,12.656375,17.99816796875,18.552859375,16.025921875,10.4310234375,10.25189453125,12.84283984375,10.66087890625,4.989234375,11.56670703125,13.69751953125,9.93315625,8.0023125
10.60127734375,11.72306640625,15.59154296875,9.79266796875,9.92082421875,17.7516015625,21.2140546875,20.8861484375,10.44630078125,13.81808203125,20.7288359375,24.11253515625,6.37853515625,5.5965390625,13.9880546875,21.2521328125,18.11507421875,10.963375,15.46316796875,18.472859375,16.854921875,9.5610234375,8.80789453125,10.91383984375,11.27087890625,6.406234375,10.99770703125,14.54251953125,11.11915625,9.2093125
10.52427734375,11.56406640625,15.12854296875,8.60266796875,8.77482421875,15.5776015625,19.8460546875,21.1231484375,10.39330078125,11.45508203125,18.2848359375,23.33253515625,7.61253515625,2.6985390625,11.2230546875,20.7751328125,16.62807421875,8.093375,11.62516796875,16.564859375,16.516921875,7.5070234375,6.35089453125,7.58283984375,10.26087890625,6.833234375,9.00570703125,12.76851953125,10.45315625,8.5953125
8.23527734375,9.57306640625,13.01254296875,5.81566796875,7.06182421875,12.0266015625,15.7160546875,19.5841484375,10.06130078125,8.30108203125,13.7448359375,19.64153515625,9.04753515625,0.2875390625,7.2280546875,18.4711328125,13.28707421875,4.753375,7.16916796875,13.177859375,15.055921875,4.7110234375,3.40389453125,3.47183984375,7.67287890625,6.222234375,5.74170703125,8.52251953125,7.81915625,5.9503125
4.52027734375,6.35706640625,9.83954296875,2.38966796875,5.33682421875,8.0706015625,10.1260546875,16.8831484375,9.49330078125,5.16308203125,8.2898359375,14.46253515625,10.06653515625,-0.8864609375,3.0160546875,15.0221328125,8.97307421875,2.064375,3.06416796875,9.170859375,12.906921875,1.9420234375,0.78389453125,-0.506160156249999,4.08887890625,4.770234375,1.81270703125,2.89751953125,3.80815625,1.7763125
0.72727734375,2.97406640625,6.51554296875,-0.31433203125,3.94382421875,4.6766015625,4.7050546875,13.8851484375,8.65830078125,2.72108203125,3.3048359375,9.49553515625,10.22853515625,-0.4864609375,-0.4069453125,11.3501328125,4.63007421875,0.980375,0.18616796875,5.516859375,10.647921875,-0.0919765625000002,-0.80610546875,-3.50616015625,0.379878906250003,2.801234375,-1.96029296875,-2.58648046875,-0.54084375,-2.8596875
-1.78572265625,0.51706640625,3.91954296875,-1.12133203125,2.89582421875,2.4376015625,0.7790546875,11.3941484375,7.47430078125,1.27808203125,-0.1331640625,5.99453515625,9.60453515625,1.2185390625,-2.4089453125,8.2421328125,1.20807421875,1.857375,-0.95383203125,2.968859375,8.782921875,-0.9659765625,-1.03710546875,-4.99816015625,-2.57612109375,0.734234375,-4.76029296875,-6.57048046875,-4.10984375,-6.6816875
-2.23672265625,-0.33493359375,2.58154296875,0.37466796875,1.99882421875,1.4606015625,-0.9659453125,9.9481484375,5.94830078125,0.74408203125,-1.5481640625,4.39253515625,8.78153515625,3.5105390625,-2.8729453125,6.1221328125,-0.43892578125,4.362375,-0.32083203125,1.868859375,7.590921875,-0.5969765625,-0.00910546874999962,-4.86416015625,-4.15412109375,-0.970765625,-5.97529296875,-8.28648046875,-6.08884375,-8.6846875
-0.86372265625,0.31506640625,2.43154296875,3.52066796875,1.05382421875,1.4466015625,-0.5739453125,9.6921484375,4.29530078125,0.74408203125,-1.1421640625,4.32253515625,8.42353515625,5.5235390625,-2.1549453125,4.9591328125,0.13007421875,7.630375,1.65116796875,2.056859375,7.011921875,0.7350234375,1.78889453125,-3.42716015625,-4.23512109375,-1.952765625,-5.38729296875,-7.74448046875,-6.27284375,-8.5356875
1.17327734375,1.63506640625,2.86354296875,6.87266796875,0.03782421875,1.9326015625,1.3300546875,10.3831484375,2.95330078125,0.83508203125,0.3858359375,4.96853515625,8.80553515625,6.5765390625,-0.8759453125,4.3891328125,2.65307421875,10.603375,4.17816796875,2.966859375,6.686921875,2.4450234375,3.64889453125,-1.33916015625,-3.23612109375,-2.075765625,-3.25529296875,-5.58248046875,-5.08084375,-6.6406875
2.49427734375,2.61606640625,3.18754296875,8.97066796875,-0.77617578125,2.5746015625,3.9300546875,11.5971484375,2.47330078125,0.79708203125,2.2458359375,5.63753515625,9.71953515625,6.4595390625,0.4090546875,4.0431328125,6.25007421875,12.454375,6.39616796875,3.941859375,6.235921875,3.8710234375,4.94489453125,0.684839843750001,-1.86312109375,-1.415765625,-0.16229296875,-2.66748046875,-3.23484375,-3.8116875
2.36027734375,2.72406640625,3.11554296875,9.11066796875,-0.88217578125,3.3036015625,6.5840546875,12.9811484375,3.25730078125,0.76408203125,3.9308359375,6.17153515625,10.70653515625,5.4735390625,1.4460546875,3.8361328125,9.83507421875,12.829375,7.63316796875,4.548859375,5.522921875,4.5350234375,5.34089453125,2.11083984375,-0.772121093749998,-0.189765625,3.18470703125,0.24451953125,-1.43184375,-0.8986875
1.05827734375,2.15406640625,2.86954296875,7.61766796875,0.13382421875,4.2366015625,8.9350546875,14.3431484375,5.21230078125,1.04008203125,5.2888359375,6.89453515625,11.30553515625,4.1265390625,2.2220546875,3.9331328125,12.52207421875,11.761375,7.52916796875,4.645859375,4.677921875,4.2190234375,4.73289453125,2.62283984375,-0.412121093749997,1.230234375,6.04270703125,2.52651953125,-0.25084375,1.3453125
-0.34872265625,1.60606640625,2.94154296875,5.56666796875,2.26982421875,5.4576015625,10.8110546875,15.5681484375,7.64430078125,1.78608203125,6.3728359375,8.25853515625,11.20953515625,2.7865390625,2.7840546875,4.5321328125,13.82307421875,9.464375,6.05316796875,4.278859375,3.929921875,2.9120234375,3.09889453125,2.06283984375,-0.991121093749998,2.338234375,7.71970703125,3.56751953125,-0.19584375,2.2683125
-0.60972265625,1.88706640625,3.81554296875,4.24866796875,5.05882421875,6.8906015625,12.1390546875,16.5451484375,9.57430078125,2.91908203125,7.3048359375,10.51053515625,10.39553515625,1.6205390625,3.1730546875,5.7491328125,13.72007421875,6.329375,3.54016796875,3.646859375,3.522921875,0.8180234375,0.56889453125,0.516839843750001,-2.38812109375,2.705234375,7.83270703125,2.91351953125,-1.55184375,1.4933125
1.09427734375,3.53006640625,5.75554296875,4.60866796875,7.81282421875,8.3246015625,12.9250546875,17.1661484375,10.29430078125,4.25708203125,8.1968359375,13.52953515625,9.17353515625,0.7945390625,3.4840546875,7.6021328125,12.60107421875,3.008375,0.69416796875,3.110859375,3.710921875,-1.5869765625,-2.39110546875,-1.54916015625,-4.09012109375,2.251234375,6.59770703125,0.61951953125,-4.11084375,-0.7886875
4.68827734375,6.45706640625,8.60354296875,6.79666796875,9.90982421875,9.4716015625,13.1520546875,17.2991484375,9.72830078125,5.61508203125,9.0318359375,16.72953515625,8.02953515625,0.5715390625,3.8300546875,9.9011328125,11.04007421875,0.295375,-1.61383203125,3.037859375,4.622921875,-3.6689765625,-5.01110546875,-3.40016015625,-5.40012109375,1.280234375,4.76970703125,-2.62648046875,-7.12284375,-3.7876875
9.11027734375,9.86506640625,11.64154296875,10.05666796875,10.96982421875,10.0186015625,12.6580546875,16.7561484375,8.39330078125,6.78808203125,9.5338359375,19.05853515625,7.32153515625,1.1695390625,4.2110546875,12.0761328125,9.51107421875,-1.217625,-2.71583203125,3.521859375,6.033921875,-4.8919765625,-6.56510546875,-4.38316015625,-5.85712109375,0.224234375,3.22170703125,-5.81248046875,-9.64484375,-6.4666875
12.78427734375,12.55506640625,13.81354296875,13.11366796875,10.96482421875,9.7496015625,11.2260546875,15.3841484375,7.09430078125,7.57508203125,9.2628359375,19.36453515625,7.09053515625,2.6305390625,4.4910546875,13.2971328125,8.25607421875,-1.342625,-2.40483203125,4.288859375,7.347921875,-5.0119765625,-6.69110546875,-4.21516015625,-5.47412109375,-0.597765625,2.52470703125,-8.05648046875,-10.96284375,-8.0046875
14.42127734375,13.59206640625,14.27754296875,14.87866796875,10.25382421875,8.7196015625,8.8930546875,13.2881484375,6.57230078125,7.91708203125,7.9578359375,17.08253515625,7.12453515625,4.8125390625,4.5780546875,12.9331328125,7.33307421875,-0.206625,-0.89783203125,4.940859375,7.920921875,-4.0499765625,-5.41910546875,-2.96316015625,-4.59912109375,-1.018765625,2.84770703125,-8.86248046875,-10.79384375,-8.0316875
13.64127734375,12.79906640625,12.87254296875,14.97466796875,9.42382421875,7.3196015625,6.1340546875,10.9031484375,7.20830078125,7.94708203125,5.8168359375,12.73353515625,7.14353515625,7.4225390625,4.5440546875,10.9881328125,6.66607421875,1.922375,1.35816796875,5.265859375,7.458921875,-2.2119765625,-3.05510546875,-0.89516015625,-3.58412109375,-0.991765625,4.07970703125,-8.14548046875,-9.24784375,-6.6316875
11.02227734375,10.74206640625,10.14954296875,13.77566796875,8.97182421875,6.1036015625,3.6850546875,8.8011484375,8.86730078125,7.84908203125,3.4628359375,7.76753515625,6.97553515625,9.9935390625,4.5720546875,8.1271328125,6.04307421875,4.670375,3.85816796875,5.345859375,6.158921875,0.1280234375,-0.0831054687499995,1.63583984375,-2.59312109375,-0.609765625,5.96070703125,-6.15548046875,-6.72284375,-4.2466875
7.74727734375,8.36606640625,7.06954296875,12.09666796875,9.06182421875,5.5216015625,2.1860546875,7.4021484375,11.00630078125,7.71908203125,1.6878359375,3.83453515625,6.69053515625,11.9465390625,4.8200546875,5.3481328125,5.25007421875,7.571375,6.16916796875,5.473859375,4.599921875,2.5000234375,2.95389453125,4.28983984375,-1.55312109375,-0.0697656249999999,8.20570703125,-3.31648046875,-3.72384375,-1.4786875
5.10227734375,6.57106640625,4.64054296875,10.81266796875,9.56482421875,5.7736015625,1.9790546875,6.8881484375,13.01230078125,7.62508203125,1.1868359375,2.03953515625,6.63653515625,12.8295390625,5.4080546875,3.5871328125,4.31607421875,10.193375,8.04116796875,6.036859375,3.502921875,4.5380234375,5.65489453125,6.87383984375,-0.207121093749997,0.499234375,10.64370703125,-0.0144804687499995,-0.65284375,1.1913125
3.97227734375,5.85706640625,3.54654296875,10.50666796875,10.23382421875,6.7836015625,3.0680546875,7.2541484375,14.48030078125,7.67608203125,2.3248359375,2.53353515625,7.24153515625,12.5205390625,6.4210546875,3.3701328125,3.57107421875,12.235375,9.42016796875,7.308859375,3.408921875,6.1110234375,7.84389453125,9.34983984375,1.69187890625,1.147234375,13.20170703125,3.45551953125,2.28115625,3.5353125
4.43827734375,6.07606640625,3.84054296875,11.17866796875,10.77482421875,8.2086015625,5.0830546875,8.3251484375,15.19730078125,7.92708203125,4.9128359375,4.52253515625,8.61353515625,11.1545390625,7.7870546875,4.5321328125,3.33107421875,13.426375,10.28716796875,9.163859375,4.309921875,7.1770234375,9.38989453125,11.59783984375,4.02687890625,1.936234375,15.66770703125,6.68551953125,4.87715625,5.4093125
5.73927734375,6.51306640625,4.90954296875,12.22166796875,10.85682421875,9.4956015625,7.3090546875,9.7501484375,14.95030078125,8.22208203125,8.1558359375,6.69353515625,10.27453515625,8.9375390625,9.1640546875,6.2301328125,3.52007421875,13.412375,10.47916796875,10.939859375,5.537921875,7.5520234375,9.99389453125,13.19483984375,6.11287890625,2.668234375,17.48570703125,8.97451953125,6.73615625,6.4923125
6.78227734375,6.39506640625,5.88354296875,12.79566796875,10.22382421875,10.0866015625,8.9530546875,11.0981484375,13.51330078125,8.25008203125,10.9548359375,7.94353515625,11.33153515625,6.1075390625,10.0400546875,7.4111328125,3.65907421875,11.883375,9.71716796875,11.717859375,6.126921875,6.9220234375,9.25989453125,13.51383984375,6.95487890625,2.892234375,17.92070703125,9.52051953125,7.35315625,6.3103125
6.84727734375,5.47106640625,6.21554296875,12.37366796875,8.87382421875,9.6856015625,9.5090546875,12.0081484375,10.86530078125,7.76308203125,12.4058359375,7.93953515625,10.98353515625,3.0105390625,9.9980546875,7.4411328125,3.23907421875,8.838375,7.82316796875,10.862859375,5.413921875,5.0940234375,6.98989453125,12.10483984375,5.83087890625,2.212234375,16.51070703125,7.89951953125,6.45015625,4.5603125
5.96427734375,4.16606640625,5.93054296875,11.03866796875,7.09382421875,8.3666015625,8.9230546875,12.2611484375,7.39930078125,6.69208203125,12.1178359375,7.09053515625,8.94253515625,0.0705390625,8.8710546875,6.3961328125,2.11707421875,4.672375,4.87116796875,8.369859375,3.399921875,2.1870234375,3.34889453125,8.97483984375,2.71587890625,0.577234375,13.36570703125,4.37351953125,4.21015625,1.4023125
4.75227734375,3.23706640625,5.44954296875,9.35466796875,5.29482421875,6.4536015625,7.4790546875,11.7611484375,3.86930078125,5.09408203125,10.2358359375,6.04553515625,5.53553515625,-2.3654609375,6.7290546875,4.8791328125,0.62007421875,0.0133749999999999,1.17116796875,4.817859375,0.675921875,-1.3809765625,-1.18710546875,4.58983984375,-1.69812109375,-1.647765625,9.12470703125,-0.201480468749999,1.22215625,-2.5116875
3.98827734375,3.29706640625,5.27754296875,8.00166796875,3.81682421875,4.3316015625,5.6420546875,10.5991484375,1.13330078125,3.11308203125,7.2978359375,5.27453515625,1.60553515625,-4.1034609375,3.8370546875,3.6601328125,-0.65292578125,-4.429625,-2.80183203125,1.106859375,-1.883078125,-4.9929765625,-5.92610546875,-0.27416015625,-6.28712109375,-3.805765625,4.71470703125,-4.69848046875,-1.72884375,-6.2116875
4.18727734375,4.49506640625,5.76454296875,7.41466796875,2.80482421875,2.3106015625,3.9380546875,9.1251484375,-0.18769921875,1.00308203125,4.0738359375,4.99553515625,-1.74246484375,-5.0354609375,0.6470546875,3.3681328125,-1.18092578125,-7.934625,-6.48983203125,-1.849140625,-3.459078125,-7.9409765625,-10.05810546875,-4.72616015625,-9.90512109375,-5.168765625,1.07570703125,-8.05248046875,-3.88484375,-8.6816875
5.28527734375,6.37306640625,6.90054296875,7.51566796875,2.12682421875,0.5316015625,2.7510546875,7.8331484375,-0.0276992187500001,-0.96491796875,1.2748359375,5.24653515625,-3.58046484375,-5.1464609375,-2.3309453125,4.2081328125,-0.87192578125,-9.898625,-9.40783203125,-3.471140625,-3.632078125,-9.6299765625,-12.86710546875,-8.05616015625,-11.84612109375,-5.272765625,-1.14829296875,-9.60048046875,-4.79384375,-9.2596875
6.57627734375,7.96406640625,8.20154296875,7.68066796875,1.34282421875,-1.1073984375,2.0630546875,7.0411484375,0.98830078125,-2.69791796875,-0.7791640625,5.87653515625,-3.64746484375,-4.6154609375,-4.7719453125,5.7611328125,-0.17992578125,-10.082625,-11.34583203125,-3.808140625,-2.637078125,-9.8609765625,-14.05210546875,-10.04116015625,-12.17012109375,-4.206765625,-1.87829296875,-9.35848046875,-4.54784375,-8.0066875
7.05827734375,8.20606640625,8.87454296875,7.06866796875,-0.11417578125,-2.8943984375,1.4100546875,6.6891484375,1.77830078125,-4.34691796875,-2.2911640625,6.53653515625,-2.49846484375,-3.8134609375,-6.6639453125,7.1011328125,0.15007421875,-8.734625,-12.44383203125,-3.489140625,-1.283078125,-8.9449765625,-13.84010546875,-10.98516015625,-11.61812109375,-2.600765625,-1.58429296875,-7.99048046875,-3.74084375,-5.7506875
6.03127734375,6.53906640625,8.24954296875,5.19166796875,-2.55217578125,-5.0693984375,0.2130546875,6.4291484375,1.37430078125,-6.09391796875,-3.7551640625,6.78453515625,-1.13846484375,-3.0894609375,-8.1709453125,7.2441328125,-0.44492578125,-6.439625,-13.01783203125,-3.330140625,-0.527078125,-7.5119765625,-12.76610546875,-11.42716015625,-11.11712109375,-1.253765625,-0.94229296875,-6.42948046875,-3.10784375,-3.6686875
3.48827734375,3.22306640625,6.14054296875,2.30766796875,-5.71217578125,-7.5903984375,-1.7759453125,5.9121484375,-0.49269921875,-7.91091796875,-5.5621640625,6.26553515625,-0.40246484375,-2.6074609375,-9.4169453125,5.6261328125,-2.02592578125,-3.874625,-13.32383203125,-3.880140625,-0.999078125,-6.2059765625,-11.36310546875,-11.77716015625,-11.27712109375,-0.735765625,-0.45029296875,-5.40448046875,-3.11384375,-2.7196875
0.0462773437500001,-0.85093359375,2.88954296875,-0.67933203125,-8.81017578125,-10.0623984375,-4.2579453125,4.9991484375,-3.22769921875,-9.53691796875,-7.7261640625,4.85253515625,-0.54446484375,-2.3894609375,-10.3819453125,2.3061328125,-4.15392578125,-1.688625,-13.45483203125,-5.222140625,-2.784078125,-5.4859765625,-10.03110546875,-12.16516015625,-12.18712109375,-1.216765625,-0.29129296875,-5.21548046875,-3.80784375,-3.2726875
-3.37772265625,-4.57593359375,-0.776457031250001,-2.71733203125,-10.89517578125,-11.8493984375,-6.4779453125,3.8651484375,-5.72369921875,-10.60391796875,-9.8051640625,2.75653515625,-1.20446484375,-2.4824609375,-10.9129453125,-2.0568671875,-6.05392578125,-0.421625,-13.37683203125,-7.012140625,-5.439078125,-5.5439765625,-9.03010546875,-12.46916015625,-13.50212109375,-2.473765625,-0.38029296875,-5.74848046875,-4.92184375,-5.0356875
-5.84972265625,-6.96493359375,-3.93545703125,-3.13233203125,-11.25917578125,-12.2853984375,-7.5119453125,2.9771484375,-6.99369921875,-10.75791796875,-11.0221640625,0.52353515625,-1.71346484375,-2.9874609375,-10.7509453125,-6.3608671875,-6.84192578125,-0.357625,-13.01583203125,-8.609140625,-8.127078125,-6.2819765625,-8.44910546875,-12.41616015625,-14.62012109375,-3.950765625,-0.45929296875,-6.58848046875,-6.03384375,-7.2246875
-6.66372265625,-7.39993359375,-5.73745703125,-1.92933203125,-9.75317578125,-10.9603984375,-6.7119453125,2.8721484375,-6.70969921875,-9.79791796875,-10.6141640625,-1.17946484375,-1.59646484375,-4.0114609375,-9.6459453125,-9.4048671875,-5.88892578125,-1.429625,-12.36283203125,-9.334140625,-9.914078125,-7.3889765625,-8.23010546875,-11.74616015625,-14.95012109375,-4.937765625,-0.23829296875,-7.25048046875,-6.77084375,-8.9286875
-5.63772265625,-5.88893359375,-5.79945703125,0.18266796875,-6.91017578125,-8.0053984375,-4.1439453125,3.7611484375,-5.38169921875,-7.86991796875,-8.3401640625,-1.95446484375,-0.97846484375,-5.6144609375,-7.6079453125,-10.4148671875,-3.29892578125,-3.323625,-11.60483203125,-8.855140625,-10.230078125,-8.5899765625,-8.32710546875,-10.48516015625,-14.25912109375,-4.946765625,0.36370703125,-7.50548046875,-7.05184375,-9.5826875
-3.27772265625,-3.14393359375,-4.44345703125,2.08666796875,-3.78117578125,-4.2033984375,-0.7059453125,5.2711484375,-4.05969921875,-5.54391796875,-4.7751640625,-1.89746484375,-0.54146484375,-7.7564609375,-5.0909453125,-9.4338671875,-0.0909257812500002,-5.661625,-11.12883203125,-7.447140625,-9.203078125,-9.8079765625,-8.84110546875,-9.08116015625,-12.87212109375,-4.009765625,1.07270703125,-7.55948046875,-7.17284375,-9.2506875
-0.55472265625,-0.26393359375,-2.49845703125,2.80766796875,-1.45017578125,-0.7473984375,2.2680546875,6.5831484375,-3.69369921875,-3.58491796875,-1.1241640625,-1.44646484375,-0.98846484375,-10.1744609375,-2.8699453125,-7.2208671875,2.23507421875,-8.067625,-11.30883203125,-5.849140625,-7.568078125,-11.0709765625,-9.91110546875,-8.20616015625,-11.50212109375,-2.628765625,1.42270703125,-7.83448046875,-7.57984375,-8.4826875
1.58027734375,1.81106640625,-0.804457031250001,2.01966796875,-0.51517578125,1.2566015625,3.6650546875,6.9021484375,-4.56469921875,-2.58091796875,1.3428359375,-1.03046484375,-2.47446484375,-12.3374609375,-1.6899453125,-4.7768671875,2.49607421875,-10.149625,-12.23083203125,-4.836140625,-6.226078125,-12.2849765625,-11.48010546875,-8.35416015625,-10.83112109375,-1.436765625,1.08370703125,-8.54248046875,-8.48184375,-7.8816875
2.58027734375,2.65306640625,0.14054296875,0.15866796875,-0.91417578125,1.2236015625,3.0370546875,5.8571484375,-6.19569921875,-2.72491796875,1.8338359375,-0.87646484375,-4.52846484375,-13.6414609375,-1.9589453125,-2.9058671875,0.39807421875,-11.585625,-13.61283203125,-4.853140625,-5.808078125,-13.1809765625,-13.22510546875,-9.58016015625,-11.19012109375,-0.888765625,0.0647070312499998,-9.45448046875,-9.68084375,-7.7586875
2.40427734375,2.35506640625,0.24854296875,-1.94133203125,-2.14917578125,-0.7353984375,0.6590546875,3.6301484375,-7.76869921875,-3.87091796875,0.2848359375,-1.03546484375,-6.45246484375,-13.7244609375,-3.6369453125,-2.0138671875,-3.40992578125,-12.232625,-14.96883203125,-5.902140625,-6.457078125,-13.4859765625,-14.70210546875,-11.51116015625,-12.47112109375,-1.113765625,-1.33329296875,-10.05148046875,-10.70584375,-8.0596875
1.44527734375,1.39206640625,-0.25145703125,-3.58333203125,-3.66117578125,-3.9143984375,-2.6649453125,0.842148437500001,-8.65069921875,-5.65491796875,-2.6641640625,-1.45346484375,-7.71146484375,-12.6174609375,-6.2429453125,-2.0628671875,-7.67092578125,-12.099625,-15.83083203125,-7.579140625,-7.780078125,-13.0469765625,-15.48910546875,-13.48616015625,-14.17012109375,-1.858765625,-2.63229296875,-9.81448046875,-11.06384375,-8.4386875
0.35727734375,0.41306640625,-0.93745703125,-4.52633203125,-5.07717578125,-7.2973984375,-5.8829453125,-1.6868515625,-8.66769921875,-7.59891796875,-5.9361640625,-1.99946484375,-8.04946484375,-10.6514609375,-8.9729453125,-2.6058671875,-11.04792578125,-11.205625,-15.89983203125,-9.191140625,-8.975078125,-11.8509765625,-15.24910546875,-14.73616015625,-15.52012109375,-2.550765625,-3.28729296875,-8.45648046875,-10.43884375,-8.4076875
-0.27272265625,-0.0429335937500002,-1.37745703125,-4.95033203125,-6.29417578125,-9.9733984375,-8.0909453125,-3.2488515625,-8.06369921875,-9.27691796875,-8.4751640625,-2.52446484375,-7.44046484375,-8.3144609375,-11.0059453125,-3.0148671875,-12.70492578125,-9.584625,-15.12783203125,-10.038140625,-9.209078125,-10.0439765625,-13.85410546875,-14.66316015625,-15.78312109375,-2.583765625,-2.88329296875,-6.08548046875,-8.82884375,-7.5946875
-0.23872265625,0.18506640625,-1.33745703125,-5.17733203125,-7.44517578125,-11.4783984375,-8.8939453125,-3.5088515625,-7.29269921875,-10.49691796875,-9.6951640625,-2.94546484375,-6.07046484375,-6.1544609375,-11.8669453125,-2.8138671875,-12.62492578125,-7.444625,-13.73083203125,-9.735140625,-8.089078125,-7.9929765625,-11.52610546875,-13.11116015625,-14.62012109375,-1.678765625,-1.35729296875,-3.22748046875,-6.60084375,-5.9826875
0.28627734375,0.90206640625,-0.79945703125,-5.35933203125,-8.70017578125,-11.8633984375,-8.4549453125,-2.5278515625,-6.75669921875,-11.29991796875,-9.6151640625,-3.22046484375,-4.28646484375,-4.6254609375,-11.5679453125,-1.8718671875,-11.41192578125,-5.192625,-12.05983203125,-8.339140625,-5.856078125,-6.1819765625,-8.78310546875,-10.39716015625,-12.21912109375,0.0122343750000001,0.98970703125,-0.57848046875,-4.29884375,-3.8976875
1.06727734375,1.85506640625,0.17654296875,-5.32833203125,-10.01117578125,-11.4693984375,-7.2209453125,-0.6068515625,-6.59569921875,-11.74591796875,-8.6311640625,-3.21346484375,-2.41646484375,-3.8674609375,-10.4219453125,-0.3468671875,-9.69292578125,-3.230625,-10.39483203125,-6.186140625,-3.184078125,-4.9069765625,-6.15810546875,-7.09116015625,-9.11512109375,2.151234375,3.71270703125,1.40551953125,-2.29984375,-1.7296875
2.03927734375,2.92406640625,1.49854296875,-4.74433203125,-11.04417578125,-10.6363984375,-5.6429453125,1.8371484375,-6.67169921875,-11.78591796875,-7.2451640625,-2.69146484375,-0.68046484375,-3.6874609375,-8.8079453125,1.3941328125,-7.74792578125,-1.758625,-8.85283203125,-3.707140625,-0.824078125,-4.0879765625,-3.97110546875,-3.78416015625,-5.95012109375,4.473234375,6.41570703125,2.68251953125,-0.65884375,0.2823125
3.15527734375,3.96906640625,2.88754296875,-3.42833203125,-11.40817578125,-9.6053984375,-4.1469453125,4.2491484375,-6.77169921875,-11.36791796875,-5.9561640625,-1.56446484375,0.69153515625,-3.7874609375,-7.0839453125,2.7711328125,-5.65492578125,-0.823625,-7.48683203125,-1.397140625,0.603921875,-3.4269765625,-2.37710546875,-1.04216015625,-3.38412109375,6.764234375,8.71670703125,3.40651953125,0.70915625,1.9883125
4.08927734375,4.60806640625,3.80154296875,-1.59633203125,-10.93917578125,-8.5473984375,-3.1699453125,5.9641484375,-6.79869921875,-10.58191796875,-5.2261640625,-0.10146484375,1.35753515625,-4.0004609375,-5.5859453125,3.0801328125,-3.64792578125,-0.434625,-6.38683203125,0.217859375,0.731921875,-2.7249765625,-1.47910546875,0.65183984375,-2.01112109375,8.706234375,10.20270703125,3.62151953125,1.77615625,3.1743125
4.23227734375,4.30806640625,3.66954296875,0.20866796875,-9.75717578125,-7.5453984375,-3.0189453125,6.4531484375,-6.77369921875,-9.60191796875,-5.3121640625,1.15053515625,1.05953515625,-4.2794609375,-4.5219453125,1.8281328125,-2.13592578125,-0.535625,-5.62583203125,0.783859375,-0.419078125,-2.0249765625,-1.28410546875,1.08083984375,-2.14612109375,9.891234375,10.55770703125,3.24951953125,2.40715625,3.5923125
3.02527734375,2.74506640625,2.25654296875,1.36966796875,-8.14517578125,-6.5553984375,-3.6669453125,5.6221484375,-6.74569921875,-8.52991796875,-6.0971640625,1.66253515625,-0.0474648437499999,-4.5744609375,-3.8609453125,-0.9348671875,-1.40692578125,-0.948625,-5.15883203125,0.330859375,-2.408078125,-1.5539765625,-1.62810546875,0.439839843750001,-3.64112109375,9.963234375,9.76170703125,2.28551953125,2.50515625,3.0903125
0.34127734375,0.0760664062499998,-0.18745703125,1.42466796875,-6.43317578125,-5.4403984375,-4.7559453125,3.8631484375,-6.78369921875,-7.39491796875,-7.1511640625,1.17253515625,-1.36346484375,-4.8354609375,-3.4069453125,-4.6188671875,-1.41192578125,-1.489625,-4.88183203125,-0.781140625,-4.609078125,-1.6169765625,-2.27310546875,-0.808160156249999,-5.97512109375,8.735234375,8.06870703125,0.86851953125,2.05415625,1.6623125
-3.33072265625,-3.05593359375,-3.06745703125,0.23166796875,-4.94717578125,-4.1063984375,-5.8069453125,1.8291484375,-6.99369921875,-6.24891796875,-7.9761640625,-0.236464843749999,-2.21246484375,-5.0764609375,-2.9869453125,-8.3848671875,-1.86992578125,-2.148625,-4.77483203125,-2.121140625,-6.556078125,-2.4969765625,-3.10710546875,-2.23316015625,-8.55212109375,6.230234375,5.82670703125,-0.83548046875,1.04915625,-0.5606875
-6.94972265625,-5.70593359375,-5.65445703125,-1.91333203125,-3.90917578125,-2.6063984375,-6.4079453125,0.1661484375,-7.43669921875,-5.17691796875,-8.2231640625,-2.15746484375,-2.27846484375,-5.3374609375,-2.5329453125,-11.4538671875,-2.51092578125,-3.068625,-4.92783203125,-3.357140625,-8.082078125,-4.2629765625,-4.14610546875,-3.58016015625,-10.90012109375,2.806234375,3.38870703125,-2.73048046875,-0.46584375,-3.2346875
-9.25472265625,-6.94193359375,-7.27945703125,-4.26033203125,-3.34417578125,-1.1303984375,-6.2879453125,-0.6328515625,-8.01569921875,-4.21291796875,-7.7681640625,-4.00646484375,-1.75846484375,-5.5604609375,-2.0459453125,-13.2738671875,-3.25892578125,-4.323625,-5.41683203125,-4.264140625,-9.214078125,-6.6099765625,-5.36810546875,-4.70316015625,-12.68412109375,-0.770765625,1.14770703125,-4.72548046875,-2.26884375,-5.7256875
-9.32972265625,-6.26193359375,-7.55645703125,-5.86533203125,-3.13917578125,0.0436015625000001,-5.4069453125,-0.359851562499999,-8.53469921875,-3.36591796875,-6.7361640625,-5.28946484375,-1.18446484375,-5.6184609375,-1.5669453125,-13.6408671875,-4.26692578125,-5.779625,-6.20183203125,-4.728140625,-10.034078125,-8.9339765625,-6.63310546875,-5.50016015625,-13.71812109375,-3.527765625,-0.49829296875,-6.67448046875,-3.95084375,-7.2686875
-7.10272265625,-3.89193359375,-6.54345703125,-6.03733203125,-3.18917578125,0.6306015625,-4.0219453125,0.8141484375,-8.88969921875,-2.74491796875,-5.4861640625,-5.81046484375,-1.06146484375,-5.4804609375,-1.2189453125,-12.7458671875,-5.77392578125,-7.147625,-7.14783203125,-4.797140625,-10.624078125,-10.6409765625,-7.77110546875,-5.94816015625,-14.01312109375,-4.738765625,-1.28729296875,-8.35648046875,-5.07884375,-7.3636875
-3.39672265625,-0.67293359375,-4.65445703125,-4.68833203125,-3.46917578125,0.4486015625,-2.5819453125,2.3901484375,-9.17169921875,-2.55591796875,-4.4641640625,-5.62746484375,-1.50746484375,-5.2564609375,-1.1689453125,-11.0158671875,-7.75892578125,-8.126625,-8.07983203125,-4.635140625,-11.013078125,-11.4019765625,-8.66010546875,-6.10516015625,-13.73812109375,-4.237765625,-1.16429296875,-9.48048046875,-5.35784375,-6.0406875
0.50727734375,2.40006640625,-2.38245703125,-2.35633203125,-3.96117578125,-0.4643984375,-1.4979453125,3.7701484375,-9.57169921875,-2.93391796875,-3.9841640625,-4.86646484375,-2.17546484375,-5.1054609375,-1.5019453125,-8.8778671875,-9.67792578125,-8.509625,-8.84383203125,-4.400140625,-11.115078125,-11.2299765625,-9.22410546875,-6.02716015625,-13.08912109375,-2.387765625,-0.23729296875,-9.73648046875,-4.69184375,-3.8116875
3.40427734375,4.58006640625,-0.14445703125,0.0216679687500001,-4.63417578125,-1.8823984375,-1.0369453125,4.4801484375,-10.24569921875,-3.86591796875,-4.1661640625,-3.69946484375,-2.58646484375,-5.1694609375,-2.2059453125,-6.6718671875,-10.64492578125,-8.335625,-9.38883203125,-4.192140625,-10.801078125,-10.4439765625,-9.47510546875,-5.77416015625,-12.22612109375,0.126234375,1.24670703125,-9.00848046875,-3.23184375,-1.4336875
4.50627734375,5.47106640625,1.66954296875,1.46166796875,-5.52417578125,-3.5583984375,-1.4029453125,4.2401484375,-11.23069921875,-5.26491796875,-5.0411640625,-2.48646484375,-2.63846484375,-5.6084609375,-3.2639453125,-4.7508671875,-10.04292578125,-7.973625,-9.84783203125,-4.131140625,-10.083078125,-9.5749765625,-9.60310546875,-5.49516015625,-11.32812109375,2.504234375,2.87270703125,-7.61648046875,-1.43684375,0.329312499999999
3.62727734375,5.01106640625,2.70654296875,1.33166796875,-6.72317578125,-5.3353984375,-2.7419453125,2.9991484375,-12.35769921875,-6.99891796875,-6.5751640625,-1.76146484375,-2.72946484375,-6.5164609375,-4.6569453125,-3.4518671875,-8.00592578125,-7.927625,-10.42683203125,-4.318140625,-9.128078125,-9.0939765625,-9.87310546875,-5.39116015625,-10.56612109375,4.086234375,4.16070703125,-6.24348046875,0.0611562499999998,0.9653125
1.31927734375,3.54606640625,2.86854296875,-0.30533203125,-8.17617578125,-7.0483984375,-4.9309453125,1.0521484375,-13.16869921875,-8.76191796875,-8.5091640625,-1.91446484375,-3.32246484375,-7.6984609375,-6.1869453125,-2.8348671875,-5.32992578125,-8.409625,-11.13883203125,-4.642140625,-8.043078125,-9.0629765625,-10.33410546875,-5.49516015625,-9.90612109375,4.652234375,4.87270703125,-5.48348046875,0.79415625,0.4663125
-1.21372265625,1.85006640625,2.50054296875,-2.63233203125,-9.50417578125,-8.3783984375,-7.3939453125,-0.9168515625,-13.02969921875,-10.00791796875,-10.2451640625,-2.84646484375,-4.42846484375,-8.6084609375,-7.3639453125,-2.5038671875,-2.96292578125,-9.106625,-11.65283203125,-4.680140625,-6.695078125,-9.0639765625,-10.65510546875,-5.52916015625,-9.01712109375,4.535234375,5.19270703125,-5.42148046875,0.73815625,-0.6476875
-2.58072265625,0.86306640625,2.23954296875,-4.45233203125,-10.11917578125,-8.8793984375,-9.2449453125,-2.0608515625,-11.50069921875,-10.17491796875,-11.0521640625,-3.97346484375,-5.55246484375,-8.6374609375,-7.6079453125,-1.8098671875,-1.56892578125,-9.426625,-11.48983203125,-3.939140625,-4.847078125,-8.5679765625,-10.35310546875,-5.09416015625,-7.48512109375,4.384234375,5.55470703125,-5.61448046875,0.26315625,-1.6316875
-1.87572265625,1.23606640625,2.62954296875,-4.80833203125,-9.57017578125,-8.2153984375,-9.7109453125,-1.7748515625,-8.71669921875,-9.03391796875,-10.4591640625,-4.54546484375,-6.08246484375,-7.5304609375,-6.5989453125,-0.3028671875,-1.40492578125,-8.950625,-10.39483203125,-2.240140625,-2.458078125,-7.4019765625,-9.18610546875,-4.00416015625,-5.15912109375,4.768234375,6.28170703125,-5.44848046875,-0.13484375,-1.9086875
0.87227734375,3.00106640625,3.82054296875,-3.45633203125,-7.82117578125,-6.3893984375,-8.4869453125,0.0171484374999995,-5.42869921875,-6.82691796875,-8.5191640625,-4.00946484375,-5.69246484375,-5.5434609375,-4.4859453125,1.9631328125,-2.36692578125,-7.668625,-8.53683203125,0.115859375,0.179921875,-5.8569765625,-7.32710546875,-2.42716015625,-2.30112109375,5.934234375,7.39170703125,-4.49448046875,-0.0668437500000003,-1.2506875
4.67627734375,5.53006640625,5.48954296875,-0.95833203125,-5.30317578125,-3.8223984375,-5.8879453125,2.8101484375,-2.68869921875,-4.13791796875,-5.7901640625,-2.29146484375,-4.49346484375,-3.2884609375,-1.8369453125,4.3881328125,-4.08992578125,-5.911625,-6.43983203125,2.459859375,2.510921875,-4.4429765625,-5.25410546875,-0.79616015625,0.490878906250002,7.754234375,8.63270703125,-2.71848046875,0.62315625,0.2143125
7.95427734375,7.71606640625,6.90354296875,1.58066796875,-2.74717578125,-1.2333984375,-2.7879453125,5.6671484375,-1.41269921875,-1.66391796875,-3.1401640625,0.0285351562500011,-3.00746484375,-1.4614609375,0.5590546875,5.9721328125,-6.08892578125,-4.188625,-4.74783203125,3.971859375,3.855921875,-3.5839765625,-3.57710546875,0.33483984375,2.42987890625,9.732234375,9.56870703125,-0.560480468749999,1.73915625,2.0313125
9.18427734375,8.40206640625,7.16654296875,3.03166796875,-0.87017578125,0.6316015625,-0.3189453125,7.5511484375,-1.96869921875,0.0340820312499999,-1.4301640625,1.83753515625,-1.96146484375,-0.5534609375,1.9760546875,5.6541328125,-7.88192578125,-2.991625,-3.96383203125,3.944859375,3.602921875,-3.4519765625,-2.84010546875,0.44983984375,2.73487890625,11.126234375,9.70670703125,1.18351953125,2.72615625,3.4873125
7.61827734375,6.94806640625,5.69154296875,2.80066796875,0.01382421875,1.3636015625,0.6760546875,7.8141484375,-3.93369921875,0.79708203125,-1.1141640625,2.03953515625,-1.92646484375,-0.5914609375,2.0880546875,2.8761328125,-9.01092578125,-2.549625,-4.21383203125,2.111859375,1.514921875,-3.8799765625,-3.26010546875,-0.68116015625,0.959878906250003,11.285234375,8.73470703125,1.75551953125,2.90815625,3.8863125
3.68027734375,3.63306640625,2.61154296875,1.12566796875,0.15182421875,1.0976015625,0.1210546875,6.5761484375,-6.22469921875,0.94708203125,-1.9991640625,0.25853515625,-2.95446484375,-1.1014609375,1.1620546875,-1.9528671875,-9.07592578125,-2.662625,-5.17983203125,-1.119140625,-2.017078125,-4.3979765625,-4.54010546875,-2.79116015625,-2.69412109375,10.032234375,6.77070703125,0.896519531250001,1.89515625,2.9253125
-1.30372265625,-0.48393359375,-1.20345703125,-1.12733203125,0.0808242187500001,0.3776015625,-1.2909453125,4.6411484375,-7.69769921875,1.01508203125,-3.3861640625,-2.87046484375,-4.55046484375,-1.4524609375,-0.1319453125,-7.5098671875,-7.92192578125,-2.845625,-6.30783203125,-4.794140625,-6.059078125,-4.4719765625,-6.01710546875,-5.19716015625,-7.39412109375,7.741234375,4.36370703125,-0.96048046875,-0.17284375,0.8663125
-5.81172265625,-4.12493359375,-4.57545703125,-2.99533203125,0.15682421875,-0.2113984375,-2.5779453125,2.9881484375,-7.84369921875,1.30608203125,-4.5051640625,-6.03746484375,-5.99146484375,-1.3234609375,-1.1479453125,-12.1488671875,-5.86392578125,-2.708625,-7.13783203125,-7.847140625,-9.528078125,-3.8369765625,-7.04910546875,-7.12616015625,-11.99212109375,5.070234375,2.23670703125,-2.91748046875,-2.68384375,-1.6096875
-8.70672265625,-6.27793359375,-6.48845703125,-3.89833203125,0.37782421875,-0.2963984375,-2.9579453125,2.2921484375,-6.96269921875,1.78008203125,-4.8381640625,-7.88446484375,-6.70746484375,-0.8114609375,-1.5229453125,-14.5518671875,-3.60392578125,-2.154625,-7.45283203125,-9.478140625,-11.535078125,-2.5989765625,-7.27310546875,-7.98116015625,-15.37112109375,2.667234375,1.04670703125,-3.98348046875,-4.74484375,-3.6526875
-9.42172265625,-6.37893359375,-6.35945703125,-3.77533203125,0.63282421875,0.2726015625,-2.0499453125,2.7841484375,-5.72569921875,2.31208203125,-4.1411640625,-7.52746484375,-6.45446484375,-0.1204609375,-1.1139453125,-14.0648671875,-1.83592578125,-1.256625,-7.15983203125,-9.261140625,-11.521078125,-1.0459765625,-6.55110546875,-7.38616015625,-16.63712109375,1.064234375,1.28570703125,-3.39348046875,-5.41684375,-4.4456875
-7.94272265625,-4.36993359375,-4.16545703125,-2.96133203125,0.99282421875,1.5146015625,0.1160546875,4.3031484375,-4.58969921875,2.95208203125,-2.3741640625,-4.86146484375,-5.29846484375,0.7265390625,0.1200546875,-10.7998671875,-0.93392578125,-0.0826250000000002,-6.17183203125,-7.150140625,-9.347078125,0.5520234375,-4.88610546875,-5.21516015625,-15.31212109375,0.624234375,3.18170703125,-0.88448046875,-4.05384375,-3.4296875
-4.79272265625,-0.79193359375,-0.510457031250001,-1.98333203125,1.67682421875,3.2766015625,3.0860546875,6.3421484375,-3.61869921875,3.85108203125,0.2468359375,-0.64446484375,-3.56446484375,1.8375390625,2.0760546875,-5.6098671875,-0.98292578125,1.285375,-4.47983203125,-3.532140625,-5.453078125,1.9500234375,-2.48110546875,-1.70516015625,-11.56812109375,1.454234375,6.52370703125,3.08751953125,-0.67684375,-0.5586875
-0.89872265625,3.31006640625,3.54754296875,-1.30733203125,2.78582421875,5.1866015625,6.0670546875,8.1491484375,-2.68569921875,5.03008203125,3.2058359375,3.77053515625,-1.72546484375,3.2135390625,4.4310546875,0.1521328125,-1.95892578125,2.659375,-2.28583203125,0.809859375,-0.841078125,2.8780234375,0.19789453125,2.51083984375,-6.27712109375,3.398234375,10.61870703125,7.41851953125,3.91815625,3.6293125
2.76227734375,6.80306640625,6.95454296875,-1.12533203125,4.14082421875,6.7486015625,8.2290546875,9.0331484375,-1.76469921875,6.31308203125,5.8248359375,7.01153515625,-0.21846484375,4.6615390625,6.7210546875,5.1371328125,-3.73592578125,3.791375,-0.0058320312500002,4.959859375,3.301921875,3.1320234375,2.57889453125,6.60483984375,-0.685121093749999,6.162234375,14.55470703125,10.82951953125,8.50515625,8.2643125
5.54827734375,8.95306640625,9.08754296875,-1.30333203125,5.35482421875,7.5626015625,9.0540546875,8.6971484375,-1.05169921875,7.40008203125,7.5228359375,8.27553515625,0.66653515625,5.8495390625,8.5020546875,8.4711328125,-5.97792578125,4.485375,1.85616796875,8.179859375,6.085921875,2.7070234375,4.20489453125,9.83883984375,4.04587890625,9.396234375,17.57070703125,12.45851953125,11.95115625,12.4663125
7.26927734375,9.63306640625,9.85054296875,-1.54733203125,6.00482421875,7.4896015625,8.4770546875,7.3371484375,-0.90269921875,7.94808203125,7.9808359375,7.54053515625,0.75553515625,6.3955390625,9.4260546875,9.9031328125,-8.15392578125,4.613375,2.83316796875,10.029859375,7.185921875,1.7900234375,4.83489453125,11.71683984375,7.13187890625,12.617234375,19.24570703125,12.18951953125,13.59415625,15.5273125
8.08327734375,9.21606640625,9.52654296875,-1.62333203125,5.83682421875,6.6906015625,6.8290546875,5.4921484375,-1.59769921875,7.68208203125,7.2068359375,5.42853515625,-0.0274648437499999,6.0085390625,9.2890546875,9.6851328125,-9.66592578125,4.125375,2.62216796875,10.367859375,6.832921875,0.6580234375,4.45889453125,12.03683984375,8.29687890625,15.214234375,19.53470703125,10.61651953125,13.38915625,17.0013125
8.34727734375,8.36406640625,8.62554296875,-1.41933203125,4.95282421875,5.5816015625,4.7490546875,3.8421484375,-3.02769921875,6.59708203125,5.5678359375,2.92953515625,-1.50646484375,4.6985390625,8.1360546875,8.4241328125,-9.97892578125,3.141375,1.25116796875,9.392859375,5.691921875,-0.3399765625,3.35289453125,10.98683984375,7.82287890625,16.735234375,18.77370703125,8.79851953125,11.92615625,16.8873125
8.45227734375,7.75506640625,7.75054296875,-0.87233203125,3.82682421875,4.7076015625,3.0370546875,3.0071484375,-4.54969921875,5.07708203125,3.7288359375,1.07753515625,-3.09546484375,2.8795390625,6.3370546875,6.9031328125,-8.74792578125,2.018375,-0.82483203125,7.633859375,4.622921875,-0.7929765625,2.07389453125,9.14783984375,6.45787890625,17.206234375,17.60870703125,7.84351953125,10.26215625,15.7353125
8.61027734375,7.75906640625,7.34954296875,0.0676679687500004,3.05182421875,4.5196015625,2.3540546875,3.2931484375,-5.24469921875,3.72008203125,2.3718359375,0.57153515625,-3.95446484375,1.1635390625,4.4360546875,5.7591328125,-6.01192578125,1.176375,-2.88683203125,5.733859375,4.276921875,-0.3819765625,1.21389453125,7.25583984375,5.04887890625,17.082234375,16.70070703125,8.41551953125,9.44215625,14.4243125
8.72127734375,8.23906640625,7.47354296875,1.35266796875,2.97382421875,5.1466015625,2.8850546875,4.5181484375,-4.49969921875,2.97208203125,1.8448359375,1.49553515625,-3.44946484375,0.00353906249999997,2.8840546875,5.1671328125,-2.34692578125,0.819375,-4.28783203125,4.129859375,4.743921875,0.8940234375,1.05889453125,5.84783984375,4.08887890625,16.876234375,16.36770703125,10.38451953125,9.95715625,13.6613125
8.50627734375,8.70306640625,7.79154296875,2.73166796875,3.53482421875,6.3556015625,4.2810546875,6.1161484375,-2.47469921875,2.92508203125,2.0368359375,3.37653515625,-1.60346484375,-0.4594609375,1.8920546875,4.8431328125,1.29507421875,0.855375,-4.70783203125,2.935859375,5.564921875,2.6760234375,1.50089453125,5.09483984375,3.55587890625,16.831234375,16.47370703125,12.95551953125,11.50215625,13.6063125
7.74627734375,8.63506640625,7.82754296875,3.72366796875,4.39982421875,7.7116015625,5.8900546875,7.4901484375,-0.13369921875,3.37608203125,2.5208359375,5.50953515625,0.76153515625,-0.3214609375,1.4760546875,4.3361328125,3.96007421875,1.059375,-4.19883203125,2.068859375,6.069921875,4.4280234375,2.21589453125,4.90483984375,3.07487890625,16.857234375,16.62070703125,15.15151953125,13.19415625,13.8503125
6.34027734375,7.65206640625,7.12754296875,3.67166796875,5.14482421875,8.7606015625,7.0270546875,8.2721484375,1.14530078125,3.95508203125,2.7668359375,7.24953515625,2.26553515625,0.1755390625,1.4940546875,3.2621328125,4.98407421875,1.206375,-3.10883203125,1.368859375,5.701921875,5.6330234375,2.84989453125,5.04183984375,2.16387890625,16.608234375,16.37070703125,16.25151953125,13.98815625,13.6543125
4.19027734375,5.48706640625,5.32954296875,1.95666796875,5.39382421875,9.1626015625,7.1640546875,8.3291484375,0.21030078125,4.22708203125,2.3038359375,8.13153515625,1.56853515625,0.6785390625,1.6620546875,1.3671328125,4.08907421875,1.082375,-1.92683203125,0.616859375,4.142921875,5.9070234375,3.08089453125,5.19283984375,0.402878906250002,15.631234375,15.38170703125,15.94051953125,13.09315625,12.3023125
1.24427734375,2.08606640625,2.32254296875,-1.59433203125,4.96982421875,8.8096015625,6.1270546875,7.7141484375,-3.25169921875,3.90008203125,0.9208359375,8.00153515625,-1.84246484375,0.8725390625,1.6850546875,-1.4098671875,1.45607421875,0.537375,-1.03983203125,-0.387140625,1.398921875,5.1420234375,2.72789453125,5.08683984375,-2.37612109375,13.662234375,13.52970703125,14.32351953125,10.32415625,9.4973125
-2.26872265625,-2.14893359375,-1.51545703125,-6.37633203125,4.03482421875,7.9386015625,4.2790546875,6.6881484375,-8.41569921875,3.06108203125,-1.1351640625,7.17653515625,-7.15246484375,0.7285390625,1.4800546875,-4.7978671875,-2.21292578125,-0.352625,-0.49183203125,-1.657140625,-2.115078125,3.6740234375,1.91389453125,4.68983984375,-5.89812109375,10.924234375,11.06170703125,11.91451953125,6.29415625,5.6393125
-2.26872265625,-2.14893359375,-1.51545703125,-6.37633203125,4.03482421875,7.9386015625,4.2790546875,6.6881484375,-8.41569921875,3.06108203125,-1.1351640625,7.17653515625,-7.15246484375,0.7285390625,1.4800546875,-4.7978671875,-2.21292578125,-0.352625,-0.49183203125,-1.657140625,-2.115078125,3.6740234375,1.91389453125,4.68983984375,-5.89812109375,10.924234375,11.06170703125,11.91451953125,6.29415625,5.6393125
