"Fp1","Fpz","Fp2","F7","F3","Fz","F4","F8","FC5","FC1","FC2","FC6","T7","C3","Cz","C4","T8","CP5","CP1","CP2","CP6","P7","P3","Pz","P4","P8","POz","O1","Oz","O2"
9.9738984375,13.399484375,13.1293671875,7.87098046875,15.20747265625,18.33066796875,18.23259765625,13.858421875,17.46578515625,16.77187109375,17.12732421875,22.59131640625,9.91876953125,13.0791328125,14.9890625,21.611171875,12.88280859375,3.225796875,25.10345703125,24.256015625,14.160421875,10.353828125,12.584890625,20.7890703125,19.93366015625,20.57809765625,14.3126484375,2.80978515625,13.95440625,9.89014453125
9.5298984375,13.052484375,11.9903671875,8.00598046875,13.94947265625,18.14966796875,16.13859765625,14.511421875,17.61378515625,15.17887109375,14.87632421875,21.64431640625,11.48976953125,11.6611328125,13.0000625,18.582171875,11.29980859375,2.332796875,22.50945703125,21.364015625,12.113421875,8.645828125,8.945890625,17.3760703125,15.68866015625,17.58209765625,10.9866484375,-0.48021484375,10.19440625,6.02414453125
8.8498984375,12.132484375,10.8343671875,7.83098046875,12.63347265625,17.04066796875,14.22459765625,14.589421875,17.48378515625,13.25987109375,12.44432421875,19.83131640625,12.46876953125,9.7671328125,10.4350625,14.592171875,9.41480859375,1.500796875,19.53845703125,17.758015625,9.114421875,7.460828125,5.918890625,13.7830703125,10.98366015625,14.29109765625,7.5336484375,-3.13621484375,6.84340625,2.48214453125
7.9778984375,10.666484375,9.5663671875,7.37198046875,11.44047265625,15.25566796875,12.54059765625,14.042421875,17.19078515625,11.31087109375,10.02132421875,17.13631640625,12.96976953125,7.5421328125,7.5520625,9.762171875,7.17380859375,0.848796875,16.37345703125,13.559015625,5.244421875,6.707828125,3.566890625,10.0880703125,5.93766015625,10.79809765625,4.0636484375,-4.99921484375,4.05640625,-0.66885546875
7.0178984375,8.934484375,8.1613671875,6.73198046875,10.62847265625,13.40766796875,11.09659765625,12.953421875,16.93178515625,9.82587109375,7.96432421875,13.87031640625,13.19476953125,5.3561328125,4.9310625,4.673171875,4.65880859375,0.471796874999999,13.38245703125,9.233015625,0.968421875,6.166828125,1.787890625,6.4910703125,0.91966015625,7.40609765625,0.7766484375,-6.06021484375,1.90840625,-3.38285546875
6.0588984375,7.374484375,6.7353671875,6.01698046875,10.39047265625,12.14666796875,9.87959765625,11.473421875,16.85478515625,9.24787109375,6.66232421875,10.56331640625,13.23176953125,3.6581328125,3.2450625,0.175171874999998,2.11980859375,0.384796875,10.95145703125,5.416015625,-3.042578125,5.697828125,0.404890625,3.2450703125,-3.55933984375,4.56009765625,-2.1263515625,-6.45821484375,0.36440625,-5.60185546875
5.1418984375,6.397484375,5.4923671875,5.30098046875,10.73247265625,11.86666796875,8.85859765625,9.766421875,16.97778515625,9.76087109375,6.35532421875,7.75931640625,12.95676953125,2.8031328125,2.9570625,-2.932828125,-0.0651914062500003,0.486796875,9.31245703125,2.660015625,-6.155578125,5.353828125,-0.753109375,0.5410703125,-7.02333984375,2.70209765625,-4.5473515625,-6.43821484375,-0.740593749999999,-7.28285546875
4.2708984375,6.182484375,4.5983671875,4.60698046875,11.42347265625,12.55066796875,7.99159765625,7.982421875,17.18178515625,11.19387109375,6.98032421875,5.81331640625,12.10776953125,2.9211328125,4.0630625,-4.216828125,-1.52019140625,0.599796875,8.44645703125,1.192015625,-7.979578125,5.294828125,-1.817109375,-1.6009296875,-9.20433984375,2.08909765625,-6.5493515625,-6.27721484375,-1.67559375,-8.44585546875
3.4438984375,6.571484375,4.0763671875,3.92098046875,12.06647265625,13.76566796875,7.22059765625,6.256421875,17.26478515625,13.04587109375,8.11432421875,4.79231640625,10.47376953125,3.8581328125,5.9960625,-3.743828125,-2.03619140625,0.536796874999999,8.07345703125,0.811015625,-8.466578125,5.585828125,-2.912109375,-3.3709296875,-10.13333984375,2.69109765625,-8.3073515625,-6.18821484375,-2.71259375,-9.18485546875
2.6438984375,7.114484375,3.7733671875,3.19598046875,12.22447265625,14.80666796875,6.47759765625,4.724421875,17.03078515625,14.59887109375,9.07832421875,4.51231640625,8.10676953125,5.1981328125,7.7560625,-2.016828125,-1.66419140625,0.176796875,7.73845703125,0.971015625,-7.877578125,6.061828125,-4.161109375,-5.0939296875,-10.09633984375,4.22509765625,-9.9923515625,-6.26221484375,-3.98559375,-9.60585546875
1.8158984375,7.251484375,3.3993671875,2.37198046875,11.55647265625,14.94966796875,5.68859765625,3.541421875,16.37178515625,15.10687109375,9.16432421875,4.68531640625,5.42476953125,6.3691328125,8.2380625,0.240171875,-0.68519140625,-0.487203125,6.96845703125,1.028015625,-6.637578125,6.362828125,-5.667109375,-7.0849296875,-9.49733984375,6.30309765625,-11.6383515625,-6.46421484375,-5.38759375,-9.74785546875
0.8608984375,6.559484375,2.6383671875,1.40498046875,9.92447265625,13.74066796875,4.81359765625,2.879421875,15.32378515625,14.03487109375,7.92332421875,5.07531640625,3.13576953125,6.8321328125,6.6710625,2.338171875,0.53580859375,-1.354203125,5.46245703125,0.507015624999999,-5.153578125,6.118828125,-7.431109375,-9.4859296875,-8.69233984375,8.58709765625,-13.0883515625,-6.69421484375,-6.58959375,-9.55485546875
-0.2981015625,4.972484375,1.3523671875,0.32598046875,7.47747265625,11.22066796875,3.92059765625,2.886421875,14.06078515625,11.29687109375,5.40332421875,5.58531640625,1.93876953125,6.2761328125,2.9980625,3.811171875,1.71680859375,-2.260203125,3.24845703125,-0.716984375000001,-3.693578125,5.167828125,-9.288109375,-12.1539296875,-7.87233984375,10.86009765625,-14.0313515625,-6.85421484375,-7.17259375,-8.92885546875
-1.6001015625,2.862484375,-0.2356328125,-0.72301953125,4.67547265625,7.98166796875,3.23859765625,3.627421875,12.84378515625,7.40187109375,2.22732421875,6.25331640625,2.15276953125,4.7681328125,-1.9799375,4.520171875,2.73480859375,-3.024203125,0.737457031249999,-2.381984375,-2.354578125,3.663828125,-10.884109375,-14.6349296875,-7.03933984375,12.99109765625,-14.1123515625,-6.87921484375,-6.81759375,-7.82385546875
-2.7751015625,0.942484375000001,-1.5176328125,-1.48901953125,2.22847265625,5.03166796875,3.12359765625,5.035421875,11.95178515625,3.40287109375,-0.557675781250001,7.17131640625,3.53676953125,2.7761328125,-6.7989375,4.647171875,3.59280859375,-3.471203125,-1.33254296875,-3.923984375,-1.102578125,2.022828125,-11.722109375,-16.2419296875,-6.02933984375,14.83709765625,-13.0243515625,-6.69821484375,-5.42459375,-6.28485546875
-3.3761015625,0.00348437500000109,-1.7396328125,-1.65101953125,0.929472656249999,3.47866796875,3.92759765625,6.924421875,11.65578515625,0.627871093750002,-1.81567578125,8.40931640625,5.47876953125,1.0611328125,-9.8049375,4.629171875,4.34180859375,-3.398203125,-2.06854296875,-4.615984375,0.166421875,0.773828125,-11.267109375,-16.2099296875,-4.56533984375,16.21909765625,-10.5533515625,-6.17721484375,-3.11159375,-4.40685546875
-2.9421015625,0.619484375000001,-0.3736328125,-0.91001953125,1.43247265625,4.13566796875,5.84359765625,9.036421875,12.22378515625,0.259871093750002,-0.718675781250001,9.96631640625,7.43076953125,0.4651328125,-9.7159375,5.022171875,5.01480859375,-2.548203125,-0.67854296875,-3.753984375,1.588421875,0.394828124999999,-9.076109375,-13.9169296875,-2.31033984375,16.99509765625,-6.6043515625,-5.10321484375,-0.10359375,-2.25485546875
-1.2061015625,2.919484375,2.5743671875,0.89198046875,4.02547265625,7.17266796875,8.77259765625,11.099421875,13.87878515625,2.91687109375,2.93332421875,11.74931640625,9.24676953125,1.6271328125,-6.0819375,6.323171875,5.62780859375,-0.674203125,3.24645703125,-0.878984375,3.304421875,1.192828125,-4.967109375,-9.1179296875,1.01066015625,17.18909765625,-1.2503515625,-3.26121484375,3.37540625,0.18314453125
1.7358984375,6.518484375,6.4933671875,3.67298046875,8.46547265625,11.99766796875,12.29559765625,12.883421875,16.69478515625,8.39687109375,8.58732421875,13.57831640625,11.14676953125,4.7341328125,0.539062500000001,8.770171875,6.19180859375,2.302796875,9.51845703125,4.009015625,5.383421875,3.212828125,0.821890625,-2.1319296875,5.44766015625,17.01309765625,5.1776484375,-0.58021484375,7.12640625,2.94114453125
5.4188984375,10.627484375,10.3823671875,7.07198046875,13.97347265625,17.42766796875,15.76659765625,14.240421875,20.46778515625,15.67587109375,15.06532421875,15.21831640625,13.39376953125,9.3951328125,8.7320625,12.219171875,6.71280859375,6.130796875,17.29245703125,10.334015625,7.738421875,6.205828125,7.573890625,6.1250703125,10.67166015625,16.74409765625,12.0256484375,2.72678515625,10.90540625,5.93614453125
9.1428984375,14.294484375,13.2053671875,10.52498046875,19.42547265625,22.07866796875,18.49959765625,15.116421875,24.66178515625,23.17087109375,20.91732421875,16.42531640625,15.93276953125,14.7131328125,16.6530625,16.147171875,7.16380859375,10.198796875,25.22045703125,17.029015625,10.055421875,9.667828125,14.201890625,14.3040703125,15.94466015625,16.51409765625,18.3656484375,6.13278515625,14.34240625,8.87014453125
12.1908984375,16.691484375,14.2613671875,13.41198046875,23.67647265625,24.79566796875,19.99659765625,15.516421875,28.50278515625,29.16487109375,24.86132421875,17.01331640625,18.26676953125,19.5351328125,22.5670625,19.807171875,7.47980859375,13.680796875,31.78345703125,22.805015625,11.842421875,12.950828125,19.506890625,20.9560703125,20.28266015625,16.18509765625,23.2036484375,8.90378515625,16.92840625,11.23214453125
14.0298984375,17.364484375,13.4103671875,15.22698046875,25.88647265625,24.97166796875,20.08659765625,15.489421875,31.19778515625,32.30487109375,26.15732421875,16.91031640625,19.63476953125,22.7891328125,25.3110625,22.461171875,7.57680859375,15.795796875,35.68945703125,26.533015625,12.598421875,15.433828125,22.522890625,24.9250703125,22.76266015625,15.42409765625,25.7516484375,10.33678515625,18.14040625,12.45714453125
14.4518984375,16.359484375,11.1273671875,15.72898046875,25.76347265625,22.69466796875,18.95859765625,15.127421875,32.20978515625,32.01787109375,24.78932421875,16.18831640625,19.42276953125,23.8091328125,24.5840625,23.604171875,7.40580859375,16.091796875,36.24545703125,27.588015625,12.038421875,16.689828125,22.799890625,25.6700703125,22.85766015625,13.92409765625,25.6796484375,10.02678515625,17.63940625,12.16614453125
13.6008984375,14.221484375,8.3593671875,15.01598046875,23.64247265625,18.67166796875,17.07859765625,14.584421875,31.47978515625,28.71387109375,21.42432421875,15.06231640625,17.56276953125,22.5511328125,20.9840625,23.097171875,7.00480859375,14.628796875,33.57245703125,26.019015625,10.246421875,16.622828125,20.548890625,23.4020703125,20.62666015625,11.63809765625,23.2096484375,8.05578515625,15.44740625,10.36014453125
11.8848984375,11.795484375,6.1913671875,13.50398046875,20.36147265625,13.97166796875,15.02159765625,14.044421875,29.45578515625,23.63787109375,17.16532421875,13.81231640625,14.68676953125,19.5971328125,15.7870625,21.140171875,6.48380859375,11.968796875,28.54745703125,22.450015625,7.635421875,15.471828125,16.545890625,18.9510703125,16.66166015625,8.84709765625,19.0036484375,4.97678515625,11.96540625,7.43614453125
9.8148984375,9.906484375,5.4013671875,11.77698046875,16.94647265625,9.65266796875,13.26359765625,13.649421875,26.90278515625,18.38987109375,13.16532421875,12.65931640625,11.91176953125,15.9221328125,10.5000625,18.112171875,5.95080859375,8.931796875,22.45745703125,17.746015625,4.737421875,13.675828125,11.809890625,13.3980703125,11.77866015625,6.03909765625,13.8706484375,1.56178515625,7.81040625,3.98414453125
7.8258984375,9.011484375,6.1093671875,10.37198046875,14.21147265625,6.43966796875,12.01759765625,13.426421875,24.57078515625,14.31387109375,10.23132421875,11.63031640625,10.33676953125,12.4861328125,6.3150625,14.361171875,5.40280859375,6.218796875,16.50045703125,12.611015625,1.922421875,11.624828125,7.203890625,7.6240703125,6.63166015625,3.66009765625,8.4386484375,-1.55721484375,3.55240625,0.51114453125
6.1638984375,9.014484375,7.7193671875,9.56598046875,12.47047265625,4.55266796875,11.15859765625,13.246421875,22.87778515625,12.01787109375,8.55132421875,10.51731640625,10.51076953125,9.8601328125,3.7120625,10.069171875,4.66680859375,4.108796875,11.37545703125,7.335015625,-0.766578125000001,9.471828125,3.126890625,2.0310703125,1.47366015625,1.89009765625,2.9606484375,-4.14921484375,-0.48059375,-2.75585546875
4.8418984375,9.350484375,9.2053671875,9.27898046875,11.49747265625,3.71766796875,10.30059765625,12.842421875,21.79678515625,11.26987109375,7.68332421875,8.94231640625,12.17176953125,8.0621328125,2.3970625,5.284171875,3.44080859375,2.397796875,7.16745703125,1.852015625,-3.581578125,7.110828125,-0.493109375,-3.4319296875,-3.77133984375,0.586097656249999,-2.6183515625,-6.37021484375,-4.21159375,-5.84085546875
3.6848984375,9.276484375,9.5683671875,9.13698046875,10.75547265625,3.33666796875,8.98959765625,11.887421875,20.97378515625,11.25587109375,6.80132421875,6.55431640625,14.42676953125,6.7001328125,1.5870625,0.0781718749999989,1.42180859375,0.618796875,3.55245703125,-3.953984375,-6.843578125,4.391828125,-3.946109375,-8.9699296875,-9.20733984375,-0.592902343750001,-8.3843515625,-8.48721484375,-7.65659375,-8.82285546875
2.4508984375,8.222484375,8.2353671875,8.66898046875,9.72447265625,2.77766796875,6.91859765625,10.132421875,19.99178515625,11.04987109375,5.12632421875,3.23631640625,16.21676953125,5.3031328125,0.4790625,-5.268828125,-1.51819140625,-1.592203125,0.163457031249999,-9.920984375,-10.671578125,1.406828125,-7.377109375,-14.5999296875,-14.64933984375,-1.96690234375,-14.1703515625,-10.54921484375,-10.73759375,-11.62385546875
0.9698984375,6.028484375,5.2343671875,7.52798046875,8.16547265625,1.64166796875,4.08559765625,7.564421875,18.60978515625,10.03687109375,2.31832421875,-0.755683593749998,16.80276953125,3.6491328125,-1.3509375,-10.192828125,-5.18519140625,-4.225203125,-3.12654296875,-15.467984375,-14.800578125,-1.375171875,-10.572109375,-19.9559296875,-19.52233984375,-3.61890234375,-19.4503515625,-12.22721484375,-13.18559375,-13.91785546875
-0.7661015625,2.997484375,1.1663671875,5.63998046875,6.19647265625,-0.10633203125,0.834597656250001,4.491421875,16.85178515625,8.11487109375,-1.33467578125,-4.81068359375,15.97776953125,1.8831328125,-3.7949375,-13.934828125,-9.00919140625,-6.861203125,-6.10854296875,-19.732984375,-18.597578125,-3.248171875,-13.003109375,-24.3429296875,-23.01433984375,-5.27790234375,-23.4593515625,-12.93221484375,-14.60559375,-15.23185546875
-2.5851015625,-0.218515624999998,-2.9806328125,3.22898046875,4.18047265625,-2.18033203125,-2.21340234375,1.504421875,14.94278515625,5.65187109375,-5.00567578125,-8.13268359375,14.01276953125,0.4071328125,-6.3239375,-15.744828125,-12.14719140625,-8.884203125,-8.35154296875,-21.874984375,-21.243578125,-3.602171875,-14.084109375,-26.9609296875,-24.37733984375,-6.35890234375,-25.4503515625,-12.11521484375,-14.63859375,-15.13785546875
-4.1921015625,-2.846515625,-6.1096328125,0.73198046875,2.53447265625,-4.11433203125,-4.33940234375,-0.688578125000001,13.16678515625,3.25587109375,-7.65667578125,-10.00068359375,11.45276953125,-0.363867187499999,-8.2549375,-15.133828125,-13.74719140625,-9.757203125,-9.39454296875,-21.377984375,-22.016578125,-2.220171875,-13.451109375,-27.1689296875,-23.19733984375,-6.19290234375,-24.9573515625,-9.55521484375,-13.13659375,-13.45085546875
-5.2531015625,-4.246515625,-7.3526328125,-1.34201953125,1.55747265625,-5.41633203125,-4.94940234375,-1.494578125,11.76678515625,1.52087109375,-8.43967578125,-9.99868359375,8.92076953125,-0.2178671875,-9.0129375,-12.035828125,-13.26719140625,-9.237203125,-8.91154296875,-18.234984375,-20.522578125,0.609828124999999,-11.101109375,-24.7009296875,-19.51833984375,-4.32890234375,-21.9283515625,-5.46621484375,-10.24059375,-10.30485546875
-5.5011015625,-4.122515625,-6.3696328125,-2.57101953125,1.35347265625,-5.71633203125,-3.75640234375,-0.646578125000001,10.90478515625,0.830871093750002,-6.99867578125,-8.13168359375,6.95476953125,0.780132812500002,-8.3029375,-6.847828125,-10.69619140625,-7.438203125,-6.80454296875,-12.935984375,-16.812578125,4.210828125,-7.363109375,-19.7499296875,-13.80733984375,-0.776902343750001,-16.7093515625,-0.39421484375,-6.33359375,-6.09685546875
-4.8301015625,-2.619515625,-3.5046328125,-2.73601953125,1.85747265625,-4.88333203125,-0.887402343749999,1.690421875,10.66178515625,1.27987109375,-3.55467578125,-4.78768359375,5.87876953125,2.3521328125,-6.1429375,-0.327828125,-6.55419140625,-4.759203125,-3.22154296875,-6.303984375,-11.356578125,7.742828125,-2.746109375,-12.9269296875,-6.79033984375,3.97609765625,-9.9353515625,5.00278515625,-1.90759375,-1.33085546875
-3.3461015625,-0.242515624999999,0.3433671875,-1.87301953125,2.90947265625,-3.07133203125,3.14959765625,4.968421875,11.04278515625,2.70687109375,1.21232421875,-0.589683593749999,5.69976953125,4.1661328125,-2.8159375,6.582171875,-1.69819140625,-1.740203125,1.47745703125,0.737015625,-4.934578125,10.456828125,2.220890625,-5.1099296875,0.71966015625,9.13109765625,-2.3873515625,10.14578515625,2.57440625,3.51814453125
-1.3201015625,2.343484375,4.0913671875,-0.23001953125,4.32747265625,-0.659332031250001,7.59659765625,8.452421875,11.97378515625,4.78687109375,6.40932421875,3.78231640625,6.11676953125,5.9731328125,1.2170625,12.951171875,2.95380859375,1.097796875,6.77945703125,7.365015625,1.526421875,11.916828125,7.088890625,2.7550703125,7.94966015625,13.82609765625,5.1156484375,14.61978515625,6.72840625,8.06214453125
0.9048984375,4.570484375,6.9023671875,1.83598046875,5.94347265625,1.89066796875,11.65359765625,11.444421875,13.30778515625,7.14287109375,11.15832421875,7.72731640625,6.67976953125,7.6581328125,5.3890625,18.016171875,6.65780859375,3.392796875,12.09145703125,12.965015625,7.120421875,12.109828125,11.496890625,9.8160703125,14.23466015625,17.34609765625,11.7956484375,18.15378515625,10.23040625,11.97214453125
3.0088984375,6.121484375,8.4463671875,3.95898046875,7.62047265625,4.15766796875,14.68859765625,13.470421875,14.82978515625,9.42187109375,14.77632421875,10.80531640625,7.05176953125,9.1921328125,9.1130625,21.296171875,8.97080859375,4.992796875,16.81145703125,17.147015625,11.119421875,11.386828125,15.129890625,15.4150703125,19.04266015625,19.24409765625,16.9966484375,20.57078515625,12.77740625,14.93714453125
4.7318984375,6.960484375,8.8723671875,5.82898046875,9.23647265625,5.84466796875,16.38159765625,14.368421875,16.29678515625,11.34087109375,16.87832421875,12.75431640625,7.17976953125,10.5301328125,11.8860625,22.654171875,9.79680859375,5.931796875,20.40445703125,19.712015625,13.098421875,10.234828125,17.685890625,19.1300703125,22.00266015625,19.36209765625,20.2766484375,21.75178515625,14.11440625,16.66914453125
5.8898984375,7.248484375,8.5913671875,7.21698046875,10.66147265625,6.82166796875,16.77059765625,14.276421875,17.47678515625,12.70987109375,17.42332421875,13.49331640625,7.24576953125,11.5421328125,13.4030625,22.290171875,9.33480859375,6.323796875,22.49145703125,20.634015625,12.996421875,9.016828125,18.902890625,20.7870703125,22.93466015625,17.81309765625,21.4906484375,21.65278515625,14.09740625,16.97414453125
6.3668984375,7.222484375,8.0313671875,7.98398046875,11.75847265625,7.12466796875,16.17059765625,13.542421875,18.20778515625,13.43687109375,16.68932421875,13.10431640625,7.46076953125,12.0471328125,13.6340625,20.657171875,7.97680859375,6.275796875,22.92745703125,20.048015625,11.097421875,7.849828125,18.658890625,20.4850703125,21.89766015625,14.92709765625,20.8086484375,20.33978515625,12.77140625,15.83614453125
6.1268984375,7.102484375,7.4723671875,8.10398046875,12.41847265625,6.91566796875,15.01059765625,12.548421875,18.44078515625,13.53487109375,15.17632421875,11.80131640625,7.88476953125,11.9491328125,12.8320625,18.305171875,6.15380859375,5.854796875,21.85145703125,18.244015625,7.934421875,6.693828125,17.074890625,18.5870703125,19.20266015625,11.20709765625,18.6556484375,18.01278515625,10.38140625,13.45714453125
5.2648984375,7.030484375,6.9953671875,7.69598046875,12.62947265625,6.40066796875,13.68059765625,11.551421875,18.27578515625,13.12387109375,13.44832421875,9.88631640625,8.43176953125,11.3771328125,11.4430625,15.715171875,4.21480859375,5.131796875,19.67345703125,15.638015625,4.150421875,5.524828125,14.538890625,15.6610703125,15.36266015625,7.25609765625,15.5656484375,15.00278515625,7.30640625,10.21614453125
4.0528984375,7.052484375,6.5333671875,7.03698046875,12.52147265625,5.77466796875,12.41159765625,10.608421875,17.94578515625,12.42987109375,11.96432421875,7.67431640625,8.99076953125,10.7051328125,9.9670625,13.192171875,2.34980859375,4.246796875,16.98745703125,12.700015625,0.350421875,4.469828125,11.624890625,12.3380703125,10.96266015625,3.67309765625,12.0196484375,11.71578515625,3.96040625,6.56314453125
2.9118984375,7.134484375,5.9873671875,6.49998046875,12.32047265625,5.18066796875,11.26559765625,9.619421875,17.74678515625,11.72887109375,10.94632421875,5.42631640625,9.53276953125,10.4061328125,8.8040625,10.829171875,0.59680859375,3.413796875,14.40845703125,9.854015625,-3.020578125,3.805828125,8.906890625,9.1290703125,6.50666015625,0.923097656249999,8.3316484375,8.56678515625,0.70140625,2.92614453125
2.2768984375,7.202484375,5.3443671875,6.41998046875,12.23847265625,4.68166796875,10.18559765625,8.444421875,17.92278515625,11.25287109375,10.34632421875,3.28531640625,10.12476953125,10.8121328125,8.1500625,8.558171875,-1.08819140625,2.856796875,12.39145703125,7.371015625,-5.742578125,3.867828125,6.776890625,6.2900703125,2.31466015625,-0.756902343750001,4.6246484375,5.89678515625,-2.21959375,-0.34685546875
2.4108984375,7.188484375,4.7043671875,6.94098046875,12.36447265625,4.24766796875,9.08459765625,7.010421875,18.56378515625,11.07887109375,9.91332421875,1.28531640625,10.90176953125,11.9291328125,7.9690625,6.249171875,-2.73619140625,2.715796875,11.08545703125,5.290015625,-7.817578125,4.874828125,5.330890625,3.7870703125,-1.47933984375,-1.38890234375,0.9066484375,3.90678515625,-4.66459375,-2.99485546875
3.2858984375,7.044484375,4.2213671875,7.93698046875,12.63347265625,3.80766796875,7.92659765625,5.383421875,19.57378515625,11.09687109375,9.35232421875,-0.585683593749998,12.00076953125,13.4091328125,8.0250625,3.830171875,-4.28719140625,2.969796875,10.29345703125,3.436015625,-9.381578125,6.763828125,4.396890625,1.3690703125,-4.85033984375,-1.20690234375,-2.8203515625,2.63278515625,-6.59259375,-4.85185546875
4.5998984375,6.740484375,3.9963671875,9.05298046875,12.88447265625,3.33566796875,6.74959765625,3.763421875,20.71478515625,11.07487109375,8.48232421875,-2.29668359375,13.45476953125,14.6901328125,7.9820625,1.366171875,-5.59219140625,3.418796875,9.56045703125,1.523015625,-10.585578125,9.094828125,3.657890625,-1.2639296875,-7.77233984375,-0.569902343750002,-6.4643515625,1.97078515625,-8.01759375,-5.86685546875
5.9098984375,6.251484375,4.0173671875,9.84698046875,12.95247265625,2.88466796875,5.64859765625,2.410421875,21.69378515625,10.76387109375,7.31132421875,-3.73868359375,15.07076953125,15.2121328125,7.5050625,-0.931828125000001,-6.47419140625,3.738796875,8.36145703125,-0.676984375,-11.522578125,11.114828125,2.830890625,-4.2889296875,-10.14833984375,0.150097656249999,-9.8033515625,1.74878515625,-8.94659375,-6.12985546875
6.7808984375,5.544484375,4.1583671875,9.94898046875,12.72847265625,2.52166796875,4.72659765625,1.525421875,22.23578515625,9.98087109375,5.98832421875,-4.77468359375,16.36676953125,14.6191328125,6.3560625,-2.774828125,-6.83819140625,3.585796875,6.31345703125,-3.178984375,-12.198578125,12.000828125,1.789890625,-7.6349296875,-11.82033984375,0.657097656249999,-12.5163515625,1.80578515625,-9.35959375,-5.86385546875
6.8968984375,4.585484375,4.2103671875,9.18598046875,12.15247265625,2.23066796875,4.02959765625,1.158421875,22.12778515625,8.65187109375,4.70232421875,-5.32568359375,16.68476953125,12.8791328125,4.4600625,-3.888828125,-6.72219140625,2.724796875,3.33345703125,-5.733984375,-12.563578125,11.200828125,0.613890625,-10.9629296875,-12.63833984375,0.789097656249998,-14.2683515625,2.05378515625,-9.22959375,-5.37485546875
6.1258984375,3.350484375,3.9273671875,7.61798046875,11.18647265625,1.86666796875,3.52659765625,1.201421875,21.22278515625,6.81987109375,3.60332421875,-5.43868359375,15.48476953125,10.3081328125,1.9260625,-4.099828125,-6.29019140625,1.142796875,-0.285542968750001,-7.882984375,-12.528578125,8.730828125,-0.453109375,-13.7529296875,-12.52933984375,0.535097656249999,-14.8133515625,2.46678515625,-8.58259375,-4.93885546875
4.5558984375,1.871484375,3.1023671875,5.52098046875,9.82647265625,1.24466796875,3.13159765625,1.458421875,19.44878515625,4.65987109375,2.78132421875,-5.26968359375,12.69076953125,7.4931328125,-0.9429375,-3.350828125,-5.74519140625,-0.891203125000001,-3.92554296875,-9.102984375,-11.974578125,5.255828125,-1.066109375,-15.4549296875,-11.50933984375,0.017097656249998,-14.0673515625,3.04578515625,-7.53659375,-4.69785546875
2.5018984375,0.284484375000002,1.6913671875,3.30398046875,8.17247265625,0.27166796875,2.76459765625,1.720421875,16.84478515625,2.47387109375,2.30732421875,-5.00268359375,8.87476953125,5.1471328125,-3.6799375,-1.688828125,-5.24019140625,-2.875203125,-6.78654296875,-8.962984375,-10.753578125,1.870828125,-0.859109375,-15.6429296875,-9.63433984375,-0.532902343750001,-12.1123515625,3.78578515625,-6.26259375,-4.58985546875
0.4528984375,-1.146515625,-0.0856328125000001,1.40398046875,6.48347265625,-0.944332031249999,2.42359765625,1.848421875,13.61978515625,0.664871093750001,2.24132421875,-4.74668359375,5.10476953125,3.9121328125,-5.7199375,0.770171874999999,-4.81019140625,-4.221203125,-8.08554296875,-7.245984375,-8.721578125,-0.345171875000001,0.455890625,-14.1109296875,-6.93833984375,-0.808902343750001,-9.1493515625,4.66978515625,-4.89659375,-4.36485546875
-1.0321015625,-2.083515625,-1.7486328125,0.18298046875,5.14547265625,-2.09633203125,2.20259765625,1.814421875,10.18478515625,-0.357128906249999,2.61732421875,-4.47068359375,2.50376953125,4.1771328125,-6.5509375,3.859171875,-4.36419140625,-4.463203125,-7.27754296875,-4.002984375,-5.792578125,-0.754171875000001,2.975890625,-10.9129296875,-3.41633984375,-0.48590234375,-5.4273515625,5.67978515625,-3.46459375,-3.67385546875
-1.4991015625,-2.248515625,-2.7426328125,-0.15901953125,4.52647265625,-2.80133203125,2.25859765625,1.691421875,7.08678515625,-0.315128906249997,3.38232421875,-4.01968359375,1.72576953125,5.9281328125,-5.8959375,7.345171875,-3.74419140625,-3.443203125,-4.24154296875,0.425015625,-2.021578125,0.615828124999999,6.504890625,-6.3499296875,0.90366015625,0.679097656249999,-1.2123515625,6.77778515625,-1.89159375,-2.22385546875
-0.7771015625,-1.578515625,-2.6976328125,0.36998046875,4.80047265625,-2.79133203125,2.73759765625,1.589421875,4.81978515625,0.791871093750002,4.37132421875,-3.20468359375,2.64776953125,8.7251328125,-3.8669375,10.918171875,-2.81619140625,-1.398203125,0.58145703125,5.453015625,2.319421875,3.119828125,10.502890625,-0.9399296875,5.84366015625,2.73009765625,3.2006484375,7.85178515625,-0.11859375,0.06514453125
0.9088984375,-0.288515624999999,-1.6546328125,1.54898046875,5.82747265625,-2.07233203125,3.68559765625,1.576421875,3.61278515625,2.60987109375,5.33132421875,-1.93468359375,4.47176953125,11.7941328125,-0.983937499999999,14.191171875,-1.56419140625,1.073796875,6.20245703125,10.344015625,6.724421875,5.744828125,14.167890625,4.6280703125,10.98866015625,5.41009765625,7.4236484375,8.66378515625,1.74440625,2.94614453125
2.9778984375,1.203484375,-0.0676328125000003,2.99098046875,7.18147265625,-0.94333203125,5.00059765625,1.670421875,3.32478515625,4.50587109375,5.99532421875,-0.295683593749999,6.16776953125,14.2691328125,1.9770625,16.769171875,-0.12019140625,3.198796875,11.29545703125,14.357015625,10.538421875,7.473828125,16.643890625,9.5780703125,15.70066015625,8.16009765625,10.9546484375,8.87978515625,3.34540625,5.85014453125
4.6988984375,2.464484375,1.4293671875,4.22898046875,8.30647265625,0.15066796875,6.44859765625,1.893421875,3.50778515625,5.79387109375,6.17632421875,1.45931640625,6.99076953125,15.4981328125,4.2530625,18.337171875,1.28280859375,4.292796875,14.61645703125,16.914015625,13.122421875,7.651828125,17.306890625,13.1860703125,19.24366015625,10.25109765625,13.2556484375,8.18078515625,4.19040625,8.03714453125
5.4918984375,3.256484375,2.3693671875,4.84698046875,8.74747265625,0.837667968750001,7.74959765625,2.350421875,3.62878515625,6.02587109375,5.82732421875,3.01831640625,6.78476953125,15.2941328125,5.3760625,18.765171875,2.42280859375,4.025796875,15.45745703125,17.740015625,14.046421875,6.210828125,16.006890625,14.9600703125,20.99466015625,11.03009765625,13.9386484375,6.43778515625,3.87440625,8.88414453125
5.1848984375,3.613484375,2.6963671875,4.61498046875,8.35647265625,0.97666796875,8.67859765625,3.219421875,3.30578515625,5.20587109375,5.05632421875,4.13531640625,5.92976953125,13.9921328125,5.3380625,18.139171875,3.19780859375,2.550796875,13.92845703125,16.921015625,13.218421875,3.646828125,13.129890625,14.7890703125,20.64666015625,10.18109765625,12.9576484375,3.82578515625,2.33340625,8.17314453125
4.0778984375,3.760484375,2.7163671875,3.57298046875,7.32947265625,0.689667968749999,9.11759765625,4.639421875,2.44978515625,3.78587109375,4.07732421875,4.70031640625,5.01276953125,12.2741328125,4.5610625,16.703171875,3.65580859375,0.417796875,10.89845703125,14.863015625,10.886421875,0.752828125,9.439890625,12.9880703125,18.31366015625,7.86309765625,10.6656484375,0.80878515625,-0.0695937500000001,6.21714453125
2.7598984375,3.916484375,2.8123671875,2.00798046875,6.05847265625,0.251667968750001,9.02359765625,6.547421875,1.22278515625,2.41987109375,3.09932421875,4.72631640625,4.43976953125,10.8201328125,3.6710625,14.733171875,3.90680859375,-1.691203125,7.58345703125,12.131015625,7.520421875,-1.751171875,5.749890625,10.1700703125,14.48066015625,4.62509765625,7.6646484375,-2.03421484375,-2.67559375,3.71014453125
1.7778984375,4.124484375,3.1403671875,0.33698046875,4.88047265625,-0.111332031250001,8.36759765625,8.579421875,-0.13021484375,1.59787109375,2.19732421875,4.26631640625,4.22376953125,9.9731328125,3.1670625,12.401171875,3.99480859375,-3.277203125,4.99245703125,9.220015625,3.629421875,-3.489171875,2.594890625,6.9820703125,9.80566015625,1.14209765625,4.5306484375,-4.24221484375,-4.83759375,1.39314453125
1.3738984375,4.220484375,3.5503671875,-1.05101953125,3.89747265625,-0.37833203125,7.10659765625,10.141421875,-1.44921484375,1.36587109375,1.23532421875,3.34431640625,4.04076953125,9.6091328125,3.1460625,9.708171875,3.80480859375,-4.223203125,3.47345703125,6.370015625,-0.402578125,-4.507171875,0.0738906250000002,3.8500703125,4.86066015625,-2.07390234375,1.5596484375,-5.65221484375,-6.21159375,-0.28385546875
1.4338984375,3.944484375,3.7493671875,-1.91601953125,2.98347265625,-0.74433203125,5.24659765625,10.656421875,-2.71321484375,1.33687109375,-0.0696757812500017,1.95831640625,3.48576953125,9.2561328125,3.2550625,6.537171875,3.11380859375,-4.768203125,2.63445703125,3.501015625,-4.372578125,-5.153171875,-2.095109375,0.8520703125,-0.0283398437500004,-4.83690234375,-1.3023515625,-6.42021484375,-6.88459375,-1.32785546875
1.6258984375,3.096484375,3.5053671875,-2.21401953125,1.94247265625,-1.46033203125,2.93159765625,9.860421875,-3.96721484375,0.959871093750001,-1.96967578125,0.139316406250002,2.36676953125,8.4061328125,2.8860625,2.806171875,1.72980859375,-5.301203125,1.63245703125,0.341015625000001,-8.185578125,-5.835171875,-4.317109375,-2.1879296875,-4.78733984375,-7.22390234375,-4.3053515625,-6.88621484375,-7.26359375,-2.09685546875
1.5988984375,1.642484375,2.7363671875,-2.09001953125,0.692472656249999,-2.64633203125,0.465597656250001,7.934421875,-5.20221484375,-0.123128906249999,-4.48967578125,-1.96668359375,0.863769531249998,6.8211328125,1.5110625,-1.375828125,-0.337191406250001,-6.096203125,-0.31254296875,-3.331984375,-11.725578125,-6.750171875,-6.840109375,-5.4839296875,-9.41633984375,-9.36490234375,-7.6313515625,-7.35021484375,-7.78859375,-3.01885546875
1.1148984375,-0.277515624999999,1.4913671875,-1.80801953125,-0.659527343750002,-4.20633203125,-1.76340234375,5.410421875,-6.29321484375,-1.87512890625,-7.36267578125,-4.09868359375,-0.516230468750001,4.6701328125,-1.0499375,-5.635828125,-2.82119140625,-7.156203125,-3.51454296875,-7.488984375,-14.782578125,-7.750171875,-9.592109375,-9.0729296875,-13.79633984375,-11.23190234375,-11.1703515625,-7.90621484375,-8.65259375,-4.29885546875
0.1218984375,-2.390515625,-0.0666328125,-1.64601953125,-1.87952734375,-5.89133203125,-3.41940234375,2.924421875,-7.05721484375,-3.91212890625,-10.12767578125,-5.93368359375,-1.17323046875,2.4281328125,-4.5729375,-9.414828125,-5.26919140625,-8.243203125,-7.69154296875,-11.780984375,-17.072578125,-8.443171875,-12.231109375,-12.7379296875,-17.59333984375,-12.58690234375,-14.5073515625,-8.41321484375,-9.69059375,-5.79885546875
-1.2341015625,-4.368515625,-1.6596328125,-1.77001953125,-2.75652734375,-7.40233203125,-4.32940234375,0.976421875,-7.35621484375,-5.72712890625,-12.31767578125,-7.19468359375,-0.724230468750001,0.627132812500001,-8.5379375,-12.120828125,-7.21419140625,-9.057203125,-12.12454296875,-15.634984375,-18.327578125,-8.467171875,-14.315109375,-16.0589296875,-20.33033984375,-13.09790234375,-17.0663515625,-8.58321484375,-10.47759375,-7.11085546875
-2.6591015625,-5.908515625,-2.9336328125,-2.16501953125,-3.22452734375,-8.47933203125,-4.52340234375,-0.191578125000001,-7.20521484375,-6.92512890625,-13.62067578125,-7.72668359375,0.785769531249999,-0.363867187499999,-12.2999375,-13.289828125,-8.33419140625,-9.400203125,-15.93154296875,-18.414984375,-18.368578125,-7.737171875,-15.469109375,-18.5239296875,-21.53633984375,-12.51990234375,-18.3073515625,-8.10621484375,-10.53859375,-7.75085546875
-3.8211015625,-6.799515625,-3.5866328125,-2.65601953125,-3.37852734375,-8.95733203125,-4.17740234375,-0.615578125000001,-6.77821484375,-7.34512890625,-13.92167578125,-7.52468359375,2.86176953125,-0.436867187499999,-15.2139375,-12.664828125,-8.53719140625,-9.226203125,-18.32754296875,-19.570984375,-17.129578125,-6.479171875,-15.432109375,-19.6179296875,-20.86333984375,-10.80690234375,-17.8363515625,-6.72821484375,-9.53859375,-7.33485546875
-4.4801015625,-6.976515625,-3.5246328125,-3.02001953125,-3.40052734375,-8.80233203125,-3.51140234375,-0.534578125000001,-6.33021484375,-7.04212890625,-13.26267578125,-6.69568359375,4.77076953125,0.313132812500001,-16.7339375,-10.222828125,-7.93719140625,-8.558203125,-18.76754296875,-18.742984375,-14.644578125,-5.055171875,-14.028109375,-18.8939296875,-18.14133984375,-8.10390234375,-15.4323515625,-4.30021484375,-7.35759375,-5.65685546875
-4.5641015625,-6.525515625,-2.9266328125,-3.10501953125,-3.45352734375,-8.11733203125,-2.71040234375,-0.272578125000001,-6.07221484375,-6.20312890625,-11.77967578125,-5.39868359375,5.88476953125,1.6901328125,-16.5179375,-6.183828125,-6.75319140625,-7.393203125,-17.03954296875,-15.842984375,-11.033578125,-3.737171875,-11.161109375,-16.0739296875,-13.41233984375,-4.67390234375,-11.0613515625,-0.82021484375,-4.06859375,-2.69385546875
-4.1721015625,-5.664515625,-2.1856328125,-2.91801953125,-3.60552734375,-7.10733203125,-1.90040234375,-0.102578125000001,-6.08421484375,-5.06412890625,-9.69567578125,-3.80668359375,5.96476953125,3.4531328125,-14.5529375,-1.030828125,-5.22619140625,-5.709203125,-13.30954296875,-11.114984375,-6.533578125,-2.609171875,-6.913109375,-11.1949296875,-6.98633984375,-0.83190234375,-4.9433515625,3.50878515625,0.10940625,1.41814453125
-3.5351015625,-4.698515625,-1.7616328125,-2.62301953125,-3.83652734375,-6.02533203125,-1.17840234375,-0.179578125000001,-6.32521484375,-3.86712890625,-7.33967578125,-2.10868359375,5.21676953125,5.3151328125,-11.2349375,4.513171875,-3.57619140625,-3.585203125,-8.15254296875,-5.166984375,-1.546578125,-1.615171875,-1.672109375,-4.7299296875,0.51166015625,3.07009765625,2.3686484375,8.24978515625,4.82840625,6.35614453125
-2.9431015625,-3.944515625,-1.9996328125,-2.47101953125,-4.06052734375,-5.10233203125,-0.614402343749999,-0.549578125,-6.69921484375,-2.83112890625,-5.13267578125,-0.508683593749998,4.13176953125,6.9431328125,-7.3109375,9.579171875,-2.00419140625,-1.291203125,-2.49754296875,1.106015625,3.344421875,-0.645171875000001,3.824890625,2.4100703125,8.16966015625,6.63709765625,9.9936484375,12.80078515625,9.60840625,11.58614453125
-2.6461015625,-3.623515625,-2.9666328125,-2.66501953125,-4.16352734375,-4.45133203125,-0.230402343749999,-1.168578125,-7.11421484375,-2.10612890625,-3.48667578125,0.802316406250002,3.20976953125,8.0171328125,-3.6639375,13.361171875,-0.70119140625,0.760796875,2.56245703125,6.710015625,7.463421875,0.423828124999999,8.656890625,9.0810703125,14.94666015625,9.45209765625,16.8776484375,16.54078515625,13.88540625,16.40214453125
-2.7561015625,-3.778515625,-4.4036328125,-3.23501953125,-4.02852734375,-3.99433203125,0.0355976562500011,-1.922578125,-7.48421484375,-1.71412890625,-2.64867578125,1.69131640625,2.76276953125,8.3401328125,-1.0389375,15.333171875,0.16880859375,2.185796875,6.06545703125,10.799015625,10.225421875,1.699828125,12.001890625,14.2210703125,19.92266015625,11.16309765625,22.0756484375,19.02078515625,17.13440625,20.07714453125
-3.2161015625,-4.269515625,-5.8276328125,-4.01601953125,-3.57552734375,-3.51033203125,0.282597656250001,-2.657578125,-7.72321484375,-1.54712890625,-2.61367578125,2.09331640625,2.83976953125,7.9011328125,0.1700625,15.386171875,0.51980859375,2.792796875,7.45445703125,12.869015625,11.316421875,3.181828125,13.409890625,17.1580703125,22.53666015625,11.61609765625,25.0206484375,20.09278515625,19.02140625,22.08714453125
-3.8621015625,-4.875515625,-6.7706328125,-4.74801953125,-2.81652734375,-2.80733203125,0.55659765625,-3.240578125,-7.77021484375,-1.44612890625,-3.16067578125,1.97431640625,3.24876953125,6.8381328125,-0.0169374999999992,13.806171875,0.369808593749999,2.616796875,6.70745703125,12.839015625,10.774421875,4.643828125,12.895890625,17.7540703125,22.71466015625,10.93209765625,25.6486484375,19.90278515625,19.49640625,22.30714453125
-4.5341015625,-5.427515625,-7.0156328125,-5.24001953125,-1.89852734375,-1.90533203125,0.753597656250001,-3.639578125,-7.63821484375,-1.32212890625,-4.00067578125,1.29831640625,3.62276953125,5.3191328125,-1.2609375,11.114171875,-0.16019140625,1.822796875,4.27545703125,10.993015625,8.928421875,5.602828125,10.841890625,16.3320703125,20.82566015625,9.45709765625,24.3126484375,18.76678515625,18.76740625,21.04014453125
-5.1601015625,-5.897515625,-6.7026328125,-5.48601953125,-1.10452734375,-1.09333203125,0.615597656250001,-3.951578125,-7.46421484375,-1.24712890625,-4.95067578125,0.023316406250002,3.52976953125,3.4381328125,-3.0759375,7.830171875,-0.89219140625,0.566796875,0.87345703125,7.827015625,6.240421875,5.501828125,7.784890625,13.4590703125,17.48466015625,7.59509765625,21.5576484375,16.98278515625,17.16140625,18.85614453125
-5.7701015625,-6.386515625,-6.2406328125,-5.65801953125,-0.78352734375,-0.80133203125,-0.18340234375,-4.354578125,-7.48821484375,-1.44412890625,-6.02067578125,-1.85468359375,2.62976953125,1.2111328125,-5.0169375,4.292171875,-1.66119140625,-1.064203125,-2.76054296875,3.886015625,3.135421875,4.028828125,4.226890625,9.7120703125,13.31266015625,5.63009765625,17.8866484375,14.70978515625,14.97840625,16.32714453125
-6.4491015625,-7.037515625,-6.1016328125,-6.00301953125,-1.24152734375,-1.39533203125,-1.87840234375,-5.027578125,-7.95521484375,-2.18012890625,-7.37067578125,-4.25568359375,0.842769531249999,-1.3498671875,-6.8059375,0.611171874999998,-2.36019140625,-3.010203125,-6.05954296875,-0.362984375,-0.0935781250000001,1.389828125,0.534890625,5.5430703125,8.75466015625,3.66209765625,13.6426484375,11.97078515625,12.41940625,13.81014453125
-7.2841015625,-7.938515625,-6.6096328125,-6.70201953125,-2.62152734375,-3.00233203125,-4.48140234375,-6.064578125,-9.00221484375,-3.62912890625,-9.17767578125,-7.00468359375,-1.55723046875,-4.1508671875,-8.3769375,-3.240828125,-2.95819140625,-5.173203125,-8.73754296875,-4.586984375,-3.298578125,-1.690171875,-3.070109375,1.2430703125,4.04566015625,1.67609765625,9.0346484375,8.77178515625,9.60540625,11.37514453125
-8.3001015625,-9.060515625,-7.8126328125,-7.78001953125,-4.83752734375,-5.43733203125,-7.71940234375,-7.420578125,-10.58221484375,-5.75412890625,-11.48667578125,-9.83668359375,-3.98223046875,-6.9928671875,-9.8169375,-7.254828125,-3.47119140625,-7.384203125,-10.79554296875,-8.569984375,-6.409578125,-4.277171875,-6.475109375,-3.0239296875,-0.69733984375,-0.337902343750001,4.2376484375,5.23278515625,6.63940625,8.89014453125
-9.4201015625,-10.260515625,-9.4826328125,-9.08701953125,-7.56652734375,-8.24733203125,-11.08840234375,-8.903578125,-12.46721484375,-8.27612890625,-14.11667578125,-12.42868359375,-5.71523046875,-9.6228671875,-11.2449375,-11.246828125,-3.90719140625,-9.435203125,-12.43354296875,-12.137984375,-9.333578125,-5.683171875,-9.609109375,-7.1439296875,-5.32533984375,-2.29690234375,-0.5133515625,1.64578515625,3.67340625,6.20814453125
-10.4581015625,-11.321515625,-11.2076328125,-10.34901953125,-10.31252734375,-10.86833203125,-13.96640234375,-10.232578125,-14.31621484375,-10.75112890625,-16.67167578125,-14.43068359375,-6.17923046875,-11.8098671875,-12.6759375,-14.809828125,-4.21819140625,-11.142203125,-13.91154296875,-15.093984375,-11.883578125,-5.775171875,-12.374109375,-10.9829296875,-9.54433984375,-4.02590234375,-4.8763515625,-1.56521484375,0.92340625,3.33314453125
-11.1801015625,-12.015515625,-12.5226328125,-11.27101953125,-12.53852734375,-12.80833203125,-15.78440234375,-11.135578125,-15.78021484375,-12.72512890625,-18.65767578125,-15.53668359375,-5.18723046875,-13.3958671875,-13.9799375,-17.406828125,-4.31219140625,-12.382203125,-15.41954296875,-17.191984375,-13.772578125,-4.980171875,-14.610109375,-14.3319296875,-12.92233984375,-5.32590234375,-8.4503515625,-3.99021484375,-1.35859375,0.48414453125
-11.4011015625,-12.170515625,-13.0596328125,-11.64801953125,-13.84052734375,-13.79033203125,-16.17840234375,-11.447578125,-16.60421484375,-13.90312890625,-19.65467578125,-15.56668359375,-3.05423046875,-14.3128671875,-14.9439375,-18.553828125,-4.10819140625,-13.118203125,-16.98154296875,-18.197984375,-14.681578125,-4.025171875,-16.121109375,-16.9109296875,-15.01133984375,-6.05890234375,-10.8723515625,-5.38821484375,-2.94159375,-1.98185546875
-11.0721015625,-11.712515625,-12.6306328125,-11.44901953125,-14.11552734375,-13.78233203125,-15.09940234375,-11.145578125,-16.70921484375,-14.24912890625,-19.47367578125,-14.52268359375,-0.489230468750002,-14.5748671875,-15.3839375,-18.000828125,-3.59619140625,-13.389203125,-18.42354296875,-17.984984375,-14.366578125,-3.563171875,-16.750109375,-18.4159296875,-15.51033984375,-6.17890234375,-11.9083515625,-5.77121484375,-3.66059375,-3.70285546875
-10.3071015625,-10.688515625,-11.2716328125,-10.83801953125,-13.60552734375,-12.96333203125,-12.82640234375,-10.322578125,-16.22221484375,-13.96312890625,-18.21767578125,-12.56868359375,1.65476953125,-14.2568671875,-15.2209375,-15.838828125,-2.83519140625,-13.290203125,-19.39454296875,-16.596984375,-12.745578125,-3.884171875,-16.435109375,-18.5779296875,-14.38033984375,-5.70390234375,-11.4883515625,-5.34821484375,-3.43659375,-4.42185546875
-9.3581015625,-9.258515625,-9.2186328125,-10.13301953125,-12.78952734375,-11.65133203125,-9.86740234375,-9.110578125,-15.46321484375,-13.34212890625,-16.21767578125,-9.96068359375,2.65876953125,-13.4818671875,-14.4799375,-12.469828125,-1.90019140625,-12.948203125,-19.45754296875,-14.223984375,-9.941578125,-4.830171875,-15.218109375,-17.2149296875,-11.84433984375,-4.66990234375,-9.6793515625,-4.37421484375,-2.28059375,-4.02285546875
-8.5191015625,-7.666515625,-6.8516328125,-9.69401953125,-12.16352734375,-10.19933203125,-6.79840234375,-7.623578125,-14.83921484375,-12.59312890625,-13.88867578125,-6.98668359375,2.12276953125,-12.4008671875,-13.2179375,-8.468828125,-0.85019140625,-12.486203125,-18.23754296875,-11.113984375,-6.258578125,-5.951171875,-13.194109375,-14.2659296875,-8.29133984375,-3.12390234375,-6.6303515625,-3.00721484375,-0.28659375,-2.51085546875
-8.0011015625,-6.166515625,-4.5916328125,-9.77601953125,-11.98952734375,-8.86233203125,-4.07740234375,-5.922578125,-14.67021484375,-11.70212890625,-11.55467578125,-3.93468359375,0.0427695312499985,-11.1478671875,-11.4679375,-4.404828125,0.289808593749999,-11.985203125,-15.55054296875,-7.469984375,-2.112578125,-6.790171875,-10.452109375,-9.8259296875,-4.13733984375,-1.15490234375,-2.5433515625,-1.27321484375,2.37540625,0.00414453125000003
-7.8131015625,-4.931515625,-2.7606328125,-10.39701953125,-12.15052734375,-7.67033203125,-1.90640234375,-4.024578125,-15.01321484375,-10.41612890625,-9.32867578125,-1.06368359375,-3.20023046875,-9.7848671875,-9.2109375,-0.659828125000001,1.51180859375,-11.446203125,-11.48754296875,-3.389984375,2.072421875,-7.088171875,-7.048109375,-4.1489296875,0.30966015625,1.10409765625,2.3436484375,0.86778515625,5.49940625,3.32614453125
-7.7301015625,-3.967515625,-1.4606328125,-11.29001953125,-12.17152734375,-6.40533203125,-0.18740234375,-1.935578125,-15.59821484375,-8.35812890625,-7.11067578125,1.46531640625,-6.90523046875,-8.2738671875,-6.3999375,2.663171875,2.82480859375,-10.775203125,-6.40954296875,1.100015625,5.971421875,-6.806171875,-3.038109375,2.3520703125,4.89066015625,3.52009765625,7.7446484375,3.40678515625,8.88340625,7.17114453125
-7.3741015625,-3.113515625,-0.5436328125,-11.97401953125,-11.43252734375,-4.70033203125,1.40659765625,0.320421874999999,-15.92721484375,-5.22612890625,-4.69967578125,3.64231640625,-10.20823046875,-6.5258671875,-3.0229375,5.698171875,4.23580859375,-9.839203125,-0.87354296875,5.925015625,9.393421875,-6.018171875,1.414890625,9.1180703125,9.53466015625,5.98609765625,13.2876484375,6.18378515625,12.33140625,11.16514453125
-6.3871015625,-2.113515625,0.3103671875,-11.92801953125,-9.47452734375,-2.22933203125,3.23859765625,2.668421875,-15.50321484375,-0.991128906249997,-1.97467578125,5.59331640625,-12.32123046875,-4.4968671875,0.8140625,8.629171875,5.70980859375,-8.571203125,4.46045703125,10.828015625,12.236421875,-4.825171875,5.940890625,15.4820703125,14.10566015625,8.39209765625,18.4706484375,8.83978515625,15.60140625,14.83114453125
-4.6071015625,-0.757515625,1.4463671875,-10.79001953125,-6.24352734375,1.10566796875,5.50859765625,4.952421875,-14.07621484375,3.99887109375,0.971324218749999,7.45231640625,-12.81023046875,-2.2808671875,4.8270625,11.482171875,7.11080859375,-7.062203125,8.95145703125,15.306015625,14.392421875,-3.376171875,9.943890625,20.7520703125,18.27766015625,10.54509765625,22.6826484375,10.87278515625,18.36540625,17.63314453125
-2.1661015625,0.996484375000001,3.0663671875,-8.51201953125,-2.15952734375,5.04866796875,8.12259765625,6.929421875,-11.76321484375,9.06387109375,3.81932421875,9.21631640625,-11.76123046875,-0.116867187499999,8.5630625,14.009171875,8.19280859375,-5.564203125,12.11245703125,18.709015625,15.681421875,-1.924171875,12.760890625,24.3510703125,21.53966015625,12.16309765625,25.3456484375,11.81178515625,20.24040625,19.11914453125
0.5258984375,2.962484375,5.1103671875,-5.40901953125,2.03447265625,9.02466796875,10.71559765625,8.307421875,-9.00221484375,13.38987109375,6.15532421875,10.67631640625,-9.73923046875,1.7081328125,11.5170625,15.764171875,8.66480859375,-4.388203125,13.73445703125,20.480015625,15.886421875,-0.795171875000001,13.928890625,25.9940703125,23.36366015625,12.94609765625,26.1586484375,11.43878515625,20.92340625,19.09914453125
2.9158984375,4.783484375,7.2223671875,-2.06901953125,5.52447265625,12.32566796875,12.80559765625,8.844421875,-6.36221484375,16.32087109375,7.64332421875,11.50131640625,-7.52223046875,2.9861328125,13.2990625,16.331171875,8.31280859375,-3.736203125,13.94845703125,20.413015625,14.861421875,-0.253171875,13.401890625,25.7970703125,23.44366015625,12.68709765625,25.2576484375,9.92678515625,20.32840625,17.75714453125
4.5118984375,6.077484375,8.8673671875,0.82898046875,7.69647265625,14.37666796875,13.99059765625,8.454421875,-4.32221484375,17.58587109375,8.16132421875,11.41631640625,-5.72123046875,3.6641328125,13.7940625,15.561171875,7.12580859375,-3.593203125,13.15845703125,18.771015625,12.657421875,-0.345171875000001,11.592890625,24.2350703125,21.85866015625,11.34509765625,23.1896484375,7.77978515625,18.63240625,15.58114453125
5.0598984375,6.622484375,9.5733671875,2.75098046875,8.30247265625,14.92966796875,14.10359765625,7.261421875,-3.11921484375,17.34587109375,7.81132421875,10.37931640625,-4.50023046875,3.8261328125,13.1900625,13.677171875,5.33880859375,-3.733203125,11.86045703125,16.183015625,9.568421875,-0.826171875,9.182890625,21.9530703125,19.06766015625,9.06509765625,20.6556484375,5.60078515625,16.19140625,13.14514453125
4.6268984375,6.448484375,9.1633671875,3.48998046875,7.49347265625,14.09566796875,13.25159765625,5.573421875,-2.71421484375,16.03787109375,6.83032421875,8.64231640625,-3.54323046875,3.6001328125,11.8790625,11.180171875,3.38080859375,-3.852203125,10.41345703125,13.374015625,6.068421875,-1.269171875,6.808890625,19.4870703125,15.71466015625,6.16009765625,18.1836484375,3.82178515625,13.38140625,10.85414453125
3.5798984375,5.794484375,7.8403671875,3.24398046875,5.71247265625,12.24466796875,11.71759765625,3.805421875,-2.86821484375,14.13587109375,5.44532421875,6.65331640625,-2.30523046875,3.0521328125,10.2530625,8.611171875,1.72380859375,-3.787203125,8.87845703125,10.858015625,2.660421875,-1.297171875,4.770890625,17.0400703125,12.36066015625,3.03609765625,15.8976484375,2.52578515625,10.45640625,8.80114453125
2.4348984375,4.949484375,6.0843671875,2.52198046875,3.51547265625,9.85266796875,9.79759765625,2.356421875,-3.27721484375,11.95687109375,3.76632421875,4.86231640625,-0.412230468750002,2.1291328125,8.5150625,6.306171875,0.70680859375,-3.670203125,7.02445703125,8.747015625,-0.277578125,-0.842171875,2.927890625,14.4180703125,9.26766015625,0.0920976562499991,13.4936484375,1.46278515625,7.49240625,6.79614453125
1.6498984375,4.096484375,4.4293671875,1.90098046875,1.36947265625,7.35566796875,7.67759765625,1.474421875,-3.71421484375,9.60987109375,1.77432421875,3.53131640625,2.02976953125,0.687132812500002,6.6240625,4.272171875,0.42380859375,-3.909203125,4.50045703125,6.774015625,-2.581578125,-0.238171875000001,0.826890625,11.1910703125,6.36566015625,-2.38090234375,10.4796484375,0.23378515625,4.44940625,4.55514453125
1.4148984375,3.250484375,3.2473671875,1.74198046875,-0.45952734375,5.03866796875,5.41159765625,1.143421875,-4.12021484375,7.05987109375,-0.595675781250002,2.66831640625,4.42976953125,-1.3978671875,4.3880625,2.256171875,0.70580859375,-4.972203125,1.09345703125,4.485015625,-4.295578125,-0.0831718750000006,-1.977109375,6.9960703125,3.40766015625,-4.24290234375,6.5306484375,-1.44421484375,1.32340625,1.92514453125
1.5578984375,2.299484375,2.6223671875,2.01098046875,-1.93352734375,2.99466796875,2.99359765625,1.075421875,-4.60321484375,4.27387109375,-3.33967578125,2.07031640625,6.02976953125,-4.0908671875,1.6560625,-0.0698281250000008,1.21480859375,-7.089203125,-3.07954296875,1.518015625,-5.594578125,-0.925171875,-5.605109375,1.8260703125,0.202660156249999,-5.48590234375,1.7806484375,-3.55621484375,-1.72759375,-0.95685546875
1.6198984375,1.119484375,2.3453671875,2.29998046875,-3.19052734375,1.16366796875,0.43759765625,0.826421874999999,-5.34921484375,1.32087109375,-6.33767578125,1.43731640625,6.31876953125,-7.1278671875,-1.5569375,-2.908828125,1.58580859375,-10.060203125,-7.55954296875,-2.200984375,-6.666578125,-2.968171875,-9.711109375,-3.8719296875,-3.22333984375,-6.17990234375,-3.1343515625,-5.78421484375,-4.38859375,-3.68985546875
1.0748984375,-0.345515624999999,2.0283671875,2.05098046875,-4.44052734375,-0.588332031249999,-2.19540234375,-0.00257812500000121,-6.51021484375,-1.59312890625,-9.37867578125,0.490316406250001,5.23676953125,-10.0748671875,-5.0409375,-6.208828125,1.55180859375,-13.312203125,-11.72254296875,-6.390984375,-7.628578125,-5.956171875,-13.584109375,-9.3329296875,-6.60033984375,-6.40990234375,-7.3103515625,-7.67821484375,-6.31159375,-5.77185546875
-0.4171015625,-2.046515625,1.2863671875,0.84698046875,-5.83952734375,-2.35733203125,-4.79140234375,-1.576578125,-8.12421484375,-4.17912890625,-12.20167578125,-0.90668359375,3.06976953125,-12.4748671875,-8.4459375,-9.634828125,1.03980859375,-16.142203125,-15.00054296875,-10.498984375,-8.458578125,-9.293171875,-16.425109375,-13.7309296875,-9.48933984375,-6.20390234375,-9.9313515625,-8.87321484375,-7.27659375,-6.78685546875
-2.8161015625,-3.845515625,-0.0806328125000002,-1.37501953125,-7.39052734375,-4.11933203125,-7.16140234375,-3.704578125,-10.08721484375,-6.13512890625,-14.50667578125,-2.64768359375,0.190769531249998,-14.0048671875,-11.3559375,-12.613828125,0.21380859375,-18.002203125,-17.01754296875,-13.851984375,-8.987578125,-12.299171875,-17.643109375,-16.4359296875,-11.39533984375,-5.48690234375,-10.5553515625,-9.20421484375,-7.25559375,-6.52785546875
-5.6831015625,-5.544515625,-1.9826328125,-4.27901953125,-8.90652734375,-5.66433203125,-9.01540234375,-5.868578125,-12.16021484375,-7.21412890625,-15.94867578125,-4.34768359375,-3.12423046875,-14.5508671875,-13.3499375,-14.463828125,-0.56019140625,-18.663203125,-17.59754296875,-15.830984375,-8.941578125,-14.471171875,-17.044109375,-17.1489296875,-11.89433984375,-4.12090234375,-9.2183515625,-8.70221484375,-6.36959375,-5.01885546875
-8.3341015625,-6.908515625,-4.0596328125,-7.26001953125,-10.06052734375,-6.62933203125,-9.97540234375,-7.393578125,-14.00321484375,-7.24912890625,-16.17067578125,-5.44068359375,-6.65823046875,-14.1828671875,-14.0659375,-14.595828125,-0.853191406250001,-18.209203125,-16.70254296875,-16.002984375,-8.046578125,-15.595171875,-14.836109375,-15.9029296875,-10.74333984375,-2.00490234375,-6.3373515625,-7.50221484375,-4.81059375,-2.49685546875
-10.1071015625,-7.691515625,-5.8116328125,-9.67001953125,-10.49252734375,-6.63233203125,-9.66340234375,-7.735578125,-15.23221484375,-6.15112890625,-14.91167578125,-5.40268359375,-10.10623046875,-13.0598671875,-13.2609375,-12.719828125,-0.361191406250001,-16.889203125,-14.39054296875,-14.200984375,-6.150578125,-15.685171875,-11.493109375,-12.9759296875,-7.96133984375,0.79309765625,-2.5063515625,-5.77121484375,-2.77459375,0.64914453125
-10.5861015625,-7.683515625,-6.7926328125,-11.03201953125,-9.92352734375,-5.44433203125,-7.86040234375,-6.744578125,-15.49221484375,-3.91512890625,-12.13767578125,-4.00868359375,-12.99223046875,-11.3238671875,-10.8799375,-8.966828125,0.938808593749999,-14.948203125,-10.82054296875,-10.539984375,-3.324578125,-14.837171875,-7.547109375,-8.7679296875,-3.83433984375,3.98209765625,1.7196484375,-3.67621484375,-0.46259375,3.95814453125
-9.6831015625,-6.771515625,-6.7546328125,-11.14301953125,-8.26152734375,-3.10133203125,-4.65440234375,-4.745578125,-14.57021484375,-0.635128906249998,-8.11367578125,-1.46968359375,-14.75723046875,-9.0648671875,-7.0969375,-3.878828125,2.75880859375,-12.540203125,-6.28754296875,-5.416984375,0.119421875,-13.155171875,-3.440109375,-3.7259296875,1.12566015625,7.06709765625,5.9426484375,-1.41421484375,1.89240625,6.98814453125
-7.5881015625,-4.986515625,-5.6866328125,-10.07001953125,-5.64052734375,0.0946679687500005,-0.48440234375,-2.379578125,-12.49221484375,3.45787109375,-3.36767578125,1.63631640625,-14.97123046875,-6.3388671875,-2.3209375,1.732171875,4.61580859375,-9.754203125,-1.23254296875,0.525015625,3.710421875,-10.768171875,0.538890625,1.6720703125,6.27166015625,9.47709765625,9.9176484375,0.77278515625,4.03040625,9.40614453125
-4.6591015625,-2.513515625,-3.7446328125,-8.07401953125,-2.40152734375,3.68866796875,3.97159765625,-0.312578125,-9.57121484375,7.98687109375,1.46632421875,4.60531640625,-13.51023046875,-3.2318671875,2.8640625,7.003171875,6.04080859375,-6.705203125,3.81145703125,6.483015625,6.952421875,-7.906171875,4.212890625,6.9120703125,10.94066015625,10.74809765625,13.4696484375,2.62578515625,5.71040625,11.05214453125
-1.3311015625,0.347484375000001,-1.1826328125,-5.53001953125,1.00647265625,7.20666796875,8.02659765625,1.039421875,-6.34621484375,12.46587109375,5.83932421875,6.89531640625,-10.59923046875,0.0781328125000016,7.8230625,11.241171875,6.76680859375,-3.599203125,8.32045703125,11.666015625,9.483421875,-4.939171875,7.447890625,11.4960703125,14.58666015625,10.70409765625,16.4176484375,3.92878515625,6.78940625,11.95214453125
1.9488984375,3.226484375,1.6643671875,-2.85901953125,4.12847265625,10.26066796875,11.18659765625,1.613421875,-3.43221484375,16.39187109375,9.42532421875,8.27931640625,-6.75323046875,3.3081328125,12.0210625,14.066171875,6.80280859375,-0.723203125,11.90745703125,15.510015625,11.156421875,-2.336171875,10.092890625,15.0420703125,16.89866015625,9.54509765625,18.5696484375,4.56278515625,7.27240625,12.27314453125
4.7748984375,5.753484375,4.3783671875,-0.46201953125,6.59447265625,12.60666796875,13.24159765625,1.617421875,-1.33321484375,19.36887109375,12.12632421875,8.81431640625,-2.63323046875,6.1161328125,15.1390625,15.436171875,6.35780859375,1.629796875,14.38745703125,17.824015625,12.026421875,-0.560171875,11.965890625,17.3840703125,17.82166015625,7.74909765625,19.7686484375,4.52278515625,7.28040625,12.21114453125
6.8448984375,7.628484375,6.5023671875,1.35798046875,8.16347265625,14.11966796875,14.20559765625,1.333421875,-0.288214843750001,21.17287109375,13.98032421875,8.69131640625,1.13076953125,8.1811328125,17.1030625,15.554171875,5.67780859375,3.244796875,15.77745703125,18.778015625,12.233421875,0.0608281249999996,12.888890625,18.5790703125,17.49566015625,5.84109765625,19.9426484375,3.89678515625,6.97340625,11.88014453125
8.0018984375,8.678484375,7.6573671875,2.44798046875,8.73547265625,14.73066796875,14.20759765625,0.939421874999999,-0.231214843749999,21.74987109375,15.02632421875,8.07331640625,4.11076953125,9.2791328125,18.0020625,14.704171875,4.91280859375,4.034796875,16.18845703125,18.723015625,11.875421875,-0.547171875,12.744890625,18.8100703125,16.12566015625,4.14009765625,19.1256484375,2.83678515625,6.45740625,11.25614453125
8.2258984375,8.844484375,7.6333671875,2.80098046875,8.30047265625,14.36066796875,13.36659765625,0.453421875,-0.895214843750001,21.12387109375,15.21732421875,7.02731640625,6.12976953125,9.2991328125,17.9480625,13.103171875,4.07080859375,4.009796875,15.68945703125,17.946015625,10.942421875,-2.153171875,11.519890625,18.2240703125,13.88166015625,2.65809765625,17.4156484375,1.52078515625,5.74040625,10.21714453125
7.5808984375,8.134484375,6.4053671875,2.49698046875,6.88047265625,12.92866796875,11.74359765625,-0.201578125000001,-1.99421484375,19.32087109375,14.42432421875,5.54331640625,7.16976953125,8.2101328125,16.9570625,10.825171875,3.07180859375,3.210796875,14.21445703125,16.504015625,9.342421875,-4.291171875,9.314890625,16.8230703125,10.86566015625,1.18609765625,14.9366484375,0.10578515625,4.74740625,8.64914453125
6.1778984375,6.585484375,4.1223671875,1.64698046875,4.50847265625,10.41566796875,9.36959765625,-1.090578125,-3.37021484375,16.36587109375,12.53332421875,3.61931640625,7.23976953125,6.0441328125,14.9570625,7.850171875,1.85180859375,1.680796875,11.62545703125,14.232015625,7.003421875,-6.414171875,6.343890625,14.4980703125,7.16366015625,-0.495902343750002,11.8116484375,-1.30521484375,3.40340625,6.54614453125
4.1788984375,4.303484375,1.0973671875,0.38298046875,1.30547265625,6.95766796875,6.32559765625,-2.208578125,-4.98921484375,12.37587109375,9.58532421875,1.34131640625,6.34976953125,2.9491328125,11.9140625,4.190171875,0.428808593749999,-0.494203125,7.88145703125,10.927015625,3.979421875,-8.083171875,2.922890625,11.1720703125,2.92466015625,-2.44090234375,8.1836484375,-2.67121484375,1.70740625,4.06314453125
1.8358984375,1.525484375,-2.2006328125,-1.11201953125,-2.40852734375,2.88866796875,2.82059765625,-3.504578125,-6.80821484375,7.68287109375,5.86132421875,-1.09368359375,4.58876953125,-0.750867187499999,7.9910625,0.0161718749999995,-1.09719140625,-3.099203125,3.20945703125,6.575015625,0.502421875,-9.085171875,-0.564109375,6.9630703125,-1.59933984375,-4.49790234375,4.2346484375,-3.99721484375,-0.232593749999999,1.47114453125
-0.5061015625,-1.372515625,-5.2226328125,-2.61001953125,-6.10652734375,-1.29233203125,-0.820402343749999,-4.931578125,-8.65121484375,2.86287109375,1.85232421875,-3.43568359375,2.18376953125,-4.5638671875,3.6070625,-4.319828125,-2.59819140625,-5.773203125,-1.85854296875,1.480015625,-3.048578125,-9.448171875,-3.724109375,2.2350703125,-6.07933984375,-6.41790234375,0.1816484375,-5.27921484375,-2.22759375,-0.93685546875
-2.4941015625,-3.977515625,-7.4906328125,-3.89401953125,-9.19652734375,-5.04233203125,-4.25340234375,-6.480578125,-10.23221484375,-1.40612890625,-1.89767578125,-5.48068359375,-0.55523046875,-7.9638671875,-0.6679375,-8.366828125,-3.99019140625,-8.103203125,-6.63354296875,-3.770984375,-6.241578125,-9.382171875,-6.230109375,-2.4839296875,-10.16333984375,-7.97890234375,-3.7143515625,-6.46221484375,-4.06359375,-2.93685546875
-3.9221015625,-5.991515625,-8.7876328125,-4.85201953125,-11.25752734375,-7.95533203125,-7.22640234375,-8.153578125,-11.31221484375,-4.58712890625,-4.96767578125,-7.12368359375,-3.34623046875,-10.5868671875,-4.3119375,-11.717828125,-5.24419140625,-9.780203125,-10.50854296875,-8.481984375,-8.704578125,-9.158171875,-7.869109375,-6.6519296875,-13.51933984375,-9.04690234375,-7.1383515625,-7.40921484375,-5.54159375,-4.40685546875
-4.8261015625,-7.337515625,-9.2486328125,-5.50701953125,-12.21952734375,-9.89333203125,-9.62240234375,-9.904578125,-11.83721484375,-6.50112890625,-7.16967578125,-8.33068359375,-5.95823046875,-12.3528671875,-7.0189375,-14.101828125,-6.33719140625,-10.694203125,-13.14554296875,-12.028984375,-10.209578125,-8.988171875,-8.548109375,-9.8379296875,-15.83433984375,-9.55390234375,-9.7193515625,-7.92321484375,-6.49359375,-5.29685546875
-5.4311015625,-8.125515625,-9.2886328125,-5.95101953125,-12.34552734375,-10.96733203125,-11.40440234375,-11.572578125,-11.94321484375,-7.34712890625,-8.53067578125,-9.04968359375,-8.12323046875,-13.4088671875,-8.7399375,-15.391828125,-7.18219140625,-10.879203125,-14.49054296875,-13.981984375,-10.682578125,-8.947171875,-8.252109375,-11.7569296875,-16.82333984375,-9.45090234375,-11.0693515625,-7.80021484375,-6.77359375,-5.57385546875
-5.9651015625,-8.525515625,-9.3696328125,-6.22601953125,-12.04052734375,-11.38033203125,-12.52140234375,-12.869578125,-11.79421484375,-7.52612890625,-9.17667578125,-9.13968359375,-9.47823046875,-13.9408671875,-9.6009375,-15.556828125,-7.61419140625,-10.391203125,-14.64254296875,-14.137984375,-10.173578125,-8.961171875,-6.992109375,-12.2469296875,-16.27333984375,-8.72190234375,-10.8823515625,-6.91221484375,-6.26559375,-5.18685546875
-6.4951015625,-8.625515625,-9.7346328125,-6.24701953125,-11.60652734375,-11.27333203125,-12.86340234375,-13.478578125,-11.43421484375,-7.39012890625,-9.21267578125,-8.41368359375,-9.67223046875,-13.9828671875,-9.7789375,-14.623828125,-7.44419140625,-9.228203125,-13.71254296875,-12.524984375,-8.811578125,-8.866171875,-4.800109375,-11.2579296875,-14.14633984375,-7.44190234375,-9.0743515625,-5.29821484375,-4.92859375,-4.10485546875
-6.8851015625,-8.394515625,-10.2956328125,-5.85301953125,-11.09752734375,-10.67833203125,-12.31940234375,-13.204578125,-10.74721484375,-7.09412890625,-8.67167578125,-6.76768359375,-8.60723046875,-13.3758671875,-9.4299375,-12.705828125,-6.57319140625,-7.371203125,-11.78454296875,-9.403984375,-6.793578125,-8.477171875,-1.785109375,-8.8749296875,-10.65333984375,-5.83790234375,-5.8723515625,-3.21221484375,-2.86459375,-2.41285546875
-6.9051015625,-7.743515625,-10.7106328125,-4.94701953125,-10.36852734375,-9.60933203125,-10.90240234375,-12.090578125,-9.57121484375,-6.60912890625,-7.55667578125,-4.32468359375,-6.61323046875,-11.9118671875,-8.6739375,-10.046828125,-5.08519140625,-4.899203125,-8.98154296875,-5.256984375,-4.368578125,-7.656171875,1.801890625,-5.3799296875,-6.26633984375,-4.26090234375,-1.8083515625,-1.08721484375,-0.36259375,-0.37585546875
-6.3821015625,-6.638515625,-10.5976328125,-3.61201953125,-9.25252734375,-8.16833203125,-8.85940234375,-10.414578125,-7.87121484375,-5.84012890625,-5.91667578125,-1.47768359375,-4.38023046875,-9.5328671875,-7.6099375,-7.029828125,-3.25219140625,-2.073203125,-5.56454296875,-0.723984375000001,-1.813578125,-6.352171875,5.542890625,-1.2549296875,-1.61133984375,-3.05890234375,2.4166484375,0.60278515625,2.14840625,1.60514453125
-5.2961015625,-5.161515625,-9.7256328125,-2.10901953125,-7.72152734375,-6.57533203125,-6.64940234375,-8.564578125,-5.83221484375,-4.75412890625,-3.89867578125,1.22331640625,-2.65223046875,-6.4628671875,-6.3239375,-4.095828125,-1.45519140625,0.688796875,-1.95154296875,3.526015625,0.627421875,-4.648171875,8.915890625,2.9040703125,2.70566015625,-2.42890234375,6.1436484375,1.50678515625,4.21940625,3.14314453125
-3.7701015625,-3.489515625,-8.0976328125,-0.75201953125,-5.92752734375,-5.11133203125,-4.77940234375,-6.883578125,-3.81621484375,-3.42812890625,-1.73067578125,3.28431640625,-1.90123046875,-3.1798671875,-4.8649375,-1.599828125,-0.0421914062500006,2.933796875,1.36645703125,6.963015625,2.784421875,-2.790171875,11.432890625,6.5420703125,6.24866015625,-2.33290234375,8.9336484375,1.53778515625,5.52840625,4.03314453125
-2.0081015625,-1.836515625,-5.9446328125,0.26398046875,-4.13152734375,-3.98633203125,-3.58540234375,-5.538578125,-2.20821484375,-2.02012890625,0.355324218749999,4.46831640625,-2.15723046875,-0.253867187499999,-3.2399375,0.297171875,0.79080859375,4.329796875,3.95745703125,9.306015625,4.570421875,-1.169171875,12.780890625,9.2770703125,8.81466015625,-2.54790234375,10.6456484375,0.87778515625,5.98440625,4.32014453125
-0.2381015625,-0.393515624999999,-3.6716328125,0.94598046875,-2.59652734375,-3.23533203125,-3.09240234375,-4.503578125,-1.24921484375,-0.708128906249998,2.19032421875,4.87831640625,-3.06023046875,1.8371328125,-1.4579375,1.638171875,1.05780859375,4.773796875,5.55245703125,10.533015625,5.940421875,-0.222171875000001,12.904890625,10.9390703125,10.37766015625,-2.81390234375,11.3666484375,-0.12221484375,5.71540625,4.22914453125
1.3088984375,0.702484375000001,-1.7446328125,1.44098046875,-1.52852734375,-2.72033203125,-3.03540234375,-3.631578125,-0.957214843749998,0.363871093750001,3.68932421875,4.88331640625,-4.08623046875,2.8321328125,0.397062500000001,2.580171875,0.93980859375,4.395796875,6.07045703125,10.779015625,6.842421875,-0.267171875000001,11.975890625,11.5140703125,10.97966015625,-2.98290234375,11.2776484375,-1.12121484375,4.96240625,4.00314453125
2.4018984375,1.391484375,-0.5386328125,1.87898046875,-1.03352734375,-2.22733203125,-3.00840234375,-2.786578125,-1.16021484375,1.11087109375,4.83332421875,4.93631640625,-4.80423046875,2.7131328125,2.1260625,3.269171875,0.69880859375,3.467796875,5.57845703125,10.224015625,7.187421875,-1.366171875,10.289890625,11.0660703125,10.66066015625,-3.09190234375,10.5186484375,-1.94521484375,3.95840625,3.75914453125
2.8668984375,1.718484375,-0.1636328125,2.26198046875,-1.07952734375,-1.58533203125,-2.63940234375,-1.909578125,-1.58921484375,1.52287109375,5.66032421875,5.38231640625,-5.05523046875,1.6771328125,3.4760625,3.772171875,0.579808593749999,2.283796875,4.26045703125,9.038015625,6.887421875,-3.287171875,8.157890625,9.6990703125,9.44866015625,-3.29990234375,9.1446484375,-2.62421484375,2.85240625,3.45814453125
2.6918984375,1.835484375,-0.3696328125,2.49698046875,-1.47552734375,-0.70233203125,-1.73340234375,-1.010578125,-1.95921484375,1.68887109375,6.25732421875,6.34931640625,-4.97423046875,0.0811328125000017,4.2730625,4.080171875,0.749808593749999,1.074796875,2.39645703125,7.389015625,5.933421875,-5.570171875,5.836890625,7.5640703125,7.41266015625,-3.78190234375,7.1626484375,-3.32621484375,1.72140625,2.96914453125
2.0988984375,1.958484375,-0.6386328125,2.52598046875,-1.90352734375,0.442667968749999,-0.320402343749999,-0.107578125,-2.03821484375,1.78487109375,6.74132421875,7.71931640625,-4.88823046875,-1.6388671875,4.5230625,4.152171875,1.27280859375,-0.0212031250000004,0.340457031250001,5.481015625,4.440421875,-7.663171875,3.530890625,4.8950703125,4.70066015625,-4.61390234375,4.6146484375,-4.20521484375,0.60740625,2.19314453125
1.4868984375,2.253484375,-0.4386328125,2.41498046875,-2.03252734375,1.80066796875,1.33759765625,0.780421875,-1.72121484375,1.99087109375,7.18732421875,9.17531640625,-5.13323046875,-3.1028671875,4.4020625,3.925171875,2.08780859375,-0.946203125,-1.55654296875,3.530015625,2.625421875,-9.067171875,1.392890625,1.9900703125,1.51966015625,-5.73490234375,1.6426484375,-5.29521484375,-0.44059375,1.13814453125
1.2198984375,2.713484375,0.4363671875,2.31498046875,-1.68352734375,3.18666796875,2.80359765625,1.585421875,-1.08421484375,2.36787109375,7.54032421875,10.27031640625,-5.88923046875,-4.1238671875,4.1340625,3.299171875,3.00780859375,-1.706203125,-3.06954296875,1.696015625,0.728421875,-9.498171875,-0.483109375,-0.8579296875,-1.90933984375,-6.96690234375,-1.5273515625,-6.48721484375,-1.37759375,-0.0748554687499999
1.3978984375,3.103484375,1.6683671875,2.31698046875,-0.95652734375,4.25766796875,3.56459765625,2.133421875,-0.398214843750001,2.78587109375,7.58232421875,10.54231640625,-7.08923046875,-4.7718671875,3.8380625,2.136171875,3.75780859375,-2.369203125,-4.20754296875,-0.00498437499999937,-1.088578125,-9.012171875,-2.086109375,-3.4669296875,-5.39933984375,-8.09490234375,-4.6533515625,-7.59821484375,-2.18559375,-1.28285546875
1.7738984375,3.048484375,2.5183671875,2.34198046875,-0.21652734375,4.60966796875,3.19959765625,2.189421875,-0.0232148437500008,2.96687109375,7.01232421875,9.66331640625,-8.44023046875,-5.3188671875,3.4560625,0.315171874999999,4.05380859375,-3.052203125,-5.19854296875,-1.714984375,-2.775578125,-8.007171875,-3.498109375,-5.8149296875,-8.80633984375,-8.96290234375,-7.5583515625,-8.47121484375,-2.88159375,-2.35485546875
1.8978984375,2.246484375,2.2483671875,2.16998046875,0.0994726562499988,3.98066796875,1.57359765625,1.569421875,-0.234214843749999,2.66687109375,5.63432421875,7.59131640625,-9.53723046875,-6.0498671875,2.8230625,-2.170828125,3.70880859375,-3.853203125,-6.34054296875,-3.658984375,-4.367578125,-7.025171875,-4.825109375,-8.0059296875,-11.98933984375,-9.53890234375,-10.1473515625,-9.01321484375,-3.47959375,-3.22085546875
1.3838984375,0.681484375,0.5993671875,1.58898046875,-0.246527343750001,2.42566796875,-1.03340234375,0.265421874999999,-1.04021484375,1.85787109375,3.53532421875,4.64931640625,-10.01323046875,-7.0648671875,1.8110625,-5.132828125,2.70580859375,-4.758203125,-7.78854296875,-5.979984375,-5.891578125,-6.446171875,-6.079109375,-10.1349296875,-14.76233984375,-9.90790234375,-12.3363515625,-9.16621484375,-3.93859375,-3.84585546875
0.1488984375,-1.316515625,-2.0086328125,0.57398046875,-1.13452734375,0.36466796875,-3.95540234375,-1.509578125,-2.14021484375,0.802871093750001,1.14632421875,1.44931640625,-9.68023046875,-8.1738671875,0.4630625,-8.168828125,1.21480859375,-5.556203125,-9.40154296875,-8.585984375,-7.271578125,-6.247171875,-7.078109375,-12.1289296875,-16.85933984375,-10.18690234375,-13.9523515625,-8.85021484375,-4.12559375,-4.17285546875
-1.5211015625,-3.218515625,-4.6936328125,-0.63201953125,-2.12152734375,-1.54933203125,-6.36640234375,-3.370578125,-3.02821484375,-0.0391289062499975,-0.891675781250001,-1.31168359375,-8.59523046875,-8.9588671875,-0.9919375,-10.749828125,-0.45819140625,-5.862203125,-10.74854296875,-11.086984375,-8.277578125,-5.994171875,-7.437109375,-13.6829296875,-17.95033984375,-10.41490234375,-14.6813515625,-7.93021484375,-3.83259375,-4.08385546875
-3.0961015625,-4.548515625,-6.5806328125,-1.59101953125,-2.66452734375,-2.69233203125,-7.59940234375,-4.885578125,-3.23121484375,-0.242128906249999,-1.97567578125,-3.09768359375,-7.02523046875,-8.9688671875,-2.2239375,-12.353828125,-1.95719140625,-5.261203125,-11.26454296875,-12.877984375,-8.563578125,-5.093171875,-6.693109375,-14.3069296875,-17.71333984375,-10.46790234375,-14.1103515625,-6.25121484375,-2.84059375,-3.40585546875
-4.0441015625,-5.080515625,-7.2086328125,-1.84401953125,-2.38052734375,-2.74333203125,-7.39340234375,-5.716578125,-2.54121484375,0.381871093750002,-1.78467578125,-3.68468359375,-5.33523046875,-7.9418671875,-2.9249375,-12.588828125,-2.95719140625,-3.518203125,-10.47054296875,-13.329984375,-7.787578125,-3.158171875,-4.512109375,-13.4969296875,-15.92933984375,-10.07590234375,-11.8893515625,-3.71621484375,-1.00759375,-1.96985546875
-4.0511015625,-4.868515625,-6.6436328125,-1.11301953125,-1.20252734375,-1.80633203125,-5.96740234375,-5.706578125,-1.11321484375,1.70487109375,-0.37667578125,-3.15468359375,-3.85823046875,-5.9248671875,-2.8859375,-11.257828125,-3.24219140625,-0.730203125000001,-8.15554296875,-12.001984375,-5.754578125,-0.258171875,-0.872109375,-10.9429296875,-12.58533984375,-8.94590234375,-7.9263515625,-0.36821484375,1.65040625,0.29514453125
-3.1281015625,-4.137515625,-5.3226328125,0.54498046875,0.602472656249999,-0.332332031249999,-3.89740234375,-4.891578125,0.600785156250002,3.36287109375,1.85232421875,-1.78068359375,-2.82123046875,-3.2538671875,-2.0379375,-8.403828125,-2.74919140625,2.674796875,-4.45654296875,-8.805984375,-2.518578125,3.108828125,3.859890625,-6.6959296875,-7.94233984375,-6.95990234375,-2.5473515625,3.53978515625,4.90740625,3.27414453125
-1.6111015625,-3.150515625,-3.7986328125,2.70098046875,2.52747265625,1.09066796875,-1.89540234375,-3.456578125,2.04278515625,4.91287109375,4.30732421875,0.0943164062500017,-2.30323046875,-0.417867187499999,-0.4789375,-4.329828125,-1.58019140625,6.096796875,0.176457031249999,-4.084984375,1.598421875,6.271828125,8.998890625,-1.2179296875,-2.54133984375,-4.29690234375,3.4886484375,7.53978515625,8.33540625,6.63314453125
-0.0661015625000001,-2.127515625,-2.5606328125,4.66498046875,3.97747265625,1.91866796875,-0.58340234375,-1.693578125,2.75078515625,5.94987109375,6.35632421875,2.12931640625,-2.23123046875,2.1061328125,1.5030625,0.398171874999999,0.0338085937499999,8.988796875,5.08645703125,1.436015625,6.080421875,8.694828125,13.718890625,4.7080703125,2.87266015625,-1.40390234375,9.1656484375,11.02878515625,11.39340625,9.89414453125
0.8928984375,-1.247515625,-1.9556328125,5.73398046875,4.43047265625,1.77166796875,-0.31740234375,0.0624218750000001,2.48278515625,6.17487109375,7.48932421875,4.01731640625,-2.38823046875,3.9821328125,3.4500625,5.018171875,1.81280859375,11.032796875,9.55345703125,6.820015625,10.354421875,10.145828125,17.291890625,10.1820703125,7.52166015625,1.19009765625,13.5196484375,13.43678515625,13.57740625,12.56614453125
0.8288984375,-0.650515624999999,-2.1466328125,5.50098046875,3.59647265625,0.52166796875,-1.10740234375,1.516421875,1.24578515625,5.44587109375,7.45632421875,5.51731640625,-2.47323046875,5.0591328125,4.8510625,8.732171875,3.52380859375,12.186796875,12.95245703125,11.161015625,13.929421875,10.662828125,19.271890625,14.4070703125,10.77766015625,3.07709765625,15.9296484375,14.41978515625,14.56640625,14.28914453125
-0.3151015625,-0.421515625,-3.0746328125,4.05698046875,1.53347265625,-1.64233203125,-2.63140234375,2.502421875,-0.74021484375,3.81187109375,6.35632421875,6.51131640625,-2.21623046875,5.3491328125,5.3340625,10.919171875,5.02180859375,12.599796875,14.87445703125,13.821015625,16.471421875,10.410828125,19.577890625,16.8750703125,12.29766015625,4.05909765625,16.2616484375,13.96078515625,14.29340625,14.89514453125
-2.1631015625,-0.556515624999999,-4.4526328125,1.94698046875,-1.32852734375,-4.23133203125,-4.34940234375,3.017421875,-3.10521484375,1.52987109375,4.62032421875,7.01331640625,-1.50523046875,4.9681328125,4.8240625,11.308171875,6.23380859375,12.478796875,15.18545703125,14.571015625,17.799421875,9.564828125,18.439890625,17.4290703125,12.05166015625,4.11109765625,14.8066484375,12.33078515625,12.92040625,14.40314453125
-4.0541015625,-0.954515624999999,-5.8636328125,-0.0790195312500002,-4.28452734375,-6.60833203125,-5.70040234375,3.170421875,-5.40821484375,-0.989128906249999,2.85932421875,7.13231640625,-0.450230468750002,4.0561328125,3.5890625,10.052171875,7.09680859375,11.970796875,14.00245703125,13.587015625,17.840421875,8.274828125,16.254890625,16.2340703125,10.26466015625,3.29409765625,12.0816484375,9.92278515625,10.73440625,12.94414453125
-5.3381015625,-1.446515625,-6.9186328125,-1.40601953125,-6.59252734375,-8.22033203125,-6.32340234375,3.101421875,-7.23521484375,-3.30812890625,1.62532421875,6.98631640625,0.637769531249999,2.7271328125,2.1090625,7.642171875,7.51380859375,11.107796875,11.62145703125,11.336015625,16.600421875,6.669828125,13.397890625,13.6650703125,7.30166015625,1.70209765625,8.5936484375,7.05878515625,8.01940625,10.68814453125
-5.6521015625,-1.864515625,-7.3926328125,-1.76801953125,-7.74152734375,-8.80433203125,-6.18640234375,2.920421875,-8.30421484375,-5.10312890625,1.18832421875,6.63831640625,1.35576953125,1.0331328125,0.850062500000001,4.706171875,7.37680859375,9.795796875,8.40845703125,8.380015625,14.189421875,4.825828125,10.069890625,10.1490703125,3.55666015625,-0.53690234375,4.6846484375,3.87478515625,4.97140625,7.78614453125
-5.0311015625,-2.100515625,-7.2556328125,-1.26401953125,-7.63252734375,-8.46733203125,-5.58440234375,2.673421875,-8.55721484375,-6.27612890625,1.42132421875,6.05531640625,1.35776953125,-1.0408671875,0.0470625000000009,1.774171875,6.62180859375,7.868796875,4.69845703125,5.194015625,10.835421875,2.733828125,6.258890625,6.0530703125,-0.63433984375,-3.23590234375,0.5076484375,0.35578515625,1.68540625,4.37014453125
-3.8431015625,-2.153515625,-6.6286328125,-0.22001953125,-6.59652734375,-7.63833203125,-5.00540234375,2.324421875,-8.17821484375,-6.97712890625,1.82732421875,5.12931640625,0.47676953125,-3.5408671875,-0.392937499999999,-0.908828125000001,5.27980859375,5.204796875,0.717457031249999,2.037015625,6.876421875,0.339828124999999,1.835890625,1.6150703125,-5.01933984375,-6.14790234375,-3.8803515625,-3.51821484375,-1.78459375,0.59814453125
-2.6151015625,-2.152515625,-5.7406328125,0.98998046875,-5.25852734375,-6.90933203125,-4.94640234375,1.767421875,-7.52221484375,-7.55512890625,1.71432421875,3.70331640625,-1.20823046875,-6.4928671875,-0.8339375,-3.444828125,3.48780859375,1.860796875,-3.42654296875,-1.087984375,2.686421875,-2.319171875,-3.271109375,-3.0299296875,-9.42433984375,-9.01290234375,-8.4063515625,-7.60421484375,-5.34559375,-3.28185546875
-1.8381015625,-2.332515625,-4.9016328125,2.05198046875,-4.31252734375,-6.80933203125,-5.74540234375,0.886421875,-6.97221484375,-8.42112890625,0.442324218749999,1.63731640625,-3.38723046875,-9.8148671875,-1.7369375,-6.189828125,1.44380859375,-1.843203125,-7.69454296875,-4.369984375,-1.411578125,-4.997171875,-8.915109375,-7.7849296875,-13.72333984375,-11.62290234375,-12.9073515625,-11.53421484375,-8.81259375,-6.91885546875
-1.8131015625,-2.947515625,-4.4606328125,2.75898046875,-4.26852734375,-7.59733203125,-7.46440234375,-0.378578125000001,-6.77621484375,-9.87212890625,-2.30167578125,-1.11868359375,-5.58323046875,-13.2538671875,-3.4439375,-9.526828125,-0.65519140625,-5.362203125,-12.00454296875,-8.040984375,-5.210578125,-7.244171875,-14.666109375,-12.4989296875,-17.81033984375,-13.85990234375,-17.1203515625,-14.79721484375,-11.92859375,-9.95085546875
-2.5611015625,-4.124515625,-4.6806328125,3.01698046875,-5.23752734375,-9.14633203125,-9.85040234375,-1.982578125,-6.94821484375,-11.93012890625,-6.30467578125,-4.43668359375,-7.25023046875,-16.3548671875,-5.9899375,-13.592828125,-2.66819140625,-8.063203125,-16.12254296875,-12.165984375,-8.607578125,-8.584171875,-19.870109375,-16.8979296875,-21.53633984375,-15.68990234375,-20.7153515625,-16.91321484375,-14.42759375,-12.12185546875
-3.8131015625,-5.741515625,-5.5666328125,2.84498046875,-6.86952734375,-10.96433203125,-12.37040234375,-3.785578125,-7.27021484375,-14.25512890625,-10.79767578125,-7.96568359375,-7.91823046875,-18.5248671875,-9.0139375,-18.075828125,-4.52019140625,-9.411203125,-19.59954296875,-16.473984375,-11.514578125,-8.762171875,-23.789109375,-20.5459296875,-24.63833984375,-17.09190234375,-23.3223515625,-17.58321484375,-16.07459375,-13.34985546875
-5.0801015625,-7.399515625,-6.7676328125,2.36598046875,-8.48752734375,-12.34533203125,-14.36240234375,-5.559578125,-7.41621484375,-16.21812890625,-14.65167578125,-11.16268359375,-7.38623046875,-19.1698671875,-11.8189375,-22.204828125,-6.16019140625,-9.106203125,-21.79554296875,-20.298984375,-13.749578125,-7.862171875,-25.753109375,-22.8979296875,-26.69033984375,-17.98090234375,-24.5563515625,-16.74421484375,-16.67259375,-13.67885546875
-5.8191015625,-8.546515625,-7.6456328125,1.78298046875,-9.37552734375,-12.60933203125,-15.22640234375,-7.025578125,-7.12521484375,-17.10312890625,-16.76167578125,-13.42468359375,-5.87023046875,-17.8938671875,-13.5659375,-24.962828125,-7.50019140625,-7.137203125,-22.01354296875,-22.722984375,-14.983578125,-6.212171875,-25.299109375,-23.4059296875,-27.15333984375,-18.18990234375,-24.0563515625,-14.50721484375,-16.02859375,-13.15385546875
-5.6201015625,-8.689515625,-7.5356328125,1.32598046875,-9.07152734375,-11.37733203125,-14.62540234375,-7.896578125,-6.33421484375,-16.40412890625,-16.46667578125,-14.27468359375,-3.93723046875,-14.6648671875,-13.5469375,-25.441828125,-8.37819140625,-3.740203125,-19.71454296875,-22.871984375,-14.810578125,-4.132171875,-22.248109375,-21.6749296875,-25.51933984375,-17.53090234375,-21.5503515625,-11.06221484375,-13.96759375,-11.73985546875
-4.3641015625,-7.612515625,-6.0676328125,1.18598046875,-7.53352734375,-8.75633203125,-12.59340234375,-7.969578125,-5.19721484375,-14.06212890625,-13.81667578125,-13.54168359375,-2.20723046875,-9.8828671875,-11.4339375,-23.199828125,-8.59319140625,0.687796875,-14.74754296875,-20.238984375,-12.929578125,-1.736171875,-16.761109375,-17.5959296875,-21.52133984375,-15.89390234375,-16.9653515625,-6.62821484375,-10.41059375,-9.32985546875
-2.2701015625,-5.474515625,-3.3886328125,1.46598046875,-5.11752734375,-5.32933203125,-9.55340234375,-7.194578125,-3.98521484375,-10.53412890625,-9.55667578125,-11.43168359375,-1.02423046875,-4.2998671875,-7.4219375,-18.458828125,-8.00519140625,5.669796875,-7.49654296875,-14.911984375,-9.338578125,1.033828125,-9.358109375,-11.4169296875,-15.30133984375,-13.33090234375,-10.5283515625,-1.45821484375,-5.50459375,-5.86685546875
0.1648984375,-2.763515625,-0.1546328125,2.13898046875,-2.42752734375,-1.94633203125,-6.21240234375,-5.714578125,-2.94121484375,-6.63612890625,-4.84667578125,-8.48568359375,-0.339230468750001,1.1731328125,-2.1969375,-12.069828125,-6.64019140625,10.696796875,1.12945703125,-7.602984375,-4.443578125,4.218828125,-0.872109375,-3.7289296875,-7.46333984375,-10.06590234375,-2.8043515625,4.11978515625,0.31040625,-1.48685546875
2.3198984375,-0.125515624999998,2.7223671875,3.04598046875,-0.10052734375,0.57366796875,-3.36640234375,-3.857578125,-2.19121484375,-3.26512890625,-0.853675781250001,-5.42068359375,0.124769531249999,5.7141328125,3.2520625,-5.278828125,-4.72919140625,15.278796875,9.88245703125,0.521015625,0.997421875,7.651828125,7.678890625,4.6090703125,1.03966015625,-6.43790234375,5.3776484375,9.69078515625,6.33940625,3.41214453125
3.6328984375,1.855484375,4.4423671875,3.92198046875,1.36847265625,1.69766796875,-1.66140234375,-2.069578125,-1.73521484375,-1.10712890625,1.60632421875,-2.91268359375,0.606769531249999,8.7741328125,7.9020625,0.627171874999998,-2.65119140625,19.010796875,17.46945703125,8.130015625,6.066421875,10.942828125,15.292890625,12.5980703125,9.12266015625,-2.81590234375,13.0856484375,14.79478515625,11.80040625,8.23214453125
3.7868984375,2.828484375,4.6313671875,4.48198046875,1.72847265625,1.32066796875,-1.38440234375,-0.800578125000001,-1.52221484375,-0.463128906249999,2.25532421875,-1.40468359375,1.13676953125,10.1561328125,10.9690625,4.652171875,-0.80219140625,21.622796875,22.86145703125,14.059015625,9.953421875,13.615828125,21.151890625,19.2350703125,15.81366015625,0.464097656249999,19.4586484375,18.97378515625,16.01940625,12.32614453125
2.8388984375,2.748484375,3.4593671875,4.51598046875,1.00547265625,-0.22833203125,-2.37540234375,-0.355578125000001,-1.51521484375,-1.22112890625,1.36132421875,-0.995683593749998,1.52176953125,9.9881328125,12.0940625,6.323171875,0.51780859375,22.992796875,25.50545703125,17.557015625,12.176421875,15.292828125,24.724890625,23.6630703125,20.43066015625,3.11509765625,23.8386484375,21.81878515625,18.57640625,15.16714453125
1.2238984375,1.853484375,1.5403671875,3.98598046875,-0.518527343750002,-2.31033203125,-4.09640234375,-0.790578125000001,-1.71321484375,-2.94912890625,-0.415675781250002,-1.47568359375,1.46276953125,8.6201328125,11.4150625,5.759171875,1.16780859375,23.117796875,25.38245703125,18.437015625,12.688421875,15.824828125,25.794890625,25.3460703125,22.65866015625,4.91209765625,25.8356484375,23.01878515625,19.34640625,16.45114453125
-0.4091015625,0.567484375000001,-0.3316328125,3.04698046875,-2.37252734375,-4.18533203125,-5.82240234375,-1.903578125,-2.11321484375,-5.07012890625,-2.24367578125,-2.44168359375,0.699769531249999,6.5031328125,9.5110625,3.589171875,1.18280859375,22.061796875,22.92845703125,17.069015625,11.847421875,15.277828125,24.451890625,24.2270703125,22.54766015625,5.72709765625,25.3586484375,22.40378515625,18.44940625,16.12014453125
-1.4381015625,-0.627515624999999,-1.4846328125,1.99998046875,-4.00152734375,-5.23633203125,-6.89340234375,-3.315578125,-2.66321484375,-7.03112890625,-3.35567578125,-3.45668359375,-0.860230468750002,4.0631328125,7.2300625,0.748171874999999,0.749808593749999,19.929796875,18.86845703125,14.248015625,10.272421875,13.802828125,21.051890625,20.7770703125,20.46466015625,5.58309765625,22.6196484375,19.98978515625,16.15740625,14.32214453125
-1.4681015625,-1.332515625,-1.5886328125,1.18398046875,-4.92052734375,-5.11533203125,-6.93440234375,-4.592578125,-3.23321484375,-8.42412890625,-3.26067578125,-4.16468359375,-3.06723046875,1.6131328125,5.4250625,-1.799828125,0.169808593749999,16.856796875,14.01945703125,10.925015625,8.644421875,11.490828125,16.129890625,15.8730703125,16.98966015625,4.66009765625,18.0936484375,15.99978515625,12.81040625,11.35114453125
-0.4251015625,-1.340515625,-0.7286328125,0.85498046875,-4.86052734375,-3.80933203125,-5.95740234375,-5.354578125,-3.65321484375,-9.04812890625,-1.87067578125,-4.35368359375,-5.54223046875,-0.7018671875,4.6780625,-3.344828125,-0.21119140625,13.025796875,9.09445703125,7.910015625,7.494421875,8.311828125,10.285890625,10.5120703125,12.79266015625,3.24709765625,12.4396484375,10.84178515625,8.76140625,7.58814453125
1.4458984375,-0.689515624999999,0.7043671875,1.08198046875,-3.85952734375,-1.62633203125,-4.31340234375,-5.381578125,-3.78821484375,-8.91712890625,0.478324218749998,-3.97968359375,-7.79423046875,-2.8808671875,5.1220625,-3.631828125,-0.0891914062500003,8.670796875,4.56345703125,5.642015625,7.044421875,4.214828125,4.048890625,5.4790703125,8.48166015625,1.66009765625,6.3556484375,5.04578515625,4.35740625,3.44414453125
3.6778984375,0.382484375000001,2.2243671875,1.73498046875,-2.25552734375,0.88666796875,-2.51640234375,-4.656578125,-3.62121484375,-8.23112890625,3.12832421875,-3.15268359375,-9.42423046875,-4.9938671875,6.4290625,-2.905828125,0.694808593749999,4.088796875,0.59745703125,4.103015625,7.162421875,-0.686171875000001,-2.177109375,1.1290703125,4.46866015625,0.154097656249998,0.4336484375,-0.82021484375,-0.0815937499999997,-0.69385546875
5.7398984375,1.548484375,3.4723671875,2.55498046875,-0.582527343750002,3.12566796875,-1.04340234375,-3.353578125,-3.27021484375,-7.30412890625,5.32132421875,-2.09368359375,-10.29323046875,-7.0848671875,7.9660625,-1.787828125,2.07880859375,-0.359203125000001,-2.86854296875,2.913015625,7.439421875,-5.967171875,-8.087109375,-2.6289296875,0.883660156249999,-1.13890234375,-4.9623515625,-6.24421484375,-4.27659375,-4.53185546875
7.2168984375,2.519484375,4.3323671875,3.27098046875,0.621472656249999,4.62466796875,-0.191402343749999,-1.774578125,-2.92121484375,-6.48312890625,6.43932421875,-1.07268359375,-10.52323046875,-9.0858671875,9.0320625,-1.031828125,3.76780859375,-4.241203125,-5.99054296875,1.536015625,7.364421875,-10.916171875,-13.378109375,-6.1359296875,-2.40533984375,-2.22990234375,-9.7273515625,-10.84121484375,-8.01659375,-7.91685546875
7.9318984375,3.127484375,4.9003671875,3.71498046875,1.00647265625,5.20166796875,-0.0494023437499997,-0.272578125000001,-2.73121484375,-6.05912890625,6.18632421875,-0.335683593749998,-10.32123046875,-10.7958671875,9.0990625,-1.263828125,5.32480859375,-7.088203125,-8.86454296875,-0.495984375000001,6.525421875,-14.731171875,-17.678109375,-9.6969296875,-5.67333984375,-3.24290234375,-13.9483515625,-14.38621484375,-11.17159375,-10.83085546875
7.9648984375,3.346484375,5.3513671875,3.85998046875,0.545472656249999,4.96166796875,-0.540402343749999,0.817421874999999,-2.73221484375,-6.17412890625,4.64732421875,-0.053683593749998,-9.76523046875,-11.9398671875,7.9560625,-2.794828125,6.31280859375,-8.490203125,-11.44754296875,-3.405984375,4.756421875,-16.797171875,-20.563109375,-13.3509296875,-9.14133984375,-4.33190234375,-17.7563515625,-16.80721484375,-13.69259375,-13.32985546875
7.5808984375,3.246484375,5.8023671875,3.78698046875,-0.471527343750001,4.21666796875,-1.50040234375,1.239421875,-2.82821484375,-6.76412890625,2.22332421875,-0.30068359375,-8.77023046875,-12.2648671875,5.7490625,-5.550828125,6.43280859375,-8.226203125,-13.55254296875,-7.079984375,2.180421875,-16.910171875,-21.671109375,-16.7989296875,-12.80933984375,-5.60590234375,-21.1593515625,-18.14321484375,-15.57659375,-15.45785546875
7.1178984375,2.936484375,6.2433671875,3.60898046875,-1.56052734375,3.36666796875,-2.73040234375,0.866421874999999,-2.83121484375,-7.54312890625,-0.494675781250001,-1.05668359375,-7.23023046875,-11.6278671875,2.9320625,-9.084828125,5.59880859375,-6.374203125,-14.90254296875,-11.070984375,-0.840578125,-15.326171875,-20.842109375,-19.5119296875,-16.37733984375,-7.07390234375,-23.9403515625,-18.48721484375,-16.82559375,-17.18785546875
6.8808984375,2.539484375,6.5723671875,3.42998046875,-2.21852734375,2.77866796875,-4.00640234375,-0.287578125000001,-2.54321484375,-8.06212890625,-2.86967578125,-2.21268359375,-5.19023046875,-10.0218671875,0.159062500000001,-12.647828125,3.93480859375,-3.301203125,-15.18954296875,-14.656984375,-3.804578125,-12.619171875,-18.178109375,-20.9089296875,-19.28333984375,-8.62190234375,-25.6593515625,-17.90521484375,-17.39959375,-18.38885546875
7.0798984375,2.196484375,6.6853671875,3.35598046875,-2.06552734375,2.70666796875,-5.07540234375,-2.069578125,-1.81821484375,-7.84112890625,-4.34467578125,-3.57768359375,-2.88123046875,-7.5378671875,-1.8269375,-15.314828125,1.73880859375,0.471796874999999,-14.12354296875,-16.979984375,-6.161578125,-9.408171875,-14.004109375,-20.5309296875,-20.82133984375,-10.00990234375,-25.7723515625,-16.39321484375,-17.19159375,-18.83985546875
7.8088984375,2.071484375,6.5623671875,3.51698046875,-0.941527343750002,3.25166796875,-5.67940234375,-4.204578125,-0.614214843749998,-6.53412890625,-4.54567578125,-4.88968359375,-0.636230468750002,-4.3128671875,-2.3349375,-16.194828125,-0.59219140625,4.446796875,-11.48954296875,-17.240984375,-7.400578125,-6.106171875,-8.753109375,-18.1289296875,-20.32133984375,-10.91990234375,-23.8243515625,-13.87721484375,-16.03659375,-18.28685546875
9.0338984375,2.306484375,6.2913671875,4.02098046875,1.03647265625,4.35866796875,-5.62040234375,-6.301578125,0.960785156250001,-4.09312890625,-3.38267578125,-5.85968359375,1.19776953125,-0.539867187499999,-0.9269375,-14.723828125,-2.66219140625,8.267796875,-7.25554296875,-14.952984375,-7.141578125,-2.837171875,-2.881109375,-13.7249296875,-17.38533984375,-11.05190234375,-19.6603515625,-10.30921484375,-13.78359375,-16.55085546875
10.5598984375,2.947484375,6.0313671875,4.84198046875,3.45947265625,5.80966796875,-4.86540234375,-7.916578125,2.60878515625,-0.875128906249998,-1.11167578125,-6.23768359375,2.26476953125,3.4501328125,2.3710625,-10.920828125,-4.17019140625,11.682796875,-1.71154296875,-10.169984375,-5.258578125,0.407828124999999,3.138890625,-7.6639296875,-12.10833984375,-10.23690234375,-13.5883515625,-5.81921484375,-10.40059375,-13.64285546875
12.0228984375,3.871484375,5.9253671875,5.71998046875,5.68547265625,7.23866796875,-3.58240234375,-8.668578125,3.86378515625,2.36687109375,1.69532421875,-5.89268359375,2.17976953125,7.1021328125,6.9430625,-5.470828125,-4.96319140625,14.439796875,4.43945703125,-3.582984375,-1.969578125,3.501828125,8.756890625,-0.648929687500001,-5.15433984375,-8.50890234375,-6.4023515625,-0.83121484375,-6.09359375,-9.83585546875
12.9488984375,4.794484375,6.0273671875,6.20998046875,7.01747265625,8.20166796875,-2.08040234375,-8.368578125,4.21478515625,4.69787109375,4.31832421875,-4.84368359375,0.617769531249998,9.7091328125,11.6970625,0.485171874999999,-5.01919140625,16.229796875,10.17045703125,3.620015625,2.188421875,6.031828125,13.343890625,6.3440703125,2.38866015625,-6.07690234375,0.7806484375,3.95978515625,-1.33759375,-5.61485546875
12.9248984375,5.382484375,6.2753671875,5.89798046875,6.95847265625,8.36866796875,-0.65740234375,-7.091578125,3.32478515625,5.36187109375,6.15432421875,-3.23368359375,-2.46623046875,10.6561328125,15.4150625,5.760171875,-4.38419140625,16.785796875,14.41145703125,10.094015625,6.515421875,7.434828125,16.314890625,12.2930703125,9.36566015625,-3.24590234375,6.8386484375,7.79778515625,3.21640625,-1.53785546875
11.7988984375,5.410484375,6.5513671875,4.64998046875,5.43047265625,7.70466796875,0.548597656250001,-5.142578125,1.22778515625,4.12387109375,6.94932421875,-1.28168359375,-6.61623046875,9.7131328125,17.1990625,9.525171875,-3.14519140625,16.058796875,16.41445703125,14.739015625,10.354421875,7.327828125,17.321890625,16.4210703125,14.90966015625,-0.336902343750001,10.9696484375,10.13978515625,6.92840625,1.91714453125
9.7818984375,4.867484375,6.7683671875,2.72798046875,2.83847265625,6.49366796875,1.58259765625,-2.954578125,-1.63121484375,1.38287109375,6.83832421875,0.760316406250002,-10.86323046875,7.1841328125,16.7720625,11.507171875,-1.44819140625,14.319796875,15.96645703125,16.977015625,13.237421875,5.780828125,16.361890625,18.3900703125,18.60566015625,2.35109765625,12.8706484375,10.83078515625,9.32840625,4.43314453125
7.3768984375,3.950484375,6.9073671875,0.67098046875,-0.0915273437500002,5.17766796875,2.54959765625,-0.975578125,-4.55021484375,-2.03112890625,6.20032421875,2.61431640625,-14.02323046875,3.7741328125,14.4930625,11.893171875,0.45580859375,12.058796875,13.37145703125,16.805015625,14.933421875,3.309828125,13.722890625,18.3020703125,20.42366015625,4.53509765625,12.6866484375,10.07578515625,10.19640625,5.85014453125
5.1578984375,2.924484375,6.9603671875,-0.97701953125,-2.63052734375,4.10266796875,3.42159765625,0.427421874999999,-6.85621484375,-5.25412890625,5.38332421875,3.98231640625,-15.23323046875,0.264132812500002,11.1220625,11.078171875,2.21880859375,9.739796875,9.21445703125,14.669015625,15.423421875,0.601828124999999,9.787890625,16.5230703125,20.52066015625,5.95509765625,10.8176484375,8.25378515625,9.53640625,6.10614453125
3.5248984375,1.970484375,6.8453671875,-1.93001953125,-4.33752734375,3.35466796875,3.94059765625,1.018421875,-8.16521484375,-7.74912890625,4.49932421875,4.58131640625,-14.41423046875,-2.8138671875,7.4750625,9.411171875,3.48180859375,7.564796875,4.10845703125,11.235015625,14.829421875,-1.830171875,4.855890625,13.4670703125,19.09466015625,6.43309765625,7.6856484375,5.69878515625,7.51640625,5.20614453125
2.5788984375,1.109484375,6.4013671875,-2.24601953125,-5.16552734375,2.77166796875,3.70859765625,0.719421875,-8.48721484375,-9.43112890625,3.40432421875,4.21231640625,-12.34023046875,-5.3098671875,4.1590625,7.092171875,4.00180859375,5.429796875,-1.45554296875,7.180015625,13.353421875,-3.820171875,-0.888109375,9.4740703125,16.35966015625,5.95309765625,3.6256484375,2.60078515625,4.41240625,3.22314453125
2.1738984375,0.256484375000001,5.4903671875,-2.20901953125,-5.34952734375,2.09566796875,2.44559765625,-0.365578125000001,-8.14221484375,-10.52012890625,1.88532421875,2.85831640625,-10.20423046875,-7.3428671875,1.4900625,4.229171875,3.76980859375,3.102796875,-7.09354296875,3.051015625,11.229421875,-5.471171875,-7.254109375,4.8360703125,12.59966015625,4.69209765625,-1.0833515625,-0.95021484375,0.58340625,0.33814453125
2.0878984375,-0.646515624999999,4.1373671875,-2.10401953125,-5.19252734375,1.17666796875,0.22059765625,-1.934578125,-7.55021484375,-11.27612890625,-0.0986757812500016,0.743316406250001,-8.94423046875,-9.0688671875,-0.466937499999999,0.954171875,3.02580859375,0.496796875,-12.42654296875,-0.793984375000001,8.703421875,-6.943171875,-13.874109375,-0.110929687500001,8.19166015625,2.96609765625,-6.1173515625,-4.85521484375,-3.56059375,-3.14485546875
2.1658984375,-1.544515625,2.5903671875,-2.05401953125,-4.90352734375,0.0866679687499996,-2.48540234375,-3.534578125,-7.04521484375,-11.80612890625,-2.30467578125,-1.70268359375,-8.79523046875,-10.5028671875,-1.7989375,-2.504828125,2.15280859375,-2.192203125,-17.04354296875,-4.200984375,6.014421875,-8.275171875,-20.159109375,-4.9499296875,3.53666015625,1.09209765625,-11.0733515625,-8.92921484375,-7.63159375,-6.84985546875
2.3468984375,-2.279515625,1.2373671875,-2.02101953125,-4.56352734375,-0.94033203125,-4.96840234375,-4.712578125,-6.79321484375,-12.06512890625,-4.30867578125,-3.99168359375,-9.32923046875,-11.5038671875,-2.6879375,-5.850828125,1.48780859375,-4.551203125,-20.57754296875,-7.205984375,3.363421875,-9.382171875,-25.418109375,-9.2619296875,-1.06833984375,-0.73590234375,-15.5493515625,-12.90721484375,-11.34959375,-10.44685546875
2.5838984375,-2.700515625,0.4203671875,-1.92001953125,-4.18352734375,-1.67233203125,-6.61240234375,-5.181578125,-6.81021484375,-11.98712890625,-5.72767578125,-5.75868359375,-9.90023046875,-11.8708671875,-3.3609375,-8.819828125,1.18180859375,-6.177203125,-22.84554296875,-9.977984375,0.875421875,-10.150171875,-29.065109375,-12.7479296875,-5.50433984375,-2.45990234375,-19.2703515625,-16.47921484375,-14.57559375,-13.72785546875
2.7698984375,-2.762515625,0.2803671875,-1.72701953125,-3.77852734375,-2.03733203125,-7.14940234375,-4.917578125,-7.00621484375,-11.63012890625,-6.42067578125,-6.88468359375,-10.13023046875,-11.4608671875,-4.0529375,-11.269828125,1.18080859375,-6.865203125,-23.90654296875,-12.714984375,-1.407578125,-10.521171875,-30.771109375,-15.3099296875,-9.77233984375,-4.08690234375,-22.1413515625,-19.32021484375,-17.25459375,-16.59385546875
2.7398984375,-2.572515625,0.6883671875,-1.51401953125,-3.41052734375,-2.16133203125,-6.75840234375,-4.140578125,-7.23221484375,-11.20112890625,-6.54067578125,-7.50368359375,-10.08623046875,-10.2548671875,-4.9439375,-13.202828125,1.29380859375,-6.649203125,-23.97754296875,-15.532984375,-3.502578125,-10.499171875,-30.492109375,-17.0079296875,-13.85833984375,-5.60290234375,-24.1773515625,-21.11321484375,-19.30959375,-18.96885546875
2.3498984375,-2.338515625,1.3043671875,-1.39701953125,-3.18652734375,-2.29933203125,-5.96640234375,-3.218578125,-7.31921484375,-10.97112890625,-6.43867578125,-7.90668359375,-10.09123046875,-8.3568671875,-6.1039375,-14.712828125,1.29680859375,-5.692203125,-23.25154296875,-18.370984375,-5.436578125,-10.059171875,-28.399109375,-17.9369296875,-17.60533984375,-6.95890234375,-25.3733515625,-21.59421484375,-20.58059375,-20.72785546875
1.5608984375,-2.267515625,1.7243671875,-1.47001953125,-3.19852734375,-2.70733203125,-5.38640234375,-2.557578125,-7.13121484375,-11.12012890625,-6.48267578125,-8.39268359375,-10.34423046875,-5.9508671875,-7.4589375,-15.894828125,0.99680859375,-4.129203125,-21.76554296875,-20.964984375,-7.209578125,-9.076171875,-24.770109375,-18.1029296875,-20.66333984375,-8.10390234375,-25.6073515625,-20.61921484375,-20.86459375,-21.70085546875
0.4918984375,-2.453515625,1.6653671875,-1.75401953125,-3.45652734375,-3.51333203125,-5.43540234375,-2.493578125,-6.61721484375,-11.61412890625,-6.86167578125,-9.13668359375,-10.67023046875,-3.2478671875,-8.7969375,-16.755828125,0.263808593749999,-1.994203125,-19.41654296875,-22.888984375,-8.768578125,-7.346171875,-19.933109375,-17.3829296875,-22.56733984375,-9.01490234375,-24.6543515625,-18.24021484375,-20.03359375,-21.76085546875
-0.6061015625,-2.843515625,1.0743671875,-2.18801953125,-3.85752734375,-4.61033203125,-6.15340234375,-3.175578125,-5.84821484375,-12.17912890625,-7.49767578125,-10.10668359375,-10.57223046875,-0.468867187499999,-9.8249375,-17.184828125,-0.944191406250001,0.704796875,-16.11454296875,-23.667984375,-9.993578125,-4.745171875,-14.271109375,-15.5979296875,-22.88733984375,-9.69190234375,-22.3243515625,-14.71521484375,-18.14459375,-20.90185546875
-1.4511015625,-3.289515625,0.1123671875,-2.66601953125,-4.23752734375,-5.67333203125,-7.21340234375,-4.491578125,-5.01321484375,-12.42712890625,-8.08767578125,-11.09268359375,-9.57723046875,2.1411328125,-10.2779375,-16.986828125,-2.56319140625,3.842796875,-11.97054296875,-22.945984375,-10.713578125,-1.418171875,-8.246109375,-12.6539296875,-21.40033984375,-10.14890234375,-18.6263515625,-10.46621484375,-15.46859375,-19.26385546875
-1.8531015625,-3.652515625,-0.9476328125,-3.08801953125,-4.46552734375,-6.31733203125,-8.11140234375,-6.098578125,-4.36321484375,-12.07712890625,-8.26967578125,-11.79868359375,-7.62623046875,4.3041328125,-10.0269375,-15.969828125,-4.41219140625,7.071796875,-7.39354296875,-20.642984375,-10.742578125,2.166828125,-2.397109375,-8.6629296875,-18.19233984375,-10.37690234375,-13.8573515625,-5.96621484375,-12.40959375,-17.06485546875
-1.8001015625,-3.869515625,-1.8336328125,-3.40601953125,-4.52252734375,-6.31033203125,-8.40940234375,-7.542578125,-4.10421484375,-11.13312890625,-7.79767578125,-11.97468359375,-5.21923046875,5.7331328125,-9.1369375,-14.038828125,-6.20119140625,9.886796875,-3.01754296875,-17.014984375,-9.922578125,5.370828125,2.747890625,-3.9709296875,-13.63633984375,-10.31290234375,-8.5443515625,-1.62921484375,-9.35659375,-14.51285546875
-1.4571015625,-3.945515625,-2.3406328125,-3.63201953125,-4.50852734375,-5.70233203125,-7.93140234375,-8.423578125,-4.29921484375,-9.91212890625,-6.65867578125,-11.50668359375,-3.17023046875,6.2051328125,-7.8479375,-11.250828125,-7.57419140625,11.809796875,0.506457031249999,-12.581984375,-8.171578125,7.672828125,6.796890625,0.9110703125,-8.27333984375,-9.83090234375,-3.2963515625,2.24978515625,-6.57459375,-11.75885546875
-1.1151015625,-3.904515625,-2.3776328125,-3.82601953125,-4.60152734375,-4.81133203125,-6.82840234375,-8.542578125,-4.84621484375,-8.92112890625,-5.08767578125,-10.45968359375,-2.14223046875,5.6261328125,-6.5009375,-7.838828125,-8.20519140625,12.609796875,2.72245703125,-7.983984375,-5.524578125,8.897828125,9.588890625,5.4310703125,-2.67033984375,-8.77790234375,1.3446484375,5.48778515625,-4.17459375,-8.92185546875
-1.1271015625,-3.779515625,-2.0176328125,-4.09401953125,-5.00152734375,-4.12533203125,-5.53540234375,-7.976578125,-5.56221484375,-8.66512890625,-3.51367578125,-9.06168359375,-2.29423046875,4.0381328125,-5.4559375,-4.209828125,-7.90419140625,12.376796875,3.46645703125,-3.835984375,-2.181578125,9.247828125,11.168890625,9.0920703125,2.66166015625,-7.05290234375,4.9826484375,7.95878515625,-2.19359375,-6.15085546875
-1.8311015625,-3.646515625,-1.5376328125,-4.57501953125,-5.89452734375,-4.14933203125,-4.62440234375,-7.065578125,-6.32721484375,-9.49812890625,-2.45767578125,-7.66268359375,-3.28123046875,1.5701328125,-5.0439375,-0.913828125,-6.73219140625,11.422796875,2.78845703125,-0.650984375,1.463421875,9.099828125,11.656890625,11.4920703125,7.26566015625,-4.69290234375,7.3466484375,9.52878515625,-0.708593749999999,-3.68585546875
-3.4351015625,-3.681515625,-1.3686328125,-5.42401953125,-7.42552734375,-5.25833203125,-4.62640234375,-6.296578125,-7.18121484375,-11.55412890625,-2.41367578125,-6.66268359375,-4.57323046875,-1.6288671875,-5.5499375,1.431171875,-5.01819140625,10.055796875,0.79945703125,1.150015625,4.847421875,8.724828125,11.083890625,12.3000703125,10.70666015625,-1.94090234375,8.2446484375,10.02478515625,0.0884062500000002,-1.85085546875
-5.9111015625,-4.150515625,-1.9536328125,-6.76401953125,-9.67052734375,-7.55733203125,-5.87440234375,-6.124578125,-8.30921484375,-14.73212890625,-3.69067578125,-6.43268359375,-5.82423046875,-5.4258671875,-7.1839375,2.272171875,-3.27919140625,8.392796875,-2.44054296875,1.234015625,7.354421875,8.084828125,9.337890625,11.2730703125,12.56066015625,0.757097656249998,7.5486484375,9.27378515625,-0.0635937499999999,-0.98585546875
-8.9591015625,-5.311515625,-3.5606328125,-8.61301953125,-12.57752734375,-10.82033203125,-8.40440234375,-6.806578125,-9.91621484375,-18.72112890625,-6.30267578125,-7.23068359375,-7.03023046875,-9.6658671875,-9.9969375,1.272171875,-2.04619140625,6.359796875,-6.87654296875,-0.583984375,8.486421875,6.871828125,6.281890625,8.3400703125,12.50266015625,2.84409765625,5.2696484375,7.21678515625,-1.34759375,-1.29985546875
-12.0901015625,-7.261515625,-6.1396328125,-10.83501953125,-15.91652734375,-14.55433203125,-11.93440234375,-8.315578125,-12.05021484375,-23.03412890625,-9.91667578125,-9.11268359375,-8.40523046875,-14.0988671875,-13.7879375,-1.555828125,-1.67219140625,3.856796875,-12.30554296875,-4.216984375,8.032421875,4.745828125,1.970890625,3.7410703125,10.46166015625,3.83109765625,1.6436484375,4.03278515625,-3.70359375,-2.74685546875
-14.7841015625,-9.821515625,-9.2966328125,-13.13801953125,-19.25552734375,-18.13633203125,-15.90540234375,-10.353578125,-14.49221484375,-27.08312890625,-13.92967578125,-11.86368359375,-10.09023046875,-18.3228671875,-18.0649375,-5.812828125,-2.21519140625,0.988796875,-18.25054296875,-9.208984375,6.139421875,1.683828125,-3.171109375,-1.9119296875,6.72366015625,3.45709765625,-2.8373515625,0.18078515625,-6.77159375,-5.02985546875
-16.6321015625,-12.530515625,-12.4016328125,-15.13101953125,-22.02752734375,-20.95833203125,-19.59140234375,-12.455578125,-16.76521484375,-30.28312890625,-17.63767578125,-14.98268359375,-11.90623046875,-21.8068671875,-22.1349375,-10.776828125,-3.44919140625,-1.829203125,-23.95454296875,-14.786984375,3.242421875,-1.786171875,-8.375109375,-7.7209296875,1.87766015625,1.76709765625,-7.5403515625,-3.69121484375,-9.98959375,-7.74085546875
-17.4141015625,-14.767515625,-14.7656328125,-16.42601953125,-23.66752734375,-22.55233203125,-22.24340234375,-14.140578125,-18.27621484375,-32.16112890625,-20.42767578125,-17.77468359375,-13.28723046875,-23.9938671875,-25.2889375,-15.572828125,-4.97219140625,-3.956203125,-28.54854296875,-20.061984375,-0.116578125,-4.617171875,-12.733109375,-12.7299296875,-3.37633984375,-0.939902343750001,-11.8763515625,-6.92621484375,-12.80259375,-10.57085546875
-17.0971015625,-15.953515625,-15.8426328125,-16.73801953125,-23.77052734375,-22.67833203125,-23.26540234375,-15.062578125,-18.52221484375,-32.45312890625,-21.93367578125,-19.55168359375,-13.46923046875,-24.4658671875,-26.9999375,-19.404828125,-6.36919140625,-4.755203125,-31.30754296875,-24.295984375,-3.480578125,-5.590171875,-15.499109375,-16.1939296875,-8.45333984375,-4.23490234375,-15.4543515625,-9.04621484375,-14.83759375,-13.41085546875
-15.8111015625,-15.760515625,-15.3926328125,-15.98401953125,-22.22052734375,-21.38133203125,-22.39040234375,-15.110578125,-17.27721484375,-31.17012890625,-22.10167578125,-19.89068359375,-11.86223046875,-23.0998671875,-27.0779375,-21.804828125,-7.36019140625,-3.870203125,-31.90854296875,-27.126984375,-6.600578125,-3.857171875,-16.337109375,-17.8009296875,-13.03833984375,-7.72290234375,-18.1553515625,-9.87521484375,-15.99859375,-16.31885546875
-13.8111015625,-14.275515625,-13.5866328125,-14.32401953125,-19.26652734375,-18.98233203125,-19.83640234375,-14.430578125,-14.71021484375,-28.61512890625,-21.18867578125,-18.83568359375,-8.43023046875,-20.1668671875,-25.7459375,-22.812828125,-7.89719140625,-1.414203125,-30.58954296875,-28.674984375,-9.451578125,0.574828125,-15.454109375,-17.7699296875,-17.12033984375,-11.17090234375,-20.1233515625,-9.58721484375,-16.44359375,-19.38285546875
-11.4451015625,-12.016515625,-10.9986328125,-12.15301953125,-15.51052734375,-16.00833203125,-16.31340234375,-13.359578125,-11.36821484375,-25.35912890625,-19.69967578125,-16.94168359375,-3.82523046875,-16.3258671875,-23.6139375,-22.998828125,-8.14919140625,1.997796875,-28.14654296875,-29.491984375,-12.167578125,6.702828125,-13.567109375,-16.8089296875,-20.92633984375,-14.54390234375,-21.6993515625,-8.67221484375,-16.50759375,-22.59785546875
-11.4451015625,-12.016515625,-10.9986328125,-12.15301953125,-15.51052734375,-16.00833203125,-16.31340234375,-13.359578125,-11.36821484375,-25.35912890625,-19.69967578125,-16.94168359375,-3.82523046875,-16.3258671875,-23.6139375,-22.998828125,-8.14919140625,1.997796875,-28.14654296875,-29.491984375,-12.167578125,6.702828125,-13.567109375,-16.8089296875,-20.92633984375,-14.54390234375,-21.6993515625,-8.67221484375,-16.50759375,-22.59785546875
