"Fp1","Fpz","Fp2","F7","F3","Fz","F4","F8","FC5","FC1","FC2","FC6","T7","C3","Cz","C4","T8","CP5","CP1","CP2","CP6","P7","P3","Pz","P4","P8","POz","O1","Oz","O2"
-6.72644921875,-4.288953125,5.29433203125,11.9960625,-3.89021875,4.9787109375,-3.83921484375,8.28009375,-5.1315703125,1.8756640625,-8.83625390625,8.0553203125,5.12619140625,-7.96702734375,-0.0801679687500001,3.2380234375,6.23001953125,-6.69751953125,-0.91530078125,6.18589453125,1.85709765625,-0.79406640625,-6.9396953125,3.57369140625,2.70311328125,6.44079296875,-3.98631640625,-3.51092578125,9.105234375,7.66035546875
-5.67244921875,-5.669953125,7.36633203125,12.1630625,-5.47721875,-1.9602890625,-2.42021484375,3.72009375,-5.6545703125,-1.3553359375,-10.42425390625,4.6293203125,3.55319140625,-7.73302734375,-3.25716796875,4.2440234375,6.37901953125,-7.30451953125,-4.19430078125,6.11989453125,4.19809765625,-2.20706640625,-7.1086953125,2.90369140625,4.79711328125,5.68579296875,-3.54731640625,-3.73692578125,8.840234375,6.68235546875
-6.48544921875,-7.131953125,7.57333203125,11.2930625,-7.19621875,-6.5182890625,-2.64921484375,-0.00290624999999992,-6.3165703125,-4.2033359375,-12.42125390625,1.8843203125,2.10419140625,-8.03002734375,-5.76816796875,4.2850234375,6.77401953125,-7.94651953125,-6.57730078125,5.97889453125,5.31009765625,-3.23506640625,-7.4986953125,2.30769140625,5.92611328125,5.31179296875,-3.09431640625,-3.88292578125,8.684234375,5.98135546875
-8.71544921875,-8.516953125,5.58233203125,9.5930625,-9.06021875,-8.9142890625,-4.22421484375,-2.67390625,-6.9935703125,-6.6653359375,-14.48425390625,0.1903203125,0.97019140625,-8.80502734375,-7.41016796875,3.4740234375,6.77501953125,-8.53751953125,-8.04130078125,5.65789453125,5.04309765625,-3.78806640625,-8.0776953125,1.76569140625,5.86011328125,5.12279296875,-2.76531640625,-3.92792578125,8.498234375,5.44535546875
-11.25744921875,-9.602953125,1.69333203125,7.6130625,-10.93221875,-9.9052890625,-6.21621484375,-4.21890625,-7.5185703125,-8.7453359375,-16.10025390625,-0.1976796875,0.30919140625,-9.85802734375,-8.10216796875,2.2080234375,5.57101953125,-8.97951953125,-8.77830078125,5.05489453125,3.60609765625,-3.90206640625,-8.7366953125,1.23969140625,4.61911328125,4.78479296875,-2.73231640625,-3.83392578125,8.109234375,4.89435546875
-13.04844921875,-10.236953125,-3.13566796875,5.8540625,-12.55221875,-10.2322890625,-7.63721484375,-4.68390625,-7.7965703125,-10.4183359375,-16.94225390625,0.6423203125,0.0821914062499998,-10.97302734375,-7.92916796875,0.8880234375,2.80801953125,-9.22551953125,-9.06030078125,4.12489453125,1.46209765625,-3.74206640625,-9.3386953125,0.68769140625,2.47411328125,4.07379296875,-3.10431640625,-3.55092578125,7.447234375,4.24335546875
-13.61644921875,-10.429953125,-7.45166796875,4.3890625,-13.72421875,-10.4442890625,-8.04421484375,-4.25690625,-7.8875703125,-11.7113359375,-17.12825390625,2.1953203125,0.0311914062500001,-12.00502734375,-7.21316796875,-0.2859765625,-0.984980468750001,-9.30151953125,-9.17630078125,2.91489453125,-0.82190234375,-3.53406640625,-9.7656953125,0.0706914062499999,-0.10188671875,3.05679296875,-3.85431640625,-3.04792578125,6.597234375,3.59235546875
-13.12144921875,-10.332953125,-9.71866796875,2.8420625,-14.43321875,-10.8642890625,-7.75021484375,-3.24690625,-7.9805703125,-12.7053359375,-17.19025390625,3.6853203125,-0.13580859375,-12.87902734375,-6.45616796875,-1.3409765625,-4.50598046875,-9.27151953125,-9.35930078125,1.55589453125,-2.72390234375,-3.45106640625,-9.9376953125,-0.61830859375,-2.54388671875,2.07379296875,-4.80531640625,-2.34192578125,5.773234375,3.16535546875
-11.99644921875,-10.111953125,-8.90766796875,0.7660625,-14.78921875,-11.5292890625,-7.49721484375,-1.98490625,-8.2915703125,-13.4233359375,-17.74625390625,4.4683203125,-0.50980859375,-13.53402734375,-6.12516796875,-2.3899765625,-6.28698046875,-9.19051953125,-9.68530078125,0.23989453125,-3.89490234375,-3.53206640625,-9.8186953125,-1.30530859375,-4.34688671875,1.52279296875,-5.67731640625,-1.48592578125,5.226234375,3.15635546875
-10.57144921875,-9.825953125,-5.05566796875,-1.8939375,-14.89221875,-12.2172890625,-7.87721484375,-0.76590625,-8.9285703125,-13.7853359375,-19.09725390625,4.2983203125,-0.88480859375,-13.86702734375,-6.39516796875,-3.4559765625,-5.44998046875,-9.05151953125,-10.01730078125,-0.811105468750001,-4.21990234375,-3.66606640625,-9.4006953125,-1.77530859375,-5.19288671875,1.60979296875,-6.16831640625,-0.54292578125,5.168234375,3.60735546875
-8.95244921875,-9.397953125,0.553332031250001,-4.5629375,-14.75221875,-12.6602890625,-8.89421484375,0.15409375,-9.7895703125,-13.7093359375,-20.98725390625,3.2983203125,-0.90480859375,-13.71102734375,-7.05116796875,-4.3869765625,-2.14398046875,-8.76151953125,-10.07830078125,-1.37910546875,-3.79490234375,-3.64506640625,-8.6776953125,-1.71230859375,-4.99488671875,2.23879296875,-6.04931640625,0.43807421875,5.698234375,4.39335546875
-7.14044921875,-8.681953125,5.80333203125,-6.1949375,-14.26721875,-12.7032890625,-9.90521484375,0.59109375,-10.5525703125,-13.1803359375,-22.69725390625,1.7513203125,-0.34780859375,-12.89902734375,-7.57316796875,-4.8999765625,2.57201953125,-8.18751953125,-9.61130078125,-1.28310546875,-2.83590234375,-3.27106640625,-7.6546953125,-0.83130859375,-3.88688671875,3.10579296875,-5.25731640625,1.39907421875,6.768234375,5.30735546875
-5.23344921875,-7.573953125,8.71033203125,-5.7769375,-13.22521875,-12.2692890625,-9.96421484375,0.52009375,-10.7755703125,-12.2073359375,-23.41325390625,-0.0626796874999995,0.67219140625,-11.37902734375,-7.36816796875,-4.7149765625,7.31701953125,-7.24851953125,-8.52030078125,-0.426105468750001,-1.59190234375,-2.47206640625,-6.3916953125,0.92069140625,-2.16988671875,3.89979296875,-3.93531640625,2.23207421875,8.167234375,6.16135546875
-3.56344921875,-6.124953125,8.44233203125,-2.9999375,-11.43421875,-11.3462890625,-8.40821484375,0.11209375,-10.0845703125,-10.8093359375,-22.67925390625,-1.8516796875,1.72419140625,-9.31902734375,-6.08016796875,-3.7099765625,11.00601953125,-6.01751953125,-6.94830078125,1.13489453125,-0.28290234375,-1.36306640625,-5.0476953125,3.25869140625,-0.24888671875,4.47379296875,-2.41031640625,2.77907421875,9.551234375,6.83635546875
-2.69144921875,-4.591953125,5.80133203125,1.3140625,-8.96721875,-10.1692890625,-5.40421484375,-0.39190625,-8.3935703125,-9.1383359375,-20.69025390625,-3.2686796875,2.27219140625,-7.13402734375,-3.84116796875,-2.0419765625,13.15801953125,-4.73751953125,-5.28730078125,3.13389453125,0.89909765625,-0.19506640625,-3.8706953125,5.61569140625,1.45811328125,4.87279296875,-1.09231640625,2.88007421875,10.525234375,7.28535546875
-3.18044921875,-3.389953125,2.77433203125,5.4250625,-6.34521875,-9.3392890625,-2.04821484375,-0.82690625,-6.0485703125,-7.5593359375,-18.28325390625,-3.9656796875,1.94719140625,-5.38902734375,-1.29516796875,-0.1599765625,13.85801953125,-3.73651953125,-4.04830078125,5.12689453125,1.77509765625,0.77293359375,-3.1146953125,7.37669140625,2.62711328125,5.23779296875,-0.33731640625,2.46907421875,10.775234375,7.49935546875
-5.19644921875,-2.929953125,1.39933203125,7.5580625,-4.42721875,-9.5682890625,0.130785156250001,-1.14190625,-3.7965703125,-6.5103359375,-16.58325390625,-3.7566796875,0.73919140625,-4.60702734375,0.67383203125,1.3130234375,13.52301953125,-3.29051953125,-3.60230078125,6.62789453125,2.19909765625,1.39393359375,-2.9396953125,8.15269140625,3.10611328125,5.66279296875,-0.33731640625,1.64807421875,10.210234375,7.48335546875
-8.16144921875,-3.399953125,2.62233203125,6.8950625,-4.00821875,-11.1842890625,-0.0192148437499995,-1.34590625,-2.4975703125,-6.2383359375,-16.46925390625,-2.7286796875,-0.92980859375,-5.02602734375,1.38483203125,1.8270234375,12.64301953125,-3.47751953125,-3.94130078125,7.30389453125,2.10409765625,1.68593359375,-3.3206953125,7.94869140625,2.93711328125,6.09979296875,-1.07031640625,0.67607421875,9.041234375,7.24735546875
-10.75344921875,-4.581953125,5.87533203125,4.0480625,-5.36721875,-13.8492890625,-2.64321484375,-1.48490625,-2.6735703125,-6.6403359375,-18.12825390625,-1.2096796875,-2.26480859375,-6.40602734375,0.70183203125,1.1810234375,11.55501953125,-4.08951953125,-4.65130078125,7.11389453125,1.55009765625,1.80593359375,-4.0036953125,7.13569140625,2.33211328125,6.35079296875,-2.30731640625,-0.11892578125,7.732234375,6.81335546875
-11.34444921875,-5.844953125,9.53933203125,0.728062500000001,-7.98421875,-16.6192890625,-6.74621484375,-1.63690625,-4.1395703125,-7.2573359375,-20.89525390625,0.4023203125,-2.32980859375,-8.00902734375,-0.88716796875,-0.3619765625,10.33701953125,-4.65651953125,-5.10030078125,6.31089453125,0.69509765625,1.96893359375,-4.5556953125,6.27369140625,1.57511328125,6.13579296875,-3.67731640625,-0.47492578125,6.827234375,6.23635546875
-8.75944921875,-6.366953125,11.92833203125,-1.1269375,-10.62121875,-18.2252890625,-10.55921484375,-1.84490625,-6.0015703125,-7.3503359375,-23.51725390625,1.7813203125,-0.45580859375,-8.86602734375,-2.46716796875,-2.2249765625,8.88801953125,-4.62451953125,-4.71630078125,5.28989453125,-0.31590234375,2.34293359375,-4.5226953125,5.86769140625,0.87111328125,5.20779296875,-4.77831640625,-0.29292578125,6.737234375,5.59535546875
-2.99244921875,-5.518953125,12.21333203125,-0.311937499999999,-11.82121875,-17.5282890625,-12.30321484375,-1.99890625,-7.1095703125,-6.1543359375,-24.72425390625,2.7033203125,3.31819140625,-8.22402734375,-3.09616796875,-3.8599765625,7.10801953125,-3.63051953125,-3.23230078125,4.39089453125,-1.46390234375,2.95693359375,-3.6416953125,6.16369140625,0.23811328125,3.47579296875,-5.31931640625,0.32807421875,7.578234375,4.94835546875
4.51655078125,-3.213953125,10.83533203125,3.0690625,-10.64121875,-14.1452890625,-11.05121484375,-1.80790625,-6.6625703125,-3.3213359375,-23.84925390625,2.9823203125,8.10919140625,-5.93302734375,-2.26116796875,-5.0209765625,5.04201953125,-1.70551953125,-0.82130078125,3.74289453125,-2.84790234375,3.67393359375,-1.9726953125,7.06069140625,-0.49188671875,1.08679296875,-5.23531640625,1.14907421875,9.110234375,4.29435546875
11.27355078125,-0.00995312500000001,9.19233203125,7.6950625,-7.18421875,-8.8812890625,-7.23821484375,-0.92990625,-4.6025703125,0.707664062499999,-21.16325390625,2.4283203125,12.53019140625,-2.54902734375,-0.17116796875,-5.7829765625,2.92101953125,0.70848046875,1.91569921875,3.26289453125,-4.53090234375,4.27693359375,0.117304687500001,8.17969140625,-1.50388671875,-1.56020703125,-4.71431640625,1.90807421875,10.831234375,3.59235546875
14.73155078125,3.122046875,8.73833203125,11.7490625,-2.52521875,-3.4702890625,-2.38821484375,0.80009375,-1.5745703125,4.7926640625,-17.72525390625,0.9203203125,15.34419140625,0.90697265625,2.32283203125,-6.3389765625,1.14401953125,2.93848046875,4.17869921875,2.78689453125,-6.35190234375,4.58893359375,2.1093046875,9.04469140625,-2.81588671875,-3.89520703125,-4.09731640625,2.44207421875,12.188234375,2.83935546875
13.44855078125,5.221046875,10.00233203125,13.7930625,1.88978125,0.316710937499998,1.78778515625,3.20009375,1.4294296875,7.6516640625,-14.85725390625,-1.4346796875,16.02619140625,3.39697265625,4.14583203125,-6.7679765625,0.191019531249999,4.37348046875,5.32269921875,2.21289453125,-7.90090234375,4.58393359375,3.5343046875,9.25669140625,-4.20088671875,-5.34520703125,-3.70131640625,2.75307421875,12.804234375,2.13335546875
7.83155078125,5.740046875,12.21733203125,13.3010625,4.91778125,1.4937109375,4.24078515625,5.71709375,3.5184296875,8.4356640625,-13.55725390625,-4.2226796875,14.91019140625,4.28097265625,4.49583203125,-6.9789765625,0.401019531249999,4.70848046875,5.10569921875,1.54989453125,-8.70290234375,4.41093359375,4.1363046875,8.60569140625,-5.29388671875,-5.55520703125,-3.67731640625,2.99007421875,12.594234375,1.65335546875
0.0345507812499992,4.718046875,13.86933203125,10.6550625,6.02478125,0.0527109374999988,4.78578515625,7.61009375,4.2064296875,6.9656640625,-14.16925390625,-6.8346796875,12.89119140625,3.52997265625,3.12783203125,-6.8459765625,1.68101953125,4.04648046875,3.69669921875,0.853894531249999,-8.51890234375,4.32493359375,3.9443046875,7.07169140625,-5.80188671875,-4.56620703125,-3.97631640625,3.33707421875,11.721234375,1.54635546875
-6.93844921875,2.677046875,13.77833203125,6.8050625,5.21278125,-3.3382890625,3.69378515625,8.28709375,3.4814296875,3.6606640625,-16.42125390625,-8.7406796875,10.92419140625,1.64397265625,0.37083203125,-6.3909765625,3.38801953125,2.80048046875,1.51769921875,0.160894531249999,-7.52190234375,4.55393359375,3.2083046875,4.80669140625,-5.66988671875,-2.82020703125,-4.41631640625,3.89507421875,10.483234375,1.82435546875
-10.50944921875,0.321046875,11.87233203125,2.9210625,2.80278125,-7.7002890625,1.22278515625,7.61109375,1.6664296875,-0.678335937500001,-19.68425390625,-9.6976796875,9.57619140625,-0.659027343750001,-3.07916796875,-5.8629765625,4.58801953125,1.47148046875,-0.92230078125,-0.519105468750001,-6.22890234375,5.16793359375,2.2703046875,2.12469140625,-5.10388671875,-0.97820703125,-4.76931640625,4.62407421875,9.222234375,2.35535546875
-9.61444921875,-1.767953125,9.09233203125,0.102062500000001,-0.752218749999999,-12.0402890625,-2.49821484375,5.92309375,-0.7615703125,-5.1463359375,-23.25625390625,-9.7626796875,8.85819140625,-2.75602734375,-6.43516796875,-5.6519765625,4.54201953125,0.44548046875,-3.13630078125,-1.16810546875,-5.24290234375,6.04293359375,1.4343046875,-0.51830859375,-4.42988671875,0.37979296875,-4.82331640625,5.38407421875,8.270234375,2.94235546875
-5.14744921875,-3.293953125,6.60633203125,-0.902937499999999,-4.93121875,-15.6232890625,-7.22921484375,3.76009375,-3.2935703125,-9.0313359375,-26.50825390625,-9.1456796875,8.35219140625,-4.27902734375,-9.09616796875,-6.0679765625,3.10001953125,-0.0875195312499999,-4.75630078125,-1.74410546875,-4.95090234375,6.94493359375,0.909304687500001,-2.60430859375,-3.91488671875,0.99279296875,-4.41831640625,6.03207421875,7.894234375,3.43935546875
0.452550781249999,-4.208953125,5.05033203125,0.0480625000000003,-9.08921875,-18.0762890625,-12.30021484375,1.54309375,-5.4215703125,-11.9273359375,-28.91925390625,-8.0616796875,7.53519140625,-5.09002734375,-10.77016796875,-7.1599765625,0.739019531249999,-0.10851953125,-5.59630078125,-2.19710546875,-5.39090234375,7.66193359375,0.801304687500001,-3.69430859375,-3.66288671875,0.95679296875,-3.49231640625,6.51807421875,8.208234375,3.79135546875
4.33655078125,-4.562953125,4.32833203125,2.4060625,-12.36521875,-19.2022890625,-16.48021484375,-0.48890625,-6.6925703125,-13.5953359375,-30.04725390625,-6.6986796875,6.11219140625,-5.17302734375,-11.41116796875,-8.6889765625,-1.69598046875,0.29748046875,-5.63630078125,-2.51310546875,-6.33090234375,8.08893359375,1.1043046875,-3.59630859375,-3.68288671875,0.57279296875,-2.15231640625,6.89507421875,9.100234375,3.99235546875
4.59755078125,-4.356953125,3.93533203125,5.1350625,-13.76421875,-18.7702890625,-18.24621484375,-2.15790625,-6.8145703125,-13.8023359375,-29.52925390625,-5.2776796875,4.23019140625,-4.55902734375,-11.06416796875,-10.2829765625,-3.36198046875,0.99248046875,-4.98030078125,-2.75010546875,-7.48790234375,8.21993359375,1.7023046875,-2.45830859375,-4.02688671875,0.10979296875,-0.71631640625,7.24407421875,10.244234375,3.98635546875
1.17455078125,-3.502953125,3.42833203125,7.1100625,-12.55021875,-16.6262890625,-16.44421484375,-3.24390625,-5.7575703125,-12.3843359375,-27.18325390625,-4.0966796875,2.48819140625,-3.30902734375,-9.79116796875,-11.6389765625,-3.72698046875,1.81748046875,-3.83430078125,-3.04310546875,-8.73090234375,8.09293359375,2.4013046875,-0.75130859375,-4.87488671875,-0.34920703125,0.32168359375,7.55507421875,11.192234375,3.61535546875
-4.11244921875,-1.900953125,2.74733203125,7.5600625,-8.74021875,-13.0362890625,-10.99821484375,-3.53790625,-3.7805703125,-9.4503359375,-23.16825390625,-3.4706796875,1.71519140625,-1.53502734375,-7.71016796875,-12.6459765625,-2.74398046875,2.64248046875,-2.49530078125,-3.56110546875,-10.10190234375,7.76893359375,3.0113046875,0.89869140625,-6.46688671875,-0.89520703125,0.46568359375,7.68907421875,11.520234375,2.68135546875
-8.42444921875,0.418046875,2.30233203125,6.3850625,-3.32021875,-8.8092890625,-3.20421484375,-2.91390625,-1.3525703125,-5.4623359375,-18.11125390625,-3.5606796875,2.56419140625,0.559972656249998,-5.07116796875,-13.3569765625,-0.853980468750001,3.40348046875,-1.25730078125,-4.40710546875,-11.68790234375,7.34493359375,3.4353046875,1.95669140625,-8.90788671875,-1.64320703125,-0.54831640625,7.47607421875,11.004234375,1.09635546875
-9.27544921875,3.192046875,2.84633203125,4.2430625,2.00878125,-5.0362890625,4.62378515625,-1.38990625,0.962429687499999,-1.1343359375,-13.06425390625,-4.2156796875,5.09619140625,2.68297265625,-2.27516796875,-13.8619765625,1.13601953125,4.09848046875,-0.29030078125,-5.51410546875,-13.42890234375,6.96993359375,3.7143046875,2.20369140625,-11.97388671875,-2.56320703125,-2.55231640625,6.88207421875,9.723234375,-0.974644531250001
-5.73044921875,5.929046875,5.16333203125,2.2870625,5.43778125,-2.7232890625,10.02978515625,0.84509375,2.6274296875,2.7126640625,-9.21125390625,-4.9366796875,8.61719140625,4.48797265625,0.16983203125,-14.1169765625,2.27001953125,4.76448046875,0.39669921875,-6.61010546875,-15.01590234375,6.81393359375,4.0073046875,1.81169140625,-15.05088671875,-3.39220703125,-4.94431640625,6.10807421875,8.056234375,-3.08364453125
1.16555078125,8.046046875,9.61833203125,1.6160625,5.76178125,-2.5112890625,11.41078515625,3.42709375,3.2894296875,5.2896640625,-7.42525390625,-5.0546796875,11.92419140625,5.67397265625,1.75883203125,-13.8659765625,1.75601953125,5.43748046875,0.88269921875,-7.28410546875,-15.92990234375,6.98893359375,4.5063046875,1.23269140625,-17.25788671875,-3.70620703125,-6.90031640625,5.51307421875,6.535234375,-4.63264453125
8.94555078125,9.082046875,15.75133203125,2.7160625,2.93478125,-4.4202890625,8.73078515625,5.85709375,2.9304296875,6.0986640625,-7.88425390625,-4.0736796875,13.81519140625,6.08897265625,2.17283203125,-12.7249765625,-0.65298046875,6.11948046875,1.25369921875,-7.11310546875,-15.63390234375,7.46193359375,5.3383046875,0.96769140625,-17.74688671875,-3.11320703125,-7.71031640625,5.39907421875,5.646234375,-5.10164453125
14.84555078125,8.872046875,22.14033203125,5.1970625,-1.83021875,-7.6932890625,3.56678515625,7.62009375,1.9024296875,5.2026640625,-9.99225390625,-2.0156796875,13.55019140625,5.79297265625,1.44983203125,-10.4249765625,-4.40098046875,6.76148046875,1.60469921875,-5.81210546875,-13.82590234375,8.02093359375,6.4793046875,1.35169140625,-16.04788671875,-1.46820703125,-7.04831640625,5.82807421875,5.657234375,-4.26964453125
16.89555078125,7.607046875,26.72033203125,7.9620625,-6.54321875,-11.0132890625,-1.58821484375,8.30709375,0.7954296875,3.2576640625,-12.66325390625,0.4823203125,11.06719140625,5.04597265625,0.0168320312499999,-7.0659765625,-8.21698046875,7.28548046875,2.05969921875,-3.36010546875,-10.63490234375,8.34393359375,7.7653046875,2.44069140625,-12.29588671875,1.00179296875,-5.07231640625,6.57607421875,6.531234375,-2.32164453125
14.59055078125,5.787046875,27.57033203125,9.7550625,-9.32321875,-13.1052890625,-4.44021484375,7.72709375,0.1894296875,1.2096640625,-14.79925390625,2.4213203125,6.94819140625,4.25097265625,-1.47116796875,-3.1789765625,-10.57598046875,7.63148046875,2.73269921875,-0.0571054687500006,-6.63190234375,8.14993359375,8.9713046875,4.03669140625,-7.21688671875,3.77579296875,-2.30631640625,7.25707421875,7.946234375,0.225355468749999
9.02455078125,4.082046875,23.93633203125,9.8280625,-9.15921875,-13.2762890625,-3.83121484375,6.02109375,0.4164296875,-0.0683359375000006,-15.69425390625,2.9673203125,2.25619140625,3.84397265625,-2.37816796875,0.4760234375,-10.33498046875,7.80348046875,3.65969921875,3.53989453125,-2.62390234375,7.34593359375,9.9073046875,5.80769140625,-1.87388671875,6.26879296875,0.59368359375,7.53307421875,9.426234375,2.73735546875
2.48355078125,3.135046875,16.96533203125,8.3390625,-6.20021875,-11.5162890625,-0.0892148437499998,3.75609375,1.4424296875,-0.00733593750000061,-15.20825390625,1.9603203125,-1.71880859375,4.13897265625,-2.28616796875,3.2320234375,-7.25198046875,7.85648046875,4.77669921875,6.79889453125,0.64709765625,6.08593359375,10.4673046875,7.43169140625,2.70611328125,8.08379296875,3.06068359375,7.27707421875,10.520234375,4.70235546875
-2.49044921875,3.322046875,9.59033203125,6.1680625,-1.56321875,-8.3382890625,5.18978515625,1.84009375,2.8844296875,1.5166640625,-13.70525390625,0.0633203125000004,-3.83580859375,5.17197265625,-1.13216796875,4.7730234375,-2.20498046875,7.83648046875,5.91369921875,9.21089453125,2.75709765625,4.70693359375,10.6093046875,8.68869140625,5.83711328125,9.14379296875,4.72968359375,6.60107421875,10.944234375,5.86635546875
-4.21644921875,4.561046875,5.31133203125,4.2700625,3.13378125,-4.6422890625,9.78878515625,1.14009375,4.2014296875,4.0656640625,-11.84525390625,-1.5656796875,-3.55480859375,6.62797265625,0.72483203125,5.1770234375,3.05301953125,7.71548046875,6.76769921875,10.49689453125,3.67109765625,3.59093359375,10.3163046875,9.44469140625,7.32111328125,9.62679296875,5.41668359375,5.74607421875,10.615234375,6.20535546875
-2.56644921875,6.290046875,6.34033203125,3.0740625,6.38678125,-1.5262890625,11.77878515625,1.95909375,4.9504296875,6.7166640625,-10.30825390625,-1.9296796875,-1.24380859375,7.92897265625,2.57483203125,4.7950234375,6.58801953125,7.38848046875,6.93769921875,10.60589453125,3.65609765625,3.02493359375,9.5793046875,9.61269140625,7.39511328125,9.81879296875,5.06168359375,4.93907421875,9.601234375,5.82535546875
1.15655078125,7.697046875,12.15533203125,2.4000625,7.40578125,0.139710937499999,10.40678515625,3.76609375,4.9714296875,8.4766640625,-9.52025390625,-0.7656796875,1.90519140625,8.45097265625,3.64083203125,4.0600234375,7.19801953125,6.72948046875,6.10069921875,9.69089453125,3.13009765625,3.12193359375,8.4273046875,9.15769140625,6.59111328125,9.99679296875,3.73568359375,4.31807421875,8.098234375,4.88935546875
4.99855078125,8.102046875,19.49533203125,1.8750625,6.40278125,0.146710937499998,6.46778515625,5.46109375,4.3694296875,8.7956640625,-9.48925390625,1.3443203125,4.42819140625,7.80797265625,3.44883203125,3.3570234375,5.04401953125,5.68948046875,4.25669921875,8.07989453125,2.51409765625,3.83193359375,6.9773046875,8.16669140625,5.57411328125,10.40379296875,1.71068359375,3.95207421875,6.429234375,3.61335546875
7.29755078125,7.302046875,24.03733203125,1.3890625,4.36578125,-1.0502890625,1.84878515625,6.00209375,3.3644296875,7.7926640625,-9.83225390625,3.3893203125,5.30919140625,6.04497265625,2.05883203125,2.9720234375,1.55401953125,4.36548046875,1.82769921875,6.23689453125,2.13009765625,4.97393359375,5.4703046875,6.90969140625,4.98211328125,11.25079296875,-0.51831640625,3.87907421875,4.999234375,2.26635546875
7.32555078125,5.656046875,22.88633203125,1.1970625,2.46478125,-2.7322890625,-1.53521484375,5.02409375,2.1704296875,6.0856640625,-9.99825390625,4.5893203125,4.42819140625,3.64197265625,0.00783203124999998,3.0670234375,-1.37498046875,2.98948046875,-0.498300781249999,4.66089453125,2.15509765625,6.27293359375,4.2123046875,5.76669140625,5.25311328125,12.67379296875,-2.37131640625,4.06207421875,4.148234375,1.09935546875
5.43055078125,3.856046875,16.36233203125,1.6670625,1.50578125,-4.2662890625,-2.67421484375,3.06009375,0.9634296875,4.4656640625,-9.57725390625,4.8353203125,2.45819140625,1.29897265625,-1.94916796875,3.6380234375,-2.40198046875,1.82148046875,-2.06830078125,3.73389453125,2.57909765625,7.37793359375,3.4403046875,5.04969140625,6.43211328125,14.60979296875,-3.42931640625,4.32207421875,3.961234375,0.209355468749999
2.69055078125,2.534046875,7.87733203125,2.9270625,1.68178125,-5.2112890625,-1.75421484375,1.22009375,-0.0995703125,3.5776640625,-8.51525390625,4.6303203125,0.36719140625,-0.382027343750001,-3.14216796875,4.4910234375,-1.40198046875,1.02748046875,-2.53130078125,3.60089453125,3.21209765625,7.92493359375,3.1773046875,4.84269140625,8.11611328125,16.70979296875,-3.64831640625,4.33707421875,4.201234375,-0.548644531250001
0.25755078125,1.951046875,1.84133203125,4.6600625,2.60678125,-5.3852890625,0.238785156250001,0.46109375,-0.9135703125,3.6326640625,-7.12625390625,4.5753203125,-1.10580859375,-1.14002734375,-3.22916796875,5.2900234375,0.59601953125,0.62748046875,-1.96530078125,4.12989453125,3.74309765625,7.67893359375,3.2343046875,4.97169140625,9.62711328125,18.38879296875,-3.34531640625,3.77907421875,4.426234375,-1.47764453125
-1.20544921875,1.935046875,0.894332031250001,6.1950625,3.57378125,-4.9642890625,2.26178515625,0.89709375,-1.4445703125,4.2986640625,-5.88025390625,4.8153203125,-1.71680859375,-1.08702734375,-2.28316796875,5.7260234375,2.08601953125,0.55748046875,-0.82730078125,4.99789453125,3.89109765625,6.70893359375,3.3583046875,5.14669140625,10.37311328125,19.05079296875,-2.97031640625,2.55307421875,4.247234375,-2.81264453125
-1.66544921875,2.091046875,4.32433203125,6.8640625,3.99178125,-4.3652890625,3.89678515625,1.69309375,-1.6895703125,4.9376640625,-5.06725390625,4.9073203125,-1.64480859375,-0.550027343750001,-0.66516796875,5.7120234375,1.97001953125,0.76748046875,0.296699218750001,5.87989453125,3.57809765625,5.44093359375,3.4233046875,5.17369140625,10.19811328125,18.37579296875,-2.80131640625,0.95707421875,3.564234375,-4.48464453125
-1.41844921875,2.137046875,8.73933203125,6.4170625,3.84078125,-3.8472890625,5.58278515625,1.66809375,-1.5885703125,5.1176640625,-4.55025390625,4.2353203125,-1.23280859375,0.15997265625,1.24283203125,5.4950234375,0.124019531249999,1.27148046875,1.02469921875,6.64589453125,3.00709765625,4.52793359375,3.5403046875,5.10769140625,9.48911328125,16.51079296875,-2.75831640625,-0.36492578125,2.657234375,-6.06164453125
-0.70844921875,2.116046875,10.49133203125,5.1760625,3.75278125,-3.2562890625,8.17878515625,0.19509375,-0.9865703125,4.9436640625,-3.83225390625,2.6013203125,-0.73480859375,0.926972656249999,3.25483203125,5.5710234375,-2.64798046875,2.13048046875,1.38569921875,7.42389453125,2.58909765625,4.54793359375,4.0023046875,5.22769140625,8.97711328125,14.04079296875,-2.45331640625,-0.71292578125,2.046234375,-6.91264453125
0.412550781249999,2.366046875,8.19633203125,3.8140625,4.57278125,-2.2632890625,12.06078515625,-2.25590625,0.247429687499999,4.9016640625,-2.42925390625,0.4813203125,-0.19680859375,1.84397265625,5.35183203125,6.3880234375,-5.14898046875,3.36648046875,1.71269921875,8.46189453125,2.72709765625,5.70693359375,5.0953046875,5.83769140625,9.34211328125,11.75279296875,-1.45731640625,0.28807421875,2.185234375,-6.52764453125
1.99755078125,3.269046875,3.67733203125,2.9990625,6.70178125,-0.797289062500001,16.45178515625,-4.28790625,2.0074296875,5.4346640625,-0.30425390625,-1.2416796875,0.47619140625,3.07197265625,7.48183203125,8.0200234375,-6.41398046875,4.85848046875,2.33569921875,9.88089453125,3.58709765625,7.67293359375,6.8533046875,6.98269140625,10.83211328125,10.30679296875,0.37568359375,2.41007421875,3.156234375,-4.80664453125
4.05855078125,4.941046875,0.795332031250001,3.1660625,9.73378125,0.833710937499999,19.60078515625,-4.38690625,3.8314296875,6.6256640625,1.98574609375,-1.7876796875,1.38119140625,4.63097265625,9.42183203125,10.0170234375,-6.05598046875,6.30048046875,3.30669921875,11.49989453125,5.00209765625,9.67493359375,8.9133046875,8.30469140625,13.09811328125,9.98579296875,2.72468359375,4.84907421875,4.576234375,-2.19164453125
6.50255078125,7.078046875,2.89933203125,4.4600625,12.60578125,2.1717109375,19.79578515625,-1.86890625,5.0334296875,8.1636640625,3.58474609375,-0.8746796875,2.51519140625,6.28997265625,10.80783203125,11.5980234375,-4.28898046875,7.27048046875,4.35069921875,12.87289453125,6.56109765625,10.83793359375,10.5883046875,9.14369140625,15.34511328125,10.62479296875,4.89568359375,6.54707421875,5.782234375,0.477355468749999
9.14755078125,9.070046875,10.47033203125,6.7370625,14.11178125,2.8727109375,16.50178515625,2.61709375,5.0614296875,9.5006640625,3.87174609375,1.2253203125,3.79519140625,7.64797265625,11.31683203125,12.0810234375,-1.72698046875,7.42148046875,5.00469921875,13.51889453125,7.81909765625,10.58793359375,11.1773046875,8.86769140625,16.72311328125,11.73079296875,6.14368359375,6.65807421875,6.177234375,2.29435546875
11.76155078125,10.304046875,20.43033203125,9.6050625,13.49278125,2.8477109375,10.86778515625,7.41709375,3.8554296875,10.1276640625,2.86174609375,3.8873203125,5.13319140625,8.34397265625,10.84283203125,11.2900234375,0.896019531249999,6.68048046875,4.86969921875,13.18889453125,8.49609765625,8.91393359375,10.3283046875,7.24169140625,16.73811328125,12.67679296875,6.06368359375,4.91307421875,5.524234375,2.67835546875
14.05055078125,10.461046875,27.64633203125,12.5790625,10.85378125,2.3717109375,5.27278515625,10.80409375,1.9424296875,9.8946640625,1.22374609375,6.4043203125,6.47419140625,8.25797265625,9.60183203125,9.6690234375,3.00801953125,5.30248046875,3.84269921875,12.01889453125,8.54909765625,6.33793359375,8.2293046875,4.60169140625,15.46011328125,12.91979296875,4.79768359375,1.73807421875,4.035234375,1.60735546875
15.61155078125,9.653046875,27.85533203125,15.2910625,7.20678125,2.0687109375,2.19578515625,11.82109375,0.2214296875,9.1566640625,-0.0762539062500025,8.1913203125,7.71219140625,7.57397265625,8.09483203125,8.0540234375,4.37301953125,3.76148046875,2.20369921875,10.46389453125,8.14709765625,3.62393359375,5.5263046875,1.73269140625,13.42711328125,12.17279296875,2.96768359375,-1.93392578125,2.229234375,-0.399644531250001
15.95555078125,8.322046875,20.27933203125,17.5790625,4.05478125,2.6087109375,3.02578515625,10.50909375,-0.436570312500001,8.5646640625,-0.26925390625,8.8963203125,8.57719140625,6.72197265625,6.92983203125,7.2490234375,5.08501953125,2.55148046875,0.49769921875,9.06789453125,7.56909765625,1.43593359375,3.0393046875,-0.473308593750001,11.35711328125,10.49579296875,1.37868359375,-5.03792578125,0.685234375,-2.52564453125
14.67155078125,7.042046875,8.29133203125,19.3890625,2.75078125,4.2657109375,7.45678515625,7.55809375,0.473429687499999,8.6806640625,0.862746093749998,8.4453203125,8.64819140625,6.22497265625,6.57583203125,7.6320234375,5.40001953125,2.02848046875,-0.72030078125,8.21089453125,7.05909765625,0.11393359375,1.4503046875,-1.38330859375,9.81811328125,8.25979296875,0.64968359375,-6.76792578125,-0.202765625,-4.03264453125
11.72155078125,6.310046875,-2.32766796875,20.6200625,3.98078125,6.7907109375,13.75878515625,3.91209375,2.9524296875,9.7346640625,2.91074609375,7.0163203125,7.58219140625,6.53397265625,7.20283203125,8.9520234375,5.53601953125,2.34748046875,-1.07530078125,7.95789453125,6.69409765625,-0.34906640625,1.1173046875,-0.83830859375,8.99711328125,5.96179296875,0.97768359375,-6.84392578125,-0.357765624999999,-4.57464453125
7.72755078125,6.437046875,-6.52866796875,21.0730625,7.59078125,9.6667109375,19.65378515625,0.59709375,6.5644296875,11.6266640625,5.04974609375,4.9623203125,5.48619140625,7.86197265625,8.65783203125,10.4090234375,5.52201953125,3.46248046875,-0.421300781249999,8.08189453125,6.31309765625,-0.18406640625,2.0233046875,0.84369140625,8.65711328125,3.99379296875,2.08968359375,-5.53192578125,-0.0167656249999997,-4.32964453125
3.98555078125,7.498046875,-2.67866796875,20.5140625,12.67478125,12.3847109375,23.22878515625,-1.36790625,10.5924296875,13.9876640625,6.39074609375,2.7063203125,3.13219140625,10.08497265625,10.53083203125,11.0190234375,5.15801953125,5.16948046875,1.17669921875,8.19989453125,5.62509765625,0.32093359375,3.8583046875,3.03569140625,8.31311328125,2.47679296875,3.40868359375,-3.45592578125,0.397234375,-3.85664453125
2.04855078125,9.329046875,6.75833203125,18.8590625,17.82078125,14.4797109375,23.48678515625,-1.23090625,14.2274296875,16.2286640625,6.36374609375,0.7063203125,1.75519140625,12.75297265625,12.27383203125,10.1430234375,4.11401953125,7.15248046875,3.45469921875,7.97989453125,4.44509765625,0.93193359375,6.1553046875,5.03469140625,7.54111328125,1.28279296875,4.32768359375,-1.28592578125,0.484234375000001,-3.75664453125
3.00055078125,11.563046875,16.86233203125,16.4280625,21.53978125,15.5507109375,20.51778515625,1.12209375,16.7604296875,17.7106640625,4.97474609375,-0.5276796875,2.42619140625,15.23197265625,13.39683203125,7.9070234375,2.17301953125,9.04948046875,6.00569921875,7.33089453125,2.89009765625,1.50993359375,8.4323046875,6.31469140625,6.25411328125,0.19979296875,4.49668359375,0.53207421875,0.0792343750000004,-4.30864453125
6.79455078125,13.706046875,23.11033203125,14.0670625,22.82478125,15.4677109375,15.44278515625,4.98809375,17.7564296875,18.0776640625,2.84874609375,-0.4796796875,5.34319140625,16.91797265625,13.70083203125,5.2170234375,-0.50998046875,10.51248046875,8.41869921875,6.48289453125,1.41009765625,1.97093359375,10.2963046875,6.70469140625,4.78011328125,-0.84220703125,3.98668359375,1.88807421875,-0.623765624999999,-5.29164453125
12.09655078125,15.264046875,23.68133203125,12.9030625,21.55778125,14.5477109375,10.10378515625,9.06009375,17.1694296875,17.4766640625,1.01574609375,1.1433203125,9.55019140625,17.43697265625,13.39683203125,3.3170234375,-3.35198046875,11.25748046875,10.39969921875,5.89289453125,0.60209765625,2.24193359375,11.5013046875,6.41769140625,3.70011328125,-1.63220703125,3.25868359375,2.90907421875,-1.155765625,-6.09664453125
16.79355078125,15.877046875,19.95533203125,13.7390625,18.51378125,13.3787109375,6.42178515625,11.97209375,15.3304296875,16.4306640625,0.467746093749998,4.1353203125,13.34019140625,16.72497265625,12.98583203125,3.1450234375,-5.57398046875,11.10748046875,11.77869921875,5.99789453125,0.93709765625,2.21193359375,11.9433046875,5.89169140625,3.54611328125,-1.74320703125,2.90368359375,3.74307421875,-1.015765625,-6.05064453125
18.90955078125,15.421046875,15.16733203125,16.4760625,14.96278125,12.4767109375,5.63078515625,12.91009375,12.7924296875,15.4946640625,1.69874609375,7.7543203125,15.06919140625,14.97497265625,12.95783203125,4.8740234375,-6.59598046875,10.00548046875,12.43369921875,6.95389453125,2.52209765625,1.73893359375,11.6123046875,5.52269140625,4.51711328125,-0.78620703125,3.32468359375,4.36407421875,0.0362343750000012,-4.78664453125
17.44755078125,14.017046875,12.23233203125,20.0420625,12.11678125,12.0927109375,7.75578515625,11.95209375,10.0914296875,14.9646640625,4.44074609375,11.0053203125,13.88719140625,12.49097265625,13.51183203125,7.8930234375,-6.28598046875,8.01648046875,12.27169921875,8.51489453125,4.99809765625,0.68893359375,10.5373046875,5.42769140625,6.35611328125,1.28279296875,4.49968359375,4.52507421875,1.847234375,-2.45164453125
12.73455078125,11.927046875,12.09733203125,22.8870625,10.61578125,12.1677109375,11.62078515625,9.91409375,7.5244296875,14.7316640625,7.71874609375,13.0633203125,9.98619140625,9.54797265625,14.41483203125,11.1180234375,-4.94598046875,5.32948046875,11.24769921875,10.08289453125,7.62409765625,-1.00906640625,8.7563046875,5.34669140625,8.42411328125,4.01179296875,5.96868359375,3.87907421875,3.917234375,0.327355468749999
6.17155078125,9.402046875,13.50433203125,23.7030625,10.22978125,12.2657109375,15.32878515625,7.78609375,5.0954296875,14.2666640625,10.19774609375,13.5723203125,4.38119140625,6.33797265625,15.02183203125,13.4350234375,-3.12598046875,2.22848046875,9.37469921875,10.88889453125,9.52309765625,-3.30606640625,6.3213046875,4.72069140625,9.93811328125,6.58979296875,7.02768359375,2.17107421875,5.582234375,2.70035546875
-0.40544921875,6.589046875,14.05633203125,21.9730625,9.99278125,11.5937109375,17.04578515625,6.16409375,2.6504296875,12.8136640625,10.68474609375,12.7023203125,-1.55380859375,3.00297265625,14.48483203125,14.0720234375,-1.42398046875,-0.94551953125,6.69869921875,10.24989453125,9.99609765625,-6.00406640625,3.3323046875,2.93669140625,10.25611328125,8.19979296875,7.02268359375,-0.60292578125,6.248234375,3.93735546875
-5.41444921875,3.580046875,11.75133203125,18.1470625,8.82178125,9.4107109375,15.79578515625,5.12109375,0.114429687499999,9.8486640625,8.61774609375,11.0013203125,-6.49580859375,-0.292027343750001,12.12683203125,12.8020234375,-0.34798046875,-3.85351953125,3.34169921875,7.85189453125,8.81009765625,-8.76106640625,-0.0236953124999992,-0.34530859375,9.11111328125,8.40779296875,5.62568359375,-4.11492578125,5.618234375,3.73135546875
-7.98844921875,0.545046875,6.07833203125,13.4100625,6.24478125,5.6167109375,11.88278515625,4.47009375,-2.3555703125,5.5056640625,4.34074609375,9.1403203125,-9.45380859375,-3.29102734375,7.84583203125,9.9860234375,-0.19598046875,-6.20551953125,-0.39530078125,3.94989453125,6.33109765625,-11.13406640625,-3.4456953125,-4.91830859375,6.71011328125,7.36079296875,2.99768359375,-7.75492578125,3.821234375,2.30635546875
-8.11644921875,-2.192953125,-1.78266796875,9.1080625,2.68278125,0.942710937499999,6.63278515625,4.08209375,-4.4155703125,0.6026640625,-1.01525390625,7.6083203125,-9.95980859375,-5.66702734375,2.26083203125,6.4130234375,-0.965980468750001,-7.79751953125,-4.02430078125,-0.65610546875,3.42109765625,-12.67606640625,-6.5276953125,-9.98830859375,3.66411328125,5.66879296875,-0.24831640625,-10.78992578125,1.362234375,0.298355468749999
-6.48644921875,-4.237953125,-9.59766796875,6.1210625,-0.886218749999999,-3.4682890625,1.61878515625,3.97709375,-5.7215703125,-3.7633359375,-6.01925390625,6.5093203125,-8.19080859375,-7.11602734375,-3.49616796875,2.9850234375,-2.33698046875,-8.55251953125,-7.00330078125,-4.89510546875,1.06609765625,-13.08006640625,-8.8396953125,-14.41930859375,0.75411328125,4.05979296875,-3.27531640625,-12.61792578125,-1.106765625,-1.54764453125
-4.10444921875,-5.297953125,-15.16866796875,4.5470625,-3.52521875,-6.6262890625,-2.06521484375,4.23909375,-6.1155703125,-6.6923359375,-9.51625390625,5.5783203125,-4.94780859375,-7.48602734375,-8.19816796875,0.3800234375,-3.76798046875,-8.54851953125,-8.92130078125,-7.83110546875,-0.0949023437500001,-12.31406640625,-10.0756953125,-17.16630859375,-1.36188671875,2.99979296875,-5.33731640625,-12.99592578125,-3.077765625,-2.70864453125
-1.86544921875,-5.317953125,-17.30166796875,3.8730625,-4.71921875,-7.9702890625,-4.02021484375,4.89009375,-5.6925703125,-7.7293359375,-10.99325390625,4.4423203125,-1.36980859375,-6.85502734375,-10.93016796875,-1.1349765625,-4.72898046875,-8.00151953125,-9.59230078125,-8.96410546875,-0.0659023437500001,-10.65406640625,-10.1666953125,-17.67330859375,-2.36588671875,2.52479296875,-6.02931640625,-12.12492578125,-4.340765625,-3.06264453125
-0.29644921875,-4.492953125,-16.19766796875,3.4610625,-4.42621875,-7.3782890625,-4.33521484375,5.77509375,-4.7015703125,-6.9343359375,-10.58225390625,2.9423203125,1.52319140625,-5.49602734375,-11.33116796875,-1.6419765625,-4.95198046875,-7.16951953125,-9.08230078125,-8.34210546875,0.59309765625,-8.57206640625,-9.3026953125,-16.05430859375,-2.30388671875,2.35979296875,-5.39231640625,-10.53692578125,-4.970765625,-2.85964453125
0.46655078125,-3.163953125,-13.12266796875,3.0220625,-2.94721875,-5.1392890625,-3.30821484375,6.53509375,-3.4005703125,-4.8353359375,-8.84125390625,1.2903203125,3.20519140625,-3.76202734375,-9.67516796875,-1.3609765625,-4.55998046875,-6.24251953125,-7.71030078125,-6.48410546875,1.17609765625,-6.55206640625,-7.8456953125,-13.01030859375,-1.46988671875,2.19579296875,-3.87231640625,-8.86092578125,-5.201765625,-2.52164453125
0.52755078125,-1.688953125,-9.62366796875,2.7970625,-0.713218749999999,-1.8402890625,-1.32721484375,6.76209375,-1.9565703125,-2.2103359375,-6.49425390625,-0.0246796874999997,3.71519140625,-1.97502734375,-6.73716796875,-0.4929765625,-3.98098046875,-5.29751953125,-5.99430078125,-4.18710546875,1.23409765625,-4.93906640625,-6.2236953125,-9.56030859375,-0.27188671875,1.88579296875,-2.15831640625,-7.59992578125,-5.302765625,-2.44164453125
0.0725507812499995,-0.345953125,-6.79966796875,3.3640625,1.88078125,1.8937109375,1.14278515625,6.29809375,-0.4805703125,0.2566640625,-4.24825390625,-0.5006796875,3.43619140625,-0.388027343750001,-3.49616796875,0.7690234375,-3.73198046875,-4.35751953125,-4.48730078125,-2.27610546875,0.69509765625,-3.90406640625,-4.8386953125,-6.69330859375,0.85711328125,1.44779296875,-0.97531640625,-7.01192578125,-5.509765625,-2.85264453125
-0.72744921875,0.671046875,-5.06066796875,5.1410625,4.49678125,5.5637109375,3.53978515625,5.40509375,0.8824296875,2.1736640625,-2.70025390625,0.0803203125000005,2.76919140625,0.780972656249999,-0.83116796875,2.1380234375,-4.22698046875,-3.49451953125,-3.60330078125,-1.39410546875,-0.29890234375,-3.48906640625,-4.0186953125,-5.09930859375,1.49811328125,0.92779296875,-0.87731640625,-7.12992578125,-6.004765625,-3.81464453125
-1.72144921875,1.201046875,-4.38766796875,7.9160625,6.71678125,8.6827109375,5.21478515625,4.60309375,1.8784296875,3.3596640625,-2.30225390625,1.4643203125,1.94219140625,1.32497265625,0.64283203125,3.1700234375,-5.68698046875,-2.88151953125,-3.54430078125,-1.86110546875,-1.61090234375,-3.66006640625,-3.9666953125,-5.05830859375,1.31911328125,0.28279296875,-2.11031640625,-7.87892578125,-6.915765625,-5.25564453125
-2.70744921875,1.106046875,-4.76866796875,10.7960625,7.96178125,10.6477109375,5.54978515625,4.29509375,2.1694296875,3.6726640625,-3.29725390625,2.9903203125,0.99619140625,1.06897265625,0.63083203125,3.3920234375,-8.11098046875,-2.74351953125,-4.31730078125,-3.62410546875,-3.15890234375,-4.33106640625,-4.7136953125,-6.45030859375,0.18811328125,-0.58220703125,-4.56431640625,-9.15692578125,-8.296765625,-7.02364453125
-3.37844921875,0.335046875,-6.40666796875,12.6120625,7.69078125,10.9517109375,4.24678515625,4.48309375,1.4404296875,3.0516640625,-5.61825390625,3.9303203125,-0.0958085937500002,-0.0580273437500001,-0.79916796875,2.5530234375,-11.23598046875,-3.24751953125,-5.73030078125,-6.25010546875,-4.79690234375,-5.36706640625,-6.0906953125,-8.83430859375,-1.71588671875,-1.66720703125,-7.80831640625,-10.83692578125,-10.060765625,-8.89664453125
-3.41144921875,-0.964953125,-9.57066796875,12.4870625,5.75178125,9.5727109375,1.63778515625,4.78009375,-0.4545703125,1.6836640625,-8.79525390625,3.9283203125,-1.32880859375,-1.93502734375,-3.17716796875,0.8620234375,-14.52998046875,-4.39551953125,-7.38330078125,-9.00110546875,-6.18790234375,-6.57706640625,-7.7376953125,-11.54330859375,-3.87488671875,-2.74920703125,-11.17331640625,-12.69492578125,-11.921765625,-10.57864453125
-2.71844921875,-2.420953125,-14.21166796875,10.1620625,2.60478125,7.1017109375,-1.26621484375,4.67309375,-3.3445703125,0.0436640624999995,-11.99525390625,3.2433203125,-2.66180859375,-4.19502734375,-5.71416796875,-0.9889765625,-17.29398046875,-5.95751953125,-8.75030078125,-11.01110546875,-6.81290234375,-7.73706640625,-9.1656953125,-13.80430859375,-5.53688671875,-3.38720703125,-13.88931640625,-14.37192578125,-13.419765625,-11.72264453125
-1.65044921875,-3.544953125,-19.62966796875,5.9820625,-0.79521875,4.4867109375,-3.07721484375,3.86909375,-6.6685703125,-1.2823359375,-14.25425390625,2.5903203125,-4.08680859375,-6.27802734375,-7.54416796875,-2.0779765625,-18.84898046875,-7.50651953125,-9.35830078125,-11.56210546875,-6.17390234375,-8.61406640625,-9.8776953125,-14.90530859375,-5.96288671875,-3.09520703125,-15.26431640625,-15.44392578125,-14.061765625,-12.01164453125
-0.95644921875,-3.949953125,-24.45066796875,0.6930625,-3.33021875,2.6977109375,-2.55921484375,2.51809375,-9.5625703125,-1.7943359375,-14.83525390625,2.6713203125,-5.68180859375,-7.60802734375,-8.02716796875,-1.6949765625,-18.72898046875,-8.55551953125,-8.97830078125,-10.36710546875,-4.07390234375,-9.03206640625,-9.5326953125,-14.41530859375,-4.74388671875,-1.60020703125,-14.88631640625,-15.58292578125,-13.515765625,-11.28864453125
-1.45544921875,-3.556953125,-27.02566796875,-4.7849375,-4.12021875,2.4597109375,0.81778515625,1.17209375,-11.1325703125,-1.2353359375,-13.56025390625,3.6833203125,-7.57780859375,-7.83702734375,-6.97516796875,0.2650234375,-16.81098046875,-8.77351953125,-7.70430078125,-7.70410546875,-0.81490234375,-8.92806640625,-8.1126953125,-12.37130859375,-2.04888671875,0.96379296875,-12.78631640625,-14.73192578125,-11.772765625,-9.67964453125
-3.62344921875,-2.649953125,-26.09566796875,-9.5629375,-2.88421875,3.9437109375,6.45978515625,0.52009375,-10.8235703125,0.2616640625,-10.94225390625,5.1423203125,-9.80580859375,-7.01402734375,-4.75316796875,3.1890234375,-13.37398046875,-8.14251953125,-5.94830078125,-4.35210546875,2.83709765625,-8.38706640625,-5.9706953125,-9.32730859375,1.37811328125,4.05679296875,-9.46731640625,-13.16692578125,-9.189765625,-7.61564453125
-7.24244921875,-1.712953125,-21.42366796875,-12.9509375,-0.11921875,6.5277109375,12.63378515625,1.04509375,-8.7165703125,2.1326640625,-8.02425390625,6.1753203125,-12.12580859375,-5.57102734375,-2.17516796875,6.0010234375,-9.05598046875,-6.95651953125,-4.31830078125,-1.31210546875,5.92709765625,-7.58206640625,-3.6866953125,-6.17030859375,4.51111328125,6.94479296875,-5.74831640625,-11.38492578125,-6.385765625,-5.68864453125
-11.26144921875,-1.134953125,-14.07066796875,-14.5479375,3.04978125,9.0007109375,17.07078515625,2.79509375,-5.5785703125,3.6116640625,-5.95625390625,6.1143203125,-13.97080859375,-4.11102734375,-0.16116796875,7.6580234375,-4.68798046875,-5.64651953125,-3.35930078125,0.595894531249999,7.68109765625,-6.67706640625,-1.7996953125,-3.74630859375,6.49111328125,9.01379296875,-2.44831640625,-9.86092578125,-4.010765625,-4.40764453125
-14.04544921875,-0.981953125,-6.21266796875,-14.2419375,5.33978125,10.2377109375,18.07478515625,5.27609375,-2.5765703125,4.1546640625,-5.47525390625,4.9863203125,-14.65480859375,-3.11302734375,0.70383203125,7.6330234375,-1.06798046875,-4.54451953125,-3.24130078125,1.06589453125,7.77009765625,-5.74706640625,-0.544695312499999,-2.47030859375,6.97711328125,9.97679296875,-0.0683164062500001,-8.81392578125,-2.498765625,-3.98564453125
-14.05544921875,-1.008953125,-0.550667968749999,-12.1979375,5.87378125,9.8257109375,15.50978515625,7.45609375,-0.7455703125,3.7176640625,-6.55525390625,3.5143203125,-13.77480859375,-2.70402734375,0.44183203125,6.1250234375,1.23701953125,-3.72051953125,-3.63930078125,0.39289453125,6.36009765625,-4.78306640625,0.228304687500001,-2.17330859375,6.21611328125,9.87079296875,1.33968359375,-8.16392578125,-1.945765625,-4.31064453125
-10.69144921875,-0.888953125,0.607332031250001,-8.8819375,4.51178125,8.1487109375,10.97178515625,7.97809375,-0.4965703125,2.6536640625,-8.44625390625,2.5803203125,-11.52680859375,-2.63102734375,-0.42416796875,3.9150234375,2.00201953125,-2.99051953125,-3.92630078125,-0.73610546875,3.98709765625,-3.75806640625,0.9193046875,-2.28030859375,4.83011328125,8.88979296875,2.05768359375,-7.65992578125,-2.144765625,-5.07864453125
-4.73244921875,-0.459953125,-3.50566796875,-5.0519375,1.85678125,6.0587109375,6.94278515625,5.69409375,-1.4855703125,1.4336640625,-10.09225390625,2.5853203125,-8.60580859375,-2.44502734375,-1.23116796875,1.9270234375,1.43101953125,-2.06951953125,-3.52730078125,-1.59210546875,1.37109765625,-2.68306640625,1.9333046875,-2.18030859375,3.49911328125,7.25279296875,2.46168359375,-7.07492578125,-2.728765625,-5.96564453125
1.97155078125,0.187046875,-11.23566796875,-1.6299375,-1.03621875,4.4797109375,5.41878515625,0.39709375,-2.9285703125,0.436664062499999,-10.68325390625,3.2073203125,-5.72780859375,-1.78902734375,-1.51016796875,0.7650234375,0.17401953125,-0.78051953125,-2.18030078125,-1.71510546875,-0.77190234375,-1.60106640625,3.4633046875,-1.54730859375,2.70411328125,5.19679296875,2.83468359375,-6.28592578125,-3.299765625,-6.70364453125
7.42155078125,0.814046875,-18.68166796875,0.554062500000001,-3.15821875,4.0547109375,6.79478515625,-6.70490625,-4.1235703125,-0.164335937500001,-10.04225390625,3.6973203125,-3.20480859375,-0.62802734375,-1.15116796875,0.4670234375,-0.89298046875,0.80848046875,-0.0343007812499998,-1.05610546875,-1.90590234375,-0.55606640625,5.4063046875,-0.44230859375,2.61611328125,3.05679296875,3.29768359375,-5.26092578125,-3.533765625,-7.05664453125
10.46855078125,1.205046875,-21.38066796875,1.0500625,-4.05021875,4.7987109375,9.63178515625,-13.23590625,-4.7955703125,-0.489335937500001,-8.65025390625,3.4673203125,-1.02580859375,0.712972656249999,-0.38416796875,0.6250234375,-1.16898046875,2.38548046875,2.38669921875,0.0538945312499997,-1.81390234375,0.42693359375,7.4103046875,0.78169140625,3.12911328125,1.26179296875,3.82568359375,-4.01492578125,-3.251765625,-6.79964453125
11.26055078125,1.264046875,-16.84766796875,-0.0359374999999993,-4.01721875,6.0097109375,11.46678515625,-16.62890625,-5.0915703125,-0.911335937500001,-7.34125390625,2.5373203125,0.65719140625,1.68897265625,0.35683203125,0.7510234375,-0.78098046875,3.51248046875,4.33169921875,1.06189453125,-0.67590234375,1.29193359375,9.0073046875,1.68269140625,3.95711328125,0.18579296875,4.27068359375,-2.61392578125,-2.480765625,-5.78164453125
10.85555078125,1.009046875,-6.37966796875,-2.1009375,-3.84321875,6.6787109375,10.27378515625,-15.34490625,-5.3215703125,-1.8003359375,-6.83325390625,1.5603203125,1.17319140625,1.78797265625,0.64583203125,0.5870234375,-0.57698046875,3.80748046875,5.09569921875,1.40989453125,0.96009765625,1.90693359375,9.7523046875,1.90769140625,4.71511328125,-0.0622070312499998,4.38668359375,-1.20092578125,-1.443765625,-4.05664453125
10.25455078125,0.499046874999999,5.31033203125,-4.3229375,-4.22221875,6.1457109375,5.71678515625,-9.63090625,-5.6945703125,-3.2283359375,-7.37425390625,1.4383203125,-0.42980859375,0.761972656249998,0.25283203125,0.1840234375,-1.55798046875,3.10848046875,4.32969921875,0.73189453125,2.34309765625,2.09393359375,9.3553046875,1.29269140625,5.01011328125,0.26279296875,3.89368359375,0.00307421874999997,-0.496765625,-1.96964453125
9.62655078125,-0.209953125,12.66633203125,-6.0209375,-5.32321875,4.4467109375,-0.62621484375,-1.39890625,-6.2055703125,-4.9063359375,-8.66525390625,2.7793203125,-4.62380859375,-1.23302734375,-0.78916796875,-0.2449765625,-4.18498046875,1.57548046875,2.18669921875,-1.03310546875,2.79209765625,1.75993359375,7.7973046875,-0.10630859375,4.53711328125,0.63179296875,2.59168359375,0.78407421875,0.0032343749999999,-0.0846445312500013
8.38055078125,-1.054953125,12.47133203125,-6.8309375,-6.79321875,2.1637109375,-6.19021484375,6.65809375,-6.6825703125,-6.3643359375,-10.07725390625,5.5213203125,-10.70180859375,-3.65302734375,-2.25216796875,-0.5229765625,-8.05798046875,-0.31851953125,-0.75330078125,-3.64210546875,1.97709765625,1.02493359375,5.3933046875,-2.03630859375,3.19611328125,0.50879296875,0.50668359375,1.04007421875,-0.157765625,1.04335546875
5.97255078125,-1.933953125,5.58033203125,-6.6189375,-8.05921875,0.108710937499998,-8.84221484375,12.22309375,-6.9135703125,-7.1653359375,-10.99025390625,8.9253203125,-16.75080859375,-5.78802734375,-3.81716796875,-0.6099765625,-12.12098046875,-1.97051953125,-3.72230078125,-6.61710546875,0.0700976562499999,0.22093359375,2.7073046875,-4.09630859375,1.17311328125,-0.36920703125,-2.03131640625,0.85907421875,-0.947765624999999,1.12735546875
2.64555078125,-2.718953125,-3.84166796875,-5.3409375,-8.65821875,-0.925289062500001,-7.86121484375,14.18109375,-6.7565703125,-7.0513359375,-11.05325390625,11.9303203125,-20.43480859375,-7.06402734375,-5.17016796875,-0.5759765625,-15.18898046875,-2.92051953125,-6.01330078125,-9.37510546875,-2.31090234375,-0.29706640625,0.353304687500001,-5.84130859375,-1.10588671875,-1.86620703125,-4.46731640625,0.45507421875,-2.093765625,0.243355468749999
-0.590449218750001,-3.307953125,-10.91366796875,-3.1199375,-8.41521875,-0.420289062500002,-4.00421484375,12.80309375,-6.1955703125,-6.0523359375,-10.23725390625,13.6423203125,-20.17080859375,-7.27802734375,-6.07216796875,-0.5159765625,-16.49898046875,-3.07551953125,-7.20630078125,-11.38810546875,-4.35790234375,-0.39306640625,-1.2466953125,-6.93530859375,-3.11788671875,-3.54920703125,-6.25031640625,0.0320742187499999,-3.217765625,-1.25964453125
-2.64644921875,-3.649953125,-12.76966796875,-0.5259375,-7.45321875,1.6017109375,1.15178515625,9.35109375,-5.3375703125,-4.5223359375,-8.72925390625,13.6923203125,-15.93980859375,-6.62802734375,-6.41316796875,-0.4729765625,-16.02398046875,-2.72151953125,-7.27230078125,-12.32610546875,-5.41790234375,-0.25006640625,-1.9936953125,-7.26030859375,-4.43688671875,-4.92920703125,-7.08931640625,-0.33992578125,-4.029765625,-2.94064453125
-3.05544921875,-3.725953125,-9.80466796875,1.3140625,-6.08021875,4.5487109375,6.05778515625,5.44809375,-4.3885703125,-2.9783359375,-6.79825390625,12.3273203125,-9.24880859375,-5.54302734375,-6.20016796875,-0.4209765625,-14.40698046875,-2.30851953125,-6.51330078125,-12.11610546875,-5.25390234375,-0.24606640625,-2.0886953125,-6.92930859375,-4.87988671875,-5.71520703125,-7.07031640625,-0.72192578125,-4.437765625,-4.41764453125
-2.16844921875,-3.517953125,-4.91266796875,1.1270625,-4.63821875,7.5917109375,9.74778515625,2.49809375,-3.5865703125,-1.7953359375,-4.72625390625,10.2503203125,-2.30980859375,-4.43902734375,-5.48816796875,-0.2809765625,-12.55498046875,-2.15651953125,-5.32430078125,-10.89810546875,-4.11290234375,-0.67206640625,-1.8756953125,-6.19030859375,-4.54588671875,-5.92720703125,-6.57631640625,-1.20092578125,-4.529765625,-5.43664453125
-0.834449218750001,-3.019953125,-1.41066796875,-1.7139375,-3.40521875,10.0257109375,11.87078515625,1.26209375,-3.0575703125,-1.0253359375,-2.81025390625,8.3093203125,2.97419140625,-3.51502734375,-4.34716796875,0.0520234374999999,-11.13898046875,-2.25651953125,-3.98930078125,-8.94810546875,-2.57490234375,-1.50606640625,-1.6486953125,-5.30030859375,-3.72688671875,-5.85420703125,-6.05531640625,-1.77292578125,-4.461765625,-5.89664453125
0.0985507812499993,-2.282953125,-1.03766796875,-6.5349375,-2.57321875,11.4057109375,12.39778515625,1.69609375,-2.7005703125,-0.4853359375,-1.37025390625,7.1523203125,5.67319140625,-2.69602734375,-2.91916796875,0.6480234375,-10.32798046875,-2.29851953125,-2.64130078125,-6.63710546875,-1.26990234375,-2.39306640625,-1.5216953125,-4.48130859375,-2.76788671875,-5.89520703125,-5.79931640625,-2.31692578125,-4.360765625,-5.86464453125
0.15655078125,-1.444953125,-3.19566796875,-11.3659375,-2.20921875,11.5577109375,11.35578515625,3.16509375,-2.2005703125,0.0256640624999998,-0.706253906250002,6.9843203125,5.93619140625,-1.75302734375,-1.50616796875,1.4570234375,-9.88798046875,-1.89651953125,-1.36330078125,-4.43610546875,-0.65390234375,-2.85706640625,-1.4246953125,-3.93930859375,-1.96388671875,-6.39620703125,-5.85031640625,-2.65792578125,-4.302765625,-5.57364453125
-0.62844921875,-0.705953125,-5.74466796875,-13.7459375,-2.17721875,10.6727109375,8.85678515625,4.91909375,-1.2215703125,0.6236640625,-0.98725390625,7.5213203125,4.63119140625,-0.51902734375,-0.52416796875,2.2430234375,-9.53398046875,-0.87151953125,-0.26830078125,-2.87910546875,-0.92490234375,-2.59906640625,-1.2146953125,-3.87730859375,-1.52588671875,-7.54120703125,-6.03931640625,-2.67592578125,-4.325765625,-5.35564453125
-1.83944921875,-0.260953125,-6.70166796875,-12.0079375,-2.12621875,9.3327109375,5.34778515625,6.45309375,0.3734296875,1.3126640625,-2.12525390625,8.1163203125,2.80519140625,0.94497265625,-0.33516796875,2.6390234375,-9.22098046875,0.61148046875,0.509699218750001,-2.43910546875,-2.04690234375,-1.69706640625,-0.812695312499999,-4.44930859375,-1.57988671875,-9.30220703125,-6.12431640625,-2.38592578125,-4.457765625,-5.50364453125
-2.95344921875,-0.214953125,-5.67666796875,-6.3079375,-1.62921875,8.2557109375,1.76278515625,7.44509375,2.4254296875,1.9756640625,-3.71825390625,8.0443203125,1.17619140625,2.36597265625,-1.05216796875,2.3260234375,-9.13398046875,2.12648046875,0.85469921875,-3.34110546875,-3.78690234375,-0.55706640625,-0.2586953125,-5.66830859375,-2.14388671875,-11.42020703125,-5.92431640625,-1.94592578125,-4.721765625,-6.13364453125
-3.58744921875,-0.546953125,-4.08866796875,1.3110625,-0.42121875,7.9157109375,-0.635214843749999,7.49709375,4.5434296875,2.4266640625,-5.12325390625,6.8493203125,-0.0998085937500002,3.41297265625,-2.46616796875,1.2330234375,-9.41198046875,3.22348046875,0.72569921875,-5.39210546875,-5.73190234375,0.31893359375,0.319304687500001,-7.34930859375,-3.10888671875,-13.44220703125,-5.41231640625,-1.58592578125,-5.129765625,-7.12564453125
-3.60844921875,-1.121953125,-4.04866796875,7.9400625,1.44778125,8.3937109375,-0.753214843749999,6.13909375,6.2524296875,2.5626640625,-5.69525390625,4.6533203125,-1.30580859375,3.86097265625,-4.09816796875,-0.3809765625,-9.90398046875,3.63348046875,0.20169921875,-7.98210546875,-7.35590234375,0.59593359375,0.764304687500001,-9.15530859375,-4.25888671875,-14.85220703125,-4.75331640625,-1.50292578125,-5.681765625,-8.20164453125
-3.11144921875,-1.748953125,-6.74466796875,11.2710625,3.57478125,9.4627109375,1.68578515625,3.25609375,7.1274296875,2.4596640625,-5.07925390625,2.2163203125,-2.75980859375,3.65897265625,-5.39216796875,-2.0339765625,-10.23898046875,3.34248046875,-0.51630078125,-10.27810546875,-8.19890234375,0.24593359375,0.937304687500001,-10.73830859375,-5.36288671875,-15.28620703125,-4.27131640625,-1.79692578125,-6.398765625,-9.09764453125
-2.30444921875,-2.238953125,-11.48566796875,10.5970625,5.30778125,10.6647109375,5.77078515625,-0.48990625,6.9284296875,2.2696640625,-3.40625390625,0.6253203125,-4.39780859375,2.92997265625,-5.95016796875,-3.2279765625,-10.13098046875,2.55048046875,-1.18630078125,-11.55310546875,-8.05990234375,-0.49306640625,0.760304687500001,-11.88330859375,-6.26688671875,-14.70020703125,-4.34431640625,-2.46292578125,-7.357765625,-9.72064453125
-1.36744921875,-2.448953125,-16.08766796875,6.8890625,5.98578125,11.3757109375,9.65378515625,-3.72890625,5.7244296875,2.0406640625,-1.26125390625,0.7303203125,-5.66780859375,1.92997265625,-5.70416796875,-3.6469765625,-9.60298046875,1.59548046875,-1.64630078125,-11.47110546875,-7.08390234375,-1.24706640625,0.266304687500001,-12.57030859375,-6.90288671875,-13.37820703125,-5.23431640625,-3.41592578125,-8.669765625,-10.16664453125
-0.340449218750001,-2.301953125,-18.25666796875,2.1020625,5.29178125,11.0617109375,11.45678515625,-5.05090625,3.9174296875,1.7156640625,0.57674609375,2.6433203125,-5.81480859375,0.979972656249998,-4.88716796875,-3.2609765625,-8.87698046875,0.84148046875,-1.84030078125,-10.17110546875,-5.67190234375,-1.68006640625,-0.374695312499999,-12.90930859375,-7.25688671875,-11.77120703125,-6.92831640625,-4.51092578125,-10.381765625,-10.62164453125
0.867550781249999,-1.804953125,-16.99466796875,-1.8009375,3.50778125,9.6257109375,10.26778515625,-3.84590625,2.1094296875,1.2896640625,1.46174609375,5.6233203125,-4.36180859375,0.36197265625,-3.85516796875,-2.3009765625,-8.11698046875,0.56048046875,-1.76230078125,-8.14510546875,-4.29590234375,-1.60806640625,-0.913695312499999,-13.03830859375,-7.32388671875,-10.28920703125,-9.09131640625,-5.55592578125,-12.364765625,-11.23064453125
2.35955078125,-1.064953125,-13.10066796875,-3.6309375,1.41178125,7.4787109375,6.52578515625,-0.75490625,0.8654296875,0.863664062499999,1.09474609375,8.3973203125,-1.40680859375,0.22797265625,-2.91216796875,-1.1429765625,-7.32198046875,0.83748046875,-1.41030078125,-6.02110546875,-3.32690234375,-1.03906640625,-1.1266953125,-13.05630859375,-7.11288671875,-9.18020703125,-11.19731640625,-6.35392578125,-14.300765625,-12.03064453125
4.09355078125,-0.272953125,-8.54166796875,-3.2889375,-0.14721875,5.1937109375,1.57578515625,2.64409375,0.5044296875,0.500664062499999,-0.471253906250002,9.7473203125,2.41819140625,0.545972656249999,-2.27616796875,-0.1739765625,-6.50998046875,1.54248046875,-0.83930078125,-4.38310546875,-2.94690234375,-0.13106640625,-0.925695312499999,-13.02630859375,-6.68988671875,-8.51720703125,-12.76931640625,-6.76392578125,-15.800765625,-12.95164453125
5.81155078125,0.321046875,-5.25466796875,-1.5359375,-0.710218749999999,3.1397109375,-3.15321484375,4.74409375,1.0214296875,0.1076640625,-2.95625390625,9.0083203125,6.24319140625,1.10297265625,-2.12616796875,0.2930234375,-5.93998046875,2.38848046875,-0.22330078125,-3.66110546875,-3.16390234375,0.87593359375,-0.419695312499999,-13.01130859375,-6.21388671875,-8.27020703125,-13.59331640625,-6.75792578125,-16.572765625,-13.84164453125
7.05255078125,0.459046875,-4.20266796875,0.533062500000001,-0.36921875,1.4287109375,-6.75421484375,4.81509375,2.1294296875,-0.513335937500001,-5.97625390625,6.2843203125,9.28519140625,1.56397265625,-2.61416796875,0.0830234375000001,-6.09498046875,3.03248046875,0.17569921875,-4.06010546875,-3.86390234375,1.73893359375,0.104304687500001,-13.09230859375,-5.91788671875,-8.38020703125,-13.79431640625,-6.43292578125,-16.555765625,-14.49864453125
7.21655078125,-0.0559531250000003,-5.17966796875,1.9950625,0.35778125,0.0367109374999988,-8.93521484375,3.25609375,3.3934296875,-1.5193359375,-9.08625390625,2.3003203125,11.04619140625,1.59597265625,-3.80116796875,-0.8029765625,-7.34198046875,3.21448046875,0.11669921875,-5.51010546875,-4.86390234375,2.26493359375,0.3023046875,-13.33830859375,-6.01088671875,-8.77820703125,-13.72531640625,-5.98492578125,-15.936765625,-14.72164453125
5.70155078125,-1.279953125,-7.29266796875,2.3830625,0.827781250000001,-1.1422890625,-9.76221484375,1.10209375,4.4274296875,-2.9413359375,-11.77125390625,-1.9316796875,11.37619140625,1.04797265625,-5.58316796875,-2.1549765625,-9.55998046875,2.88848046875,-0.50330078125,-7.65710546875,-5.93990234375,2.37693359375,-0.057695312499999,-13.75630859375,-6.54988671875,-9.35920703125,-13.75731640625,-5.64692578125,-15.074765625,-14.38264453125
2.17755078125,-3.052953125,-9.64566796875,1.7480625,0.619781250000001,-2.2342890625,-9.31221484375,-0.77290625,5.0664296875,-4.6053359375,-13.49625390625,-5.4766796875,10.44519140625,0.0599726562499985,-7.65016796875,-3.6119765625,-12.04598046875,2.26748046875,-1.58730078125,-9.94010546875,-6.85290234375,2.13293359375,-0.961695312499999,-14.25030859375,-7.38788671875,-9.94620703125,-14.10331640625,-5.62892578125,-14.361765625,-13.49364453125
-3.03644921875,-4.992953125,-11.78666796875,0.550062500000001,-0.21121875,-3.2132890625,-7.52321484375,-2.15790625,5.4104296875,-6.0613359375,-13.85925390625,-7.7246796875,8.65219140625,-0.967027343750001,-9.52316796875,-4.8189765625,-13.82098046875,1.72448046875,-2.81830078125,-11.74710546875,-7.41290234375,1.68193359375,-2.1546953125,-14.62830859375,-8.25288671875,-10.29820703125,-14.74931640625,-6.08392578125,-14.086765625,-12.24564453125
-8.74944921875,-6.587953125,-13.75166796875,-0.6069375,-1.17221875,-3.8042890625,-4.35221484375,-3.49190625,5.6844296875,-6.6703359375,-12.78425390625,-8.5126796875,6.50219140625,-1.55402734375,-10.68716796875,-5.6159765625,-14.15798046875,1.60248046875,-3.72830078125,-12.63610546875,-7.56790234375,1.17993359375,-3.2556953125,-14.67530859375,-8.91788671875,-10.20820703125,-15.49431640625,-7.07392578125,-14.350765625,-10.96564453125
-13.11244921875,-7.357953125,-15.75666796875,-1.2899375,-1.68221875,-3.7072890625,-0.13221484375,-5.44390625,6.0354296875,-5.9563359375,-10.62625390625,-8.1156796875,4.49019140625,-1.36102734375,-10.81316796875,-6.0899765625,-12.93298046875,2.05448046875,-3.88830078125,-12.50810546875,-7.43290234375,0.73593359375,-3.8956953125,-14.26630859375,-9.32588671875,-9.62220703125,-16.05131640625,-8.53792578125,-15.056765625,-10.00164453125
-14.26644921875,-7.020953125,-17.77266796875,-1.3909375,-1.47821875,-2.9282890625,4.20578515625,-8.33290625,6.4144296875,-3.9363359375,-8.09225390625,-7.1106796875,3.05019140625,-0.304027343750001,-9.92516796875,-6.4739765625,-10.59198046875,3.00148046875,-3.11430078125,-11.61510546875,-7.23890234375,0.41493359375,-3.8386953125,-13.44530859375,-9.57888671875,-8.69220703125,-16.15331640625,-10.23792578125,-15.960765625,-9.56564453125
-11.20644921875,-5.592953125,-19.24566796875,-1.0079375,-0.75321875,-1.8322890625,7.31578515625,-11.69890625,6.6264296875,-1.1473359375,-6.00525390625,-6.1086796875,2.48019140625,1.43297265625,-8.42116796875,-6.9379765625,-7.85698046875,4.19448046875,-1.55430078125,-10.39710546875,-7.19790234375,0.25493359375,-3.0486953125,-12.42030859375,-9.81288671875,-7.71020703125,-15.63431640625,-11.74992578125,-16.744765625,-9.60464453125
-4.44144921875,-3.410953125,-19.19066796875,-0.210937499999999,0.0127812499999997,-0.925289062500001,7.94578515625,-14.35090625,6.4844296875,1.6096640625,-5.04125390625,-5.4786796875,2.79719140625,3.45597265625,-6.91416796875,-7.4769765625,-5.43998046875,5.31048046875,0.384699218750001,-9.26010546875,-7.37990234375,0.25393359375,-1.7206953125,-11.46330859375,-10.07788671875,-6.95220703125,-14.50031640625,-12.55792578125,-17.085765625,-9.78464453125
3.94355078125,-1.077953125,-16.72966796875,1.0350625,0.31278125,-0.679289062500001,5.45978515625,-14.99790625,5.9424296875,3.5266640625,-5.52325390625,-5.2246796875,3.56719140625,5.27097265625,-6.04116796875,-7.9239765625,-3.92698046875,6.04648046875,2.16469921875,-8.42010546875,-7.66490234375,0.34693359375,-0.2266953125,-10.77230859375,-10.27188671875,-6.52020703125,-12.92931640625,-12.24892578125,-16.730765625,-9.60764453125
11.02955078125,0.702046875,-11.83866796875,2.7130625,-0.184218749999999,-1.4872890625,0.151785156250001,-13.10590625,5.1114296875,3.9696640625,-7.31925390625,-5.1186796875,3.92219140625,6.40397265625,-6.26316796875,-8.0679765625,-3.68598046875,6.18848046875,3.26869921875,-7.87810546875,-7.78590234375,0.39393359375,1.0083046875,-10.35930859375,-10.16388671875,-6.30120703125,-11.19631640625,-10.70292578125,-15.566765625,-8.62064453125
14.38655078125,1.362046875,-5.76266796875,4.5580625,-1.47021875,-3.4762890625,-6.73821484375,-9.32790625,4.1704296875,2.6936640625,-9.84825390625,-4.9966796875,2.92219140625,6.53197265625,-7.67016796875,-7.7779765625,-4.71598046875,5.65748046875,3.36769921875,-7.47410546875,-7.44390234375,0.23593359375,1.6493046875,-10.03130859375,-9.50588671875,-6.06120703125,-9.52731640625,-8.18992578125,-13.662765625,-6.61564453125
13.26455078125,0.706046875,-0.65366796875,6.0220625,-3.15521875,-6.2502890625,-13.34721484375,-5.16590625,3.2334296875,0.0396640624999991,-12.23325390625,-4.9556796875,0.14419140625,5.57097265625,-9.85216796875,-7.0599765625,-6.52698046875,4.50548046875,2.46369921875,-6.99010546875,-6.46490234375,-0.23206640625,1.5453046875,-9.49630859375,-8.18588671875,-5.63320703125,-7.99831640625,-5.28292578125,-11.260765625,-3.73964453125
8.90455078125,-0.997953125,1.46533203125,6.4380625,-4.64421875,-8.9582890625,-17.83521484375,-2.18090625,2.2704296875,-3.1463359375,-13.59825390625,-5.2816796875,-3.89380859375,3.69497265625,-12.00816796875,-6.0429765625,-8.28298046875,2.87548046875,0.87769921875,-6.28110546875,-4.92090234375,-0.99806640625,0.735304687500001,-8.54630859375,-6.33688671875,-5.04820703125,-6.54131640625,-2.66592578125,-8.729765625,-0.470644531250001
3.75055078125,-3.145953125,-0.237667968749999,5.3060625,-5.52721875,-10.8162890625,-19.10521484375,-1.31290625,1.1444296875,-5.9383359375,-13.45325390625,-6.1436796875,-7.80880859375,1.28597265625,-13.30716796875,-4.9289765625,-9.23298046875,0.97148046875,-0.95030078125,-5.39410546875,-3.16790234375,-1.90906640625,-0.594695312499999,-7.22130859375,-4.35588671875,-4.55720703125,-5.08531640625,-0.89092578125,-6.489765625,2.52035546875
0.0725507812499995,-5.087953125,-5.03266796875,2.5520625,-5.87921875,-11.6252890625,-17.22521484375,-2.64890625,-0.2855703125,-7.7863359375,-11.95825390625,-7.3326796875,-9.97380859375,-1.19502734375,-13.33216796875,-3.9689765625,-9.15598046875,-0.96051953125,-2.68330078125,-4.61010546875,-1.75190234375,-2.71406640625,-2.1836953125,-5.83330859375,-2.80188671875,-4.49020703125,-3.67931640625,-0.19592578125,-4.902765625,4.56435546875
-1.13844921875,-6.417953125,-11.11866796875,-1.3949375,-6.20721875,-11.7782890625,-13.30721484375,-5.59290625,-2.0495703125,-8.6833359375,-9.87025390625,-8.2856796875,-9.37180859375,-3.36202734375,-12.28916796875,-3.4459765625,-8.47698046875,-2.65451953125,-4.15530078125,-4.32010546875,-1.20190234375,-3.15106640625,-3.7606953125,-4.82230859375,-2.20188671875,-5.06120703125,-2.50431640625,-0.42692578125,-4.134765625,5.21335546875
-0.44044921875,-7.112953125,-16.55666796875,-5.7409375,-7.10421875,-11.8742890625,-8.96421484375,-9.22390625,-3.9965703125,-9.0373359375,-8.16625390625,-8.4176796875,-6.18680859375,-4.99002734375,-10.86216796875,-3.6019765625,-7.95398046875,-3.84151953125,-5.30630078125,-4.81010546875,-1.77890234375,-3.03206640625,-5.0726953125,-4.50330859375,-2.80788671875,-6.21320703125,-1.72131640625,-1.10592578125,-4.056765625,4.39735546875
0.67955078125,-7.421953125,-20.00966796875,-9.5989375,-8.85021875,-12.3672890625,-5.66821484375,-12.61790625,-5.7885703125,-9.4033359375,-7.52725390625,-7.4966796875,-1.69680859375,-5.98802734375,-9.82616796875,-4.4789765625,-8.13098046875,-4.28751953125,-6.08330078125,-6.03710546875,-3.28790234375,-2.28006640625,-5.8736953125,-4.84130859375,-4.41288671875,-7.60220703125,-1.29231640625,-1.62592578125,-4.271765625,2.49435546875
0.835550781249999,-7.594953125,-20.91466796875,-12.1789375,-11.18521875,-13.3872890625,-4.28621484375,-14.96090625,-6.9715703125,-10.1523359375,-7.98625390625,-5.7726796875,2.45319140625,-6.31302734375,-9.62616796875,-5.7539765625,-8.93598046875,-3.83451953125,-6.37730078125,-7.54310546875,-5.08890234375,-0.92106640625,-5.9096953125,-5.36730859375,-6.33188671875,-8.72720703125,-0.89131640625,-1.48692578125,-4.260765625,0.232355468749999
-0.45644921875,-7.649953125,-19.24566796875,-12.8739375,-13.33921875,-14.6522890625,-4.89721484375,-15.54690625,-7.1315703125,-11.1953359375,-8.93625390625,-3.7576796875,5.11619140625,-5.91502734375,-10.11316796875,-6.7579765625,-9.66998046875,-2.46451953125,-5.98830078125,-8.56110546875,-6.32090234375,0.93893359375,-4.9606953125,-5.29730859375,-7.61488671875,-9.12720703125,-0.00231640625000029,-0.46292578125,-3.595765625,-1.54164453125
-2.62544921875,-7.358953125,-15.30566796875,-11.3909375,-14.35421875,-15.5282890625,-6.86521484375,-13.91690625,-6.0815703125,-11.9783359375,-9.45525390625,-1.8996796875,6.06219140625,-4.78102734375,-10.61216796875,-6.7239765625,-9.39898046875,-0.34951953125,-4.68630078125,-8.32310546875,-6.26590234375,3.10393359375,-2.9456953125,-3.85530859375,-7.42188671875,-8.55020703125,1.82668359375,1.35107421875,-2.122765625,-2.17364453125
-4.53344921875,-6.458953125,-9.79866796875,-8.0079375,-13.59121875,-15.3822890625,-9.12921484375,-10.20290625,-4.0065703125,-11.8703359375,-8.77025390625,-0.3916796875,5.79719140625,-3.04202734375,-10.31616796875,-5.1639765625,-7.49898046875,2.12948046875,-2.39430078125,-6.41510546875,-4.66090234375,5.27393359375,-0.0466953124999989,-0.67630859375,-5.37588671875,-7.02020703125,4.70368359375,3.60607421875,-0.0387656249999999,-1.44664453125
-5.20344921875,-4.942953125,-3.95166796875,-3.7329375,-11.13921875,-14.0032890625,-10.58421484375,-5.39390625,-1.4715703125,-10.6473359375,-6.61725390625,0.7793203125,5.03619140625,-1.05802734375,-8.78016796875,-2.1619765625,-4.01698046875,4.43148046875,0.591699218750001,-3.03010546875,-1.81190234375,7.04793359375,3.2283046875,3.91969140625,-1.74188671875,-4.79120703125,8.24068359375,5.83107421875,2.166234375,0.347355468749999
-4.33344921875,-3.204953125,0.713332031250001,-0.0869374999999994,-7.86421875,-11.7342890625,-10.49821484375,-1.08390625,0.7054296875,-8.7073359375,-3.37625390625,1.6823203125,4.24219140625,0.581972656249999,-6.23016796875,1.5930234375,0.350019531249999,5.95148046875,3.56469921875,1.03589453125,1.53809765625,7.99393359375,6.1043046875,8.94269140625,2.64511328125,-2.23220703125,11.63468359375,7.58207421875,3.914234375,2.55735546875
-2.40644921875,-1.942953125,2.98333203125,1.5130625,-5.07621875,-9.2982890625,-8.88621484375,1.26609375,1.6854296875,-6.9083359375,0.0447460937499997,2.3163203125,3.48119140625,1.19297265625,-3.51716796875,5.0250234375,4.56701953125,6.18048046875,5.61369921875,4.63489453125,4.50909765625,7.80093359375,7.7413046875,13.04269140625,6.66311328125,0.29379296875,13.95668359375,8.57907421875,4.801234375,4.47735546875
-0.45644921875,-1.866953125,2.50633203125,0.392062500000001,-4.06021875,-7.6012890625,-6.67921484375,1.07309375,0.8904296875,-6.2493359375,2.51074609375,2.5963203125,2.58219140625,0.23397265625,-1.78416796875,7.0660234375,7.60501953125,4.88448046875,5.94669921875,6.64489453125,6.41209765625,6.43493359375,7.5283046875,14.98769140625,9.30511328125,2.50079296875,14.51768359375,8.78407421875,4.761234375,5.64035546875
0.335550781249999,-3.358953125,-0.13966796875,-3.0449375,-5.62221875,-7.5532890625,-5.43921484375,-1.10790625,-1.7535703125,-7.5063359375,3.07474609375,2.4313203125,1.39219140625,-2.43102734375,-2.00116796875,7.0510234375,8.70101953125,2.24348046875,4.17269921875,6.33189453125,6.97409765625,4.23893359375,5.3483046875,14.08669140625,10.02311328125,4.18679296875,13.12968359375,8.39607421875,4.050234375,5.97835546875
-0.88744921875,-6.263953125,-3.84966796875,-7.4459375,-9.71321875,-9.6762890625,-6.53621484375,-3.90890625,-5.6985703125,-10.8333359375,1.38174609375,1.8473203125,-0.06080859375,-6.39002734375,-4.53216796875,4.9830234375,7.57301953125,-1.15451953125,0.469699218750001,3.61289453125,6.36409765625,1.83993359375,1.6523046875,10.42569140625,8.87411328125,5.20779296875,10.15168359375,7.75407421875,3.071234375,5.76535546875
-4.29644921875,-9.904953125,-7.55066796875,-11.1059375,-15.24521875,-13.5822890625,-10.15721484375,-5.84390625,-9.8675703125,-15.4893359375,-2.08125390625,1.0783203125,-1.59780859375,-10.75802734375,-8.88416796875,1.5550234375,4.62001953125,-4.49951953125,-4.40630078125,-0.86910546875,5.05709765625,-0.0790664062499999,-2.7106953125,4.82469140625,6.41511328125,5.47279296875,6.30968359375,7.18807421875,2.169234375,5.39935546875
-9.26644921875,-13.335953125,-10.62566796875,-12.7939375,-20.36821875,-17.8632890625,-14.86721484375,-6.02590625,-13.0035703125,-20.0053359375,-6.07225390625,0.4923203125,-3.03880859375,-14.46202734375,-13.81616796875,-2.0819765625,0.943019531249999,-7.06351953125,-9.33930078125,-5.93010546875,3.60209765625,-1.05306640625,-6.8016953125,-1.43430859375,3.43211328125,4.99379296875,2.41968359375,6.87507421875,1.492234375,5.15335546875
-14.58244921875,-15.718953125,-13.06166796875,-12.4379375,-23.22321875,-20.7212890625,-18.14721484375,-4.59290625,-14.1535703125,-22.8593359375,-9.05325390625,0.3503203125,-4.35680859375,-16.63902734375,-17.81816796875,-4.7479765625,-1.95998046875,-8.46951953125,-13.26630078125,-10.25910546875,2.43009765625,-1.01006640625,-9.9166953125,-7.02330859375,0.65311328125,3.94479296875,-0.86131640625,6.75807421875,0.981234375000001,5.05835546875
-18.82844921875,-16.652953125,-15.28466796875,-11.1479375,-22.81421875,-20.8882890625,-17.71421484375,-2.59890625,-13.1055703125,-23.2073359375,-9.86125390625,0.5503203125,-5.71080859375,-16.98502734375,-19.73116796875,-5.7099765625,-2.80998046875,-8.82151953125,-15.56630078125,-12.88010546875,1.72509765625,-0.26906640625,-11.7716953125,-10.96530859375,-1.44588671875,2.65779296875,-3.16631640625,6.57707421875,0.461234375,4.95135546875
-20.82244921875,-16.284953125,-17.72666796875,-10.5189375,-19.45521875,-18.1892890625,-12.84521484375,-1.41190625,-10.5135703125,-21.2133359375,-8.23725390625,0.6103203125,-7.30380859375,-15.87202734375,-19.17116796875,-4.9789765625,-1.16698046875,-8.62551953125,-16.20130078125,-13.45510546875,1.39609765625,0.60593359375,-12.5006953125,-12.84830859375,-2.71788671875,1.50779296875,-4.41331640625,6.01907421875,-0.224765625,4.62835546875
-19.98144921875,-15.140953125,-20.35566796875,-11.6279375,-14.59921875,-13.5312890625,-4.96621484375,-1.93690625,-7.6285703125,-17.8583359375,-4.92925390625,-0.0416796874999996,-9.14180859375,-14.15402734375,-16.57216796875,-3.2629765625,2.27201953125,-8.52651953125,-15.56730078125,-12.31410546875,1.14209765625,1.04693359375,-12.4876953125,-12.82630859375,-3.31188671875,0.73079296875,-4.74231640625,4.90707421875,-1.110765625,3.98635546875
-16.54644921875,-13.791953125,-22.47066796875,-14.4219375,-10.19621875,-8.5562890625,2.83578515625,-4.13590625,-5.7545703125,-14.4793359375,-1.30725390625,-1.6476796875,-10.88380859375,-12.72602734375,-12.92416796875,-1.5929765625,5.90101953125,-8.97051953125,-14.24730078125,-10.24210546875,0.60509765625,0.72693359375,-12.1166953125,-11.45130859375,-3.55288671875,0.30279296875,-4.42431640625,3.34307421875,-2.097765625,3.08235546875
-11.57644921875,-12.578953125,-22.92066796875,-17.8159375,-7.91321875,-5.0442890625,7.16078515625,-7.08790625,-5.6875703125,-12.2293359375,1.25774609375,-3.8926796875,-11.94880859375,-12.11002734375,-9.36516796875,-0.8479765625,7.88901953125,-9.98351953125,-12.78630078125,-8.17510546875,-0.45990234375,-0.32206640625,-11.5956953125,-9.45530859375,-3.80388671875,-0.0352070312499997,-3.78631640625,1.71607421875,-3.016765625,2.11235546875
-6.68144921875,-11.546953125,-20.72566796875,-20.3399375,-8.45621875,-4.1462890625,5.90578515625,-9.52390625,-7.3965703125,-11.6173359375,1.95674609375,-6.0636796875,-11.88280859375,-12.27502734375,-6.78316796875,-1.4349765625,7.02401953125,-11.19651953125,-11.56330078125,-6.90710546875,-2.08590234375,-1.76106640625,-10.9776953125,-7.55230859375,-4.36388671875,-0.60520703125,-3.15231640625,0.54807421875,-3.717765625,1.33035546875
-3.48544921875,-10.579953125,-15.76166796875,-20.9089375,-11.27121875,-5.8002890625,-0.691214843749999,-10.52690625,-10.0375703125,-12.3373359375,0.795746093749997,-7.4936796875,-10.68280859375,-12.76802734375,-5.56816796875,-3.2519765625,3.34301953125,-12.07451953125,-10.75130078125,-6.89010546875,-4.09590234375,-3.14606640625,-10.2926953125,-6.28230859375,-5.40188671875,-1.56920703125,-2.78731640625,0.25907421875,-4.122765625,0.949355468749999
-2.97244921875,-9.575953125,-9.12866796875,-19.3399375,-14.80121875,-8.7852890625,-10.12721484375,-10.00890625,-12.3025703125,-13.5063359375,-1.47325390625,-7.9556796875,-8.81180859375,-12.99702734375,-5.57716796875,-5.8429765625,-1.79498046875,-12.18751953125,-10.36230078125,-8.14210546875,-6.17690234375,-4.13206640625,-9.6476953125,-5.88230859375,-6.89688671875,-2.81420703125,-2.82631640625,0.97007421875,-4.218765625,1.07135546875
-4.96344921875,-8.518953125,-2.87366796875,-16.4279375,-17.22921875,-11.3832890625,-18.73521484375,-8.69190625,-12.9865703125,-14.1503359375,-3.65925390625,-7.7266796875,-6.89080859375,-12.52002734375,-6.27316796875,-8.5789765625,-6.26098046875,-11.38151953125,-10.30630078125,-10.23410546875,-7.95690234375,-4.57406640625,-9.1806953125,-6.21530859375,-8.59188671875,-3.98420703125,-3.18731640625,2.45807421875,-4.012765625,1.68235546875
-8.06544921875,-7.427953125,0.870332031250001,-13.5189375,-17.28921875,-12.1392890625,-23.19021484375,-7.58290625,-11.5405703125,-13.5743359375,-4.52725390625,-7.2786796875,-5.34580859375,-11.20402734375,-6.91916796875,-10.7639765625,-8.09698046875,-9.80851953125,-10.36630078125,-12.37710546875,-9.05690234375,-4.51606640625,-8.9296953125,-6.77630859375,-10.00488671875,-4.65520703125,-3.54331640625,4.27507421875,-3.478765625,2.69535546875
-10.27344921875,-6.261953125,0.98133203125,-11.8079375,-14.73421875,-10.3242890625,-21.74321484375,-7.29290625,-8.2945703125,-11.4933359375,-3.17425390625,-6.8446796875,-4.28180859375,-9.20102734375,-6.74116796875,-11.6989765625,-6.41398046875,-7.80851953125,-10.13930078125,-13.60410546875,-9.14690234375,-4.10906640625,-8.7216953125,-6.83430859375,-10.54388671875,-4.53120703125,-3.39731640625,5.94807421875,-2.550765625,4.02035546875
-10.03544921875,-4.849953125,-1.92766796875,-11.7039375,-10.24321875,-6.0842890625,-14.77621484375,-7.65890625,-4.2125703125,-8.0033359375,0.688746093749998,-6.2196796875,-3.57980859375,-6.76502734375,-5.09816796875,-10.7939765625,-1.78198046875,-5.72451953125,-9.07330078125,-13.05010546875,-8.00890234375,-3.50206640625,-8.1796953125,-5.68230859375,-9.69088671875,-3.55120703125,-2.29731640625,7.13407421875,-1.183765625,5.59035546875
-7.17944921875,-2.945953125,-5.59666796875,-12.5929375,-4.88121875,-0.342289062500001,-4.55721484375,-7.92590625,-0.2855703125,-3.5033359375,6.60974609375,-4.9526796875,-3.09680859375,-4.03502734375,-1.68916796875,-7.7689765625,4.09501953125,-3.73651953125,-6.69030078125,-10.26410546875,-5.62390234375,-2.78206640625,-6.8966953125,-2.93630859375,-7.21188671875,-1.88120703125,-0.0823164062499999,7.67207421875,0.556234375000001,7.33035546875
-3.02144921875,-0.402953125,-7.11066796875,-13.1499375,0.53178125,5.6037109375,5.70178515625,-7.33990625,3.0184296875,1.4626640625,13.46574609375,-2.7966796875,-2.80780859375,-0.994027343750001,3.25983203125,-2.9039765625,9.25601953125,-1.84351953125,-2.88030078125,-5.43410546875,-2.26390234375,-1.99206640625,-4.6976953125,1.23569140625,-3.31188671875,0.16379296875,2.95368359375,7.52307421875,2.413234375,9.09035546875
0.51155078125,2.620046875,-4.35766796875,-12.0479375,5.71378125,10.6277109375,13.09178515625,-5.72090625,5.8384296875,6.3496640625,19.74074609375,-0.0746796874999995,-2.77780859375,2.35697265625,8.92783203125,2.8490234375,12.37001953125,0.00248046874999996,1.91169921875,0.57089453125,1.48109765625,-1.22406640625,-1.8436953125,6.06369140625,1.32011328125,2.20079296875,6.09368359375,6.68307421875,3.962234375,10.57835546875
2.14055078125,5.586046875,2.71933203125,-8.7449375,10.63278125,14.0237109375,15.93478515625,-3.65490625,8.5124296875,10.5966640625,23.93874609375,2.3863203125,-2.98180859375,5.75097265625,14.04683203125,8.0530234375,13.16201953125,1.72148046875,6.73269921875,6.39589453125,4.83209765625,-0.67306640625,0.981304687500001,10.38669140625,5.67911328125,3.86279296875,8.44368359375,5.15307421875,4.736234375,11.39935546875
1.97855078125,7.781046875,11.80833203125,-3.9029375,14.96478125,15.3697109375,14.05778515625,-2.13990625,11.0434296875,13.5186640625,25.04174609375,3.7393203125,-3.13980859375,8.58897265625,17.27683203125,11.2790234375,12.22901953125,3.08348046875,10.42169921875,10.61989453125,7.08809765625,-0.56906640625,2.9733046875,13.07969140625,8.77511328125,4.87179296875,9.29968359375,2.99407421875,4.419234375,11.20735546875
1.21955078125,8.675046875,19.16833203125,0.8290625,17.89678125,14.3857109375,8.52778515625,-1.91590625,12.9214296875,14.4006640625,22.88274609375,3.6413203125,-2.79680859375,10.17997265625,17.71983203125,11.6970234375,10.52001953125,3.83948046875,12.07969921875,12.24989453125,7.88609765625,-1.02206640625,3.6253046875,13.53169140625,9.97911328125,5.08979296875,8.44868359375,0.42907421875,3.000234375,9.90235546875
1.13655078125,8.200046875,21.45733203125,3.6080625,18.57878125,11.1827109375,1.24878515625,-2.99990625,13.4604296875,12.9066640625,18.29474609375,2.3963203125,-1.67780859375,10.11897265625,15.37383203125,9.4170234375,8.89701953125,3.91348046875,11.50269921875,11.09989453125,7.28109765625,-1.90506640625,3.0063046875,11.90469140625,9.20011328125,4.53879296875,6.26068359375,-2.12192578125,0.811234375000001,7.73235546875
2.16655078125,6.762046875,17.46233203125,3.3340625,16.88178125,6.6237109375,-5.45821484375,-4.82390625,12.3994296875,9.4536640625,12.90874609375,0.6323203125,-0.02480859375,8.57797265625,11.21283203125,5.4060234375,7.93501953125,3.49748046875,9.30469921875,7.84989453125,5.64109765625,-2.86306640625,1.7173046875,9.03869140625,6.85111328125,3.38079296875,3.52068359375,-4.14492578125,-1.590765625,5.23335546875
3.77355078125,5.023046875,8.73233203125,0.2130625,13.75278125,2.2607109375,-9.42921484375,-6.78790625,10.2674296875,5.1826640625,8.62574609375,-1.1456796875,1.47119140625,6.29697265625,6.81183203125,1.0560234375,7.86601953125,2.99148046875,6.61569921875,3.76189453125,3.46009765625,-3.46006640625,0.588304687500001,6.05869140625,3.67011328125,1.88779296875,1.09868359375,-5.21292578125,-3.630765625,3.02735546875
5.09155078125,3.626046875,-1.18166796875,-4.3129375,10.79278125,-0.282289062500002,-9.43221484375,-8.61390625,8.1584296875,1.5016640625,6.90974609375,-2.7346796875,2.15019140625,4.26797265625,3.68283203125,-2.3539765625,8.55001953125,2.82648046875,4.53569921875,0.19889453125,1.23509765625,-3.35506640625,0.293304687500001,3.89569140625,0.51011328125,0.39779296875,-0.35931640625,-5.13992578125,-4.908765625,1.59835546875
5.79555078125,2.980046875,-8.35666796875,-8.1989375,9.28778125,-0.0742890625000019,-5.83621484375,-10.16490625,7.0104296875,-0.5013359375,8.18974609375,-4.0626796875,1.89519140625,3.24597265625,2.67983203125,-4.0659765625,9.51401953125,3.24348046875,3.68369921875,-1.83610546875,-0.59790234375,-2.45106640625,1.0633046875,2.94269140625,-1.87488671875,-0.75520703125,-0.61231640625,-4.01292578125,-5.284765625,1.12835546875
6.43455078125,3.161046875,-10.12366796875,-9.7419375,9.33278125,2.6047109375,-0.67421484375,-11.06090625,6.9464296875,-0.4853359375,11.67174609375,-4.9416796875,1.22419140625,3.38497265625,3.74483203125,-4.0049765625,10.15701953125,4.15848046875,4.05269921875,-1.98310546875,-1.69390234375,-0.93506640625,2.6293046875,3.00269140625,-2.99888671875,-1.33120703125,0.18868359375,-2.11892578125,-4.847765625,1.48035546875
7.93655078125,3.903046875,-5.97566796875,-8.4209375,9.68378125,6.2397109375,3.11878515625,-10.67390625,7.1874296875,0.979664062499999,15.69974609375,-5.0776796875,0.87919140625,4.21797265625,6.03083203125,-2.6499765625,10.06801953125,5.19648046875,5.13569921875,-0.53910546875,-1.85090234375,0.80293359375,4.4093046875,3.50369140625,-2.74188671875,-1.23820703125,1.65168359375,0.17507421875,-3.808765625,2.31435546875
10.66655078125,4.697046875,2.45133203125,-5.1709375,8.51778125,8.6777109375,3.06178515625,-8.61490625,6.6294296875,2.6566640625,18.49174609375,-4.3386796875,1.27619140625,4.95897265625,8.31483203125,-0.7459765625,9.27601953125,5.87148046875,6.22069921875,1.75389453125,-1.06290234375,2.33393359375,5.8053046875,3.85469140625,-1.33588671875,-0.57220703125,3.34568359375,2.51907421875,-2.408765625,3.27135546875
13.83855078125,4.976046875,12.08633203125,-1.8159375,4.66478125,8.2527109375,-1.57621484375,-5.27790625,4.6324296875,3.2566640625,18.92374609375,-3.0296796875,2.22519140625,4.93597265625,9.51983203125,1.0040234375,8.23201953125,5.81748046875,6.71969921875,4.04689453125,0.43909765625,3.34893359375,6.4563046875,3.73469140625,0.73211328125,0.40479296875,4.97268359375,4.63807421875,-0.868765625,4.11235546875
15.78255078125,4.325046875,19.42633203125,-0.00193749999999948,-1.51921875,4.7737109375,-9.28921484375,-1.92790625,1.4484296875,2.0906640625,16.93974609375,-1.8686796875,3.07419140625,3.88297265625,9.13883203125,2.1350234375,7.54201953125,4.94448046875,6.42269921875,5.72189453125,2.22509765625,3.74593359375,6.3363046875,3.19269140625,2.87011328125,1.32779296875,6.44268359375,6.38007421875,0.636234375000001,4.77735546875
14.90555078125,2.638046875,21.65733203125,-0.338937499999999,-8.30321875,-0.387289062500001,-17.05421484375,-0.19390625,-1.9435703125,-0.6923359375,13.44274609375,-1.6496796875,3.14119140625,2.00097265625,7.35983203125,2.4730234375,7.59801953125,3.46948046875,5.54269921875,6.55389453125,3.77909765625,3.63493359375,5.6943046875,2.56269140625,4.56111328125,1.83279296875,7.84568359375,7.71907421875,1.968234375,5.33335546875
10.64355078125,0.141046875,17.69433203125,-2.2859375,-13.59221875,-5.1992890625,-21.90121484375,-1.17590625,-4.4215703125,-4.3633359375,9.77074609375,-2.7896796875,2.13719140625,-0.211027343750001,4.84683203125,2.0870234375,8.37201953125,1.81348046875,4.51569921875,6.67589453125,4.68009765625,3.25393359375,4.8933046875,2.24669140625,5.49811328125,1.66679296875,9.33568359375,8.71407421875,3.007234375,5.88035546875
3.79655078125,-2.682953125,8.74133203125,-4.6759375,-16.00221875,-8.0642890625,-22.37021484375,-4.70190625,-5.3025703125,-8.0193359375,7.09374609375,-5.0316796875,0.36519140625,-2.21302734375,2.39783203125,1.1920234375,9.45201953125,0.40248046875,3.73969921875,6.38889453125,4.73209765625,2.84493359375,4.2073046875,2.49469140625,5.62211328125,0.73479296875,10.96068359375,9.40307421875,3.624234375,6.43735546875
-3.85644921875,-5.265953125,-2.07666796875,-6.4319375,-15.34221875,-8.3462890625,-18.98321484375,-9.20990625,-4.6015703125,-10.8463359375,6.04574609375,-7.4916796875,-1.40680859375,-3.65502734375,0.66383203125,0.0670234375000001,10.28301953125,-0.53551953125,3.39569921875,5.95289453125,4.01309765625,2.51993359375,3.6613046875,3.25269140625,5.02911328125,-0.905207031249999,12.52768359375,9.70407421875,3.659234375,6.84835546875
-10.38344921875,-7.126953125,-10.98766796875,-7.0759375,-12.44421875,-6.3402890625,-13.64521484375,-12.47190625,-2.9155703125,-12.2813359375,6.67074609375,-9.0386796875,-2.32080859375,-4.45502734375,0.00483203124999987,-1.0149765625,10.42801953125,-1.05351953125,3.41569921875,5.45489453125,2.81809765625,2.20793359375,3.0203046875,4.15369140625,3.85911328125,-3.07020703125,13.58968359375,9.38807421875,2.949234375,6.78935546875
-14.48444921875,-8.012953125,-15.11766796875,-6.8309375,-8.65621875,-3.0022890625,-8.49821484375,-12.78790625,-1.0285703125,-12.1533359375,8.62374609375,-8.8426796875,-1.86380859375,-4.71902734375,0.45583203125,-1.8159765625,9.69601953125,-1.39251953125,3.54269921875,4.82489453125,1.54509765625,1.71193359375,1.9403046875,4.67969140625,2.22511328125,-5.48520703125,13.58868359375,8.19307421875,1.394234375,5.88635546875
-15.84044921875,-7.914953125,-13.57766796875,-6.2929375,-5.21921875,0.455710937499999,-4.91221484375,-9.88890625,0.5074296875,-10.6793359375,11.43174609375,-6.7626796875,-0.13780859375,-4.56002734375,1.78483203125,-2.1379765625,8.14501953125,-1.78551953125,3.48669921875,3.96389453125,0.56409765625,0.85193359375,0.212304687500001,4.43169140625,0.25611328125,-7.80820703125,12.13668359375,6.02407421875,-0.930765624999999,3.92335546875
-14.89844921875,-6.980953125,-7.60466796875,-5.8829375,-2.75521875,3.1117109375,-3.10221484375,-4.98990625,1.5964296875,-8.2303359375,14.68074609375,-3.3646796875,2.16119140625,-3.98402734375,3.64683203125,-1.8239765625,6.03501953125,-2.29951953125,3.13569921875,2.90989453125,0.11309765625,-0.39606640625,-2.0456953125,3.37569140625,-1.83688671875,-9.70020703125,9.29168359375,3.12607421875,-3.699765625,1.04035546875
-12.39244921875,-5.392953125,0.162332031250001,-5.5019375,-1.09621875,4.7037109375,-2.45321484375,-0.0229062499999999,2.5224296875,-5.0883359375,18.03374609375,0.3763203125,4.05519140625,-2.89202734375,5.72683203125,-0.8069765625,3.79201953125,-2.81351953125,2.67169921875,1.90489453125,0.25309765625,-1.86006640625,-4.3886953125,1.89669140625,-3.72788671875,-10.90620703125,5.63868359375,0.0880742187499999,-6.381765625,-2.23664453125
-8.98744921875,-3.324953125,6.83433203125,-4.6849375,0.39978125,5.5027109375,-2.28521484375,3.32809375,3.6334296875,-1.4763359375,21.11274609375,3.4573203125,4.71919140625,-1.22002734375,7.74383203125,0.8070234375,1.95501953125,-3.12251953125,2.45069921875,1.28689453125,0.87909765625,-3.23106640625,-6.2076953125,0.59369140625,-5.03888671875,-11.34620703125,2.11068359375,-2.36192578125,-8.437765625,-5.15964453125
-5.21744921875,-0.998953125,10.28433203125,-3.1369375,2.29778125,5.8547109375,-2.43821484375,4.26609375,5.0374296875,2.2506640625,23.38674609375,5.0893203125,3.84319140625,0.905972656249999,9.36583203125,2.6500234375,1.03401953125,-3.08151953125,2.72969921875,1.27889453125,1.76809765625,-4.19706640625,-6.9986953125,-0.0593085937500004,-5.48688671875,-11.14720703125,-0.40131640625,-3.64492578125,-9.553765625,-7.04364453125
-1.54244921875,1.259046875,9.69133203125,-1.1209375,4.68578125,5.9197109375,-3.24421484375,2.96809375,6.4954296875,5.5356640625,24.23574609375,4.8143203125,1.73519140625,3.11397265625,10.18183203125,4.1160234375,1.33301953125,-2.68151953125,3.46369921875,1.82189453125,2.63509765625,-4.55106640625,-6.5626953125,0.0116914062499998,-5.02588671875,-10.59020703125,-1.39931640625,-3.53692578125,-9.729765625,-7.50764453125
1.61455078125,3.026046875,5.59133203125,0.6280625,7.13378125,5.7147109375,-4.99221484375,0.25609375,7.5754296875,7.7706640625,23.20974609375,2.5913203125,-0.85080859375,4.89097265625,9.83483203125,4.5370234375,2.81601953125,-2.01951953125,4.34369921875,2.57989453125,3.20409765625,-4.23506640625,-5.0516953125,0.48069140625,-3.88488671875,-9.96620703125,-0.89731640625,-2.18992578125,-9.163765625,-6.54964453125
3.87155078125,3.901046875,-0.402667968749999,1.3860625,8.88378125,5.1957109375,-7.44321484375,-2.88890625,7.9294296875,8.4596640625,20.33374609375,-1.1366796875,-3.04580859375,5.80797265625,8.19683203125,3.4800234375,5.11701953125,-1.18451953125,4.98369921875,3.08289453125,3.30009765625,-3.30806640625,-2.8316953125,0.84869140625,-2.46588671875,-9.43920703125,0.70268359375,-0.01392578125,-8.052765625,-4.47764453125
4.91155078125,3.649046875,-6.13966796875,0.929062500000001,9.11478125,4.2077109375,-9.83421484375,-5.70490625,7.4874296875,7.3126640625,16.21874609375,-5.5036796875,-4.18280859375,5.70797265625,5.45083203125,0.9760234375,7.64301953125,-0.18051953125,5.10269921875,2.91189453125,2.88609765625,-1.89006640625,-0.296695312499999,0.74769140625,-1.21088671875,-9.01220703125,2.85568359375,2.47907421875,-6.481765625,-1.80064453125
4.53155078125,2.289046875,-9.62666796875,-0.3329375,7.24378125,2.5087109375,-11.32321484375,-7.75390625,6.4244296875,4.3376640625,11.88774609375,-9.4606796875,-3.99480859375,4.72697265625,2.03383203125,-2.4619765625,9.72001953125,1.05348046875,4.62369921875,1.82589453125,2.02509765625,-0.14106640625,2.2463046875,0.10869140625,-0.51188671875,-8.64020703125,5.06468359375,4.79107421875,-4.472765625,0.865355468749999
2.71055078125,0.0870468749999995,-9.74266796875,-1.6459375,3.20278125,-0.0402890625000012,-11.52921484375,-8.83490625,4.9904296875,-0.0753359375000002,8.38774609375,-12.1336796875,-2.64280859375,3.15497265625,-1.50116796875,-6.0759765625,10.73601953125,2.52048046875,3.68269921875,-0.18410546875,0.79809765625,1.70793359375,4.5513046875,-0.86330859375,-0.69788671875,-8.38820703125,6.95868359375,6.53107421875,-2.113765625,2.90235546875
-0.35244921875,-2.530953125,-6.69766796875,-2.4309375,-2.44621875,-3.3472890625,-10.79321484375,-8.91590625,3.3494296875,-5.1993359375,6.42574609375,-13.1466796875,-0.60080859375,1.27397265625,-4.64416796875,-9.1899765625,10.29301953125,4.05748046875,2.52069921875,-2.90710546875,-0.75090234375,3.35193359375,6.3563046875,-1.87730859375,-1.98388671875,-8.46520703125,8.28668359375,7.47807421875,0.338234375000001,3.84535546875
-4.23344921875,-5.079953125,-1.95766796875,-2.6299375,-8.62021875,-7.1102890625,-9.99621484375,-8.18790625,1.5734296875,-10.1593359375,6.21474609375,-12.7306796875,1.54119140625,-0.697027343750001,-7.03616796875,-11.4309765625,8.38301953125,5.33148046875,1.33569921875,-5.96010546875,-2.56990234375,4.45893359375,7.3463046875,-2.72130859375,-4.36188671875,-9.07620703125,8.90868359375,7.61207421875,2.459234375,3.54635546875
-8.23544921875,-7.073953125,2.35733203125,-2.6139375,-13.95321875,-10.7942890625,-9.93121484375,-7.07490625,-0.2225703125,-14.0533359375,7.60074609375,-11.5116796875,3.27619140625,-2.53402734375,-8.45016796875,-12.7209765625,5.50801953125,5.94948046875,0.22169921875,-8.82310546875,-4.49290234375,4.76293359375,7.2203046875,-3.32630859375,-7.47388671875,-10.18920703125,8.79068359375,7.09507421875,3.791234375,2.25635546875
-11.40744921875,-8.072953125,4.39233203125,-2.7499375,-17.04621875,-13.4812890625,-10.63421484375,-6.03890625,-1.7435703125,-15.9813359375,10.32574609375,-10.0816796875,4.30619140625,-3.93502734375,-8.67516796875,-13.0929765625,2.60201953125,5.61448046875,-0.75830078125,-10.88410546875,-6.16090234375,4.15593359375,5.8123046875,-3.70230859375,-10.60788671875,-11.39620703125,8.01068359375,6.19607421875,4.051234375,0.547355468749999
-12.76544921875,-7.741953125,3.40033203125,-3.0749375,-16.79221875,-13.9582890625,-11.22021484375,-5.25890625,-2.4885703125,-15.1753359375,14.19474609375,-8.6206796875,4.55219140625,-4.52402734375,-7.48816796875,-12.5129765625,0.725019531249999,4.26148046875,-1.46230078125,-11.55710546875,-7.08290234375,2.73193359375,3.2183046875,-3.83730859375,-12.87688671875,-12.02020703125,6.75768359375,5.18107421875,3.285234375,-0.911644531250001
-11.70944921875,-5.955953125,0.155332031250001,-3.3599375,-12.79321875,-11.3002890625,-10.48021484375,-4.47990625,-1.9345703125,-11.3523359375,18.99174609375,-6.8746796875,4.09319140625,-3.95302734375,-4.79316796875,-10.8749765625,0.61001953125,2.10948046875,-1.68830078125,-10.49510546875,-6.82990234375,0.76493359375,-0.150695312499999,-3.66930859375,-13.52188671875,-11.44120703125,5.30268359375,4.22707421875,1.884234375,-1.60964453125
-8.33044921875,-2.907953125,-3.34366796875,-3.4159375,-5.68721875,-5.5462890625,-7.82321484375,-3.20090625,0.1574296875,-5.0393359375,24.24574609375,-4.5036796875,3.07919140625,-2.07702734375,-0.84416796875,-8.1769765625,2.34101953125,-0.37051953125,-1.27630078125,-7.78710546875,-5.25690234375,-1.35106640625,-3.6226953125,-3.11730859375,-12.21488671875,-9.46020703125,3.97268359375,3.40007421875,0.431234375000001,-1.36364453125
-3.38544921875,0.879046875,-4.81866796875,-3.2669375,2.89278125,2.1367109375,-3.81421484375,-1.08190625,3.4684296875,2.4696640625,29.10374609375,-1.5216796875,1.67919140625,0.921972656249999,3.69083203125,-4.7229765625,5.31901953125,-2.58751953125,-0.176300781249999,-3.97910546875,-2.60590234375,-3.19606640625,-6.4216953125,-2.13330859375,-9.19588671875,-6.46320703125,3.11868359375,2.70107421875,-0.512765625,-0.338644531250001
2.01255078125,4.656046875,-2.85466796875,-3.0589375,10.80778125,9.9097109375,0.0687851562500006,1.73109375,7.1074296875,9.5036640625,32.50374609375,1.5213203125,0.0491914062499998,4.51197265625,7.91083203125,-1.1489765625,8.48701953125,-3.99251953125,1.53569921875,0.116894531249999,0.56809765625,-4.39606640625,-7.8736953125,-0.72130859375,-5.16688671875,-3.27620703125,3.07368359375,2.15807421875,-0.613765624999999,1.06535546875
6.71455078125,7.669046875,2.41333203125,-2.9209375,16.15378125,15.9467109375,2.27178515625,4.60009375,9.9304296875,14.5396640625,33.61574609375,3.7803203125,-1.67380859375,7.95597265625,11.00483203125,1.7970234375,10.70701953125,-4.23051953125,3.65569921875,3.72789453125,3.59009765625,-4.68006640625,-7.5916953125,1.07269140625,-1.00288671875,-0.780207031249999,4.06068359375,1.87007421875,0.141234375,2.41435546875
9.75155078125,9.406046875,9.39633203125,-2.9159375,17.96078125,19.0237109375,2.04678515625,6.73309375,11.0514296875,16.6586640625,32.29874609375,4.6073203125,-3.38280859375,10.55097265625,12.53583203125,3.5760234375,11.16901953125,-3.23451953125,5.85069921875,6.36089453125,5.89009765625,-3.94806640625,-5.5926953125,3.14769140625,2.58211328125,0.47879296875,6.09468359375,1.97507421875,1.480234375,3.43635546875
10.51655078125,9.757046875,15.74433203125,-3.0949375,16.52478125,18.9307109375,-0.11521484375,7.63709375,10.2504296875,15.8536640625,29.28374609375,3.9563203125,-4.97080859375,11.84597265625,12.58783203125,4.0950234375,9.72401953125,-1.24851953125,7.73969921875,7.88089453125,7.17409765625,-2.32506640625,-2.3196953125,5.33669140625,5.21511328125,0.49379296875,8.89568359375,2.55807421875,2.992234375,4.11335546875
8.95955078125,9.022046875,19.20633203125,-3.5509375,13.18578125,16.5127109375,-2.71921484375,7.36509375,8.0064296875,13.0116640625,25.94274609375,2.4373203125,-6.29880859375,11.75497265625,11.68783203125,3.7090234375,6.98101953125,1.24548046875,9.04269921875,8.42989453125,7.48309765625,-0.17106640625,1.4603046875,7.41469140625,6.84711328125,-0.28020703125,11.90668359375,3.56107421875,4.302234375,4.62635546875
5.67955078125,7.740046875,18.40633203125,-4.4379375,9.58278125,13.1777109375,-4.05021484375,6.38309375,5.1994296875,9.4566640625,23.72674609375,0.9533203125,-7.19480859375,10.55197265625,10.52683203125,3.0150234375,4.10601953125,3.67948046875,9.66069921875,8.26189453125,7.14009765625,2.00893359375,4.8753046875,9.13269140625,7.58611328125,-1.20420703125,14.41668359375,4.75907421875,5.175234375,5.16935546875
1.77355078125,6.437046875,13.38233203125,-5.8949375,6.82178125,10.1197109375,-3.03621484375,5.21109375,2.6694296875,6.3036640625,23.55874609375,0.1953203125,-7.51880859375,8.74997265625,9.61183203125,2.5770234375,2.34101953125,5.59248046875,9.64669921875,7.60989453125,6.59509765625,3.72393359375,7.2123046875,10.26769140625,7.52111328125,-1.76720703125,15.76968359375,5.81307421875,5.507234375,5.75835546875
-1.54344921875,5.427046875,5.71733203125,-7.8739375,5.10278125,7.8817109375,0.29178515625,4.15709375,0.9054296875,4.0876640625,25.49274609375,0.3213203125,-7.22780859375,6.92997265625,9.07783203125,2.7280234375,2.43901953125,6.76448046875,9.13369921875,6.64889453125,6.21409765625,4.64493359375,8.1113046875,10.66069140625,6.63311328125,-1.79420703125,15.56068359375,6.37307421875,5.258234375,6.14035546875
-3.37544921875,4.753046875,-1.97466796875,-10.0099375,3.96678125,6.4807109375,4.91578515625,3.26609375,-0.0225703125000001,2.8146640625,28.77074609375,0.9933203125,-6.38580859375,5.55797265625,8.75183203125,3.5150234375,4.28601953125,7.22148046875,8.30969921875,5.54489453125,6.11709765625,4.66793359375,7.6043046875,10.24969140625,4.84411328125,-1.46020703125,13.75568359375,6.18907421875,4.425234375,5.90035546875
-3.44544921875,4.274046875,-7.10766796875,-11.7159375,2.82678125,5.6987109375,9.28678515625,2.40009375,-0.3615703125,2.2126640625,32.21574609375,1.6373203125,-5.10680859375,4.84797265625,8.35183203125,4.7230234375,6.92301953125,7.12648046875,7.38469921875,4.48589453125,6.14309765625,3.87793359375,6.0053046875,9.08869140625,2.16411328125,-1.12320703125,10.71768359375,5.18107421875,3.063234375,4.69535546875
-2.15044921875,3.781046875,-8.25166796875,-12.4719375,1.36078125,5.1827109375,11.87378515625,1.33709375,-0.4915703125,1.9046640625,34.71374609375,1.7113203125,-3.53480859375,4.70597265625,7.65483203125,5.9280234375,9.00401953125,6.60648046875,6.50269921875,3.63789453125,5.97409765625,2.44693359375,3.7213046875,7.35769140625,-1.16188671875,-1.09820703125,7.10268359375,3.43707421875,1.333234375,2.51035546875
-0.35144921875,3.103046875,-5.75466796875,-12.0889375,-0.339218750000001,4.5207109375,11.70778515625,-0.0899062499999999,-0.7455703125,1.5806640625,35.61674609375,0.8653203125,-1.88280859375,4.79297265625,6.59683203125,6.5980234375,9.47501953125,5.65248046875,5.67469921875,3.07489453125,5.32309765625,0.52393359375,1.0733046875,5.35069140625,-4.60188671875,-1.49920703125,3.67768359375,1.17307421875,-0.494765624999999,-0.234644531250001
0.98355078125,2.171046875,-1.49866796875,-10.7419375,-1.75621875,3.5447109375,8.87578515625,-1.81690625,-1.2525703125,1.2056640625,34.94874609375,-0.9656796875,-0.50180859375,4.70497265625,5.34183203125,6.2900234375,8.11101953125,4.11948046875,4.85669921875,2.79489453125,4.11309765625,-1.81106640625,-1.7796953125,3.47369140625,-7.42488671875,-2.20420703125,1.11368359375,-1.33092578125,-2.083765625,-2.79564453125
1.14755078125,1.085046875,2.08533203125,-8.8609375,-2.06221875,2.6237109375,4.64678515625,-3.45690625,-1.8475703125,1.1306640625,33.36074609375,-3.5246796875,0.13919140625,4.21997265625,4.29683203125,4.8960234375,5.61301953125,1.89048046875,4.09869921875,2.79289453125,2.56209765625,-4.50006640625,-4.7496953125,2.18969140625,-8.89188671875,-2.95220703125,-0.17031640625,-3.75592578125,-3.100765625,-4.36864453125
-0.0504492187500007,0.149046875,3.24233203125,-7.0249375,-0.415218749999999,2.5357109375,0.999785156250001,-4.44290625,-2.1045703125,1.9286640625,31.83874609375,-6.2906796875,-0.40380859375,3.48197265625,3.99183203125,2.7790234375,3.22401953125,-0.93351953125,3.60469921875,3.14589453125,1.14309765625,-7.37106640625,-7.6496953125,1.92869140625,-8.47688671875,-3.46220703125,-0.0583164062499999,-5.75792578125,-3.300765625,-4.39164453125
-2.19444921875,-0.183953125,1.71533203125,-5.8749375,3.61278125,4.0017109375,-0.32321484375,-4.32790625,-1.5475703125,4.0776640625,31.24874609375,-8.6426796875,-2.34080859375,2.97997265625,4.85883203125,0.6680234375,2.07501953125,-3.93751953125,3.64769921875,3.98789453125,0.41009765625,-10.06806640625,-10.0796953125,2.92569140625,-6.05488671875,-3.51820703125,1.29768359375,-6.98492578125,-2.585765625,-2.73464453125
-4.36444921875,0.523046874999999,-1.26066796875,-5.9269375,9.71078125,7.2397109375,1.30178515625,-3.04690625,0.0304296874999999,7.7116640625,31.92374609375,-10.0806796875,-5.47280859375,3.27297265625,6.99783203125,-0.7009765625,2.61801953125,-6.50651953125,4.42269921875,5.38789453125,0.74309765625,-12.11006640625,-11.4976953125,5.07369140625,-2.00488671875,-3.01120703125,3.55468359375,-7.16992578125,-1.059765625,0.272355468749999
-5.48844921875,2.453046875,-3.69566796875,-7.3089375,16.74578125,11.7627109375,5.05378515625,-0.96990625,2.3514296875,12.4756640625,33.50174609375,-10.3936796875,-9.14180859375,4.63097265625,10.06283203125,-0.9529765625,4.43901953125,-8.07551953125,5.91169921875,7.20389453125,2.12509765625,-13.08006640625,-11.4556953125,7.87969140625,2.82711328125,-1.94820703125,6.24768359375,-6.23892578125,0.967234375,3.94935546875
-4.83644921875,5.370046875,-3.86566796875,-9.5819375,23.01478125,16.3917109375,9.06778515625,1.28509375,4.7094296875,17.4666640625,35.11274609375,-9.6836796875,-12.35580859375,6.82597265625,13.29083203125,-0.2259765625,6.50701953125,-8.34051953125,7.80769921875,9.03689453125,4.11409765625,-12.78906640625,-9.8116953125,10.59469140625,7.35511328125,-0.45320703125,8.86168359375,-4.38992578125,3.028234375,7.48835546875
-2.37744921875,8.656046875,-1.06566796875,-11.8199375,26.80578125,19.5297109375,11.35578515625,3.19109375,6.3284296875,21.3686640625,35.85274609375,-8.2506796875,-14.11480859375,9.22297265625,15.72083203125,0.9820234375,7.70601953125,-7.32351953125,9.56769921875,10.35989453125,6.05109765625,-11.33206640625,-6.7866953125,12.48069140625,10.59911328125,1.25479296875,10.93768359375,-2.04692578125,4.631234375,10.18735546875
1.22955078125,11.539046875,4.12033203125,-12.9919375,27.09778125,19.8187109375,10.78378515625,4.58309375,6.7664296875,22.8976640625,35.25474609375,-6.4326796875,-13.84580859375,11.08897265625,16.56283203125,2.1180234375,7.39301953125,-5.28851953125,10.61969921875,10.75989453125,7.38309765625,-9.02406640625,-2.8576953125,13.12169140625,12.01811328125,2.90879296875,12.19268359375,0.27807421875,5.448234375,11.64735546875
4.98255078125,13.402046875,10.05433203125,-12.4879375,24.01078125,16.8517109375,7.58178515625,5.65309375,6.0994296875,21.3856640625,33.47874609375,-4.5456796875,-11.71480859375,11.91497265625,15.55383203125,2.8260234375,5.71001953125,-2.61351953125,10.63869921875,10.16389453125,7.92309765625,-6.29306640625,1.4053046875,12.57969140625,11.66011328125,4.27679296875,12.61368359375,2.16007421875,5.433234375,11.86135546875
7.97855078125,13.979046875,14.65533203125,-10.4619375,18.72878125,11.4737109375,3.14978515625,6.66909375,4.7804296875,17.1346640625,31.13474609375,-2.8956796875,-8.54880859375,11.57397265625,13.09383203125,3.0430234375,3.47101953125,0.29348046875,9.70269921875,8.87789453125,7.89809765625,-3.56906640625,5.4583046875,11.34569140625,10.08211328125,5.24679296875,12.43668359375,3.37107421875,4.823234375,11.16235546875
9.76555078125,13.386046875,16.21933203125,-7.7049375,12.99878125,5.5477109375,-0.644214843749999,7.72009375,3.3294296875,11.4126640625,28.89774609375,-1.7796796875,-5.35280859375,10.26897265625,10.09683203125,2.9720234375,1.71401953125,3.02648046875,8.24869921875,7.43789453125,7.79109765625,-1.21806640625,8.8143046875,10.09269140625,8.08511328125,5.85179296875,12.00868359375,3.89607421875,3.995234375,10.05735546875
10.54055078125,12.001046875,14.04233203125,-5.0859375,8.57378125,1.5397109375,-2.18021484375,8.72409375,2.0784296875,6.2096640625,27.17274609375,-1.4046796875,-2.74080859375,8.32297265625,7.64983203125,2.9600234375,1.23101953125,5.16748046875,6.90969921875,6.37489453125,8.09709765625,0.48693359375,11.0283046875,9.38969140625,6.38111328125,6.23579296875,11.58668359375,3.86207421875,3.292234375,9.01535546875
11.09155078125,10.273046875,8.50433203125,-2.9959375,6.84078125,2.0277109375,-0.510214843749999,9.64209375,1.0784296875,3.7836640625,25.97674609375,-1.8026796875,-0.69680859375,5.97697265625,6.66683203125,3.3410234375,2.34001953125,6.31148046875,6.32069921875,6.02189453125,9.11809765625,1.34893359375,11.6953046875,9.51769140625,5.35111328125,6.55679296875,11.22068359375,3.44007421875,2.916234375,8.29235546875
12.40855078125,8.543046875,0.629332031250001,-1.2459375,8.52678125,8.8967109375,4.51178515625,10.59209375,0.196429687499999,5.8706640625,25.07074609375,-2.8386796875,1.19919140625,3.30997265625,7.62283203125,4.3000234375,4.92401953125,6.18148046875,6.92369921875,6.44889453125,10.88409765625,1.27593359375,10.5763046875,10.44069140625,4.99311328125,6.91179296875,10.78468359375,2.77407421875,2.906234375,7.89135546875
15.05955078125,6.961046875,-8.49666796875,0.5510625,13.39478125,22.2227109375,12.25878515625,11.72109375,-0.7295703125,12.7246640625,24.19074609375,-4.2906796875,3.34719140625,0.33597265625,10.37783203125,5.8050234375,8.58401953125,4.82348046875,8.75869921875,7.49789453125,13.21409765625,0.36093359375,7.8123046875,11.91469140625,5.05911328125,7.31979296875,10.14368359375,1.95807421875,3.174234375,7.65935546875
18.77455078125,5.498046875,-18.03666796875,2.5370625,20.13078125,39.6297109375,21.46378515625,13.00409375,-1.7675703125,22.6346640625,23.20874609375,-5.9316796875,5.81919140625,-2.85302734375,14.18883203125,7.6380234375,12.76601953125,2.71848046875,11.37569921875,8.86889453125,15.82209765625,-1.04806640625,4.0603046875,13.62369140625,5.25611328125,7.75779296875,9.30368359375,1.06607421875,3.571234375,7.44235546875
18.77455078125,5.498046875,-18.03666796875,2.5370625,20.13078125,39.6297109375,21.46378515625,13.00409375,-1.7675703125,22.6346640625,23.20874609375,-5.9316796875,5.81919140625,-2.85302734375,14.18883203125,7.6380234375,12.76601953125,2.71848046875,11.37569921875,8.86889453125,15.82209765625,-1.04806640625,4.0603046875,13.62369140625,5.25611328125,7.75779296875,9.30368359375,1.06607421875,3.571234375,7.44235546875
