"Fp1","Fpz","Fp2","F7","F3","Fz","F4","F8","FC5","FC1","FC2","FC6","T7","C3","Cz","C4","T8","CP5","CP1","CP2","CP6","P7","P3","Pz","P4","P8","POz","O1","Oz","O2"
10.14878125,0.75094140625,0.546625,-17.00608203125,-1.30598828125,-1.73995703125,2.602234375,3.08733984375,1.1924765625,-12.6365625,-13.57541796875,9.23611328125,-14.1943671875,-15.86483203125,-2.35486328125,-5.3781875,12.7283671875,-9.7632421875,0.0885781249999997,0.0823515625,6.0701171875,15.0446640625,3.30430859375,4.433953125,8.9323984375,-7.75556640625,4.59962109375,-5.628546875,2.37613671875,-9.49453515625
5.94178125,-2.66705859375,-4.096375,-21.39108203125,-3.86098828125,-3.81095703125,-2.951765625,-4.88466015625,-3.1415234375,-15.6375625,-17.26941796875,0.18411328125,-15.9693671875,-17.47383203125,-4.72786328125,-11.1021875,9.4953671875,-11.4312421875,-1.806421875,-2.8126484375,3.0081171875,12.7676640625,1.54830859375,2.156953125,5.8543984375,-10.32356640625,3.19062109375,-7.270546875,-0.15386328125,-11.45753515625
3.57578125,-4.54205859375,-6.818375,-23.19208203125,-4.39598828125,-4.58395703125,-5.997765625,-9.61066015625,-4.8195234375,-16.3925625,-19.05141796875,-5.14188671875,-15.8303671875,-17.30983203125,-5.54586328125,-15.2551875,7.6753671875,-11.2132421875,-2.204421875,-4.7136484375,0.2941171875,12.8386640625,1.23930859375,1.232953125,3.5503984375,-12.44156640625,2.69562109375,-7.348546875,-1.00986328125,-11.85353515625
3.01478125,-4.92205859375,-7.645375,-22.52508203125,-2.99198828125,-4.12795703125,-6.667765625,-11.27666015625,-3.8025234375,-14.9915625,-19.03441796875,-6.95288671875,-13.8963671875,-15.41083203125,-4.88086328125,-17.8921875,7.5203671875,-9.0622421875,-1.112421875,-5.6616484375,-2.2268828125,15.1496640625,2.37730859375,1.636953125,1.9153984375,-14.16756640625,3.03462109375,-5.936546875,-0.37486328125,-11.13653515625
3.74078125,-4.28905859375,-7.137375,-20.31608203125,-0.378988281250001,-2.94595703125,-5.926765625,-11.11366015625,-0.8495234375,-12.2385625,-17.93441796875,-6.64188671875,-10.9473671875,-12.39683203125,-3.32486328125,-19.4791875,8.7173671875,-5.5152421875,1.003578125,-5.9796484375,-4.7698828125,18.8416640625,4.52130859375,2.927953125,0.6353984375,-15.74856640625,3.81462109375,-3.610546875,0.99813671875,-10.35453515625
5.16078125,-3.20505859375,-5.993375,-17.75008203125,2.50301171875,-1.66895703125,-4.975765625,-10.59966015625,2.9444765625,-9.1715625,-16.60641796875,-5.89088671875,-7.9743671875,-9.11283203125,-1.62786328125,-20.5141875,10.4823671875,-1.3782421875,3.519578125,-6.0176484375,-7.3548828125,22.8246640625,7.08730859375,4.534953125,-0.5396015625,-17.49956640625,4.58862109375,-1.058546875,2.25713671875,-10.48453515625
6.86978125,-2.04005859375,-4.744375,-15.73508203125,4.92401171875,-0.73295703125,-4.631765625,-10.71566015625,6.5964765625,-6.6085625,-15.59841796875,-5.79288671875,-5.7253671875,-6.24983203125,-0.32086328125,-21.2271875,11.8553671875,2.5917578125,5.938578125,-5.9396484375,-9.6928828125,26.2476640625,9.61530859375,6.028953125,-1.6126015625,-19.62056640625,5.10062109375,1.226453125,2.84513671875,-11.86953515625
8.67678125,-0.90205859375,-3.648375,-14.63508203125,6.55801171875,-0.23695703125,-5.031765625,-11.63166015625,9.4634765625,-4.9235625,-14.99541796875,-6.45288671875,-4.4893671875,-4.16283203125,0.45213671875,-21.5511875,12.0073671875,5.8327578125,8.005578125,-5.6996484375,-11.3398828125,28.6586640625,11.85930859375,7.246953125,-2.3696015625,-22.02756640625,5.34662109375,2.962453125,2.60013671875,-14.08953515625
10.49478125,0.26794140625,-2.747375,-14.27308203125,7.42801171875,-0.0309570312499998,-5.752765625,-12.88766015625,11.2634765625,-4.0795625,-14.55641796875,-7.18888671875,-4.1603671875,-2.87783203125,0.86113671875,-21.3041875,10.4433671875,7.9717578125,9.641578125,-5.1636484375,-12.0008828125,29.8826640625,13.69430859375,8.248953125,-2.5856015625,-24.30056640625,5.44262109375,3.909453125,1.59113671875,-16.29153515625
12.22878125,1.54194140625,-1.974375,-14.14308203125,7.74801171875,0.12204296875,-6.187765625,-13.85466015625,11.9914765625,-3.7925625,-13.97641796875,-7.11188671875,-4.4423671875,-2.21483203125,1.20513671875,-20.3871875,7.1093671875,8.8107578125,10.856578125,-4.2526484375,-11.7438828125,29.8566640625,15.02030859375,9.208953125,-2.2026015625,-25.76956640625,5.47762109375,3.782453125,-0.0698632812500001,-17.68453515625
13.74478125,2.89994140625,-1.246375,-13.71408203125,7.79201171875,0.43104296875,-5.909765625,-14.14866015625,11.8574765625,-3.7045625,-13.07041796875,-5.70388671875,-5.0223671875,-1.89683203125,1.75113671875,-18.8531875,2.4503671875,8.3837578125,11.715578125,-2.9826484375,-10.9568828125,28.5986640625,15.78330859375,10.322953125,-1.3506015625,-25.75456640625,5.48462109375,2.418453125,-2.25486328125,-17.88053515625
14.92178125,4.22894140625,-0.500375,-12.66808203125,7.82601171875,1.04204296875,-4.846765625,-13.79566015625,11.2264765625,-3.5155625,-11.82241796875,-3.11488671875,-5.6223671875,-1.62583203125,2.66513671875,-16.8711875,-2.5686328125,7.0317578125,12.354578125,-1.4116484375,-10.0858828125,26.2906640625,16.04930859375,11.740953125,-0.2346015625,-23.90456640625,5.50962109375,0.034453125,-4.72286328125,-16.96053515625
15.74978125,5.39294140625,0.300625,-11.00808203125,8.06501171875,2.01404296875,-3.263765625,-13.08166015625,10.5404765625,-3.0665625,-10.35141796875,-0.0928867187499998,-6.0103671875,-1.17383203125,3.97713671875,-14.6781875,-6.6216328125,5.3657578125,12.955578125,0.3903515625,-9.3828828125,23.3436640625,16.02030859375,13.480953125,0.9723984375,-20.46856640625,5.64362109375,-2.700546875,-7.08086328125,-15.33053515625
16.34878125,6.30394140625,1.174625,-8.99808203125,8.62601171875,3.29004296875,-1.616765625,-12.29066015625,10.1994765625,-2.3755625,-8.85641796875,2.36211328125,-6.0133671875,-0.45683203125,5.56513671875,-12.5441875,-8.3676328125,4.0627578125,13.664578125,2.3273515625,-8.8038828125,20.3416640625,15.94330859375,15.368953125,2.1753984375,-16.30656640625,5.99262109375,-4.912546875,-8.86386328125,-13.48053515625
16.88278125,6.95894140625,2.109625,-7.03808203125,9.50201171875,4.70004296875,-0.346765625,-11.53366015625,10.4724765625,-1.5935625,-7.54741796875,3.44711328125,-5.5603671875,0.44816796875,7.18113671875,-10.7281875,-6.8876328125,3.6127578125,14.520578125,4.2563515625,-8.0908828125,17.8986640625,16.00330859375,17.062953125,3.3443984375,-12.55456640625,6.61862109375,-5.909546875,-9.68886328125,-11.74853515625
17.43778125,7.42494140625,3.050625,-5.52008203125,10.58401171875,6.04004296875,0.313234375,-10.76866015625,11.4564765625,-0.9055625,-6.55841796875,2.90711328125,-4.7113671875,1.38316796875,8.55013671875,-9.3791875,-2.0486328125,4.1457578125,15.450578125,6.0103515625,-6.9488828125,16.5016640625,16.26730859375,18.185953125,4.5043984375,-10.12056640625,7.53262109375,-5.449546875,-9.36986328125,-10.20253515625
17.97278125,7.79194140625,3.904625,-4.69308203125,11.70901171875,7.15404296875,0.430234375,-9.92666015625,13.0864765625,-0.4205625,-5.88341796875,1.13311328125,-3.6683671875,2.20916796875,9.47213671875,-8.4721875,5.3343671875,5.4207578125,16.329578125,7.4513515625,-5.2088828125,16.3776640625,16.69830859375,18.506953125,5.7153984375,-9.31956640625,8.70062109375,-3.755546875,-7.95686328125,-8.70653515625
18.34878125,8.11294140625,4.533625,-4.60208203125,12.68501171875,7.95104296875,0.287234375,-9.02466015625,15.1214765625,-0.1515625,-5.40141796875,-1.05488671875,-2.7223671875,2.86116796875,9.85913671875,-7.8401875,13.5403671875,6.9477578125,17.022578125,8.4953515625,-2.9278828125,17.4436640625,17.17730859375,18.033953125,7.0243984375,-9.80156640625,10.04062109375,-1.332546875,-5.71886328125,-7.10453515625
18.37678125,8.32394140625,4.740625,-5.11608203125,13.29301171875,8.37204296875,0.183234375,-8.22066015625,17.1504765625,-0.0785625000000003,-4.97841796875,-2.81188671875,-2.1433671875,3.31016796875,9.69213671875,-7.2981875,20.3153671875,8.1937578125,17.397578125,9.0863515625,-0.4028828125,19.3566640625,17.53730859375,17.003953125,8.4093984375,-10.77456640625,11.41862109375,1.251453125,-3.05886328125,-5.39953515625
17.86278125,8.22794140625,4.299625,-6.01008203125,13.31401171875,8.35904296875,0.244234375,-7.76266015625,18.6534765625,-0.2305625,-4.58041796875,-3.63588671875,-2.0353671875,3.52116796875,8.97513671875,-6.7851875,23.5813671875,8.7947578125,17.316578125,9.1593515625,1.8961171875,21.6276640625,17.59730859375,15.765953125,9.7513984375,-11.37856640625,12.67962109375,3.524453125,-0.40686328125,-3.79153515625
16.67078125,7.57294140625,3.053625,-7.01108203125,12.62601171875,7.86604296875,0.381234375,-7.83166015625,19.1864765625,-0.6975625,-4.29841796875,-3.47788671875,-2.2713671875,3.43516796875,7.73413671875,-6.4021875,22.2983671875,8.6717578125,16.655578125,8.6343515625,3.4731171875,23.7606640625,17.21230859375,14.630953125,10.8443984375,-11.09256640625,13.65862109375,5.165453125,1.87013671875,-2.58153515625
14.81578125,6.21194140625,1.055625,-7.78708203125,11.29901171875,6.89204296875,0.386234375,-8.39266015625,18.5914765625,-1.5545625,-4.28941796875,-2.60688671875,-2.5633671875,3.01816796875,6.05213671875,-6.3261875,17.0533671875,8.0217578125,15.359578125,7.4643515625,4.0131171875,25.3576640625,16.32030859375,13.754953125,11.4553984375,-10.02956640625,14.20162109375,5.997453125,3.52113671875,-2.00953515625
12.49478125,4.21994140625,-1.393375,-8.00808203125,9.60701171875,5.52004296875,0.0852343750000002,-9.21366015625,17.0934765625,-2.7775625,-4.67741796875,-1.36388671875,-2.6383671875,2.32716796875,4.10213671875,-6.6771875,9.9913671875,7.2017578125,13.511578125,5.7003515625,3.5401171875,26.1946640625,14.97630859375,13.094953125,11.4013984375,-8.95756640625,14.17962109375,5.979453125,4.44113671875,-2.12053515625
9.99778125,1.87594140625,-3.863375,-7.50008203125,7.91001171875,3.90404296875,-0.596765625,-10.06466015625,15.1724765625,-4.2365625,-5.50941796875,-0.0358867187499998,-2.3903671875,1.52416796875,2.11413671875,-7.4641875,3.9893671875,6.5507578125,11.346578125,3.5003515625,2.4281171875,26.2546640625,13.33330859375,12.440953125,10.6143984375,-8.94656640625,13.53362109375,5.215453125,4.68013671875,-2.71553515625
7.55878125,-0.48105859375,-6.006375,-6.38908203125,6.46901171875,2.20304296875,-1.665765625,-10.90366015625,13.3134765625,-5.7675625,-6.78741796875,1.12111328125,-1.9203671875,0.81116796875,0.27813671875,-8.6491875,1.4113671875,6.2467578125,9.165578125,1.0603515625,1.1551171875,25.6746640625,11.57930859375,11.490953125,9.1383984375,-10.77656640625,12.27262109375,3.922453125,4.38713671875,-3.44653515625
5.28578125,-2.60005859375,-7.712375,-5.06708203125,5.32501171875,0.50504296875,-3.133765625,-11.88266015625,11.7814765625,-7.2455625,-8.51241796875,1.78111328125,-1.4593671875,0.31916796875,-1.34486328125,-10.2701875,3.0483671875,6.2577578125,7.221578125,-1.4856484375,-0.0308828124999994,24.6616640625,9.87430859375,9.950953125,7.0663984375,-14.40856640625,10.45362109375,2.354453125,3.71413671875,-4.01553515625
3.18878125,-4.39305859375,-9.120375,-3.99708203125,4.31601171875,-1.19895703125,-5.041765625,-13.18566015625,10.5714765625,-8.6205625,-10.67541796875,1.56011328125,-1.2353671875,0.0481679687500001,-2.82886328125,-12.4541875,7.7733671875,6.4077578125,5.634578125,-4.1006484375,-1.2908828125,23.4236640625,8.33730859375,7.666953125,4.4883984375,-18.86556640625,8.14962109375,0.734453125,2.73013671875,-4.37053515625
1.26178125,-5.90305859375,-10.492375,-3.50908203125,3.23501171875,-2.93895703125,-7.390765625,-14.86266015625,9.5144765625,-9.8865625,-13.16941796875,0.18311328125,-1.3573671875,-0.10983203125,-4.27186328125,-15.2831875,13.0883671875,6.5187578125,4.403578125,-6.7656484375,-3.0378828125,22.1626640625,7.08730859375,4.734953125,1.5193984375,-22.63356640625,5.47962109375,-0.745546875,1.41013671875,-4.76853515625
-0.440218749999998,-7.20705859375,-12.014375,-3.68708203125,2.00901171875,-4.65895703125,-9.998765625,-16.73366015625,8.4624765625,-11.0235625,-15.69641796875,-2.25388671875,-1.7593671875,-0.27583203125,-5.66686328125,-18.5661875,16.2683671875,6.5287578125,3.499578125,-9.3336484375,-5.5188828125,21.1016640625,6.29630859375,1.555953125,-1.6086015625,-24.37656640625,2.66662109375,-1.904546875,-0.25986328125,-5.63653515625
-1.75821875,-8.29805859375,-13.622375,-4.35108203125,0.786011718749999,-6.15895703125,-12.419765625,-18.38566015625,7.4384765625,-11.9465625,-17.76541796875,-5.12788671875,-2.2363671875,-0.50983203125,-6.82986328125,-21.7191875,15.5493671875,6.5197578125,2.942578125,-11.4386484375,-8.4468828125,20.4766640625,6.14830859375,-1.247046875,-4.4666015625,-23.56656640625,0.06062109375,-2.572546875,-2.15486328125,-7.25953515625
-2.47721875,-9.05105859375,-14.963375,-5.13908203125,-0.13598828125,-7.14995703125,-14.024765625,-19.29266015625,6.6344765625,-12.5315625,-18.83541796875,-7.43488671875,-2.5413671875,-0.81483203125,-7.47586328125,-23.9031875,10.8473671875,6.6297578125,2.794578125,-12.5836484375,-10.9878828125,20.4466640625,6.70930859375,-3.043046875,-6.4866015625,-20.67856640625,-1.92837890625,-2.663546875,-3.94486328125,-9.50553515625
-2.47721875,-9.31105859375,-15.570375,-5.68108203125,-0.504988281250001,-7.40995703125,-14.284765625,-19.05966015625,6.2574765625,-12.7135625,-18.58641796875,-8.23688671875,-2.5273671875,-1.19183203125,-7.40186328125,-24.4161875,3.7513671875,6.9107578125,3.063578125,-12.3796484375,-12.1738828125,20.9596640625,7.80030859375,-3.463046875,-7.1746015625,-16.88456640625,-2.97137890625,-2.243546875,-5.17986328125,-11.78053515625
-1.88821875,-9.04905859375,-15.144375,-5.78908203125,-0.29798828125,-6.93595703125,-13.072765625,-17.67166015625,6.3354765625,-12.5795625,-17.14041796875,-7.15988671875,-2.2393671875,-1.70783203125,-6.66086328125,-23.1001875,-3.1626328125,7.2177578125,3.608578125,-10.8206484375,-11.4658828125,21.6826640625,8.97330859375,-2.588046875,-6.3696015625,-13.47456640625,-2.97537890625,-1.546546875,-5.50086328125,-13.30353515625
-1.07621875,-8.42605859375,-13.752375,-5.54108203125,0.235011718749999,-5.99295703125,-10.789765625,-15.51166015625,6.6614765625,-12.3705625,-15.07641796875,-4.61288671875,-1.9183671875,-2.48283203125,-5.59386328125,-20.4791875,-7.4026328125,7.2447578125,4.123578125,-8.3806484375,-9.0958828125,22.0786640625,9.65130859375,-0.937046875,-4.3646015625,-11.32256640625,-2.14137890625,-0.899546875,-4.85286328125,-13.52553515625
-0.421218749999998,-7.69005859375,-11.784375,-5.20308203125,0.701011718749999,-5.00995703125,-8.197765625,-13.13366015625,6.9174765625,-12.3675625,-13.19141796875,-1.57988671875,-1.8923671875,-3.62183203125,-4.68386328125,-17.5061875,-7.5416328125,6.6997578125,4.261578125,-5.8516484375,-5.9628828125,21.6226640625,9.37330859375,0.754953125,-1.8076015625,-10.58656640625,-0.90937890625,-0.574546875,-3.54186328125,-12.40153515625
-0.0782187499999978,-7.00405859375,-9.738375,-5.10208203125,0.76801171875,-4.37495703125,-6.056765625,-10.98266015625,6.8204765625,-12.7415625,-12.14241796875,0.88411328125,-2.4273671875,-5.12683203125,-4.32586328125,-15.0951875,-3.6906328125,5.5187578125,3.802578125,-3.9816484375,-3.1658828125,20.0516640625,8.01230859375,1.852953125,0.6043984375,-10.72956640625,0.24762109375,-0.657546875,-2.09286328125,-10.34153515625
0.109781250000001,-6.33005859375,-7.994375,-5.52908203125,0.31601171875,-4.24995703125,-4.781765625,-9.27466015625,6.2014765625,-13.4785625,-12.16041796875,2.12411328125,-3.6153671875,-6.86483203125,-4.63486328125,-13.7141875,2.7463671875,3.9567578125,2.778578125,-3.1386484375,-1.4758828125,17.5026640625,5.84430859375,2.081953125,2.4253984375,-10.85956640625,1.04062109375,-1.014546875,-0.99186328125,-7.92253515625
0.489781250000002,-5.45805859375,-6.679375,-6.64908203125,-0.53198828125,-4.50795703125,-4.313765625,-8.03766015625,4.9884765625,-14.3875625,-12.99341796875,2.09111328125,-5.3353671875,-8.58983203125,-5.40486328125,-13.2631875,9.8233671875,2.4797578125,1.476578125,-3.1616484375,-1.0208828125,14.4816640625,3.41930859375,1.604953125,3.6033984375,-10.24556640625,1.47362109375,-1.386546875,-0.47786328125,-5.59353515625
1.38778125,-4.15805859375,-5.688375,-8.36708203125,-1.48598828125,-4.83795703125,-4.261765625,-7.22066015625,3.2164765625,-15.1895625,-14.07741796875,1.21711328125,-7.3183671875,-10.01383203125,-6.23086328125,-13.2521875,15.8303671875,1.5247578125,0.316578124999999,-3.5076484375,-1.3378828125,11.6696640625,1.31630859375,0.883953125,4.4013984375,-8.74556640625,1.77462109375,-1.561546875,-0.50986328125,-3.54553515625
2.88978125,-2.37305859375,-4.827375,-10.26608203125,-2.22298828125,-4.93495703125,-4.202765625,-6.76066015625,1.0694765625,-15.6425625,-14.84141796875,0.0961132812500001,-9.2523671875,-10.89883203125,-6.72786328125,-13.1441875,19.7393671875,1.2737578125,-0.349421875000001,-3.5826484375,-1.7308828125,9.6416640625,-0.0876914062499985,0.407953125000001,5.1513984375,-6.86156640625,2.19662109375,-1.474546875,-0.86586328125,-1.76153515625
4.72378125,-0.36405859375,-4.012375,-11.72708203125,-2.54198828125,-4.67195703125,-3.945765625,-6.62966015625,-1.1035234375,-15.6655625,-14.97641796875,-0.82688671875,-10.8983671875,-11.14283203125,-6.71586328125,-12.6491875,21.2163671875,1.5747578125,-0.408421875,-3.0756484375,-1.6978828125,8.6536640625,-0.721691406249999,0.440953125,6.0063984375,-5.40256640625,2.84262109375,-1.196546875,-1.29886328125,-0.170535156250002
6.31178125,1.32694140625,-3.370375,-12.22508203125,-2.44698828125,-4.16795703125,-3.620765625,-6.80666015625,-2.8835234375,-15.3945625,-14.55741796875,-1.42088671875,-12.1463671875,-10.82983203125,-6.30786328125,-11.8451875,20.3963671875,2.0417578125,-0.0394218750000004,-2.1006484375,-1.1808828125,8.5926640625,-0.776691406249999,0.901953125,6.8263984375,-5.01856640625,3.59762109375,-0.835546875,-1.63986328125,1.20546484375
7.01178125,2.09094140625,-3.187375,-11.62008203125,-2.14898828125,-3.72795703125,-3.546765625,-7.22466015625,-3.9505234375,-15.1345625,-13.95241796875,-1.83088671875,-12.9863671875,-10.21283203125,-5.82986328125,-11.0721875,17.6913671875,2.2547578125,0.380578125,-1.1126484375,-0.5168828125,9.1186640625,-0.565691406249998,1.444953125,7.2423984375,-5.89556640625,4.17662109375,-0.453546875,-1.83886328125,2.18846484375
6.41378125,1.53994140625,-3.723375,-10.27108203125,-1.96498828125,-3.68495703125,-3.994765625,-7.70566015625,-4.2525234375,-15.2005625,-13.60441796875,-2.28888671875,-13.4293671875,-9.62683203125,-5.65086328125,-10.7011875,13.7743671875,1.9557578125,0.472578124999998,-0.6456484375,-0.1608828125,9.8656640625,-0.378691406249999,1.662953125,6.8733984375,-7.71656640625,4.27062109375,-0.0515468749999999,-1.93686328125,2.51346484375
4.52478125,-0.30905859375,-5.040375,-8.88908203125,-2.16498828125,-4.21795703125,-4.975765625,-7.99166015625,-4.0415234375,-15.7405625,-13.77541796875,-2.87988671875,-13.4463671875,-9.35483203125,-5.98086328125,-10.9011875,9.6153671875,1.1517578125,0.0415781249999991,-1.0306484375,-0.3638828125,10.5876640625,-0.371691406249999,1.322953125,5.5773984375,-9.83056640625,3.71062109375,0.411453125,-2.00686328125,1.99346484375
1.75578125,-3.04405859375,-6.939375,-8.19708203125,-2.83098828125,-5.23495703125,-6.188765625,-7.85266015625,-3.7315234375,-16.6325625,-14.41241796875,-3.44188671875,-12.9883671875,-9.50683203125,-6.74886328125,-11.5211875,6.3093671875,0.0887578124999999,-0.836421875000001,-2.2276484375,-1.0158828125,11.1616640625,-0.550691406249999,0.490953125000001,3.5863984375,-11.50856640625,2.56662109375,0.967453125,-2.09486328125,0.673464843749999
-1.22621875,-6.02005859375,-9.021375,-8.54808203125,-3.80198828125,-6.40895703125,-7.162765625,-7.19066015625,-3.6655234375,-17.5125625,-15.17741796875,-3.64088671875,-12.0483671875,-9.99683203125,-7.64386328125,-12.1491875,4.6613671875,-0.8692421875,-1.888421875,-3.8476484375,-1.7018828125,11.5086640625,-0.815691406249998,-0.509046874999999,1.4483984375,-12.23656640625,1.11962109375,1.582453125,-2.21986328125,-1.12553515625
-3.73121875,-8.60405859375,-10.837375,-9.72208203125,-4.72698828125,-7.32595703125,-7.478765625,-6.08466015625,-3.9335234375,-17.9285625,-15.61841796875,-3.16688671875,-10.7153671875,-10.59483203125,-8.25986328125,-12.3041875,4.7883671875,-1.4092421875,-2.781421875,-5.3446484375,-1.9358828125,11.5256640625,-1.05669140625,-1.258046875,-0.2136015625,-11.88956640625,-0.27937890625,2.138453125,-2.40886328125,-2.91253515625
-5.29321875,-10.36705859375,-12.049375,-11.03608203125,-5.22698828125,-7.66495703125,-6.964765625,-4.77766015625,-4.3745234375,-17.5515625,-15.37841796875,-1.90588671875,-9.1403671875,-11.04283203125,-8.28486328125,-11.6551875,6.1333671875,-1.3982421875,-3.266421875,-6.2536484375,-1.4038828125,11.1126640625,-1.20769140625,-1.447046875,-0.9696015625,-10.72356640625,-1.35037890625,2.500453125,-2.69486328125,-4.21053515625
-5.81521875,-11.18405859375,-12.533375,-11.71508203125,-5.06998828125,-7.32095703125,-5.745765625,-3.59366015625,-4.7225234375,-16.3325625,-14.35841796875,-0.0438867187499998,-7.4953671875,-11.16583203125,-7.62686328125,-10.1931875,7.9483671875,-0.9362421875,-3.247421875,-6.3686484375,-0.131882812499999,10.2766640625,-1.26469140625,-1.001046875,-0.767601562499999,-9.19056640625,-1.95037890625,2.636453125,-3.07786328125,-4.70653515625
-5.56121875,-11.19305859375,-12.358375,-11.29808203125,-4.27798828125,-6.42195703125,-4.184765625,-2.81366015625,-4.7675234375,-14.5275625,-12.77041796875,1.94411328125,-5.9893671875,-10.93683203125,-6.44486328125,-8.2881875,9.8103671875,-0.3182421875,-2.784421875,-5.8086484375,1.5171171875,9.1966640625,-1.27169140625,-0.106046875000001,0.0523984375,-7.70956640625,-2.08637890625,2.682453125,-3.49286328125,-4.34553515625
-4.98721875,-10.69105859375,-11.714375,-9.85408203125,-3.12798828125,-5.28995703125,-2.742765625,-2.56066015625,-4.4385234375,-12.5765625,-11.05941796875,3.42311328125,-4.9163671875,-10.48483203125,-5.08886328125,-6.5851875,11.7523671875,0.0807578124999999,-2.068421875,-4.9476484375,2.9861171875,8.1806640625,-1.30169140625,0.872953125,0.9053984375,-6.54756640625,-1.89237890625,2.876453125,-3.84486328125,-3.36853515625
-4.53821875,-10.03105859375,-10.863375,-7.92208203125,-2.03598828125,-4.32195703125,-1.827765625,-2.80066015625,-3.8185234375,-10.9255625,-9.73241796875,3.82011328125,-4.6353671875,-10.02883203125,-3.97686328125,-5.7491875,13.8983671875,-0.0512421875000002,-1.360421875,-4.2576484375,3.7701171875,7.5056640625,-1.43169140625,1.530953125,1.2083984375,-5.83456640625,-1.60037890625,3.396453125,-4.11186328125,-2.28153515625
-4.51221875,-9.55605859375,-10.125375,-6.26008203125,-1.39598828125,-3.85995703125,-1.672765625,-3.44766015625,-3.1025234375,-9.8855625,-9.15841796875,2.89211328125,-5.4113671875,-9.77583203125,-3.44086328125,-6.1711875,15.9523671875,-0.8392421875,-0.905421875000002,-4.1026484375,3.6051171875,7.2526640625,-1.71369140625,1.567953125,0.6083984375,-5.66856640625,-1.48737890625,4.192453125,-4.43786328125,-1.74753515625
-4.99321875,-9.52105859375,-9.800375,-5.48908203125,-1.40498828125,-4.06595703125,-2.274765625,-4.44266015625,-2.5095234375,-9.5455625,-9.42741796875,0.87711328125,-7.2033671875,-9.80283203125,-3.60586328125,-7.7671875,17.0103671875,-2.1592421875,-0.826421875000001,-4.5806484375,2.5321171875,7.2566640625,-2.13969140625,0.888953125,-0.8956015625,-6.17456640625,-1.79937890625,4.904453125,-5.12386328125,-2.35353515625
-5.81721875,-9.97905859375,-10.023375,-5.83608203125,-1.97198828125,-4.87395703125,-3.414765625,-5.71966015625,-2.1505234375,-9.7625625,-10.33741796875,-1.56388671875,-9.5583671875,-9.99883203125,-4.34486328125,-10.0021875,15.9653671875,-3.6692421875,-1.062421875,-5.4846484375,0.837117187500001,7.2406640625,-2.63469140625,-0.364046875,-2.9756015625,-7.45056640625,-2.67537890625,4.966453125,-6.48086328125,-4.32253515625
-6.62121875,-10.71305859375,-10.635375,-7.06608203125,-2.75598828125,-6.01795703125,-4.743765625,-7.11566015625,-1.9425234375,-10.2185625,-11.50241796875,-3.61688671875,-11.7643671875,-10.10083203125,-5.33286328125,-12.1171875,12.3253671875,-4.9072421875,-1.386421875,-6.4016484375,-1.0548828125,7.0466640625,-3.06169140625,-1.859046875,-5.1026015625,-9.39656640625,-4.07237890625,3.891453125,-8.60086328125,-7.29053515625
-6.98521875,-11.28905859375,-11.228375,-8.64708203125,-3.32198828125,-7.13295703125,-5.926765625,-8.36466015625,-1.6555234375,-10.5405625,-12.54241796875,-4.69688671875,-13.1783671875,-9.81583203125,-6.18986328125,-13.4741875,6.8333671875,-5.4432421875,-1.526421875,-6.8996484375,-2.6978828125,6.7836640625,-3.25969140625,-3.177046875,-6.7336015625,-11.55256640625,-5.72237890625,1.637453125,-11.17886328125,-10.36053515625
-6.61221875,-11.25305859375,-11.337375,-9.99508203125,-3.35898828125,-7.90095703125,-6.780765625,-9.21566015625,-1.0815234375,-10.4685625,-13.23941796875,-4.71388671875,-13.5523671875,-9.00383203125,-6.65886328125,-13.8361875,1.3103671875,-5.0422421875,-1.313421875,-6.7236484375,-3.7668828125,6.7686640625,-3.11369140625,-3.971046875,-7.4776015625,-13.11556640625,-7.20137890625,-1.213546875,-13.55186328125,-12.44653515625
-5.47921875,-10.38105859375,-10.695375,-10.68408203125,-2.85098828125,-8.19695703125,-7.343765625,-9.54666015625,-0.238523437500001,-9.9905625,-13.61341796875,-4.08888671875,-13.1293671875,-7.80983203125,-6.72786328125,-13.4501875,-2.2916328125,-3.8032421875,-0.806421875000002,-5.9136484375,-4.1608828125,7.2616640625,-2.64669140625,-4.106046875,-7.2226015625,-13.25056640625,-8.10537890625,-3.665546875,-14.96086328125,-12.74753515625
-3.88921875,-8.84305859375,-9.403375,-10.57508203125,-2.12298828125,-8.14895703125,-7.842765625,-9.42166015625,0.5504765625,-9.3815625,-13.85941796875,-3.50988671875,-12.4483671875,-6.66983203125,-6.64886328125,-12.8761875,-2.9836328125,-2.1712421875,-0.290421875000002,-4.8016484375,-4.0148828125,8.1916640625,-2.06769140625,-3.723046875,-6.1626015625,-11.54156640625,-8.24637890625,-4.826546875,-14.91986328125,-11.11553515625
-2.40521875,-7.18205859375,-7.915375,-9.87208203125,-1.71298828125,-8.06495703125,-8.547765625,-9.08366015625,0.760476562499999,-9.1035625,-14.21341796875,-3.56288671875,-11.9843671875,-6.13783203125,-6.79386328125,-12.6671875,-1.2106328125,-0.7982421875,-0.159421875000001,-3.8706484375,-3.5918828125,9.0866640625,-1.70669140625,-3.168046875,-4.7146015625,-8.29356640625,-7.74837890625,-4.407546875,-13.47686328125,-8.12553515625
-1.62721875,-6.07105859375,-6.836375,-9.05608203125,-2.10698828125,-8.25995703125,-9.613765625,-8.87666015625,-0.0535234375000009,-9.5975625,-14.80741796875,-4.46788671875,-11.8563671875,-6.62583203125,-7.45286328125,-13.0931875,1.5403671875,-0.2662421875,-0.731421875000001,-3.5636484375,-3.1478828125,9.2756640625,-1.86169140625,-2.840046875,-3.3716015625,-4.45056640625,-6.97037890625,-2.851546875,-11.18986328125,-4.83553515625
-1.89821875,-5.97505859375,-6.602375,-8.66708203125,-3.47998828125,-8.89595703125,-10.976765625,-9.07666015625,-1.9575234375,-11.0475625,-15.60641796875,-6.02788671875,-11.7953671875,-8.17383203125,-8.67786328125,-14.0721875,3.6043671875,-0.8242421875,-2.089421875,-4.1146484375,-2.8558828125,8.2556640625,-2.62969140625,-3.031046875,-2.5676015625,-1.20156640625,-6.33437890625,-1.038546875,-8.86786328125,-2.35853515625
-3.09221875,-6.89305859375,-7.244375,-9.01908203125,-5.57098828125,-9.90095703125,-12.365765625,-9.71966015625,-4.5225234375,-13.2465625,-16.41941796875,-7.77788671875,-11.3933671875,-10.39683203125,-10.24486328125,-15.2751875,3.9123671875,-2.2842421875,-4.025421875,-5.4736484375,-2.8118828125,5.9926640625,-3.84169140625,-3.836046875,-2.5716015625,0.532433593750001,-6.13937890625,0.211453125,-7.19686328125,-1.41753515625
-4.65721875,-8.36305859375,-8.395375,-10.02908203125,-7.79098828125,-11.01495703125,-13.418765625,-10.57066015625,-6.9945234375,-15.6495625,-16.99241796875,-9.22688671875,-10.4573671875,-12.62583203125,-11.75986328125,-16.3231875,2.3393671875,-4.1392421875,-6.114421875,-7.3386484375,-3.0518828125,2.9766640625,-5.13469140625,-5.150046875,-3.4316015625,0.452433593750001,-6.44737890625,0.527453125,-6.46686328125,-2.08653515625
-5.90721875,-9.72305859375,-9.512375,-11.25908203125,-9.48998828125,-11.90395703125,-13.841765625,-11.29666015625,-8.6595234375,-17.5995625,-17.13541796875,-10.05888671875,-9.2193671875,-14.19583203125,-12.82986328125,-16.9501875,-0.353632812500001,-5.8182421875,-7.883421875,-9.2766484375,-3.5548828125,-0.000335937500000938,-6.12069140625,-6.741046875,-4.9636015625,-1.06256640625,-7.08437890625,0.0694531250000001,-6.51586328125,-3.80053515625
-6.37021875,-10.44105859375,-10.155375,-12.12408203125,-10.25098828125,-12.31295703125,-13.535765625,-11.66866015625,-9.1965234375,-18.5895625,-16.80141796875,-10.20788671875,-8.2293671875,-14.71583203125,-13.22286328125,-17.0731875,-2.8766328125,-6.9392421875,-8.998421875,-10.8806484375,-4.2258828125,-2.2143359375,-6.57269140625,-8.343046875,-6.8066015625,-3.23956640625,-7.75337890625,-0.681546875,-6.89186328125,-5.64553515625
-5.98321875,-10.33305859375,-10.163375,-12.12708203125,-10.04098828125,-12.15995703125,-12.612765625,-11.62866015625,-8.7845234375,-18.4285625,-16.10041796875,-9.80588671875,-8.0043671875,-14.20483203125,-12.94386328125,-16.7721875,-3.9286328125,-7.4152421875,-9.372421875,-11.8886484375,-4.8928828125,-3.3253359375,-6.50769140625,-9.731046875,-8.5446015625,-5.34656640625,-8.19737890625,-1.262546875,-7.12686328125,-6.78953515625
-5.07421875,-9.58405859375,-9.658375,-11.05508203125,-9.16798828125,-11.54595703125,-11.326765625,-11.25166015625,-7.9665234375,-17.2705625,-15.20941796875,-9.05288671875,-8.6753671875,-13.03183203125,-12.17686328125,-16.2111875,-2.7406328125,-7.3992421875,-9.158421875,-12.2246484375,-5.3538828125,-3.4613359375,-6.13169140625,-10.734046875,-9.8236015625,-7.02456640625,-8.29937890625,-1.460546875,-6.96286328125,-6.83153515625
-4.14521875,-8.59005859375,-8.918375,-9.09008203125,-8.08598828125,-10.66095703125,-9.950765625,-10.68766015625,-7.3565234375,-15.5185625,-14.27441796875,-8.11988671875,-9.8813671875,-11.69883203125,-11.16086328125,-15.5401875,0.5353671875,-7.1362421875,-8.623421875,-11.9616484375,-5.4478828125,-3.0453359375,-5.69069140625,-11.220046875,-10.4516015625,-8.31456640625,-8.08237890625,-1.320546875,-6.41286328125,-5.92053515625
-3.58021875,-7.71905859375,-8.178375,-6.78608203125,-7.16098828125,-9.68095703125,-8.681765625,-10.11566015625,-7.3325234375,-13.6545625,-13.34441796875,-7.11088671875,-10.9923671875,-10.59883203125,-10.06686328125,-14.8391875,4.8213671875,-6.8162421875,-8.000421875,-11.2386484375,-5.1518828125,-2.4973359375,-5.34169140625,-11.074046875,-10.4166015625,-9.42756640625,-7.63737890625,-0.986546875,-5.66286328125,-4.60253515625
-3.39421875,-7.09805859375,-7.458375,-4.87108203125,-6.52298828125,-8.69895703125,-7.587765625,-9.64166015625,-7.8645234375,-12.0485625,-12.39141796875,-6.09088671875,-11.5033671875,-9.85783203125,-8.95086328125,-14.1011875,8.5603671875,-6.5112421875,-7.384421875,-10.2026484375,-4.6148828125,-2.0113359375,-5.10969140625,-10.228046875,-9.8606015625,-10.43956640625,-7.04637890625,-0.547546875,-4.92886328125,-3.49953515625
-3.22721875,-6.55805859375,-6.547375,-3.96408203125,-6.07898828125,-7.73195703125,-6.624765625,-9.20566015625,-8.5505234375,-10.8425625,-11.36341796875,-5.12288671875,-11.3243671875,-9.34283203125,-7.78886328125,-13.2491875,10.4463671875,-6.2002421875,-6.737421875,-8.9796484375,-4.1048828125,-1.5333359375,-4.94169140625,-8.728046875,-9.0016015625,-11.15556640625,-6.36437890625,-0.00854687499999995,-4.36286328125,-2.99853515625
-2.59721875,-5.77705859375,-5.158375,-4.33908203125,-5.65698828125,-6.75495703125,-5.673765625,-8.60666015625,-8.8835234375,-9.9715625,-10.24441796875,-4.28488671875,-10.7733671875,-8.80183203125,-6.55086328125,-12.1941875,10.0273671875,-5.8542421875,-5.972421875,-7.6876484375,-3.8798828125,-0.9353359375,-4.77469140625,-6.791046875,-8.0656015625,-11.22656640625,-5.61537890625,0.636453125,-4.02586328125,-3.09853515625
-1.21721875,-4.50305859375,-3.139375,-5.82308203125,-5.14898828125,-5.74295703125,-4.597765625,-7.61966015625,-8.5575234375,-9.2685625,-9.06441796875,-3.63488671875,-10.3033671875,-8.03783203125,-5.24386328125,-10.8711875,7.7953671875,-5.4972421875,-5.060421875,-6.4306484375,-4.0528828125,-0.196335937500002,-4.57269140625,-4.771046875,-7.2196015625,-10.44756640625,-4.81037890625,1.312453125,-3.90486328125,-3.45353515625
0.849781250000001,-2.70105859375,-0.583375,-7.84008203125,-4.55598828125,-4.67895703125,-3.284765625,-6.11166015625,-7.6155234375,-8.5575625,-7.84141796875,-3.14988671875,-10.1723671875,-7.00683203125,-3.90386328125,-9.2451875,4.7033671875,-5.1812421875,-4.046421875,-5.2516484375,-4.4938828125,0.545664062499998,-4.30169140625,-3.023046875,-6.5146015625,-8.96356640625,-3.95537890625,1.860453125,-3.92086328125,-3.56153515625
3.27778125,-0.54205859375,2.214625,-9.60908203125,-3.91098828125,-3.53795703125,-1.676765625,-4.07266015625,-6.3605234375,-7.6915625,-6.51941796875,-2.66588671875,-10.2843671875,-5.78383203125,-2.53786328125,-7.2791875,1.4683671875,-4.8982421875,-2.983421875,-4.0756484375,-4.8398828125,1.1266640625,-3.87369140625,-1.714046875,-5.8456015625,-7.21256640625,-3.03337890625,2.153453125,-3.92286328125,-2.97953515625
5.67378125,1.70194140625,4.877625,-10.44508203125,-3.18498828125,-2.25995703125,0.218234375,-1.63166015625,-5.1355234375,-6.5585625,-4.95941796875,-1.88988671875,-10.2853671875,-4.45583203125,-1.09286328125,-4.9161875,-1.7726328125,-4.5142421875,-1.833421875,-2.6866484375,-4.6128828125,1.5406640625,-3.12269140625,-0.718046875000001,-4.9606015625,-5.63556640625,-1.98337890625,2.237453125,-3.68686328125,-1.48653515625
7.73278125,3.77094140625,7.074625,-10.03508203125,-2.25998828125,-0.76795703125,2.307234375,0.931339843749997,-4.1565234375,-5.1075625,-3.02641796875,-0.52988671875,-9.7963671875,-3.06183203125,0.52413671875,-2.1201875,-5.1936328125,-3.8072421875,-0.458421875000001,-0.8196484375,-3.4248828125,2.0066640625,-1.87369140625,0.315953125,-3.5586015625,-4.41856640625,-0.70337890625,2.363453125,-2.99086328125,0.829464843749998
9.30878125,5.48994140625,8.635625,-8.53508203125,-1.01398828125,0.96204296875,4.390234375,3.22633984375,-3.4715234375,-3.4095625,-0.730417968750002,1.49711328125,-8.6383671875,-1.62083203125,2.34813671875,1.0018125,-8.6356328125,-2.6332421875,1.276578125,1.6673515625,-1.1888828125,2.8156640625,-0.0766914062499993,1.716953125,-1.4686015625,-3.48256640625,0.862621093750001,2.815453125,-1.75086328125,3.55946484375
10.41678125,6.79294140625,9.606625,-6.46008203125,0.541011718749999,2.80204296875,6.163234375,4.84733984375,-3.0385234375,-1.7015625,1.65658203125,3.88311328125,-6.9153671875,-0.22783203125,4.24313671875,4.0908125,-11.1866328125,-1.0922421875,3.332578125,4.6113515625,1.7701171875,4.0856640625,2.06330859375,3.545953125,1.2003984375,-2.68256640625,2.61662109375,3.664453125,-0.14086328125,6.08346484375
11.17478125,7.72194140625,10.210625,-4.46508203125,2.20101171875,4.46804296875,7.284234375,5.48433984375,-2.8165234375,-0.3455625,3.64158203125,5.93411328125,-4.9803671875,0.91116796875,5.89913671875,6.5608125,-11.4476328125,0.4297578125,5.427578125,7.5313515625,4.7841171875,5.6346640625,4.11330859375,5.515953125,4.0503984375,-1.98056640625,4.30962109375,4.706453125,1.47013671875,7.81546484375
11.72778125,8.39894140625,10.722625,-3.13808203125,3.65301171875,5.65104296875,7.510234375,4.99033984375,-2.7915234375,0.3224375,4.72158203125,6.83911328125,-3.3043671875,1.57816796875,6.96213671875,7.8168125,-8.4216328125,1.4437578125,7.121578125,9.8053515625,7.1011171875,7.0966640625,5.62530859375,7.168953125,6.5673984375,-1.44956640625,5.69362109375,5.654453125,2.74913671875,8.50646484375
12.18978125,8.97394140625,11.319625,-2.83008203125,4.65001171875,6.18304296875,6.855234375,3.42533984375,-2.9115234375,0.1754375,4.64058203125,6.10911328125,-2.2933671875,1.69516796875,7.22413671875,7.5658125,-2.4266328125,1.6367578125,8.028578125,10.9763515625,8.2011171875,8.1786640625,6.37730859375,8.166953125,8.3643984375,-1.14856640625,6.69662109375,6.397453125,3.62613671875,8.39646484375
12.61578125,9.55094140625,11.985625,-3.54208203125,5.15301171875,6.12304296875,5.621234375,1.06933984375,-3.0075234375,-0.6285625,3.54158203125,3.89811328125,-2.1373671875,1.41716796875,6.72813671875,6.0258125,4.6963671875,1.0687578125,8.001578125,10.9553515625,8.0071171875,8.8306640625,6.48230859375,8.490953125,9.3263984375,-1.03356640625,7.47162109375,7.076453125,4.32113671875,8.07846484375
12.98678125,10.12294140625,12.529625,-4.93908203125,5.32001171875,5.69804296875,4.297234375,-1.64066015625,-2.8185234375,-1.7155625,1.89758203125,1.00311328125,-2.7563671875,1.06216796875,5.72113671875,3.8778125,10.3883671875,0.1447578125,7.183578125,10.0323515625,6.8841171875,9.2166640625,6.29230859375,8.414953125,9.5983984375,-0.951566406249999,8.28162109375,7.937453125,5.15413671875,8.15746484375
13.19078125,10.56394140625,12.709625,-6.53208203125,5.36501171875,5.16704296875,3.348234375,-4.20666015625,-2.1355234375,-2.7175625,0.274582031249999,-1.49488671875,-3.8813671875,0.92116796875,4.51313671875,1.9578125,12.7263671875,-0.6302421875,5.918578125,8.6823515625,5.4301171875,9.5416640625,6.17630859375,8.306953125,9.4603984375,-0.69856640625,9.31462109375,9.125453125,6.31213671875,8.93746484375
13.06078125,10.70194140625,12.405625,-7.93208203125,5.37801171875,4.67904296875,3.019234375,-6.13566015625,-0.999523437500001,-3.4525625,-0.927417968750001,-2.74788671875,-5.2273671875,1.05716796875,3.32813671875,0.8578125,11.4553671875,-0.9362421875,4.576578125,7.3203515625,4.1951171875,9.8946640625,6.30730859375,8.394953125,9.1613984375,-0.117566406249999,10.55362109375,10.554453125,7.71213671875,10.29246484375
12.46278125,10.42194140625,11.738625,-9.02608203125,5.24301171875,4.21604296875,3.233234375,-6.97366015625,0.2264765625,-3.9835625,-1.62541796875,-2.50788671875,-6.6253671875,1.24416796875,2.23513671875,0.682812499999999,8.0243671875,-0.7992421875,3.406578125,6.1283515625,3.4911171875,10.2076640625,6.58630859375,8.633953125,8.8023984375,0.793433593750001,11.75162109375,11.924453125,9.04113671875,11.75946484375
11.37478125,9.73494140625,11.011625,-9.95508203125,4.72201171875,3.65104296875,3.659234375,-6.41966015625,1.0054765625,-4.4945625,-1.99241796875,-1.18188671875,-8.0433671875,1.10916796875,1.20013671875,1.0848125,4.6653671875,-0.5202421875,2.496578125,5.0723515625,3.3471171875,10.3256640625,6.73130859375,8.759953125,8.3263984375,1.83443359375,12.53362109375,12.852453125,9.91513671875,12.78346484375
9.89678125,8.75694140625,10.505625,-10.92608203125,3.65901171875,2.89204296875,3.905234375,-4.53566015625,0.9294765625,-5.0905625,-2.25741796875,0.43611328125,-9.5003671875,0.41416796875,0.21113671875,1.5378125,3.1483671875,-0.4412421875,1.827578125,4.0433515625,3.6011171875,10.1266640625,6.48130859375,8.478953125,7.6103984375,2.67043359375,12.58462109375,13.031453125,10.06313671875,12.97946484375
8.21478125,7.62994140625,10.284625,-12.00008203125,2.16101171875,2.00304296875,3.725234375,-1.88166015625,-0.0205234374999996,-5.6715625,-2.50841796875,1.55411328125,-10.9553671875,-0.74083203125,-0.61786328125,1.6418125,3.9823671875,-0.7332421875,1.361578125,3.0203515625,4.0071171875,9.5796640625,5.74830859375,7.651953125,6.5763984375,2.99743359375,11.78062109375,12.340453125,9.43013671875,12.27546484375
6.57678125,6.46994140625,10.184625,-12.98708203125,0.591011718749999,1.19504296875,3.132234375,0.638339843749998,-1.4535234375,-5.9815625,-2.63541796875,1.69811328125,-12.2663671875,-1.94883203125,-1.06586328125,1.2798125,6.4013671875,-1.3442421875,1.066578125,2.1023515625,4.3181171875,8.6916640625,4.63730859375,6.348953125,5.2533984375,2.70843359375,10.20562109375,10.830453125,8.13113671875,10.86046484375
5.26178125,5.38194140625,9.990625,-13.52208203125,-0.615988281250001,0.70304296875,2.356234375,2.20633984375,-2.7925234375,-5.7715625,-2.43641796875,0.82811328125,-13.2113671875,-2.73883203125,-0.92586328125,0.5788125,8.9943671875,-2.0852421875,0.879578124999998,1.4353515625,4.3401171875,7.4286640625,3.32930859375,4.784953125,3.7573984375,1.96943359375,8.06062109375,8.659453125,6.34413671875,9.02646484375
4.51178125,4.48494140625,9.619625,-13.27708203125,-1.17698828125,0.67504296875,1.720234375,2.52233984375,-3.5825234375,-4.9675625,-1.76641796875,-0.73288671875,-13.5283671875,-2.83483203125,-0.12186328125,-0.198187500000001,10.4623671875,-2.7232421875,0.714578124999999,1.1243515625,4.0121171875,5.7326640625,2.01730859375,3.227953125,2.2723984375,1.15043359375,5.62162109375,6.087453125,4.25413671875,7.05046484375
4.43678125,3.92394140625,9.172625,-12.16308203125,-1.05898828125,1.15604296875,1.529234375,1.93233984375,-3.6675234375,-3.6945625,-0.593417968750002,-2.42888671875,-12.9543671875,-2.23983203125,1.28413671875,-0.737187500000001,10.1003671875,-3.0052421875,0.542578124999999,1.2233515625,3.4941171875,3.6926640625,0.929308593750001,1.983953125,1.0433984375,0.61743359375,3.26162109375,3.529453125,2.09813671875,5.19446484375
4.99278125,3.84294140625,8.871625,-10.37108203125,-0.41798828125,2.13104296875,2.020234375,1.21033984375,-3.1445234375,-2.1635625,1.03758203125,-3.60688671875,-11.3123671875,-1.13583203125,3.16113671875,-0.705187500000001,7.9063671875,-2.6502421875,0.478578124999999,1.7793515625,3.1741171875,1.6766640625,0.377308593750001,1.383953125,0.357398437500001,0.51243359375,1.45262109375,1.573453125,0.24313671875,3.76846484375
6.02478125,4.33294140625,8.950625,-8.24608203125,0.551011718749999,3.57204296875,3.329234375,1.15633984375,-2.2095234375,-0.5345625,3.07958203125,-3.65488671875,-8.6263671875,0.27416796875,5.36913671875,0.2138125,4.4813671875,-1.4162421875,0.784578124999999,2.8563515625,3.5401171875,0.281664062499999,0.695308593750001,1.723953125,0.4803984375,0.67943359375,0.65862109375,0.843453125,-0.83086328125,3.12746484375
7.32278125,5.37394140625,9.548625,-6.14208203125,1.70501171875,5.41804296875,5.456234375,2.22133984375,-1.0395234375,1.1504375,5.49758203125,-2.17188671875,-5.2213671875,1.85416796875,7.77813671875,2.2198125,0.8763671875,0.7507578125,1.739578125,4.4923515625,4.9451171875,0.0646640625000003,2.07830859375,3.133953125,1.5463984375,0.844433593750001,1.14362109375,1.722453125,-0.68186328125,3.56446484375
8.61778125,6.76994140625,10.637625,-4.35908203125,2.95001171875,7.52404296875,8.214234375,4.31933984375,0.186476562499999,2.8964375,8.21058203125,0.84711328125,-1.7013671875,3.51316796875,10.21313671875,5.2718125,-1.6276328125,3.5697578125,3.434578125,6.6023515625,7.3971171875,1.2126640625,4.39730859375,5.457953125,3.4563984375,0.892433593750001,2.81762109375,4.078453125,0.85313671875,5.16246484375
9.57778125,8.15094140625,11.994625,-3.13108203125,4.15801171875,9.60804296875,11.218234375,6.88433984375,1.2314765625,4.6284375,10.99458203125,4.90111328125,1.2196328125,5.10816796875,12.40013671875,8.9808125,-1.9246328125,6.4107578125,5.614578125,8.9043515625,10.4661171875,3.3516640625,7.12230859375,8.203953125,5.8263984375,0.99043359375,5.17962109375,7.152453125,3.45113671875,7.67646484375
9.86978125,9.06694140625,13.239625,-2.57208203125,5.10401171875,11.25504296875,13.930234375,9.13433984375,1.8244765625,6.1144375,13.45258203125,9.07811328125,2.9436328125,6.40116796875,13.97213671875,12.6468125,0.3853671875,8.4587578125,7.683578125,10.9143515625,13.4011171875,5.6116640625,9.44030859375,10.646953125,8.0353984375,1.41943359375,7.42862109375,9.729453125,6.29013671875,10.52546484375
9.27978125,9.15294140625,13.946625,-2.59308203125,5.51701171875,12.04104296875,15.812234375,10.40033984375,1.7884765625,7.0314375,15.12758203125,12.37111328125,3.1936328125,7.12416796875,14.58913671875,15.4868125,4.6193671875,9.0367578125,8.941578125,12.0973515625,15.4231171875,6.9566640625,10.55330859375,12.056953125,9.4063984375,2.27543359375,8.71962109375,10.584453125,8.29713671875,12.89746484375
7.82778125,8.29294140625,13.791625,-2.90808203125,5.23001171875,11.74604296875,16.527234375,10.35933984375,1.1924765625,7.1514375,15.72658203125,14.10211328125,2.1056328125,7.15016796875,14.13613671875,16.9688125,9.1763671875,7.9207578125,8.943578125,12.1153515625,16.0731171875,6.6476640625,10.04130859375,12.000953125,9.4873984375,3.32843359375,8.49762109375,9.031453125,8.58213671875,13.99046484375
5.82678125,6.70394140625,12.699625,-3.13108203125,4.34501171875,10.53204296875,16.088234375,9.13833984375,0.3994765625,6.5204375,15.31358203125,14.18711328125,0.1896328125,6.64416796875,12.86813671875,17.0538125,12.2953671875,5.4897578125,7.790578125,11.0543515625,15.4101171875,4.6076640625,8.09130859375,10.566953125,8.2903984375,4.18943359375,6.76762109375,5.302453125,6.85113671875,13.30046484375
3.84478125,4.88994140625,10.941625,-2.92808203125,3.27001171875,8.92904296875,14.861234375,7.26733984375,-0.0505234375000008,5.5174375,14.32758203125,13.10211328125,-1.8353671875,6.05916796875,11.36913671875,16.1808125,13.0153671875,2.6077578125,6.151578125,9.4373515625,13.9591171875,1.4846640625,5.44230859375,8.370953125,6.3253984375,4.60243359375,4.11762109375,0.524453125,3.57713671875,10.85946484375
2.51178125,3.46294140625,9.068625,-2.14408203125,2.57401171875,7.62404296875,13.385234375,5.49833984375,0.3064765625,4.7094375,13.39158203125,11.55711328125,-3.2963671875,5.94116796875,10.31613671875,15.0318125,11.6953671875,0.2817578125,4.960578125,8.0163515625,12.4501171875,-1.6573359375,3.05330859375,6.306953125,4.3843984375,4.61943359375,1.47462109375,-3.729546875,-0.19186328125,7.28446484375
2.22778125,2.87894140625,7.678625,-0.888082031249999,2.70601171875,7.14104296875,12.149234375,4.49133984375,1.6044765625,4.5834375,13.01358203125,10.14711328125,-3.8113671875,6.64816796875,10.16613671875,14.2058125,9.7613671875,-0.7582421875,4.946578125,7.4193515625,11.5101171875,-3.8563359375,1.65730859375,5.133953125,3.1963984375,4.50443359375,-0.308378906250001,-6.138546875,-3.30786328125,3.58846484375
2.92978125,3.22294140625,7.129625,0.46991796875,3.74101171875,7.59404296875,11.407234375,4.53633984375,3.5454765625,5.3044375,13.35058203125,9.14811328125,-3.4213671875,8.14016796875,10.93113671875,13.9918125,8.8573671875,-0.3372421875,6.262578125,7.8653515625,11.4441171875,-4.6813359375,1.44630859375,5.134953125,3.1173984375,4.50843359375,-0.823378906249999,-6.241546875,-5.04086328125,0.791464843749997
4.11678125,4.19294140625,7.403625,1.45491796875,5.32401171875,8.65004296875,11.146234375,5.46833984375,5.5344765625,6.6484375,14.16658203125,8.52611328125,-2.5223671875,9.97916796875,12.18113671875,14.2968125,9.9123671875,1.1447578125,8.419578125,9.0813515625,12.1621171875,-4.3113359375,2.04730859375,6.021953125,4.0173984375,4.71843359375,-0.23937890625,-4.577546875,-5.32586328125,-0.464535156250001
5.13478125,5.28194140625,8.174625,1.74991796875,6.85001171875,9.71904296875,11.150234375,6.79133984375,6.9794765625,8.1394375,14.98258203125,8.06211328125,-1.6083671875,11.56416796875,13.27013671875,14.7588125,12.6343671875,2.9647578125,10.579578125,10.4773515625,13.2481171875,-3.2503359375,2.81830859375,7.164953125,5.3943984375,5.09643359375,0.87262109375,-2.286546875,-4.61586328125,-0.097535156250002
5.52778125,6.03294140625,8.985625,1.37691796875,7.75901171875,10.26604296875,11.139234375,7.88933984375,7.5504765625,9.2804375,15.32658203125,7.51011328125,-0.9673671875,12.44216796875,13.65413671875,14.9458125,15.7263671875,4.4687578125,11.996578125,11.4473515625,14.1381171875,-1.9073359375,3.26630859375,7.980953125,6.6463984375,5.61843359375,1.91962109375,-0.413546875,-3.47686328125,1.51746484375
5.23778125,6.23594140625,9.438625,0.66491796875,7.78401171875,10.06604296875,10.904234375,8.22133984375,7.2644765625,9.7484375,14.93458203125,6.72511328125,-0.5073671875,12.51016796875,13.12313671875,14.5698125,17.6713671875,5.3577578125,12.361578125,11.6403515625,14.3451171875,-0.3423359375,3.33530859375,8.238953125,7.3703984375,6.33943359375,2.62862109375,0.637453125,-2.20786328125,3.83346484375
4.57578125,5.97194140625,9.313625,0.0189179687500012,7.01801171875,9.24204296875,10.378234375,7.50033984375,6.3914765625,9.4594375,13.81258203125,5.71311328125,0.1576328125,11.99116796875,11.81713671875,13.5938125,17.5953671875,5.7227578125,11.837578125,11.0553515625,13.6561171875,1.6446640625,3.36130859375,8.100953125,7.5033984375,7.30943359375,3.14262109375,1.185453125,-0.74186328125,6.40046484375
3.98578125,5.50294140625,8.608625,-0.365082031249999,5.77501171875,8.09904296875,9.597234375,5.79533984375,5.2374765625,8.4944375,12.14658203125,4.59611328125,1.3676328125,11.21116796875,10.04513671875,12.1978125,15.6263671875,5.8217578125,10.822578125,9.9383515625,12.2081171875,4.1896640625,3.74530859375,7.898953125,7.2733984375,8.43443359375,3.81462109375,1.903453125,1.18913671875,8.98446484375
3.74278125,5.07494140625,7.482625,-0.660082031249999,4.36001171875,6.87104296875,8.591234375,3.48933984375,3.9454765625,6.9654375,10.15058203125,3.49711328125,3.0286328125,10.33816796875,8.03913671875,10.6158125,12.5823671875,5.8027578125,9.617578125,8.5673515625,10.3961171875,7.0716640625,4.58030859375,7.828953125,6.9823984375,9.45343359375,4.90462109375,3.299453125,3.76613671875,11.52246484375
3.75478125,4.73394140625,6.138625,-1.32808203125,2.89001171875,5.58304296875,7.301234375,1.07033984375,2.4514765625,4.9184375,7.93358203125,2.44611328125,4.4686328125,9.26116796875,5.83213671875,8.9768125,9.3093671875,5.5437578125,8.230578125,7.0773515625,8.6461171875,9.6926640625,5.49930859375,7.762953125,6.7953984375,10.09243359375,6.35462109375,5.397453125,6.89213671875,13.99446484375
3.62078125,4.28594140625,4.741625,-2.79808203125,1.30901171875,4.08604296875,5.607234375,-1.09166015625,0.639476562499999,2.3744375,5.49858203125,1.36211328125,4.6986328125,7.69516796875,3.31213671875,7.2378125,6.2083671875,4.7427578125,6.434578125,5.4323515625,7.1951171875,11.3316640625,5.84330859375,7.318953125,6.6363984375,10.24143359375,7.78062109375,7.752453125,10.17113671875,16.28346484375
2.90178125,3.43394140625,3.380625,-5.09708203125,-0.460988281250001,2.21304296875,3.437234375,-2.83366015625,-1.4075234375,-0.5445625,2.83358203125,0.13111328125,2.9706328125,5.42116796875,0.40713671875,5.2668125,3.2453671875,3.1557578125,4.011578125,3.5443515625,6.0171171875,11.5046640625,5.02830859375,6.098953125,6.2493984375,10.01143359375,8.63362109375,9.677453125,13.01813671875,18.09746484375
1.41178125,1.98794140625,2.097625,-7.72008203125,-2.37198828125,-0.0429570312499998,0.892234375,-4.16166015625,-3.3115234375,-3.5185625,0.0455820312499977,-1.29088671875,-0.7093671875,2.49916796875,-2.74286328125,3.0038125,0.3133671875,0.8157578125,0.997578124999999,1.4293515625,4.9331171875,10.1726640625,2.87630859375,3.946953125,5.3713984375,9.60643359375,8.44262109375,10.530453125,14.82713671875,18.99746484375
-0.670218749999998,0.00994140624999984,0.898625,-9.87808203125,-4.21698828125,-2.45595703125,-1.741765625,-5.17566015625,-4.5695234375,-6.0775625,-2.60041796875,-2.82288671875,-5.4443671875,-0.68583203125,-5.75686328125,0.576812499999999,-2.3776328125,-1.9232421875,-2.234421875,-0.7026484375,3.7931171875,7.7116640625,-0.282691406249999,1.076953125,3.9113984375,9.16043359375,7.02862109375,9.929453125,15.13813671875,18.54946484375
-2.89221875,-2.18105859375,-0.222375,-10.93308203125,-5.72498828125,-4.64495703125,-4.101765625,-5.99066015625,-4.8755234375,-7.7765625,-4.75141796875,-4.29488671875,-9.7933671875,-3.57083203125,-8.14986328125,-1.7211875,-4.1796328125,-4.5132421875,-5.107421875,-2.4996484375,2.6011171875,4.7146640625,-3.76069140625,-2.008046875,2.0203984375,8.65943359375,4.59762109375,7.868453125,13.78413671875,16.56446484375
-4.72921875,-4.13805859375,-1.267375,-10.70908203125,-6.68798828125,-6.25095703125,-5.937765625,-6.65866015625,-4.3595234375,-8.3855625,-6.13041796875,-5.57088671875,-12.4203671875,-5.64283203125,-9.55986328125,-3.5931875,-4.2836328125,-6.4472421875,-7.093421875,-3.6396484375,1.4941171875,1.7626640625,-6.82969140625,-4.719046875,0.0143984374999997,8.00843359375,1.65762109375,4.729453125,10.96413671875,13.28846484375
-5.80221875,-5.47405859375,-2.239375,-9.52308203125,-7.05998828125,-7.11595703125,-7.241765625,-7.16366015625,-3.5755234375,-7.9965625,-6.67541796875,-6.65888671875,-12.6893671875,-6.63683203125,-9.93086328125,-4.9011875,-2.2726328125,-7.4742421875,-7.959421875,-4.0166484375,0.598117187500001,-0.741335937500001,-9.01669140625,-6.625046875,-1.7786015625,7.17643359375,-1.19437890625,1.167453125,7.22513671875,9.41746484375
-6.02121875,-6.03105859375,-3.159375,-7.99508203125,-6.96098828125,-7.33695703125,-8.229765625,-7.49966015625,-3.2385234375,-6.9745625,-6.56641796875,-7.71588671875,-10.8983671875,-6.60683203125,-9.53086328125,-5.7181875,1.3513671875,-7.6862421875,-7.863421875,-3.8006484375,-0.102882812499999,-2.6363359375,-10.23069140625,-7.583046875,-3.1576015625,6.30343359375,-3.48237890625,-2.111546875,3.31813671875,5.89546484375
-5.57521875,-5.91005859375,-4.033375,-6.74308203125,-6.56998828125,-7.14995703125,-9.139765625,-7.73966015625,-3.7935234375,-5.7595625,-6.08741796875,-8.87688671875,-8.0303671875,-5.82483203125,-8.76486328125,-6.2041875,5.1363671875,-7.4342421875,-7.224421875,-3.3176484375,-0.7618828125,-3.9603359375,-10.68169140625,-7.713046875,-4.0606015625,5.69043359375,-4.94837890625,-4.563546875,0.00513671874999988,3.57346484375
-4.75521875,-5.34105859375,-4.781375,-6.10208203125,-5.97298828125,-6.71595703125,-9.971765625,-7.95266015625,-5.0905234375,-4.6105625,-5.41141796875,-10.01888671875,-5.2293671875,-4.59183203125,-7.91086328125,-6.4071875,7.2933671875,-7.0972421875,-6.467421875,-2.8226484375,-1.5078828125,-4.8523359375,-10.64569140625,-7.250046875,-4.4976015625,5.65243359375,-5.53837890625,-5.902546875,-2.12986328125,2.89546484375
-3.74921875,-4.50405859375,-5.194375,-5.99608203125,-5.07598828125,-6.00195703125,-10.367765625,-8.04166015625,-6.3855234375,-3.4585625,-4.46641796875,-10.68888671875,-3.2713671875,-3.09483203125,-6.94186328125,-6.1471875,6.6633671875,-6.8592421875,-5.784421875,-2.3296484375,-2.2688828125,-5.4673359375,-10.27069140625,-6.380046875,-4.4636015625,6.31543359375,-5.33037890625,-6.107546875,-2.83686328125,3.71546484375
-2.57021875,-3.43705859375,-5.007375,-6.03108203125,-3.68398828125,-4.79995703125,-9.774765625,-7.71366015625,-6.7435234375,-1.9805625,-2.99241796875,-10.29288671875,-2.2913671875,-1.37983203125,-5.56286328125,-5.1091875,3.4163671875,-6.6222421875,-5.073421875,-1.6076484375,-2.7258828125,-5.9283359375,-9.51069140625,-5.166046875,-3.9206015625,7.50143359375,-4.48137890625,-5.368546875,-2.28086328125,5.35046484375
-1.14921875,-2.09305859375,-4.067375,-5.74208203125,-1.65198828125,-2.88095703125,-7.776765625,-6.64066015625,-5.5745234375,0.1724375,-0.730417968750002,-8.45188671875,-1.8443671875,0.57616796875,-3.41086328125,-3.0511875,-0.897632812499999,-6.0952421875,-4.045421875,-0.3376484375,-2.4488828125,-6.2833359375,-8.20869140625,-3.564046875,-2.8276015625,8.78243359375,-3.17737890625,-4.009546875,-0.98086328125,6.84346484375
0.537781250000002,-0.44305859375,-2.449375,-4.80408203125,0.97301171875,-0.16395703125,-4.371765625,-4.69366015625,-2.9645234375,3.1514375,2.39258203125,-5.25988671875,-1.2383671875,2.78816796875,-0.30286328125,-0.0101875000000007,-4.0086328125,-4.9682421875,-2.423421875,1.6813515625,-1.1198828125,-6.4613359375,-6.23769140625,-1.518046875,-1.1966015625,9.66843359375,-1.60037890625,-2.364546875,0.42013671875,7.39346484375
2.40578125,1.43894140625,-0.442375,-3.10508203125,3.94701171875,3.18404296875,-0.0547656249999999,-2.06266015625,0.4154765625,6.8204375,6.17958203125,-1.30088671875,0.0586328125,5.22216796875,3.61613671875,3.6548125,-3.9826328125,-3.0842421875,-0.123421875000002,4.3983515625,1.2811171875,-6.2443359375,-3.62269140625,0.947953125,0.8753984375,9.84643359375,0.104621093750001,-0.651546875,1.47613671875,6.75846484375
4.28278125,3.35994140625,1.570625,-0.705082031249999,6.89801171875,6.77304296875,4.336234375,0.757339843749998,3.6794765625,10.7994375,10.20058203125,2.58511328125,2.1166328125,7.79116796875,7.86613671875,7.3638125,-0.199632812499999,-0.5222421875,2.670578125,7.4973515625,4.4141171875,-5.3413359375,-0.582691406249999,3.670953125,3.2073984375,9.37843359375,1.85962109375,1.094453125,2.15513671875,5.41546484375
5.94578125,5.03294140625,3.240625,2.19491796875,9.44801171875,10.09704296875,7.910234375,3.09633984375,6.1644765625,14.5844375,13.89458203125,5.62211328125,4.5176328125,10.35216796875,11.76813671875,10.5188125,6.2703671875,2.3877578125,5.537578125,10.4843515625,7.6381171875,-3.5693359375,2.49830859375,6.352953125,5.5443984375,8.72443359375,3.62662109375,2.944453125,2.79913671875,4.31746484375
7.17878125,6.16394140625,4.341625,5.25591796875,11.31201171875,12.68304296875,10.024234375,4.34233984375,7.6704765625,17.6854375,16.71258203125,7.38411328125,6.5536328125,12.70116796875,14.67113671875,12.6998125,13.1393671875,5.1247578125,7.964578125,12.8363515625,10.1961171875,-1.0563359375,5.15830859375,8.620953125,7.5743984375,8.56443359375,5.35062109375,4.890453125,3.80113671875,4.35446484375
7.83978125,6.56394140625,4.811625,8.02391796875,12.34301171875,14.21604296875,10.505234375,4.22533984375,8.4404765625,19.7594375,18.27958203125,7.90011328125,7.5376328125,14.58416796875,16.16013671875,13.7838125,18.0083671875,7.1147578125,9.521578125,14.1513515625,11.4561171875,1.6836640625,6.97030859375,10.144953125,8.9693984375,9.42943359375,6.88762109375,6.704453125,5.25813671875,5.83346484375
7.90878125,6.22594140625,4.722625,10.01591796875,12.55601171875,14.63304296875,9.702234375,2.97333984375,8.9234765625,20.7024375,18.54158203125,7.59011328125,7.0916328125,15.75316796875,16.20413671875,13.9678125,19.4923671875,7.9277578125,10.027578125,14.2963515625,11.1691171875,3.9246640625,7.68630859375,10.763953125,9.4873984375,11.37843359375,8.03962109375,8.010453125,6.86513671875,8.33846484375
7.46778125,5.31694140625,4.214625,10.87391796875,12.10201171875,14.15204296875,8.353234375,1.21533984375,9.4704765625,20.6664375,17.82358203125,7.05011328125,5.3086328125,16.06216796875,15.16713671875,13.6768125,17.7363671875,7.4747578125,9.617578125,13.4753515625,9.5981171875,5.0796640625,7.35930859375,10.577953125,9.1073984375,13.90443359375,8.67962109375,8.545453125,8.14913671875,11.00846484375
6.62678125,4.07994140625,3.418625,10.56391796875,11.23101171875,13.20704296875,7.295234375,-0.324660156250003,10.1264765625,19.9944375,16.72458203125,6.81711328125,2.7746328125,15.53016796875,13.66413671875,13.3878125,14.0583671875,6.0697578125,8.666578125,12.1913515625,7.4241171875,5.0026640625,6.35330859375,9.933953125,8.0983984375,16.13243359375,8.86662109375,8.379453125,8.81713671875,13.02346484375
5.47278125,2.73394140625,2.444625,9.47291796875,10.21401171875,12.26804296875,7.112234375,-1.11866015625,10.6004765625,19.0894375,15.87058203125,7.17711328125,0.4056328125,14.32516796875,12.30713671875,13.4368125,10.0193671875,4.2767578125,7.604578125,11.0413515625,5.4521171875,4.0246640625,5.17730859375,9.270953125,6.9263984375,17.19843359375,8.81362109375,7.845453125,8.93113671875,13.95546484375
4.07678125,1.42794140625,1.409625,8.28991796875,9.25301171875,11.65004296875,7.899234375,-0.984660156250003,10.4334765625,18.2814375,15.63958203125,8.08811328125,-0.8973671875,12.69316796875,11.47313671875,13.8998125,6.6253671875,2.6417578125,6.710578125,10.4593515625,4.2811171875,2.7086640625,4.24830859375,8.901953125,6.0483984375,16.61843359375,8.74362109375,7.270453125,8.80013671875,13.84646484375
2.54178125,0.26494140625,0.481625,7.65991796875,8.43201171875,11.42304296875,9.258234375,-0.0786601562500024,9.2554765625,17.7334375,16.01958203125,9.22111328125,-0.668367187499999,10.88716796875,11.20913671875,14.6108125,4.1423671875,1.4457578125,6.036578125,10.5493515625,4.1311171875,1.5316640625,3.73530859375,8.890953125,5.7183984375,14.52543359375,8.76062109375,6.761453125,8.75613671875,13.07746484375
1.04978125,-0.64905859375,-0.109375,7.83091796875,7.72801171875,11.46004296875,10.544234375,1.22133984375,7.0214765625,17.4194375,16.66158203125,10.11711328125,0.8466328125,9.13316796875,11.31513671875,15.2938125,2.4723671875,0.6217578125,5.474578125,11.0983515625,4.8591171875,0.6866640625,3.55830859375,9.075953125,5.9333984375,11.68943359375,8.84662109375,6.237453125,8.99613671875,12.19146484375
-0.156218749999999,-1.19605859375,-0.134375,8.52791796875,7.05001171875,11.55604296875,11.206234375,2.52533984375,4.0784765625,17.1624375,17.09358203125,10.41611328125,2.7736328125,7.59116796875,11.49013671875,15.7048125,1.5853671875,-0.1492421875,4.877578125,11.7303515625,6.1011171875,0.097664062499998,3.50030859375,9.191953125,6.4973984375,9.24143359375,8.93362109375,5.627453125,9.53413671875,11.70746484375
-0.888218749999998,-1.32205859375,0.497625,9.10991796875,6.24901171875,11.49204296875,11.028234375,3.60333984375,1.0134765625,16.7014375,16.92958203125,10.03411328125,4.0536328125,6.28916796875,11.44513671875,15.6968125,1.6413671875,-1.2482421875,4.130578125,12.0603515625,7.4061171875,-0.419335937500001,3.31330859375,8.987953125,7.1013984375,8.16043359375,8.93062109375,4.998453125,10.22813671875,11.93646484375
-1.19121875,-1.14905859375,1.597625,8.90391796875,5.13001171875,11.05404296875,10.132234375,4.38633984375,-1.6325234375,15.7694375,15.98958203125,9.15811328125,4.0106328125,5.09016796875,10.93113671875,15.1968125,2.7783671875,-2.9062421875,3.133578125,11.7693515625,8.3401171875,-0.9963359375,2.76630859375,8.271953125,7.4023984375,8.78143359375,8.70662109375,4.502453125,10.81313671875,12.82846484375
-1.41121875,-0.99405859375,2.695625,7.51191796875,3.49301171875,10.04404296875,8.793234375,4.84133984375,-3.6245234375,14.1734375,14.30558203125,8.09011328125,2.6586328125,3.74116796875,9.76013671875,14.1648125,4.7943671875,-5.0842421875,1.774578125,10.6523515625,8.5831171875,-1.6473359375,1.67430859375,6.930953125,7.0983984375,10.62243359375,8.09062109375,4.220453125,10.97713671875,13.96846484375
-2.01821875,-1.22505859375,3.241625,5.00391796875,1.25401171875,8.35004296875,7.251234375,4.90733984375,-5.0685234375,11.8924375,12.06858203125,7.05311328125,0.6076328125,1.99916796875,7.85313671875,12.6088125,6.9853671875,-7.5112421875,-0.0524218750000003,8.6723515625,8.0471171875,-2.3043359375,-0.0556914062499985,4.966953125,6.0293984375,12.67243359375,6.93562109375,4.059453125,10.49313671875,14.79646484375
-3.27521875,-2.02605859375,2.910625,1.90191796875,-1.43998828125,6.03904296875,5.635234375,4.57733984375,-6.2415234375,9.1494375,9.58158203125,6.13011328125,-1.3583671875,-0.20883203125,5.32013671875,10.6448125,8.3553671875,-9.8412421875,-2.352421875,6.0303515625,6.9231171875,-2.9073359375,-2.36469140625,2.541953125,4.2623984375,13.97343359375,5.22962109375,3.791453125,9.35113671875,14.93146484375
-5.02621875,-3.25705859375,1.797625,-1.06708203125,-4.19698828125,3.41304296875,4.035234375,4.01033984375,-7.3435234375,6.3864375,7.20358203125,5.33311328125,-2.7053671875,-2.69083203125,2.50613671875,8.5498125,8.1603671875,-11.8092421875,-4.945421875,3.1853515625,5.6261171875,-3.4503359375,-4.98969140625,-0.0150468749999995,2.1073984375,14.11443359375,3.17862109375,3.186453125,7.78813671875,14.38946484375
-6.76521875,-4.53905859375,0.364625,-3.33308203125,-6.51198828125,0.95704296875,2.585234375,3.50233984375,-8.3675234375,4.1214375,5.27658203125,4.68011328125,-3.3523671875,-5.02283203125,-0.0768632812500001,6.7208125,6.4593671875,-13.2862421875,-7.445421875,0.7443515625,4.6241171875,-3.9463359375,-7.48269140625,-2.264046875,0.0193984375000005,13.34043359375,1.18262109375,2.170453125,6.20913671875,13.54146484375
-7.91821875,-5.45605859375,-0.769375,-4.73408203125,-7.96698828125,-0.83095703125,1.495234375,3.34933984375,-9.1485234375,2.7324375,4.03758203125,4.22511328125,-3.5763671875,-6.70683203125,-1.91886328125,5.5328125,4.1983671875,-14.2132421875,-9.360421875,-0.7506484375,4.2371171875,-4.3513359375,-9.32769140625,-3.788046875,-1.5636015625,12.26543359375,-0.29337890625,0.917453125,5.02113671875,12.83746484375
-8.11121875,-5.74105859375,-1.090375,-5.47208203125,-8.41498828125,-1.64495703125,0.974234375,3.72533984375,-9.5105234375,2.2984375,3.55758203125,4.03011328125,-3.7443671875,-7.37683203125,-2.72686328125,5.1918125,2.6603671875,-14.5242421875,-10.267421875,-1.0416484375,4.4961171875,-4.5313359375,-10.10969140625,-4.328046875,-2.3836015625,11.41943359375,-0.914378906250001,-0.202546875,4.46413671875,12.50146484375
-7.29821875,-5.34205859375,-0.389375,-5.81808203125,-8.02998828125,-1.51295703125,1.125234375,4.61133984375,-9.4095234375,2.5634375,3.72558203125,4.14711328125,-4.0523671875,-6.95683203125,-2.54886328125,5.6518125,2.6523671875,-14.1422421875,-9.991421875,-0.2606484375,5.1371171875,-4.3403359375,-9.69069140625,-3.891046875,-2.4476015625,10.95443359375,-0.618378906249999,-0.801546875,4.52013671875,12.40346484375
-5.74521875,-4.39505859375,1.141625,-5.82108203125,-7.21698828125,-0.76195703125,1.860234375,5.77133984375,-8.9735234375,3.0464375,4.30158203125,4.60611328125,-4.4083671875,-5.66583203125,-1.75586328125,6.6498125,4.0343671875,-13.0762421875,-8.687421875,1.1483515625,5.7371171875,-3.7543359375,-8.28569140625,-2.743046875,-1.9906015625,10.65343359375,0.378621093750001,-0.681546875,4.93813671875,12.20546484375
-3.89321875,-3.12405859375,3.008625,-5.26008203125,-6.41598828125,0.15304296875,2.930234375,6.80333984375,-8.3945234375,3.2634375,5.01258203125,5.42411328125,-4.5013671875,-3.89283203125,-0.84286328125,7.8388125,5.9253671875,-11.5082421875,-6.775421875,2.6443515625,5.9101171875,-2.9563359375,-6.38569140625,-1.301046875,-1.3436015625,10.19143359375,1.68962109375,0.053453125,5.37913671875,11.65446484375
-2.14521875,-1.73205859375,4.661625,-3.87408203125,-5.88898828125,0.88404296875,4.035234375,7.33333984375,-7.7715234375,2.9714375,5.67658203125,6.58311328125,-3.9923671875,-2.00283203125,-0.17886328125,8.9468125,7.3443671875,-9.7792421875,-4.757421875,3.8283515625,5.5021171875,-2.2873359375,-4.56469140625,0.0489531250000006,-0.7766015625,9.40343359375,2.93862109375,1.054453125,5.57913671875,10.77646484375
-0.708218749999999,-0.32605859375,5.766625,-1.68708203125,-5.59798828125,1.34204296875,4.962234375,7.22333984375,-6.9965234375,2.3054375,6.26958203125,7.99711328125,-2.7213671875,-0.19383203125,0.17113671875,9.8838125,7.7763671875,-8.2422421875,-2.994421875,4.5943515625,4.6851171875,-2.0813359375,-3.24169140625,1.108953125,-0.3796015625,8.38743359375,3.89062109375,1.918453125,5.46913671875,9.84246484375
0.441781250000002,1.06494140625,6.303625,0.84391796875,-5.23598828125,1.69704296875,5.634234375,6.62633984375,-5.8195234375,1.7154375,6.90658203125,9.48111328125,-0.8223671875,1.53016796875,0.43513671875,10.7388125,7.3113671875,-7.0872421875,-1.593421875,5.1043515625,3.9021171875,-2.5053359375,-2.53969140625,1.917953125,-0.0476015624999997,7.39843359375,4.52262109375,2.392453125,5.17213671875,9.18146484375
1.45078125,2.42994140625,6.474625,3.00191796875,-4.42398828125,2.22104296875,6.060234375,5.85033984375,-4.0625234375,1.7104375,7.70758203125,10.75511328125,1.3266328125,3.23516796875,0.94513671875,11.6518125,6.3613671875,-6.2902421875,-0.456421875,5.6163515625,3.6491171875,-3.5133359375,-2.30369140625,2.650953125,0.4173984375,6.63643359375,4.96162109375,2.451453125,4.90013671875,8.96946484375
2.45678125,3.71894140625,6.520625,4.20491796875,-2.96298828125,3.06404296875,6.236234375,5.16533984375,-1.8315234375,2.5564375,8.64958203125,11.51711328125,3.2766328125,4.89716796875,1.87813671875,12.6528125,5.2573671875,-5.7022421875,0.543578125,6.2723515625,4.1701171875,-4.9333359375,-2.27669140625,3.437953125,1.1273984375,6.12443359375,5.34262109375,2.215453125,4.81013671875,9.13446484375
3.49478125,4.83494140625,6.590625,4.32791796875,-0.99798828125,4.12604296875,6.116234375,4.72033984375,0.4354765625,4.1214375,9.52458203125,11.58411328125,4.7106328125,6.31416796875,3.11413671875,13.5868125,4.0523671875,-5.2032421875,1.414578125,6.9963515625,5.2761171875,-6.5843359375,-2.28069140625,4.242953125,1.9863984375,5.72943359375,5.67362109375,1.783453125,4.89013671875,9.38646484375
4.47078125,5.66694140625,6.704625,3.74991796875,1.01601171875,5.11704296875,5.691234375,4.54433984375,2.1374765625,5.9444375,10.05558203125,11.04011328125,5.5766328125,7.19616796875,4.32113671875,14.2168125,2.6423671875,-4.7542421875,2.039578125,7.5693515625,6.4191171875,-8.2763359375,-2.26169140625,4.885953125,2.7303984375,5.31943359375,5.83662109375,1.191453125,4.99313671875,9.37846484375
5.19778125,6.12594140625,6.784625,3.10091796875,2.55101171875,5.75904296875,5.075234375,4.55633984375,2.8064765625,7.4864375,10.08558203125,10.23811328125,6.0576328125,7.36616796875,5.16913671875,14.3998125,1.0353671875,-4.3402421875,2.306578125,7.8133515625,7.0031171875,-9.7403359375,-2.21569140625,5.179953125,3.0793984375,4.86343359375,5.70662109375,0.517453125,4.97113671875,8.89446484375
5.48578125,6.18694140625,6.724625,2.93891796875,3.27301171875,5.93704296875,4.472234375,4.57133984375,2.3474765625,8.3694375,9.65858203125,9.59211328125,6.4226328125,6.90116796875,5.51313671875,14.1558125,-0.507632812500001,-3.9032421875,2.206578125,7.7033515625,6.7021171875,-10.6173359375,-2.10469140625,5.052953125,2.8883984375,4.41143359375,5.26562109375,-0.0425468749999999,4.78613671875,7.95146484375
5.27378125,5.91894140625,6.471625,3.54791796875,3.17801171875,5.70704296875,4.026234375,4.34433984375,1.0964765625,8.4944375,8.94958203125,9.28011328125,6.8636328125,6.10416796875,5.40313671875,13.5938125,-1.5826328125,-3.3562421875,1.836578125,7.3353515625,5.5881171875,-10.5863359375,-1.87369140625,4.551953125,2.1933984375,3.98443359375,4.59262109375,-0.272546875,4.50713671875,6.76446484375
4.68078125,5.48394140625,6.072625,4.89091796875,2.55701171875,5.20704296875,3.700234375,3.66833984375,-0.3175234375,8.0024375,8.12758203125,9.09811328125,7.4176328125,5.34616796875,4.98513671875,12.7858125,-1.8916328125,-2.6562421875,1.311578125,6.7983515625,4.0421171875,-9.5673359375,-1.52769140625,3.765953125,1.1553984375,3.53543359375,3.78862109375,-0.129546875,4.21513671875,5.61246484375
3.95078125,5.07894140625,5.656625,6.68091796875,1.81301171875,4.55404296875,3.303234375,2.48133984375,-1.2485234375,7.1384375,7.25558203125,8.60311328125,7.9986328125,4.87416796875,4.38213671875,11.7168125,-1.3986328125,-1.8602421875,0.676578124999999,6.0873515625,2.5121171875,-7.8043359375,-1.17369140625,2.752953125,-0.0186015624999998,3.03243359375,2.92562109375,0.202453125,3.92613671875,4.70246484375
3.33378125,4.85394140625,5.360625,8.50791796875,1.27901171875,3.80704296875,2.641234375,0.955339843749998,-1.2785234375,6.1314375,6.31158203125,7.43011328125,8.4936328125,4.72016796875,3.64313671875,10.3458125,-0.299632812500001,-1.1202421875,-0.105421875000001,5.1173515625,1.3071171875,-5.7953359375,-0.988691406249998,1.534953125,-1.1456015625,2.54243359375,2.04762109375,0.430453125,3.58113671875,4.07846484375
2.99078125,4.85694140625,5.264625,9.99791796875,1.09801171875,2.98304296875,1.660234375,-0.482660156250002,-0.367523437500001,5.1304375,5.25958203125,5.53811328125,8.8696328125,4.72916796875,2.75813671875,8.7038125,1.1603671875,-0.6092421875,-1.096421875,3.8373515625,0.5031171875,-4.0983359375,-1.13169140625,0.152953125,-2.1126015625,2.22943359375,1.19162109375,0.362453125,3.09713671875,3.61746484375
2.97378125,5.02594140625,5.367625,10.93191796875,1.20401171875,2.08004296875,0.493234375,-1.28766015625,1.1684765625,4.1944375,4.13058203125,3.24611328125,9.2066328125,4.67716796875,1.71513671875,6.9508125,2.8173671875,-0.4512421875,-2.299421875,2.3303515625,0.0201171875000004,-3.1433359375,-1.66969140625,-1.287046875,-2.8656015625,2.24543359375,0.40462109375,0.00945312500000006,2.44213671875,3.11846484375
3.20878125,5.21794140625,5.577625,11.25291796875,1.38501171875,1.12104296875,-0.611765625,-1.09066015625,2.7854765625,3.3324375,3.03958203125,1.07111328125,9.6236328125,4.40816796875,0.55013671875,5.3728125,4.5063671875,-0.6652421875,-3.599421875,0.8353515625,-0.2418828125,-3.1013359375,-2.54769140625,-2.600046875,-3.3726015625,2.62643359375,-0.26437890625,-0.442546875,1.68113671875,2.43646484375
3.51278125,5.26194140625,5.736625,11.01791796875,1.40101171875,0.18104296875,-1.409765625,0.0193398437499983,3.9274765625,2.5414375,2.14958203125,-0.50488671875,10.1546328125,3.91716796875,-0.62686328125,4.2958125,5.8383671875,-1.1532421875,-4.782421875,-0.3486484375,-0.320882812499999,-3.8613359375,-3.60769140625,-3.579046875,-3.5986015625,3.26543359375,-0.76737890625,-0.754546875,0.96313671875,1.56946484375
3.64678125,5.01994140625,5.669625,10.36691796875,1.10601171875,-0.63695703125,-1.776765625,1.46633984375,4.2314765625,1.8504375,1.59358203125,-1.21888671875,10.6976328125,3.33816796875,-1.66386328125,3.9608125,6.0573671875,-1.7262421875,-5.620421875,-1.0046484375,-0.207882812499999,-5.0733359375,-4.63569140625,-4.071046875,-3.5256015625,3.96943359375,-1.07937890625,-0.748546875,0.43713671875,0.653464843749997
3.42878125,4.44494140625,5.240625,9.54891796875,0.512011718749999,-1.24895703125,-1.752765625,2.48833984375,3.6474765625,1.3224375,1.40758203125,-1.10788671875,11.1066328125,2.85716796875,-2.43786328125,4.4118125,4.2263671875,-2.1552421875,-5.986421875,-1.1106484375,0.0741171875000006,-6.2423359375,-5.42869140625,-4.047046875,-3.1956015625,4.55843359375,-1.21937890625,-0.373546875,0.16113671875,-0.118535156250001
2.79778125,3.58194140625,4.404625,8.87491796875,-0.253988281250001,-1.63895703125,-1.512765625,2.55533984375,2.4064765625,1.0084375,1.50758203125,-0.45688671875,11.3106328125,2.60216796875,-2.91586328125,5.4548125,-0.247632812499999,-2.2482421875,-5.933421875,-0.8436484375,0.429117187500001,-6.8743359375,-5.84369140625,-3.634046875,-2.7286015625,4.95343359375,-1.24937890625,0.282453125,0.0661367187499999,-0.577535156250002
1.81578125,2.53394140625,3.220625,8.58591796875,-1.05498828125,-1.88495703125,-1.277765625,1.66333984375,0.8614765625,0.8624375,1.70958203125,0.32711328125,11.3436328125,2.56516796875,-3.18286328125,6.6978125,-7.0216328125,-1.9392421875,-5.691421875,-0.5046484375,0.6971171875,-6.6413359375,-5.84769140625,-3.082046875,-2.3006015625,5.18843359375,-1.25337890625,1.036453125,-0.000863281250000125,-0.627535156250001
0.629781250000002,1.42694140625,1.856625,8.69491796875,-1.86598828125,-2.14195703125,-1.236765625,0.322339843749997,-0.6985234375,0.6894375,1.77158203125,0.86911328125,11.2456328125,2.57516796875,-3.42886328125,7.6748125,-14.6006328125,-1.3442421875,-5.595421875,-0.4066484375,0.7291171875,-5.5323359375,-5.54669140625,-2.702046875,-2.0886015625,5.32643359375,-1.31837890625,1.697453125,-0.17486328125,-0.250535156250002
-0.570218749999999,0.39394140625,0.554625,8.94291796875,-2.80498828125,-2.61595703125,-1.507765625,-0.742660156250002,-2.1575234375,0.1734375,1.44458203125,0.93511328125,10.9516328125,2.35516796875,-3.90486328125,7.9938125,-20.7626328125,-0.7552421875,-5.965421875,-0.7896484375,0.454117187500001,-3.8863359375,-5.16669140625,-2.771046875,-2.2176015625,5.34143359375,-1.51537890625,2.173453125,-0.46486328125,0.506464843749999
-1.61321875,-0.46305859375,-0.470375,8.88591796875,-4.06398828125,-3.49095703125,-2.138765625,-1.02266015625,-3.5735234375,-0.9985625,0.536582031249999,0.47611328125,10.3036328125,1.62916796875,-4.84486328125,7.4808125,-23.4966328125,-0.5302421875,-6.982421875,-1.7476484375,-0.0718828124999997,-2.2963359375,-4.96669140625,-3.432046875,-2.7046015625,5.08743359375,-1.88237890625,2.511453125,-0.72986328125,1.56146484375
-2.42421875,-1.11505859375,-1.168375,8.11191796875,-5.75998828125,-4.82895703125,-3.097765625,-0.517660156250003,-5.0675234375,-2.9515625,-0.976417968750003,-0.34988671875,9.1646328125,0.27916796875,-6.35186328125,6.2518125,-21.9146328125,-0.9312421875,-8.603421875,-3.1846484375,-0.6728828125,-1.3983359375,-5.10769140625,-4.620046875,-3.4076015625,4.43543359375,-2.39437890625,2.825453125,-0.74986328125,2.82446484375
-3.07021875,-1.64305859375,-1.700375,6.47491796875,-7.79798828125,-6.48795703125,-4.234765625,0.339339843749999,-6.6725234375,-5.4695625,-2.84941796875,-1.21288671875,7.5376328125,-1.55083203125,-8.29786328125,4.6878125,-16.6026328125,-1.9782421875,-10.541421875,-4.8156484375,-1.1048828125,-1.6503359375,-5.57369140625,-6.053046875,-4.0396015625,3.47343359375,-2.95937890625,3.141453125,-0.37586328125,4.19446484375
-3.71021875,-2.19005859375,-2.328375,4.23791796875,-9.85098828125,-8.12595703125,-5.282765625,1.02233984375,-8.2445234375,-7.9775625,-4.56441796875,-1.71088671875,5.5966328125,-3.44983203125,-10.29986328125,3.2958125,-9.2686328125,-3.4272421875,-12.363421875,-6.2416484375,-1.1458828125,-3.1763359375,-6.20069140625,-7.335046875,-4.2606015625,2.60143359375,-3.46237890625,3.304453125,0.36013671875,5.52946484375
-4.50121875,-2.88605859375,-3.242375,1.98491796875,-11.48398828125,-9.30495703125,-5.922765625,1.25433984375,-9.5015234375,-9.7145625,-5.48741796875,-1.53088671875,3.6286328125,-4.89983203125,-11.82986328125,2.5228125,-1.9346328125,-4.8692421875,-13.644421875,-7.0876484375,-0.6858828125,-5.6983359375,-6.78669140625,-8.118046875,-3.8376015625,2.36343359375,-3.83137890625,3.060453125,1.23313671875,6.61146484375
-5.53321875,-3.78205859375,-4.437375,0.34091796875,-12.35398828125,-9.66295703125,-5.918765625,1.08733984375,-10.1895234375,-10.0455625,-5.12341796875,-0.58188671875,1.9446328125,-5.49583203125,-12.40486328125,2.6088125,3.8743671875,-5.9032421875,-14.128421875,-7.1396484375,0.2291171875,-8.5963359375,-7.20069140625,-8.241046875,-2.7786015625,3.11543359375,-4.07137890625,2.263453125,1.92713671875,7.17246484375
-6.78821875,-4.83805859375,-5.726375,-0.31908203125,-12.36398828125,-9.06095703125,-5.238765625,0.755339843749997,-10.2655234375,-8.7385625,-3.36341796875,0.95811328125,0.7886328125,-5.14383203125,-11.78286328125,3.5208125,7.5403671875,-6.2992421875,-13.809421875,-6.4306484375,1.4031171875,-11.0843359375,-7.43969140625,-7.788046875,-1.3576015625,4.75943359375,-4.26337890625,1.036453125,2.16513671875,6.99746484375
-8.12521875,-5.93005859375,-6.827375,0.00691796875000072,-11.68498828125,-7.66195703125,-4.093765625,0.477339843749998,-9.9565234375,-6.0725625,-0.565417968750001,2.68911328125,0.2496328125,-4.10783203125,-10.07786328125,4.9928125,9.2203671875,-6.0982421875,-12.911421875,-5.2286484375,2.5291171875,-12.5073359375,-7.61769140625,-7.052046875,-0.0426015624999998,6.72043359375,-4.53637890625,-0.288546875,1.79513671875,6.01346484375
-9.29021875,-6.86505859375,-7.462375,1.04391796875,-10.62798828125,-5.85295703125,-2.852765625,0.363339843749998,-9.6205234375,-2.6925625,2.58358203125,4.14511328125,0.2366328125,-2.86483203125,-7.70286328125,6.6368125,9.3763671875,-5.5862421875,-11.776421875,-3.9296484375,3.2851171875,-12.6343359375,-7.89569140625,-6.403046875,0.6973984375,8.22843359375,-5.02237890625,-1.388546875,0.81413671875,4.32746484375
-9.96421875,-7.37705859375,-7.414375,2.43791796875,-9.44598828125,-4.03395703125,-1.829765625,0.442339843749998,-9.4835234375,0.6834375,5.38858203125,5.02111328125,0.541632812500001,-1.82883203125,-5.14386328125,8.1258125,8.3413671875,-5.1232421875,-10.672421875,-2.8476484375,3.4911171875,-11.7543359375,-8.34869140625,-6.104046875,0.6363984375,8.73443359375,-5.75437890625,-2.124546875,-0.61086328125,2.21546484375
-9.85921875,-7.14905859375,-6.534375,3.92391796875,-8.18698828125,-2.39195703125,-1.072765625,0.769339843749998,-9.4745234375,3.5624375,7.46858203125,5.35611328125,0.9766328125,-1.10083203125,-2.71186328125,9.3528125,6.1743671875,-4.9142421875,-9.635421875,-2.0356484375,3.2431171875,-10.5053359375,-8.84669140625,-6.144046875,-0.0356015625000001,8.23743359375,-6.54337890625,-2.502546875,-2.11586328125,0.106464843749999
-8.81021875,-5.89505859375,-4.755375,5.37891796875,-6.72398828125,-0.84195703125,-0.323765625,1.50533984375,-9.2845234375,5.7904375,8.88858203125,5.52611328125,1.4736328125,-0.45383203125,-0.45286328125,10.4528125,2.7813671875,-4.8912421875,-8.451421875,-1.2586484375,2.8921171875,-9.5433359375,-9.05869140625,-6.218046875,-0.7566015625,7.30343359375,-6.98837890625,-2.522546875,-3.19086328125,-1.47553515625
-6.85821875,-3.50705859375,-2.164375,6.78491796875,-4.92898828125,0.82304296875,0.786234375,2.84733984375,-8.6405234375,7.4794375,9.99558203125,6.01911328125,2.0836328125,0.46116796875,1.72513671875,11.6538125,-1.8976328125,-4.7932421875,-6.839421875,-0.1756484375,2.8441171875,-9.2673359375,-8.62269140625,-5.899046875,-0.8816015625,6.74443359375,-6.64537890625,-2.112546875,-3.36186328125,-2.07653515625
-4.31621875,-0.21605859375,0.902625,8.12291796875,-2.85698828125,2.68504296875,2.445234375,4.82333984375,-7.5365234375,8.7974375,11.11358203125,7.11511328125,2.8846328125,1.82316796875,3.83113671875,13.0658125,-7.7606328125,-4.3792421875,-4.695421875,1.3883515625,3.2781171875,-9.7253359375,-7.38569140625,-4.914046875,-0.0466015625000002,7.15343359375,-5.29937890625,-1.212546875,-2.44786328125,-1.54753515625
-1.73321875,3.36594140625,3.849625,9.31291796875,-0.788988281250001,4.56304296875,4.473234375,7.13133984375,-6.2255234375,9.8244375,12.30258203125,8.70711328125,3.8686328125,3.50316796875,5.66713671875,14.5468125,-14.4296328125,-3.6112421875,-2.244421875,3.2683515625,4.0021171875,-10.6873359375,-5.54269140625,-3.323046875,1.6013984375,8.56643359375,-3.14137890625,0.091453125,-0.71586328125,-0.205535156250003
0.278781250000002,6.43194140625,6.010625,10.26491796875,0.908011718749999,6.06904296875,6.381234375,9.22433984375,-4.9785234375,10.5244375,13.33958203125,10.32411328125,4.9016328125,5.15616796875,6.90013671875,15.7478125,-21.1076328125,-2.6632421875,0.0185781249999994,5.0013515625,4.5341171875,-11.7713359375,-3.57269140625,-1.515046875,3.4653984375,10.43243359375,-0.73637890625,1.520453125,1.18813671875,1.24546484375
1.31978125,8.30394140625,6.959625,11.00391796875,1.99201171875,6.81004296875,7.598234375,10.59733984375,-3.8505234375,10.8414375,13.87758203125,11.32811328125,5.7686328125,6.44016796875,7.25113671875,16.2798125,-26.5116328125,-1.7852421875,1.559578125,6.0413515625,4.3721171875,-12.5973359375,-2.00369140625,-0.0160468750000007,4.7763984375,11.89843359375,1.19262109375,2.691453125,2.52113671875,2.01946484375
1.36078125,8.73894140625,6.730625,11.73291796875,2.45401171875,6.59004296875,7.743234375,11.06233984375,-2.6595234375,10.7944375,13.66358203125,11.14911328125,6.2736328125,7.20616796875,6.67513671875,15.8948125,-29.0726328125,-1.1372421875,2.063578125,6.0283515625,3.2721171875,-12.9103359375,-1.17169140625,0.754953125,4.9533984375,12.24343359375,2.06462109375,3.288453125,2.77713671875,1.63346484375
0.709781250000002,7.99894140625,5.778625,12.74391796875,2.48601171875,5.52204296875,6.793234375,10.78833984375,-1.1855234375,10.4994375,12.67558203125,9.50911328125,6.3176328125,7.53016796875,5.40613671875,14.5978125,-27.5216328125,-0.7102421875,1.575578125,4.9613515625,1.3881171875,-12.6553359375,-1.06769140625,0.653953124999999,3.8463984375,11.24543359375,1.68262109375,3.203453125,1.90113671875,0.136464843749998
-0.178218749999997,6.69494140625,4.732625,14.24391796875,2.35401171875,3.98104296875,5.099234375,10.17033984375,0.6214765625,10.1284375,11.13858203125,6.57311328125,5.9406328125,7.63216796875,3.87313671875,12.6658125,-21.6536328125,-0.3572421875,0.460578125,3.2103515625,-0.788882812499999,-11.9513359375,-1.36769140625,-0.154046875000001,1.7773984375,9.26443359375,0.28862109375,2.590453125,0.30413671875,-1.93653515625
-0.889218749999998,5.50494140625,4.114625,16.21791796875,2.29001171875,2.45204296875,3.252234375,9.63333984375,2.5884765625,9.8474375,9.44058203125,2.98411328125,5.3276328125,7.73116796875,2.53613671875,10.5728125,-12.7746328125,0.1007578125,-0.772421875000001,1.3553515625,-2.6298828125,-10.9753359375,-1.60569140625,-1.303046875,-0.6196015625,7.03543359375,-1.56137890625,1.808453125,-1.33386328125,-3.85553515625
-1.18521875,4.89394140625,4.128625,18.39691796875,2.41301171875,1.32704296875,1.831234375,9.45833984375,4.4174765625,9.7534375,7.98658203125,-0.32888671875,4.7916328125,7.92416796875,1.70213671875,8.8428125,-3.4006328125,0.7697578125,-1.705421875,-0.0616484375,-3.6218828125,-9.8533359375,-1.41269140625,-2.420046875,-2.6726015625,5.27143359375,-3.26837890625,1.249453125,-2.37086328125,-5.07153515625
-1.10621875,4.92094140625,4.572625,20.29791796875,2.69301171875,0.75304296875,1.142234375,9.64233984375,5.8044765625,9.8154375,7.01158203125,-2.55888671875,4.7066328125,8.12216796875,1.41313671875,7.8218125,3.7603671875,1.6017578125,-2.201421875,-0.7896484375,-3.5948828125,-8.6693359375,-0.727691406249999,-3.304046875,-3.9756015625,4.33843359375,-4.45337890625,1.114453125,-2.50786328125,-5.46553515625
-0.945218749999999,5.24794140625,4.913625,21.37791796875,2.96501171875,0.58004296875,1.063234375,9.88633984375,6.5354765625,9.8624375,6.46858203125,-3.44888671875,5.3856328125,8.09216796875,1.43913671875,7.4788125,6.9473671875,2.3827578125,-2.446421875,-0.9916484375,-2.8438828125,-7.5593359375,0.141308593750001,-4.014046875,-4.5576015625,4.15343359375,-5.09837890625,1.281453125,-1.92086328125,-5.36453515625
-1.09721875,5.33694140625,4.551625,21.27291796875,2.99901171875,0.46304296875,1.136234375,9.75233984375,6.5454765625,9.6604375,6.06158203125,-3.40988671875,6.9126328125,7.58416796875,1.39013671875,7.3938125,5.9273671875,2.8257578125,-2.806421875,-1.1446484375,-2.0238828125,-6.7563359375,0.65530859375,-4.793046875,-4.8276015625,4.32043359375,-5.48337890625,1.365453125,-1.13486328125,-5.31653515625
-1.83521875,4.75794140625,3.150625,19.98791796875,2.62101171875,0.05104296875,0.853234375,8.93433984375,5.9514765625,9.0424375,5.44158203125,-3.21688671875,9.0496328125,6.49116796875,0.91513671875,7.0078125,1.7423671875,2.7267578125,-3.586421875,-1.7526484375,-1.8348828125,-6.5183359375,0.33430859375,-5.882046875,-5.2956015625,4.38443359375,-5.95837890625,0.974453125,-0.69786328125,-5.74153515625
-3.19621875,3.39394140625,0.861625,17.87991796875,1.79401171875,-0.81895703125,-0.0167656250000001,7.48033984375,5.0074765625,7.9964375,4.43658203125,-3.47888671875,11.2806328125,4.95016796875,-0.13086328125,5.9848125,-4.0276328125,2.1147578125,-4.825421875,-3.0336484375,-2.6428828125,-6.9593359375,-0.975691406249998,-7.338046875,-6.2436015625,4.03043359375,-6.69337890625,-0.020546875,-0.84886328125,-6.67353515625
-5.02121875,1.45994140625,-1.729375,15.44291796875,0.61701171875,-2.05795703125,-1.297765625,5.81933984375,3.9984765625,6.6694375,3.14758203125,-4.27688671875,12.9796328125,3.30016796875,-1.63286328125,4.4378125,-9.9636328125,1.2677578125,-6.273421875,-4.7936484375,-4.2798828125,-7.9433359375,-3.00869140625,-8.977046875,-7.5656015625,3.18643359375,-7.58137890625,-1.388546875,-1.39986328125,-7.75153515625
-7.03121875,-0.62605859375,-3.865375,13.08091796875,-0.721988281250001,-3.39995703125,-2.537765625,4.60833984375,3.1324765625,5.2984375,1.87158203125,-5.18788671875,13.6446328125,1.92816796875,-3.28886328125,2.8468125,-15.1236328125,0.5847578125,-7.539421875,-6.5386484375,-6.1528828125,-9.0983359375,-5.20669140625,-10.465046875,-8.8656015625,2.00743359375,-8.33837890625,-2.662546875,-1.86986328125,-8.45053515625
-8.89321875,-2.40805859375,-4.968375,11.03591796875,-1.99798828125,-4.53795703125,-3.294765625,4.44933984375,2.4964765625,4.1464375,0.925582031249998,-5.63988671875,13.0796328125,1.12016796875,-4.74686328125,1.7538125,-18.9726328125,0.3927578125,-8.286421875,-7.7376484375,-7.5698828125,-9.9743359375,-6.95969140625,-11.472046875,-9.6956015625,0.81643359375,-8.69037890625,-3.376546875,-1.77386328125,-8.37853515625
-10.27421875,-3.54705859375,-4.878375,9.44691796875,-2.98298828125,-5.24495703125,-3.372765625,5.57233984375,2.0724765625,3.4454375,0.507582031249997,-5.31188671875,11.4996328125,0.97816796875,-5.72686328125,1.4588125,-21.1526328125,0.7997578125,-8.354421875,-8.0616484375,-8.0638828125,-10.2423359375,-7.83269140625,-11.790046875,-9.7796015625,-0.00156640624999937,-8.50837890625,-3.271546875,-0.87386328125,-7.45353515625
-10.94821875,-3.90705859375,-3.896375,8.41791796875,-3.47898828125,-5.42095703125,-2.894765625,7.63933984375,1.7764765625,3.3394375,0.637582031249998,-4.33488671875,9.4936328125,1.44316796875,-6.09586328125,1.8778125,-21.3756328125,1.6747578125,-7.776421875,-7.5036484375,-7.5538828125,-9.8523359375,-7.68669140625,-11.382046875,-9.0926015625,-0.14156640625,-7.83537890625,-2.395546875,0.71713671875,-5.88753515625
-10.88521875,-3.57705859375,-2.589375,8.03391796875,-3.36398828125,-5.11795703125,-2.187765625,9.84133984375,1.5254765625,3.8324375,1.16758203125,-3.19888671875,7.8216328125,2.35116796875,-5.90086328125,2.6168125,-19.5676328125,2.7337578125,-6.730421875,-6.3576484375,-6.3338828125,-9.0573359375,-6.68069140625,-10.392046875,-7.8346015625,0.485433593750001,-6.85837890625,-1.109546875,2.59513671875,-4.04353515625
-10.26721875,-2.79705859375,-1.497375,8.32491796875,-2.64898828125,-4.52095703125,-1.601765625,11.27833984375,1.3084765625,4.7724375,1.84258203125,-2.47488671875,7.0896328125,3.49816796875,-5.34686328125,3.1878125,-16.1676328125,3.6787578125,-5.464421875,-5.0966484375,-4.9108828125,-8.2673359375,-5.17369140625,-9.113046875,-6.3356015625,1.69343359375,-5.85737890625,0.034453125,4.24113671875,-2.29153515625
-9.43121875,-1.85805859375,-0.902375,9.21091796875,-1.50098828125,-3.87995703125,-1.348765625,11.36733984375,1.2474765625,5.9054375,2.39458203125,-2.51888671875,7.4856328125,4.69016796875,-4.70186328125,3.2528125,-12.2606328125,4.3447578125,-4.219421875,-4.1806484375,-3.7968828125,-7.8233359375,-3.57069140625,-7.903046875,-4.9556015625,3.10543359375,-5.13037890625,0.541453125,5.23613671875,-0.932535156250001
-8.75021875,-1.01505859375,-0.789375,10.47391796875,-0.193988281250001,-3.37695703125,-1.428765625,10.03133984375,1.5494765625,6.9884375,2.67558203125,-3.32088671875,8.7196328125,5.79816796875,-4.15586328125,2.7828125,-9.2776328125,4.7737578125,-3.148421875,-3.8576484375,-3.2998828125,-7.8203359375,-2.15369140625,-7.037046875,-3.9606015625,4.32643359375,-4.87037890625,0.226453125,5.41913671875,-0.187535156250002
-8.48821875,-0.42905859375,-0.930375,11.82691796875,1.01601171875,-3.01595703125,-1.639765625,7.64933984375,2.3924765625,7.9114375,2.75858203125,-4.52488671875,10.2226328125,6.80116796875,-3.69486328125,2.0718125,-8.3306328125,5.2027578125,-2.255421875,-4.0506484375,-3.4178828125,-8.1033359375,-0.987691406249999,-6.568046875,-3.4306015625,5.10943359375,-5.06737890625,-0.692546875,4.91913671875,-0.198535156250001
-8.64921875,-0.11605859375,-1.004375,13.03391796875,2.00701171875,-2.61295703125,-1.669765625,4.92333984375,3.8014765625,8.7564375,2.94958203125,-5.59188671875,11.4626328125,7.78316796875,-3.10686328125,1.5858125,-9.6406328125,5.9297578125,-1.411421875,-4.4016484375,-3.8638828125,-8.4073359375,0.0423085937500005,-6.289046875,-3.2366015625,5.41443359375,-5.51037890625,-1.744546875,4.03613671875,-0.976535156250002
-8.96021875,0.0549414062500002,-0.725375,13.97391796875,2.80901171875,-1.90995703125,-1.228765625,2.68533984375,5.5504765625,9.7214375,3.62058203125,-6.02988671875,12.1786328125,8.85216796875,-2.11386328125,1.6978125,-12.4866328125,7.1317578125,-0.461421875000001,-4.4736484375,-4.2688828125,-8.5503359375,1.09830859375,-5.855046875,-3.1356015625,5.40743359375,-5.87337890625,-2.464546875,3.08413671875,-2.33553515625
-9.03521875,0.26794140625,0.0166249999999999,14.57891796875,3.50801171875,-0.75795703125,-0.201765625,1.62633984375,7.1644765625,10.9454375,4.97158203125,-5.60988671875,12.4286328125,10.02516796875,-0.58086328125,2.4748125,-15.7166328125,8.7077578125,0.650578124999999,-4.0006484375,-4.4098828125,-8.5293359375,2.24030859375,-5.009046875,-2.9226015625,5.38043359375,-5.86937890625,-2.592546875,2.26813671875,-3.88853515625
-8.61521875,0.64094140625,1.074625,14.76591796875,4.12401171875,0.77104296875,1.271234375,2.00533984375,8.0654765625,12.3634375,6.85858203125,-4.45788671875,12.4396328125,11.15416796875,1.35613671875,3.6248125,-18.4006328125,10.2707578125,1.795578125,-3.0226484375,-4.3228828125,-8.4963359375,3.35630859375,-3.769046875,-2.5526015625,5.60243359375,-5.37137890625,-2.121546875,1.66113671875,-5.18053515625
-7.69021875,1.16694140625,2.111625,14.49891796875,4.57901171875,2.38204296875,2.833234375,3.53833984375,7.8394765625,13.7104375,8.83558203125,-2.98888671875,12.4036328125,11.97116796875,3.31313671875,4.6488125,-20.1716328125,11.3097578125,2.708578125,-1.8456484375,-4.2378828125,-8.6463359375,4.21530859375,-2.436046875,-2.1596015625,6.13943359375,-4.47137890625,-1.236546875,1.21913671875,-5.91653515625
-6.46721875,1.74794140625,2.780625,13.89891796875,4.77101171875,3.69204296875,4.052234375,5.56533984375,6.4894765625,14.6734375,10.37958203125,-1.73588671875,12.3556328125,12.23016796875,4.82413671875,5.0808125,-21.1356328125,11.4617578125,3.131578125,-0.8636484375,-4.3878828125,-9.0863359375,4.59130859375,-1.443046875,-1.9646015625,6.80443359375,-3.43737890625,-0.237546875,0.82913671875,-6.10253515625
-5.25221875,2.27294140625,2.910625,13.25191796875,4.66601171875,4.40604296875,4.597234375,7.36533984375,4.4434765625,15.0654375,11.15158203125,-1.14888671875,12.1916328125,11.85316796875,5.56213671875,4.6868125,-21.5346328125,10.7117578125,2.962578125,-0.3536484375,-4.8418828125,-9.7893359375,4.39430859375,-1.104046875,-2.1236015625,7.30943359375,-2.58237890625,0.531453125,0.36313671875,-5.98053515625
-4.30921875,2.69094140625,2.590625,12.84591796875,4.32801171875,4.45104296875,4.375234375,8.44533984375,2.3154765625,14.9014375,11.14058203125,-1.43788671875,11.7886328125,10.97016796875,5.47913671875,3.5628125,-21.4876328125,9.4137578125,2.334578125,-0.3456484375,-5.4258828125,-10.6343359375,3.72130859375,-1.442046875,-2.6096015625,7.51443359375,-2.11137890625,0.729453125,-0.25786328125,-5.80253515625
-3.75721875,3.03494140625,2.130625,12.78191796875,3.86601171875,3.98604296875,3.567234375,8.66533984375,0.577476562499999,14.3534375,10.61858203125,-2.49488671875,11.1116328125,9.82516796875,4.79813671875,2.0938125,-20.9596328125,8.0847578125,1.548578125,-0.6236484375,-5.7898828125,-11.5173359375,2.81030859375,-2.196046875,-3.2056015625,7.52743359375,-2.04637890625,0.104453125,-1.00586328125,-5.65153515625
-3.54221875,3.38194140625,1.896625,12.88491796875,3.35301171875,3.28604296875,2.544234375,8.19633984375,-0.639523437500001,13.6304375,9.96258203125,-3.92388671875,10.2576328125,8.63216796875,3.86313671875,0.794812499999999,-19.8906328125,7.1207578125,0.929578124999999,-0.8736484375,-5.6038828125,-12.4143359375,1.92530859375,-2.981046875,-3.6316015625,7.57343359375,-2.26337890625,-1.386546875,-1.74386328125,-5.42453515625
-3.53221875,3.75494140625,2.099625,12.78591796875,2.78001171875,2.58104296875,1.685234375,7.32933984375,-1.5055234375,12.8514375,9.44458203125,-5.23088671875,9.4296328125,7.47416796875,2.96213671875,0.0848125,-18.2826328125,6.6077578125,0.664578124999998,-0.8746484375,-4.7908828125,-13.3553359375,1.25030859375,-3.485046875,-3.7206015625,7.75743359375,-2.59037890625,-3.480546875,-2.27686328125,-4.97753515625
-3.67221875,4.02994140625,2.634625,12.10691796875,2.07601171875,1.96204296875,1.190234375,6.28533984375,-2.3045234375,11.9914375,9.10458203125,-6.07388671875,8.8536328125,6.29616796875,2.20013671875,0.0878124999999983,-16.1946328125,6.3467578125,0.722578124999998,-0.6286484375,-3.6438828125,-14.3363359375,0.827308593750001,-3.609046875,-3.5106015625,7.91743359375,-2.90837890625,-5.641546875,-2.44886328125,-4.30253515625
-4.07821875,3.94194140625,3.096625,10.68491796875,1.17401171875,1.35804296875,0.992234375,5.17133984375,-3.2285234375,10.9264375,8.75658203125,-6.41788671875,8.6816328125,4.99816796875,1.49513671875,0.5788125,-13.7566328125,6.0407578125,0.870578125,-0.3576484375,-2.7138828125,-15.2583359375,0.556308593750002,-3.483046875,-3.2206015625,7.68743359375,-3.20737890625,-7.254546875,-2.24486328125,-3.57853515625
-4.95621875,3.20494140625,2.984625,8.70991796875,0.0730117187499992,0.60204296875,0.829234375,4.10033984375,-4.2485234375,9.5504375,8.11658203125,-6.47388671875,8.9126328125,3.53216796875,0.66013671875,1.1128125,-11.2606328125,5.4847578125,0.784578124999999,-0.3816484375,-2.5168828125,-15.9483359375,0.229308593750002,-3.396046875,-3.1126015625,6.69643359375,-3.59237890625,-7.915546875,-1.81786328125,-3.09453515625
-6.44421875,1.68094140625,1.957625,6.67491796875,-1.14898828125,-0.45695703125,0.415234375,3.29133984375,-5.1165234375,7.8704375,6.98758203125,-6.49588671875,9.3786328125,1.97316796875,-0.47686328125,1.2808125,-9.2226328125,4.6437578125,0.197578125,-0.9356484375,-3.2178828125,-16.2653359375,-0.385691406249999,-3.671046875,-3.3456015625,4.82043359375,-4.21337890625,-7.621546875,-1.43986328125,-3.09153515625
-8.48021875,-0.51405859375,0.00362499999999977,5.13991796875,-2.35298828125,-1.84195703125,-0.387765625,3.01033984375,-5.4785234375,6.0404375,5.38358203125,-6.57888671875,9.7986328125,0.51516796875,-1.94486328125,0.9378125,-8.2986328125,3.6117578125,-0.964421875000001,-2.0456484375,-4.5248828125,-16.2253359375,-1.44169140625,-4.521046875,-3.8866015625,2.32443359375,-5.15837890625,-6.776546875,-1.39586328125,-3.62753515625
-10.77321875,-3.00605859375,-2.520375,4.49791796875,-3.38598828125,-3.39695703125,-1.497765625,3.40733984375,-5.0465234375,4.3154375,3.55258203125,-6.62488671875,9.8876328125,-0.59683203125,-3.58586328125,0.2518125,-9.0176328125,2.5117578125,-2.550421875,-3.5106484375,-5.8598828125,-16.0633359375,-2.93069140625,-5.952046875,-4.5406015625,-0.168566406249999,-6.38337890625,-6.006546875,-1.87386328125,-4.53653515625
-12.86321875,-5.27605859375,-5.002375,4.85591796875,-4.13198828125,-4.84895703125,-2.675765625,4.42133984375,-3.7735234375,2.9514375,1.85058203125,-6.46688671875,9.4766328125,-1.19183203125,-5.11886328125,-0.4311875,-11.4606328125,1.4137578125,-4.250421875,-5.0076484375,-6.6888828125,-16.1633359375,-4.68469140625,-7.767046875,-5.0666015625,-1.90356640625,-7.73337890625,-5.878546875,-2.89586328125,-5.48253515625
-14.30521875,-6.85905859375,-6.813375,6.02891796875,-4.56898828125,-5.95795703125,-3.682765625,5.80233984375,-1.9585234375,2.0784375,0.548582031249998,-6.05488671875,8.5826328125,-1.29783203125,-6.28986328125,-0.8351875,-15.0616328125,0.3317578125,-5.766421875,-6.2636484375,-6.8198828125,-16.8773359375,-6.45569140625,-9.668046875,-5.3216015625,-2.30956640625,-9.02837890625,-6.658546875,-4.28486328125,-6.11453515625
-14.90721875,-7.56405859375,-7.609375,7.57891796875,-4.82598828125,-6.66495703125,-4.413765625,7.18233984375,-0.232523437500001,1.6014375,-0.332417968750002,-5.56788671875,7.4196328125,-1.18683203125,-7.04086328125,-0.932187500000001,-18.7106328125,-0.7352421875,-6.972421875,-7.1926484375,-6.4648828125,-18.3513359375,-8.03969140625,-11.413046875,-5.3486015625,-1.28356640625,-10.15837890625,-8.228546875,-5.73986328125,-6.23453515625
-14.87221875,-7.57105859375,-7.508375,8.89991796875,-5.15898828125,-7.12995703125,-4.941765625,8.18733984375,0.6494765625,1.2054375,-1.03441796875,-5.35388671875,6.3296328125,-1.29383203125,-7.54786328125,-0.951187500000001,-21.1606328125,-1.7632421875,-7.966421875,-7.9276484375,-6.0648828125,-20.4533359375,-9.35469140625,-12.921046875,-5.3576015625,0.719433593750001,-11.13437890625,-10.198546875,-6.95986328125,-5.90453515625
-14.66621875,-7.30505859375,-6.999375,9.44691796875,-5.83598828125,-7.62895703125,-5.421765625,8.59433984375,0.1504765625,0.5294375,-1.89241796875,-5.73788671875,5.6876328125,-2.02383203125,-8.10086328125,-1.2091875,-21.5566328125,-2.6872421875,-8.971421875,-8.7076484375,-6.0208828125,-22.8413359375,-10.44469140625,-14.267046875,-5.6156015625,2.87143359375,-12.06337890625,-12.127546875,-7.79186328125,-5.42953515625
-14.69021875,-7.13805859375,-6.615375,9.01391796875,-6.94798828125,-8.35295703125,-5.951765625,8.47333984375,-1.7455234375,-0.5955625,-3.08641796875,-6.80188671875,5.8026328125,-3.51983203125,-8.88086328125,-1.9031875,-19.8336328125,-3.3972421875,-10.142421875,-9.7106484375,-6.4908828125,-25.0833359375,-11.39269140625,-15.569046875,-6.3066015625,4.35743359375,-13.06437890625,-13.697546875,-8.26186328125,-5.20953515625
-15.00821875,-7.16905859375,-6.621375,7.87891796875,-8.31198828125,-9.26595703125,-6.491765625,8.16233984375,-4.5015234375,-2.0085625,-4.49441796875,-8.31288671875,6.8366328125,-5.54383203125,-9.80286328125,-2.9851875,-16.7886328125,-3.7712421875,-11.428421875,-10.9206484375,-7.3758828125,-26.7773359375,-12.21569140625,-16.863046875,-7.4426015625,4.75143359375,-14.16337890625,-14.750546875,-8.50786328125,-5.55853515625
-15.35221875,-7.21205859375,-6.916375,6.68091796875,-9.53998828125,-10.10895703125,-6.881765625,8.07333984375,-7.2995234375,-3.3005625,-5.74541796875,-9.81588671875,8.7196328125,-7.57383203125,-10.54986328125,-4.1981875,-13.8186328125,-3.7172421875,-12.567421875,-12.1116484375,-8.4478828125,-27.6583359375,-12.82569140625,-18.044046875,-8.8706015625,4.15443359375,-15.25137890625,-15.237546875,-8.64786328125,-6.60053515625
-15.35421875,-6.98105859375,-7.155375,6.11291796875,-10.24398828125,-10.54995703125,-6.937765625,8.46033984375,-9.4525234375,-4.0455625,-6.42841796875,-10.82688671875,11.1066328125,-9.04683203125,-10.76386328125,-5.2211875,-12.3916328125,-3.2442421875,-13.225421875,-12.9516484375,-9.5328828125,-27.6613359375,-13.08469140625,-18.905046875,-10.3626015625,3.02043359375,-16.11837890625,-15.166546875,-8.70886328125,-8.25153515625
-14.81821875,-6.30305859375,-6.983375,6.63791796875,-10.22798828125,-10.36695703125,-6.525765625,9.32233984375,-10.6665234375,-3.9975625,-6.29041796875,-11.02388671875,13.4136328125,-9.60983203125,-10.23886328125,-5.8071875,-13.4246328125,-2.4762421875,-13.152421875,-13.1536484375,-10.5958828125,-26.9193359375,-12.89569140625,-19.234046875,-11.6916015625,1.83443359375,-16.55237890625,-14.573546875,-8.62786328125,-10.26053515625
-13.83321875,-5.22005859375,-6.219375,8.32591796875,-9.53498828125,-9.50995703125,-5.605765625,10.45133984375,-11.0235234375,-3.1395625,-5.29341796875,-10.35388671875,14.9856328125,-9.20383203125,-8.98986328125,-5.8521875,-16.7726328125,-1.5932421875,-12.265421875,-12.5866484375,-11.6958828125,-25.7133359375,-12.25369140625,-18.873046875,-12.6696015625,0.856433593750001,-16.39637890625,-13.516546875,-8.31986328125,-12.24653515625
-12.70721875,-3.94205859375,-4.932375,10.83691796875,-8.34098828125,-8.05095703125,-4.217765625,11.56033984375,-10.7395234375,-1.6065625,-3.55741796875,-9.01388671875,15.3526328125,-7.98183203125,-7.16286328125,-5.3741875,-21.0876328125,-0.7292421875,-10.644421875,-11.2906484375,-12.8218828125,-24.4073359375,-11.23869140625,-17.748046875,-13.1196015625,0.0704335937499998,-15.57737890625,-12.107546875,-7.75086328125,-13.78553515625
-11.77021875,-2.72205859375,-3.386375,13.54791796875,-6.81098828125,-6.10095703125,-2.459765625,12.42333984375,-9.9245234375,0.4244375,-1.25941796875,-7.34888671875,14.4136328125,-6.15783203125,-4.92386328125,-4.4551875,-24.2846328125,0.0917578125,-8.471421875,-9.4256484375,-13.7808828125,-23.3803359375,-9.97669140625,-15.879046875,-12.8746015625,-0.70856640625,-14.11837890625,-10.580546875,-7.00786328125,-14.53753515625
-11.17421875,-1.70905859375,-1.884375,15.78491796875,-5.03498828125,-3.78995703125,-0.470765625,12.96233984375,-8.5115234375,2.7834375,1.41558203125,-5.69988671875,12.4706328125,-3.94083203125,-2.41186328125,-3.1981875,-24.5366328125,0.9267578125,-5.986421875,-7.1996484375,-14.2238828125,-22.9733359375,-8.62169140625,-13.411046875,-11.8276015625,-1.66456640625,-12.17337890625,-9.343546875,-6.31486328125,-14.39953515625
-10.83821875,-0.88205859375,-0.626375,17.07891796875,-3.08198828125,-1.29495703125,1.587234375,13.25833984375,-6.4115234375,5.2754375,4.26658203125,-4.27888671875,10.1376328125,-1.54983203125,0.22113671875,-1.6951875,-21.3146328125,1.8357578125,-3.443421875,-4.8236484375,-13.8158828125,-23.3793359375,-7.32269140625,-10.620046875,-10.0016015625,-2.83256640625,-10.02637890625,-8.875546875,-5.95086328125,-13.56453515625
-10.52821875,-0.08005859375,0.359625,17.30991796875,-1.10398828125,1.13404296875,3.541234375,13.50333984375,-3.7605234375,7.6384375,7.06058203125,-3.10988671875,8.1766328125,0.73516796875,2.76513671875,-0.0221875000000011,-15.8416328125,2.8177578125,-1.092421875,-2.4896484375,-12.4218828125,-24.5173359375,-6.19169140625,-7.877046875,-7.5786015625,-4.04056640625,-8.01137890625,-9.480546875,-6.09986328125,-12.43153515625
-9.99521875,0.91294140625,1.202625,16.70091796875,0.619011718749999,3.20204296875,5.249234375,13.99433984375,-1.0385234375,9.5564375,9.53858203125,-2.03188671875,7.3426328125,2.57216796875,4.93913671875,1.7518125,-10.6406328125,3.8017578125,0.846578124999999,-0.3536484375,-10.2138828125,-25.9733359375,-5.27269140625,-5.549046875,-4.8466015625,-4.93456640625,-6.40137890625,-11.050546875,-6.72486328125,-11.42353515625
-9.04421875,2.28994140625,2.134625,15.67691796875,1.74601171875,4.63104296875,6.630234375,15.12933984375,1.0674765625,10.7504375,11.47958203125,-0.78688671875,8.2116328125,3.64216796875,6.45613671875,3.5588125,-8.3906328125,4.6797578125,2.212578125,1.4673515625,-7.6108828125,-27.1223359375,-4.54369140625,-3.898046875,-2.1126015625,-5.10856640625,-5.33737890625,-13.080546875,-7.57086328125,-10.80853515625
-7.56121875,4.15894140625,3.388625,14.67391796875,2.03801171875,5.25704296875,7.678234375,17.29033984375,2.0084765625,11.1044375,12.77358203125,0.85511328125,11.0146328125,3.77316796875,7.13913671875,5.3318125,-10.7356328125,5.3587578125,2.946578125,2.9223515625,-5.0878828125,-27.4163359375,-3.95469140625,-3.004046875,0.4003984375,-4.28856640625,-4.82737890625,-14.959546875,-8.32386328125,-10.64153515625
-5.56121875,6.49594140625,5.066625,13.95091796875,1.50501171875,5.13104296875,8.461234375,20.57633984375,1.6904765625,10.7314375,13.48758203125,2.95911328125,15.5086328125,3.04416796875,7.03113671875,7.0348125,-17.5906328125,5.8167578125,3.136578125,4.0503515625,-2.9288828125,-26.6973359375,-3.45169140625,-2.752046875,2.6273984375,-2.49056640625,-4.76237890625,-16.334546875,-8.80186328125,-10.81153515625
-3.23521875,9.12394140625,7.057625,13.48591796875,0.46001171875,4.54604296875,9.099234375,24.60833984375,0.564476562499999,9.9434375,13.86158203125,5.37611328125,20.9636328125,1.80816796875,6.43813671875,8.6868125,-27.2136328125,6.1227578125,3.015578125,4.9913515625,-1.0858828125,-25.3063359375,-2.98669140625,-2.858046875,4.6693984375,-0.0775664062499999,-4.94037890625,-17.292546875,-9.04986328125,-11.13553515625
-3.23521875,9.12394140625,7.057625,13.48591796875,0.46001171875,4.54604296875,9.099234375,24.60833984375,0.564476562499999,9.9434375,13.86158203125,5.37611328125,20.9636328125,1.80816796875,6.43813671875,8.6868125,-27.2136328125,6.1227578125,3.015578125,4.9913515625,-1.0858828125,-25.3063359375,-2.98669140625,-2.858046875,4.6693984375,-0.0775664062499999,-4.94037890625,-17.292546875,-9.04986328125,-11.13553515625
