"Fp1","Fpz","Fp2","F7","F3","Fz","F4","F8","FC5","FC1","FC2","FC6","T7","C3","Cz","C4","T8","CP5","CP1","CP2","CP6","P7","P3","Pz","P4","P8","POz","O1","Oz","O2"
11.5736328125,4.44156640625,3.370609375,43.3446328125,15.20309765625,21.1818828125,31.65027734375,22.293671875,46.17511328125,10.6501640625,18.21965234375,39.91196484375,68.06375,44.42293359375,-0.3956328125,29.0217734375,63.82383984375,16.08859375,5.61764453125,-6.124765625,44.30496484375,17.25112109375,18.94763671875,9.92565234375,-15.624625,58.10978515625,-12.2072421875,6.84237109375,10.2238828125,19.2478984375
8.4476328125,1.58556640625,1.734609375,41.9806328125,10.99609765625,18.0178828125,31.75627734375,24.195671875,42.48211328125,4.8951640625,13.44865234375,41.85696484375,63.02975,36.97193359375,-6.3656328125,25.7307734375,67.19183984375,11.99559375,-1.47435546875,-12.454765625,42.80196484375,14.67812109375,15.22663671875,4.48365234375,-19.255625,55.51278515625,-14.7052421875,8.45337109375,9.8048828125,17.3768984375
5.1056328125,-1.33043359375,-0.0993906249999998,39.8556328125,6.62109765625,14.7568828125,31.63027734375,25.801671875,38.27011328125,-0.8168359375,9.31965234375,43.65396484375,58.79175,29.73293359375,-11.6396328125,23.0487734375,69.62383984375,7.82559375,-7.43335546875,-17.213765625,41.48296484375,11.95012109375,11.43963671875,0.047652343750002,-22.036625,53.26978515625,-16.6112421875,9.37937109375,9.3968828125,16.0178984375
1.8566328125,-4.00943359375,-1.866390625,37.1256328125,2.36309765625,11.7758828125,31.52327734375,27.206671875,33.81611328125,-6.0618359375,6.30465234375,45.42396484375,55.42275,23.19393359375,-15.6356328125,21.4947734375,71.11183984375,3.82059375,-11.82535546875,-19.810765625,40.74296484375,9.09012109375,7.83063671875,-2.97234765625,-23.474625,51.73578515625,-17.6182421875,9.60937109375,9.1468828125,15.4508984375
-0.8323671875,-6.04343359375,-3.159390625,34.2056328125,-1.33290234375,9.5738828125,31.82727734375,28.607671875,29.68811328125,-10.2248359375,4.85965234375,47.36696484375,52.79975,18.01693359375,-17.7426328125,21.5997734375,71.91683984375,0.42459375,-14.32435546875,-19.889765625,41.07296484375,6.28412109375,4.87463671875,-4.22434765625,-23.116625,51.29878515625,-17.3962421875,9.39437109375,9.2958828125,15.9488984375
-2.5823671875,-7.10943359375,-3.631390625,31.5296328125,-4.05890234375,8.5198828125,32.86427734375,30.179671875,26.49511328125,-12.7328359375,5.25565234375,49.64696484375,50.74175,14.81493359375,-17.5446328125,23.6927734375,72.38983984375,-1.82440625,-14.72035546875,-17.391765625,42.84096484375,3.89312109375,3.16963671875,-3.43834765625,-20.684625,52.20978515625,-15.6212421875,9.18137109375,10.1178828125,17.7328984375
-3.3053671875,-7.14743359375,-3.163390625,29.3676328125,-5.62290234375,8.6948828125,34.72427734375,31.967671875,24.65211328125,-13.2668359375,7.44565234375,52.27596484375,49.17375,13.91193359375,-14.9756328125,27.7337734375,72.77583984375,-2.46240625,-12.94435546875,-12.563765625,46.10796484375,2.38412109375,3.27163671875,-0.468347656249996,-16.176625,54.47278515625,-12.0422421875,9.50137109375,11.8518828125,20.9288984375
-3.2653671875,-6.40943359375,-1.910390625,27.7726328125,-6.13490234375,9.8898828125,37.23227734375,33.830671875,24.25111328125,-11.9058359375,11.05965234375,55.06896484375,48.19175,15.20493359375,-10.3626328125,33.2977734375,73.12083984375,-1.25240625,-9.10435546875,-5.894765625,50.57096484375,2.16912109375,5.50063671875,4.64465234375,-9.878625,57.83378515625,-6.5752421875,10.84537109375,14.6608828125,25.5328984375
-2.9553671875,-5.37243359375,-0.251390625,26.6516328125,-5.95390234375,11.7048828125,40.01527734375,35.462671875,25.05811328125,-9.1268359375,15.49665234375,57.66796484375,47.98475,18.15793359375,-4.3426328125,39.6707734375,73.27583984375,1.70159375,-3.53035546875,1.960234375,55.63896484375,3.44112109375,9.79163671875,11.58765234375,-2.312625,61.85778515625,0.6007578125,13.54437109375,18.5908828125,31.3718984375
-2.8763671875,-4.55643359375,1.336609375,25.8816328125,-5.52190234375,13.6738828125,42.61627734375,36.482671875,26.62311328125,-5.6778359375,20.06665234375,59.65296484375,48.66775,21.93393359375,2.2473671875,46.0287734375,72.98583984375,5.93659375,3.18064453125,10.236234375,60.58296484375,6.07012109375,15.63663671875,19.72965234375,5.848375,66.03978515625,8.9727578125,17.63937109375,23.5208828125,38.0598984375
-3.3163671875,-4.32743359375,2.426609375,25.4016328125,-5.15690234375,15.3868828125,44.61727734375,36.559671875,28.44311328125,-2.3648359375,24.10865234375,60.66296484375,50.15275,25.62493359375,8.5033671875,51.5907734375,72.01483984375,10.71759375,10.16864453125,18.109234375,64.69196484375,9.60912109375,22.14463671875,28.12465234375,13.843375,69.88978515625,17.6957578125,22.79537109375,29.0958828125,44.9718984375
-4.2243671875,-4.77143359375,2.775609375,25.2426328125,-4.92390234375,16.5868828125,45.72927734375,35.549671875,30.09511328125,0.1721640625,27.08865234375,60.51696484375,52.11475,28.49693359375,13.5803671875,55.7397734375,70.24483984375,15.20259375,16.40764453125,24.759234375,67.40696484375,13.39212109375,28.21163671875,35.62665234375,20.877375,72.96778515625,25.6867578125,28.29737109375,34.7048828125,51.2878984375
-5.2583671875,-5.66743359375,2.388609375,25.4716328125,-4.64190234375,17.1898828125,45.83927734375,33.571671875,31.31011328125,1.6131640625,28.66565234375,59.26996484375,54.07775,30.16793359375,16.8283671875,58.0867734375,67.73483984375,18.65759375,20.89764453125,29.477234375,68.40596484375,16.69212109375,32.78063671875,41.10665234375,26.198375,74.89778515625,31.8187578125,33.15237109375,39.5198828125,56.1258984375
-5.9473671875,-6.59343359375,1.493609375,26.1206328125,-4.01690234375,17.2488828125,45.00727734375,30.988671875,31.98511328125,1.9801640625,28.74765234375,57.19196484375,55.56875,30.67193359375,17.9163671875,58.4947734375,64.71983984375,20.65959375,22.92564453125,31.799234375,67.64796484375,18.91012109375,35.10063671875,43.72465234375,29.225375,75.40378515625,35.1747578125,36.31137109375,42.6688828125,58.7478984375
-5.9003671875,-7.10643359375,0.434609375,27.1336328125,-2.83190234375,16.8828828125,43.41327734375,28.298671875,32.17711328125,1.5541640625,27.48265234375,54.67196484375,56.27575,30.40293359375,16.9003671875,57.0697734375,61.52783984375,21.21859375,22.31364453125,31.628234375,65.35596484375,19.73912109375,34.95163671875,43.17765234375,29.673375,74.37078515625,35.3027578125,36.98337109375,43.4938828125,58.7838984375
-4.9783671875,-6.94243359375,-0.469390625,28.3686328125,-1.07090234375,16.2128828125,41.29627734375,25.970671875,32.08111328125,0.7221640625,25.19265234375,52.07596484375,56.15275,29.96293359375,14.2213671875,54.1347734375,58.46183984375,20.77659375,19.54364453125,29.279234375,61.95296484375,19.28112109375,32.73563671875,39.82765234375,27.666375,71.91378515625,32.3807578125,34.93037109375,41.8268828125,56.3758984375
-3.3483671875,-6.11543359375,-1.024390625,29.6276328125,1.05809765625,15.3248828125,38.89527734375,24.295671875,31.97311328125,-0.1388359375,22.28865234375,49.65496484375,55.42675,29.95193359375,10.6203671875,50.1927734375,55.70883984375,20.05159375,15.67764453125,25.425234375,57.96296484375,18.03512109375,29.38063671875,34.65565234375,23.759375,68.39778515625,27.2267578125,30.63137109375,38.1138828125,52.1528984375
-1.4103671875,-4.88343359375,-1.166390625,30.7006328125,3.21809765625,14.2948828125,36.42827734375,23.318671875,32.10111328125,-0.7428359375,19.20365234375,47.50996484375,54.48475,30.74893359375,6.9893671875,45.8657734375,53.30183984375,19.75759375,12.05064453125,20.960234375,53.90196484375,16.73112109375,26.03763671875,29.01165234375,18.847375,64.35078515625,21.0827578125,25.16837109375,33.3038828125,47.0218984375
0.3916328125,-3.58643359375,-0.887390625,31.4246328125,5.07309765625,13.2408828125,34.10127734375,22.898671875,32.56611328125,-0.9228359375,16.34665234375,45.62996484375,53.70275,32.34293359375,4.1673671875,41.7907734375,51.15483984375,20.30259375,9.81464453125,16.786234375,50.16496484375,16.03512109375,23.66263671875,24.21265234375,13.932375,60.26678515625,15.2387578125,19.85437109375,28.4858828125,41.8288984375
1.7566328125,-2.45643359375,-0.158390625,31.7206328125,6.40309765625,12.3768828125,32.13327734375,22.822671875,33.24811328125,-0.6468359375,14.06765234375,43.94896484375,53.28475,34.28893359375,2.7473671875,38.4827734375,49.11683984375,21.61059375,9.54264453125,13.607234375,46.94696484375,16.26812109375,22.67863671875,21.14565234375,9.828375,56.39378515625,10.6267578125,15.74737109375,24.4598828125,37.0468984375
2.6386328125,-1.49843359375,1.090609375,31.5956328125,7.14209765625,11.9988828125,30.75027734375,22.911671875,33.81911328125,0.0141640624999997,12.63765234375,42.39496484375,53.19175,35.84593359375,2.9583671875,36.2317734375,47.01483984375,23.16359375,11.05964453125,11.795234375,44.22596484375,17.29912109375,22.88663671875,20.02765234375,6.942375,52.64578515625,7.5867578125,13.29337109375,21.4698828125,32.6608984375
3.2396328125,-0.50943359375,2.910609375,31.1046328125,7.36309765625,12.3868828125,30.14027734375,23.033671875,33.86411328125,0.9401640625,12.23765234375,40.90796484375,53.20175,36.28193359375,4.6533671875,35.0727734375,44.68383984375,24.27259375,13.61464453125,11.377234375,41.83096484375,18.67412109375,23.69063671875,20.45965234375,5.236375,48.70278515625,5.8957578125,12.25937109375,19.2298828125,28.3198984375
3.8936328125,0.79756640625,5.250609375,30.3236328125,7.24109765625,13.6798828125,30.37627734375,23.067671875,33.06011328125,2.0391640625,12.94165234375,39.42796484375,53.06775,35.21793359375,7.4213671875,34.8417734375,42.00083984375,24.43859375,16.26864453125,12.109234375,39.57496484375,19.91712109375,24.46463671875,21.71565234375,4.379375,44.26378515625,5.0137578125,11.98737109375,17.2128828125,23.6668984375
4.9016328125,2.60156640625,7.893609375,29.3306328125,7.00809765625,15.7628828125,31.34027734375,22.848671875,31.32711328125,3.2691640625,14.66165234375,37.87096484375,52.65975,32.84793359375,10.7133671875,35.2377734375,38.95983984375,23.58959375,18.30564453125,13.593234375,37.37596484375,20.80512109375,24.87363671875,23.07765234375,3.966375,39.32178515625,4.3927578125,11.80637109375,15.0078828125,18.6598984375
6.3466328125,4.80556640625,10.442609375,28.1856328125,6.87209765625,18.2228828125,32.67227734375,22.142671875,28.85911328125,4.5711640625,17.05965234375,36.09896484375,52.00075,29.86593359375,13.9453671875,35.8697734375,35.72583984375,22.07459375,19.42564453125,15.349234375,35.32196484375,21.45312109375,24.94263671875,24.04665234375,3.708375,34.32278515625,3.7027578125,11.36737109375,12.5588828125,13.7148984375
7.9506328125,6.95556640625,12.353609375,26.8716328125,6.88109765625,20.3488828125,33.74727734375,20.666671875,25.99311328125,5.7511640625,19.48965234375,33.91796484375,51.13675,27.11293359375,16.4973671875,36.2567734375,32.65983984375,20.40959375,19.67064453125,16.830234375,33.61896484375,22.15112109375,24.88763671875,24.34565234375,3.484375,30.11878515625,2.8917578125,10.74237109375,10.1748828125,9.5948984375
9.0366328125,8.30056640625,12.997609375,25.2416328125,6.80509765625,21.2288828125,33.74127734375,18.167671875,22.98511328125,6.3891640625,21.03065234375,31.11896484375,49.96475,25.10993359375,17.7063671875,35.8447734375,30.23783984375,18.93659375,19.15064453125,17.416234375,32.47296484375,23.08112109375,24.82463671875,23.79665234375,3.276375,27.71678515625,2.0987578125,10.27337109375,8.3608828125,7.1418984375
8.6946328125,7.98456640625,11.786609375,23.0306328125,6.10409765625,19.9688828125,31.81127734375,14.529671875,19.85111328125,5.8571640625,20.65865234375,27.54496484375,48.17675,23.73993359375,16.8943671875,34.0567734375,28.89183984375,17.59559375,17.78564453125,16.442234375,31.93296484375,24.10012109375,24.56763671875,22.18065234375,3.030375,27.88978515625,1.4887578125,10.29037109375,7.5718828125,6.9418984375
6.0966328125,5.32856640625,8.326609375,19.9466328125,4.07509765625,15.9748828125,27.36627734375,9.865671875,16.35211328125,3.4831640625,17.51865234375,23.16796484375,45.38975,22.28493359375,13.5043671875,30.4047734375,28.82183984375,15.93759375,15.22864453125,13.317234375,31.79296484375,24.72512109375,23.63163671875,19.22165234375,2.543375,30.81378515625,1.1117578125,10.88537109375,8.0008828125,9.0928984375
0.8526328125,0.0865664062500002,2.569609375,15.8076328125,0.12809765625,9.1848828125,20.33927734375,4.546671875,12.15411328125,-1.1918359375,11.21865234375,18.14596484375,41.41075,19.77493359375,7.2843671875,24.6317734375,29.87483984375,13.36359375,11.02164453125,7.699234375,31.60896484375,24.33812109375,21.44863671875,14.70765234375,1.475375,35.91578515625,0.864757812500001,11.86237109375,9.5118828125,13.1398984375
-6.7643671875,-7.41643359375,-5.084390625,10.6806328125,-5.89490234375,0.160882812499999,11.34327734375,-0.848328125000002,7.07511328125,-8.1798359375,2.03865234375,12.85496484375,36.43775,15.47193359375,-1.5586328125,16.8647734375,31.58283984375,9.45259375,4.87364453125,-0.319765625,30.84996484375,22.48412109375,17.66063671875,8.68265234375,-0.482625,42.01678515625,0.570757812500001,12.86437109375,11.7068828125,18.2258984375
-15.8173671875,-16.31243359375,-13.790390625,4.9586328125,-13.50290234375,-9.9841171875,1.63027734375001,-5.643328125,1.28811328125,-16.9188359375,-9.02034765625,7.86396484375,31.04375,9.23393359375,-12.3216328125,7.7047734375,33.35083984375,4.21259375,-3.10535546875,-10.115765625,29.15296484375,19.10212109375,12.34163671875,1.57665234375,-3.387625,47.74078515625,0.126757812500001,13.57837109375,14.1028828125,23.3758984375
-24.9333671875,-25.37143359375,-22.396390625,-0.661367187500002,-21.58990234375,-19.8061171875,-7.16172265624999,-9.210328125,-4.62288671875,-26.3348359375,-20.39934765625,3.84696484375,25.94075,1.61293359375,-23.8996328125,-1.7852265625,34.69283984375,-1.85940625,-12.33235546875,-20.573765625,26.53296484375,14.58012109375,6.03563671875,-5.81634765625,-6.891625,51.98378515625,-0.393242187499999,13.88037109375,16.2978828125,27.7898984375
-32.6733671875,-33.26843359375,-29.681390625,-5.3143671875,-28.69990234375,-27.8141171875,-13.43172265625,-11.112328125,-9.79588671875,-35.0638359375,-30.30334765625,1.43496484375,21.71175,-6.31906640625,-34.9816328125,-10.2292265625,35.40683984375,-7.93040625,-21.86035546875,-30.274765625,23.46296484375,9.62412109375,-0.404363281249999,-12.52134765625,-10.264625,54.23578515625,-0.738242187499999,13.84037109375,18.0618828125,31.0038984375
-37.8783671875,-38.84043359375,-34.613390625,-8.1823671875,-33.43190234375,-32.7601171875,-16.04072265625,-11.200328125,-13.33188671875,-41.7528359375,-37.08934765625,1.06396484375,18.67175,-13.28806640625,-44.2636328125,-16.2112265625,35.59283984375,-13.10040625,-30.59735546875,-37.773765625,20.74096484375,5.00612109375,-6.08536328125,-17.61834765625,-12.594625,54.63678515625,-0.603242187499999,13.61137109375,19.3238828125,32.9008984375
-39.8793671875,-41.28243359375,-36.531390625,-8.6863671875,-34.79390234375,-33.8261171875,-14.57772265625,-9.615328125,-14.51588671875,-45.3318359375,-39.61434765625,2.86996484375,16.91575,-18.13906640625,-50.6156328125,-18.5922265625,35.55483984375,-16.65440625,-37.51635546875,-41.873765625,19.23196484375,1.30912109375,-10.32336328125,-20.44934765625,-13.061625,53.79978515625,0.2257578125,13.28437109375,20.1138828125,33.6138984375
-38.5223671875,-40.23943359375,-35.219390625,-6.6043671875,-32.38390234375,-30.7121171875,-9.37272265624999,-6.689328125,-12.95688671875,-45.1888359375,-37.44534765625,6.67896484375,16.45575,-20.05506640625,-53.1896328125,-16.7792265625,35.63383984375,-18.19840625,-41.80035546875,-41.842765625,19.58196484375,-1.20487890625,-12.75436328125,-20.71734765625,-11.187625,52.51078515625,1.7677578125,12.84237109375,20.5058828125,33.4198984375
-34.0773671875,-35.83143359375,-30.904390625,-2.0953671875,-26.40190234375,-23.6581171875,-1.32472265625,-2.835328125,-8.63888671875,-41.2188359375,-30.89034765625,12.05696484375,17.29575,-18.67306640625,-51.5076328125,-10.8622265625,36.06583984375,-17.68440625,-42.91235546875,-37.537765625,22.00596484375,-2.55587890625,-13.30536328125,-18.47334765625,-6.961625,51.46178515625,3.8637578125,12.21837109375,20.6048828125,32.6678984375
-27.1373671875,-28.62143359375,-24.203390625,4.3246328125,-17.57690234375,-13.4481171875,8.35927734375,1.537671875,-1.93788671875,-33.8168359375,-20.88934765625,18.39596484375,19.40375,-14.13606640625,-45.5716328125,-1.6132265625,36.89983984375,-15.34840625,-40.65735546875,-29.437765625,26.23096484375,-2.90787890625,-12.09036328125,-14.06134765625,-0.842625,51.06778515625,6.2697578125,11.40237109375,20.5418828125,31.7388984375
-18.5373671875,-19.55743359375,-16.045390625,11.8496328125,-7.04090234375,-1.3621171875,18.39827734375,6.046671875,6.39011328125,-23.8388359375,-8.81834765625,25.01396484375,22.62275,-7.09506640625,-35.9786328125,9.6697734375,37.99583984375,-11.62740625,-35.25835546875,-18.589765625,31.59196484375,-2.42787890625,-9.32836328125,-8.03634765625,6.367375,51.41978515625,8.7467578125,10.49937109375,20.4628828125,30.9848984375
-9.2863671875,-9.84543359375,-7.514390625,19.5176328125,3.84509765625,10.9918828125,27.64627734375,10.347671875,15.30611328125,-12.5118359375,3.73365234375,31.25196484375,26.59975,1.38993359375,-23.9366328125,21.4267734375,39.10183984375,-7.06840625,-27.40035546875,-6.427765625,37.23796484375,-1.22587890625,-5.33136328125,-1.09234765625,13.721375,52.33478515625,11.1097578125,9.70437109375,20.4998828125,30.6568984375
-0.4473671875,-0.74543359375,0.349609375,26.4006328125,13.74509765625,21.9958828125,35.24327734375,14.131671875,23.69611328125,-1.2608359375,15.21965234375,36.55896484375,30.79475,10.07093359375,-11.0926328125,32.1607734375,39.96783984375,-2.24040625,-18.15135546875,5.499234375,42.37096484375,0.60512109375,-0.521363281249997,6.02665234375,20.351375,53.46578515625,13.2177578125,9.20437109375,20.7318828125,30.8188984375
7.0476328125,6.70356640625,6.767609375,31.8196328125,21.65509765625,30.3998828125,40.71927734375,17.149671875,30.63911328125,8.6001640625,24.41965234375,40.57496484375,34.60175,17.84193359375,0.8533671875,40.7587734375,40.45483984375,2.35459375,-8.72535546875,15.858234375,46.42596484375,2.90412109375,4.57263671875,12.63265234375,25.648375,54.42778515625,14.9347578125,9.05737109375,21.1408828125,31.3018984375
12.6376328125,11.96056640625,11.388609375,35.5236328125,27.16509765625,35.6618828125,44.04527734375,19.257671875,35.66211328125,16.2301640625,30.70865234375,43.19896484375,37.53575,24.05993359375,10.6173671875,46.7047734375,40.57683984375,6.37459375,-0.14535546875,23.817234375,49.15896484375,5.35912109375,9.38263671875,18.21365234375,29.343375,54.88578515625,16.1017578125,9.10037109375,21.5678828125,31.7228984375
16.3156328125,15.14456640625,14.354609375,37.7626328125,30.56809765625,38.1028828125,45.62527734375,20.480671875,38.87011328125,21.5331640625,34.18465234375,44.61296484375,39.40875,28.72493359375,17.7013671875,50.1297734375,40.47383984375,9.69359375,7.04664453125,29.189234375,50.63796484375,7.50812109375,13.43363671875,22.52065234375,31.490375,54.59578515625,16.5427578125,8.94437109375,21.7068828125,31.5818984375
18.6326328125,16.96556640625,16.209609375,39.1806328125,32.73009765625,38.7708828125,46.18327734375,21.029671875,40.87611328125,25.1691640625,35.59365234375,45.22196484375,40.42175,32.39993359375,22.4523671875,51.6597734375,40.31683984375,12.42459375,12.88664453125,32.359234375,51.14796484375,8.84012109375,16.47563671875,25.58965234375,32.352375,53.41778515625,16.1177578125,8.10137109375,21.1628828125,30.4198984375
20.4686328125,18.43056640625,17.672609375,40.5536328125,34.73609765625,39.0118828125,46.52527734375,21.239671875,42.54111328125,28.2451640625,36.01365234375,45.50396484375,41.09175,35.90593359375,25.7963671875,52.1327734375,40.20183984375,14.87059375,17.85164453125,34.062234375,51.04196484375,9.00812109375,18.57763671875,27.70665234375,32.279375,51.31678515625,14.8117578125,6.21637109375,19.5958828125,27.9808984375
22.6706328125,20.43956640625,19.379609375,42.4646328125,37.45109765625,39.9288828125,47.26527734375,21.448671875,44.62711328125,31.8081640625,36.46765234375,45.83096484375,42.07675,39.93593359375,28.7953671875,52.2997734375,40.08783984375,17.43859375,22.56764453125,35.091234375,50.60696484375,8.08012109375,20.13463671875,29.31665234375,31.612375,48.36278515625,12.8167578125,3.32037109375,16.9008828125,24.3058984375
25.7046328125,23.45156640625,21.698609375,45.0716328125,41.17409765625,41.9958828125,48.64427734375,21.884671875,47.50511328125,36.3751640625,37.60265234375,46.35196484375,43.91475,44.74593359375,32.2343671875,52.6427734375,39.79783984375,20.51759375,27.51864453125,36.095234375,50.00096484375,6.68112109375,21.76463671875,30.91365234375,30.657375,44.71078515625,10.5607578125,-0.02662890625,13.3518828125,19.7408984375
29.4846328125,27.35456640625,24.678609375,48.0436328125,45.53209765625,44.9928828125,50.52427734375,22.640671875,51.01711328125,41.7201640625,39.57665234375,46.99296484375,46.79775,50.06093359375,36.4103671875,53.3567734375,39.11183984375,24.33759375,32.85664453125,37.483234375,49.28696484375,5.90212109375,24.12063671875,32.91465234375,29.696375,40.57478515625,8.6447578125,-2.81162890625,9.6048828125,14.8558984375
33.4176328125,31.55356640625,28.083609375,50.6746328125,49.64009765625,48.2278828125,52.53327734375,23.700671875,54.53711328125,47.0061640625,42.12965234375,47.56596484375,50.42375,55.19893359375,41.1213671875,54.4347734375,37.91683984375,28.86759375,38.37864453125,39.429234375,48.51996484375,6.94912109375,27.66863671875,35.55365234375,29.010375,36.21778515625,7.7027578125,-3.86262890625,6.5378828125,10.3268984375
36.6356328125,35.22856640625,31.483609375,52.1336328125,52.47109765625,50.8758828125,54.25327734375,24.991671875,57.17811328125,51.1651640625,44.78565234375,47.91596484375,54.04075,59.33093359375,45.8083671875,55.7597734375,36.32283984375,33.77659375,43.63164453125,41.881234375,47.81196484375,10.66012109375,32.50563671875,38.81865234375,28.841375,31.95578515625,8.2067578125,-2.26962890625,4.9798828125,6.8048984375
38.3176328125,37.61256640625,34.337609375,51.7536328125,53.26409765625,52.2698828125,55.35227734375,26.388671875,58.09411328125,53.3411640625,47.03165234375,47.98396484375,56.66975,61.77093359375,49.7613671875,57.1227734375,34.66383984375,38.49859375,48.07464453125,44.562234375,47.29896484375,17.10812109375,38.27163671875,42.43265234375,29.302375,28.14878515625,10.3037578125,2.23837109375,5.4378828125,4.8128984375
37.9366328125,38.19356640625,36.084609375,49.2606328125,51.77409765625,52.0338828125,55.59627734375,27.677671875,56.75211328125,53.1521640625,48.40665234375,47.73896484375,57.43275,62.15993359375,52.3033671875,58.1557734375,33.32583984375,42.37259375,51.22764453125,46.953234375,47.01396484375,25.48912109375,44.20363671875,45.88265234375,30.257375,25.16778515625,13.7197578125,9.12237109375,7.9228828125,4.6508984375
35.3596328125,36.75956640625,36.217609375,44.8256328125,48.24809765625,50.0518828125,54.77527734375,28.478671875,53.07811328125,50.6921640625,48.49765234375,47.01196484375,55.86675,60.50193359375,52.9123671875,58.2637734375,32.49683984375,44.81059375,52.74864453125,48.307234375,46.73996484375,34.37712109375,49.31263671875,48.48865234375,31.239375,23.29878515625,17.7987578125,17.15337109375,11.9378828125,6.3258984375
30.7726328125,33.35356640625,34.368609375,38.9516328125,43.18409765625,46.3418828125,52.62427734375,28.237671875,47.42611328125,46.3411640625,46.91065234375,45.38996484375,52.06875,57.06293359375,51.2653671875,56.6527734375,31.97483984375,45.44059375,52.43464453125,47.759234375,45.95596484375,42.21012109375,52.63963671875,49.54565234375,31.523375,22.65478515625,21.6607578125,24.77937109375,16.6298828125,9.5008984375
24.5636328125,28.20156640625,30.409609375,32.2726328125,37.06609765625,40.9768828125,48.82127734375,26.340671875,40.44311328125,40.5451640625,43.29765234375,42.27496484375,46.65375,52.23693359375,47.2473671875,52.5297734375,31.18883984375,44.18659375,50.18964453125,44.553234375,43.96896484375,47.76812109375,53.49863671875,48.49065234375,30.337375,23.11578515625,24.4307578125,30.58037109375,21.0278828125,13.5158984375
17.2616328125,21.67556640625,24.541609375,25.4066328125,30.25909765625,34.1248828125,43.13427734375,22.355671875,32.89911328125,33.7141640625,37.47965234375,37.13196484375,40.54475,46.43093359375,40.9823671875,45.4107734375,29.42783984375,41.24959375,46.02964453125,38.315234375,40.21496484375,50.40112109375,51.62963671875,45.08265234375,27.164375,24.34878515625,25.4647578125,33.61537109375,24.2868828125,17.4928984375
9.5296328125,14.31356640625,17.342609375,18.9116328125,23.08309765625,26.1698828125,35.62527734375,16.281671875,25.56011328125,26.2681640625,29.60965234375,29.80796484375,34.69475,40.02693359375,32.8783671875,35.4247734375,26.20383984375,37.01459375,40.13064453125,29.278234375,34.57396484375,49.98112109375,47.20363671875,39.50165234375,21.988375,25.88978515625,24.5037578125,33.55237109375,25.8558828125,20.5158984375
2.1436328125,6.81756640625,9.677609375,13.2946328125,15.97009765625,17.7938828125,26.79827734375,8.678671875,19.08311328125,18.7321640625,20.28865234375,20.75796484375,29.82575,33.35793359375,23.6283671875,23.4457734375,21.55483984375,31.88359375,32.86664453125,18.321234375,27.54196484375,46.68112109375,40.68663671875,32.32165234375,15.347375,27.26978515625,21.6907578125,30.58537109375,25.5148828125,21.8368984375
-4.1073671875,-0.01643359375,2.510609375,8.9966328125,9.52609765625,9.9108828125,17.57727734375,0.580671875,13.93511328125,11.7541640625,10.50465234375,11.04596484375,26.26775,26.64193359375,14.0933671875,10.9537734375,16.13983984375,26.11459375,24.73864453125,6.785234375,20.13296484375,40.76712109375,32.60863671875,24.32665234375,8.151375,28.13578515625,17.4677578125,25.23837109375,23.3118828125,21.0518984375
-8.6013671875,-5.45243359375,-3.339390625,6.3156328125,4.43609765625,3.4678828125,9.10627734375001,-6.765328125,10.31111328125,5.9501640625,1.41065234375,2.08896484375,23.91475,19.88193359375,5.0683671875,-0.350226562499998,11.05083984375,19.72259375,16.17764453125,-3.881765625,13.55696484375,32.52512109375,23.36863671875,16.24665234375,1.360375,28.32278515625,12.3817578125,18.16537109375,19.4728828125,18.1808984375
-11.0613671875,-9.01543359375,-7.388390625,5.3126328125,1.21109765625,-0.8341171875,2.43827734375001,-12.244328125,8.09211328125,1.6461640625,-6.00434765625,-4.75703515625,22.29475,12.80893359375,-2.9526328125,-9.0322265625,7.43783984375,12.52659375,7.34464453125,-12.520765625,8.81996484374999,22.34112109375,13.18863671875,8.55365234375,-4.322625,27.86278515625,6.9177578125,10.02237109375,14.3348828125,13.6658984375
-11.6533671875,-10.63743359375,-9.572390625,5.7406328125,-0.0689023437499996,-2.7771171875,-1.75472265625,-15.171328125,6.85911328125,-1.3208359375,-11.16934765625,-8.58603515625,20.76075,4.99193359375,-9.8726328125,-14.3042265625,6.09983984375,4.33359375,-1.89435546875,-18.518765625,6.41396484374999,10.84012109375,2.24563671875,1.42965234375,-8.583625,26.93978515625,1.4437578125,1.43437109375,8.3548828125,8.2598984375
-10.9423671875,-10.67743359375,-10.200390625,7.0756328125,0.12009765625,-2.7301171875,-3.35672265624999,-15.451328125,6.01211328125,-3.5898359375,-14.01934765625,-9.18603515625,18.72175,-3.88006640625,-15.8686328125,-16.1582265625,7.21083984375,-4.78440625,-11.73335546875,-21.830765625,6.21996484374999,-1.02987890625,-9.08836328125,-5.05934765625,-11.422625,25.82578515625,-3.7322421875,-6.96562890625,2.1388828125,2.8668984375
-9.7033671875,-9.79043359375,-9.806390625,8.6696328125,0.88809765625,-1.5141171875,-2.78672265624999,-13.554328125,4.98111328125,-5.9838359375,-14.89434765625,-7.03703515625,15.89175,-13.62906640625,-21.1286328125,-15.2092265625,10.30283984375,-14.28640625,-22.05535546875,-22.798765625,7.63496484374999,-12.06087890625,-20.06336328125,-10.73634765625,-12.953625,24.81978515625,-8.2522421875,-14.48362890625,-3.5541171875,-1.6481015625
-8.6423671875,-8.68543359375,-8.952390625,9.9726328125,1.30409765625,-0.0861171875000011,-0.810722656249993,-10.327328125,3.46811328125,-9.0848359375,-14.34234765625,-3.10503515625,12.42575,-23.36206640625,-25.6026328125,-12.3772265625,14.45683984375,-23.14640625,-32.14735546875,-21.888765625,9.86896484374999,-21.01887890625,-29.58536328125,-15.19134765625,-13.238625,24.18378515625,-11.6832421875,-20.37762890625,-7.9111171875,-4.6191015625
-8.1613671875,-7.87743359375,-8.053390625,10.7186328125,0.81609765625,0.830882812499999,1.73027734375,-6.723328125,1.61411328125,-12.8818359375,-12.92134765625,1.49396484375,8.90075,-31.56606640625,-28.9396328125,-8.5372265625,18.63983984375,-30.08840625,-40.75335546875,-19.507765625,12.25996484375,-26.95687890625,-36.49736328125,-17.88634765625,-12.245625,24.10478515625,-13.6082421875,-23.97662890625,-10.2581171875,-5.6951015625
-8.2463671875,-7.53343359375,-7.293390625,10.9846328125,-0.48690234375,0.9858828125,4.15427734375001,-3.554328125,-0.0168867187500013,-16.6978359375,-11.06534765625,5.80896484375,6.10375,-36.54006640625,-30.6296328125,-4.3022265625,22.00783984375,-33.99040625,-46.46635546875,-15.971765625,14.47096484375,-29.48887890625,-39.98736328125,-18.41534765625,-9.926625,24.65378515625,-13.8032421875,-24.89162890625,-10.2821171875,-4.8751015625
-8.5343671875,-7.47143359375,-6.641390625,11.1106328125,-1.91590234375,0.628882812499999,6.08127734375001,-1.325328125,-0.638886718750001,-19.4448359375,-9.04334765625,9.26096484375,4.74275,-37.01606640625,-30.2786328125,0.0247734375000022,24.10983984375,-34.27640625,-48.29335546875,-11.572765625,16.51396484375,-28.88787890625,-39.90436328125,-16.77334765625,-6.341625,25.78078515625,-12.3642421875,-23.17362890625,-8.1421171875,-2.4611015625
-8.5163671875,-7.30543359375,-5.962390625,11.5306328125,-2.49190234375,0.3318828125,7.43627734375001,-0.179328125000001,0.448113281249999,-20.0878359375,-6.99034765625,11.67096484375,5.17575,-32.66306640625,-27.8216328125,4.3537734375,24.90183984375,-31.13140625,-46.06935546875,-6.629765625,18.61096484375,-25.96287890625,-36.81636328125,-13.42434765625,-1.730625,27.34078515625,-9.6982421875,-19.34362890625,-4.4041171875,1.0858984375
-7.7823671875,-6.66443359375,-5.144390625,12.5796328125,-1.39790234375,0.6978828125,8.36027734375001,0.0376718749999974,3.54411328125,-18.0878359375,-4.96734765625,13.15496484375,7.27975,-24.27406640625,-23.6046328125,8.6727734375,24.63183984375,-25.43140625,-40.52835546875,-1.488765625,20.97796484375,-21.75887890625,-31.76836328125,-9.15234765625,3.511375,29.14478515625,-6.3682421875,-14.23062890625,0.1708828125,5.2908984375
-6.2193671875,-5.38743359375,-4.183390625,14.3316328125,1.63509765625,2.0778828125,9.05527734375001,-0.349328125000003,8.36211328125,-13.6478359375,-3.00934765625,13.95896484375,10.49675,-13.53006640625,-18.2856328125,12.9187734375,23.65383984375,-18.43340625,-33.01135546875,3.539234375,23.64596484375,-17.20587890625,-25.89536328125,-4.75834765625,8.923375,30.99578515625,-2.8972421875,-8.71062890625,4.8778828125,9.7628984375
-4.0613671875,-3.59743359375,-3.180390625,16.5266328125,6.18609765625,4.4158828125,9.67727734375001,-0.986328125,14.06311328125,-7.6328359375,-1.14634765625,14.33496484375,14.02675,-2.46406640625,-12.6446328125,16.9357734375,22.26883984375,-11.37340625,-24.96535546875,8.216234375,26.40096484375,-12.87387890625,-20.07036328125,-0.791347656249997,14.080375,32.70178515625,0.3617578125,-3.45662890625,9.2378828125,14.1918984375
-1.7653671875,-1.62643359375,-2.251390625,18.6386328125,11.29809765625,7.3038828125,10.32027734375,-1.562328125,19.51511328125,-1.2378359375,0.603652343749999,14.49796484375,17.08975,7.16193359375,-7.3446328125,20.5037734375,20.67083984375,-5.12840625,-17.47335546875,12.396234375,28.87696484375,-8.91087890625,-14.70936328125,2.57965234375,18.670375,34.09178515625,3.2597578125,1.19437109375,13.0418828125,18.3188984375
0.1946328125,0.15056640625,-1.437390625,20.0546328125,15.85309765625,10.1918828125,11.06327734375,-1.845328125,23.66111328125,4.4591640625,2.26765234375,14.63596484375,19.13875,14.33193359375,-2.7396328125,23.4407734375,18.98383984375,-0.055406249999999,-10.98835546875,16.024234375,30.72096484375,-5.15787890625,-9.78136328125,5.52665234375,22.528375,35.04578515625,5.8117578125,5.21237109375,16.2888828125,21.9168984375
1.5016328125,1.48456640625,-0.673390625,20.2736328125,18.96209765625,12.6018828125,11.99127734375,-1.683328125,25.83211328125,8.8321640625,3.92465234375,14.91096484375,19.94775,18.92393359375,1.1933671875,25.6877734375,17.32583984375,3.94959375,-5.35835546875,19.140234375,31.76096484375,-1.35187890625,-4.96936328125,8.39465234375,25.646375,35.53078515625,8.1447578125,8.74637109375,19.0908828125,24.8328984375
2.0416328125,2.31056640625,0.137609375,19.0386328125,20.19409765625,14.2488828125,13.14427734375,-1.047328125,25.85911328125,11.7961640625,5.66765234375,15.41196484375,19.56575,21.52293359375,4.7573671875,27.3227734375,15.83283984375,7.24659375,-0.09735546875,21.846234375,32.03896484375,2.70312109375,0.0846367187500014,11.50165234375,28.114375,35.62478515625,10.4467578125,11.98537109375,21.5868828125,27.0428984375
1.8316328125,2.69056640625,1.009609375,16.3806328125,19.58409765625,15.0238828125,14.41627734375,-0.079328125,24.02611328125,13.6431640625,7.51365234375,16.07296484375,18.21775,22.99493359375,8.3003671875,28.4657734375,14.58483984375,10.20159375,5.24064453125,24.245234375,31.73896484375,7.03012109375,5.53663671875,14.96765234375,30.030375,35.47478515625,12.8997578125,15.04737109375,23.8888828125,28.6738984375
0.9096328125,2.68456640625,1.786609375,12.6026328125,17.50009765625,14.9308828125,15.50427734375,0.876671875,20.90711328125,14.7591640625,9.32265234375,16.62996484375,16.22075,24.08693359375,11.9693671875,29.1527734375,13.51383984375,13.01859375,10.79264453125,26.349234375,31.05296484375,11.47212109375,11.21463671875,18.64765234375,31.413375,35.23178515625,15.5937578125,17.94537109375,26.0748828125,29.9508984375
-0.7113671875,2.26256640625,2.161609375,8.2076328125,14.45609765625,14.0318828125,15.96627734375,1.341671875,17.19311328125,15.4041640625,10.79265234375,16.67596484375,13.92875,25.17893359375,15.5933671875,29.2487734375,12.37383984375,15.69159375,16.32764453125,28.021234375,30.07396484375,15.75012109375,16.65563671875,22.19065234375,32.174375,34.98978515625,18.4727578125,20.61137109375,28.1838828125,31.1018984375
-2.9973671875,1.31756640625,1.813609375,3.7976328125,10.96709765625,12.4298828125,15.38627734375,0.847671875,13.53411328125,15.6391640625,11.56265234375,15.79396484375,11.71875,26.27893359375,18.7373671875,28.4757734375,10.80183984375,18.07859375,21.37464453125,28.989234375,28.74396484375,19.57212109375,21.29263671875,25.18065234375,32.165375,34.75378515625,21.3217578125,22.94637109375,30.2098828125,32.2488984375
-5.8253671875,-0.24743359375,0.570609375,-0.0553671874999999,7.45909765625,10.2928828125,13.56527734375,-0.872328125000003,10.41311328125,15.3751640625,11.35965234375,13.71396484375,9.98475,27.17393359375,20.8813671875,26.5327734375,8.45883984375,20.02259375,25.43764453125,28.922234375,26.86596484375,22.74712109375,24.69863671875,27.28765234375,31.255375,34.42878515625,23.8447578125,24.88837109375,32.0778828125,33.3448984375
-8.9413671875,-2.43643359375,-1.483390625,-2.9383671875,4.21609765625,7.8568828125,10.63427734375,-3.754328125,8.06911328125,14.4751640625,10.10065234375,10.40596484375,9.10575,27.61593359375,21.6213671875,23.2337734375,5.17783984375,21.45159375,28.17364453125,27.552234375,24.19096484375,25.25512109375,26.74963671875,28.36065234375,29.401375,33.83178515625,25.7757578125,26.43237109375,33.6498828125,34.1908984375
-11.9973671875,-5.11043359375,-4.033390625,-4.6733671875,1.37509765625,5.3768828125,7.02727734375001,-7.388328125,6.48211328125,12.8481640625,7.91565234375,6.09396484375,9.34975,27.44293359375,20.8103671875,18.6187734375,1.06383984375,22.40059375,29.48664453125,24.783234375,20.52996484375,27.23312109375,27.63563671875,28.44565234375,26.669375,32.73378515625,26.9737578125,27.61937109375,34.7588828125,34.5168984375
-14.6473671875,-8.00243359375,-6.649390625,-5.3393671875,-1.05590234375,3.0768828125,3.34827734375001,-11.124328125,5.40911328125,10.5091640625,5.10465234375,1.23096484375,10.72375,26.57293359375,18.5903671875,12.9847734375,-3.49516015625,22.94359375,29.48764453125,20.753234375,15.89596484375,28.87312109375,27.70663671875,27.71165234375,23.224375,30.94378515625,27.4327578125,28.47337109375,35.2378828125,34.0848984375
-16.6183671875,-10.73743359375,-8.907390625,-5.2153671875,-3.11790234375,1.1298828125,0.201277343750007,-14.242328125,4.49511328125,7.6061640625,2.07765234375,-3.56403515625,12.86175,24.92893359375,15.3343671875,6.8337734375,-7.88816015625,23.08559375,28.37764453125,15.819234375,10.56796484375,30.25912109375,27.22663671875,26.32665234375,19.297375,28.39878515625,27.2017578125,28.92737109375,34.9508828125,32.7538984375
-17.7523671875,-12.88743359375,-10.471390625,-4.6593671875,-4.82890234375,-0.292117187500001,-1.93372265624999,-16.136328125,3.41411328125,4.4161640625,-0.723347656249999,-7.60203515625,15.05275,22.37593359375,11.5293671875,0.786773437500003,-11.44216015625,22.69259375,26.29464453125,10.469234375,5.07596484374999,31.24112109375,26.19863671875,24.34365234375,15.132375,25.21578515625,26.2657578125,28.78337109375,33.7818828125,30.5058984375
-17.9953671875,-14.03643359375,-11.120390625,-3.9673671875,-6.12690234375,-0.9791171875,-2.77072265624999,-16.456328125,1.99511328125,1.2981640625,-2.89334765625,-10.27803515625,16.44775,18.75593359375,7.6703671875,-4.5362265625,-13.62916015625,21.51659375,23.24564453125,5.182234375,0.0629648437499952,31.42312109375,24.34763671875,21.66365234375,10.932375,21.67178515625,24.4897578125,27.74837109375,31.6438828125,27.4298984375
-17.3613671875,-13.88243359375,-10.754390625,-3.2853671875,-6.87190234375,-0.7131171875,-2.24672265624999,-15.190328125,0.29211328125,-1.3688359375,-4.12634765625,-11.23103515625,16.36975,14.01593359375,4.1863671875,-8.6252265625,-14.24516015625,19.30559375,19.14664453125,0.320234374999998,-3.91603515625,30.30012109375,21.30563671875,18.10965234375,6.821375,18.10578515625,21.6767578125,25.53437109375,28.4978828125,23.6798984375
-15.8803671875,-12.31243359375,-9.367390625,-2.5653671875,-6.86490234375,0.6618828125,-0.511722656249994,-12.634328125,-1.41888671875,-3.2388359375,-4.27034765625,-10.45603515625,14.58475,8.35993359375,1.3993671875,-11.1732265625,-13.46516015625,15.95059375,13.97364453125,-3.927765625,-6.56603515625001,27.50312109375,16.85963671875,13.58065234375,2.836375,14.80478515625,17.7067578125,22.01737109375,24.4148828125,19.4378984375
-13.5703671875,-9.44743359375,-7.046390625,-1.5993671875,-5.88690234375,3.1638828125,2.11427734375,-9.281328125,-2.70788671875,-4.0398359375,-3.35634765625,-8.30903515625,11.40075,2.29493359375,-0.4946328125,-12.1372265625,-11.75516015625,11.57959375,7.89864453125,-7.521765625,-7.92503515625,23.01612109375,11.13763671875,8.18265234375,-1.032625,11.90578515625,12.6707578125,17.34237109375,19.6228828125,14.8738984375
-10.4653671875,-5.63643359375,-3.997390625,-0.118367187499999,-3.76990234375,6.6248828125,5.19127734375001,-5.701328125,-3.14788671875,-3.6468359375,-1.63334765625,-5.41303515625,7.54375,-3.49406640625,-1.4866328125,-11.7682265625,-9.68416015625,6.52659375,1.31264453125,-10.537765625,-8.31503515625,17.22912109375,4.59263671875,2.24465234375,-4.803625,9.38378515625,6.9037578125,11.92637109375,14.4838828125,10.1338984375
-6.7233671875,-1.43143359375,-0.596390625,2.0336328125,-0.541902343749999,10.6488828125,8.19327734375001,-2.449328125,-2.52688671875,-2.1738359375,0.425652343750002,-2.50103515625,3.86475,-8.42306640625,-1.8376328125,-10.5782265625,-7.73816015625,1.18059375,-5.31735546875,-13.153765625,-8.20403515625001,10.78912109375,-2.20236328125,-3.80434765625,-8.456625,7.09778515625,0.901757812500001,6.30837109375,9.3988828125,5.3418984375
-2.7213671875,2.47356640625,2.582609375,4.7406328125,3.43809765625,14.6018828125,10.54827734375,-0.00332812500000301,-1.03388671875,-0.0608359375000003,2.17965234375,-0.240035156249995,0.988750000000003,-12.27106640625,-2.0996328125,-9.2432265625,-6.20616015624999,-4.19340625,-11.64535546875,-15.622765625,-8.03803515625,4.33312109375,-8.79736328125,-9.58734765625,-11.920625,4.89278515625,-4.8262421875,0.96437109375,4.6878828125,0.6358984375
0.9386328125,5.35156640625,4.860609375,7.5556328125,7.45309765625,17.7038828125,11.72727734375,1.290671875,0.720113281249997,1.9471640625,2.97465234375,0.917964843749999,-0.904249999999998,-15.28506640625,-3.0026328125,-8.4272265625,-5.16616015625,-9.53140625,-17.55735546875,-18.208765625,-8.11303515625001,-1.72287890625,-14.99436328125,-14.86934765625,-15.078625,2.68978515625,-9.8682421875,-3.81262890625,0.5368828125,-3.7811015625
3.5556328125,6.59856640625,5.635609375,9.8186328125,10.57909765625,19.2238828125,11.39027734375,1.278671875,1.88811328125,2.9561640625,2.34565234375,0.832964843749998,-2.10125,-18.03406640625,-5.1896328125,-8.5792265625,-4.54116015625,-14.88840625,-23.12235546875,-21.059765625,-8.52403515625001,-7.20987890625,-20.78436328125,-19.53334765625,-17.790625,0.528785156249995,-13.9602421875,-7.90362890625,-2.9731171875,-7.6401015625
4.5716328125,5.93556640625,4.613609375,10.9006328125,11.97309765625,18.7238828125,9.52527734375001,0.0436718749999976,1.72911328125,2.2091640625,0.19165234375,-0.31703515625,-3.13125,-21.08806640625,-8.9186328125,-9.7972265625,-4.20016015625,-20.24640625,-28.42635546875,-24.102765625,-9.19403515625001,-12.06287890625,-26.16036328125,-23.49034765625,-19.925625,-1.47421484375,-16.9902421875,-11.26962890625,-5.7991171875,-10.6641015625
3.8136328125,3.55156640625,1.971609375,10.4856328125,11.17209765625,16.2278828125,6.48827734375001,-2.084328125,-0.0488867187500048,-0.6318359375,-3.15434765625,-2.11103515625,-4.42525,-24.68006640625,-13.8996328125,-11.8042265625,-4.04316015625,-25.32440625,-33.42035546875,-27.033765625,-9.96503515625001,-16.13687890625,-30.96036328125,-26.63134765625,-21.408625,-3.19821484375,-19.0072421875,-13.87262890625,-7.9161171875,-12.6771015625
1.6316328125,0.10556640625,-1.630390625,8.7466328125,8.29409765625,12.2338828125,2.91627734375,-4.587328125,-3.10888671875,-5.2988359375,-7.03134765625,-4.02503515625,-6.01925,-28.51206640625,-19.3626328125,-14.0722265625,-4.04816015625,-29.53240625,-37.85235546875,-29.434765625,-10.69503515625,-19.11487890625,-34.83536328125,-28.86934765625,-22.246625,-4.59921484375,-20.2352421875,-15.65462890625,-9.3411171875,-13.7021015625
-1.1893671875,-3.46143359375,-5.253390625,6.3006328125,4.01809765625,7.5668828125,-0.483722656249995,-6.894328125,-6.56688671875,-10.9518359375,-10.68134765625,-5.59903515625,-7.49925,-31.81306640625,-24.3346328125,-16.0322265625,-4.25816015625,-32.10440625,-41.31335546875,-30.950765625,-11.30103515625,-20.58887890625,-37.35236328125,-30.22834765625,-22.551625,-5.71721484375,-21.0622421875,-16.56862890625,-10.1711171875,-13.9701015625
-3.7203671875,-6.25043359375,-8.012390625,3.9596328125,-0.63990234375,3.0958828125,-3.16672265624999,-8.559328125,-9.31788671875,-16.4298359375,-13.51134765625,-6.57103515625,-8.22725,-33.62306640625,-27.9906328125,-17.2712265625,-4.73616015624999,-32.37840625,-43.34535546875,-31.421765625,-11.75003515625,-20.26487890625,-38.14836328125,-30.87334765625,-22.502625,-6.63921484375,-21.9262421875,-16.63062890625,-10.5791171875,-13.8231015625
-5.2483671875,-7.71743359375,-9.399390625,2.3796328125,-4.66290234375,-0.531117187500001,-4.91072265624999,-9.404328125,-10.46688671875,-20.6148359375,-15.24934765625,-6.92503515625,-7.71125,-33.17906640625,-29.8906328125,-17.6352265625,-5.50116015624999,-30.07540625,-43.55635546875,-30.888765625,-12.00303515625,-18.15587890625,-37.04636328125,-31.02734765625,-22.257625,-7.42121484375001,-23.1282421875,-15.93662890625,-10.7351171875,-13.5611015625
-5.5213671875,-7.83043359375,-9.417390625,1.8166328125,-7.34390234375,-3.0331171875,-5.82172265625,-9.549328125,-9.65588671875,-22.7498359375,-15.94134765625,-6.83703515625,-5.89425,-30.20306640625,-30.0176328125,-17.1922265625,-6.47016015625,-25.43640625,-41.69635546875,-29.479765625,-11.96003515625,-14.66087890625,-34.08936328125,-30.79634765625,-21.827625,-8.00921484375,-24.6252421875,-14.62862890625,-10.7081171875,-13.3031015625
-4.7683671875,-7.00743359375,-8.494390625,2.0946328125,-8.42890234375,-4.4601171875,-6.18072265624999,-9.311328125,-7.13988671875,-22.5928359375,-15.82034765625,-6.55003515625,-3.20825,-24.98406640625,-28.6226328125,-16.0952265625,-7.45616015624999,-19.16940625,-37.68935546875,-27.244765625,-11.43403515625,-10.45387890625,-29.49436328125,-30.01534765625,-20.989625,-8.22921484375,-25.9322421875,-12.84162890625,-10.3951171875,-12.9231015625
-3.5183671875,-5.88443359375,-7.247390625,2.7696328125,-8.08190234375,-5.0501171875,-6.26672265625,-9.039328125,-3.60588671875,-20.3718359375,-15.13834765625,-6.25003515625,-0.39725,-18.21606640625,-26.0076328125,-14.4412265625,-8.21516015624999,-12.21540625,-31.63935546875,-24.068765625,-10.19603515625,-6.26187890625,-23.56936328125,-28.21834765625,-19.301625,-7.82521484375,-26.2112421875,-10.66262890625,-9.5421171875,-12.0921015625
-2.3273671875,-5.02943359375,-6.234390625,3.3786328125,-6.71390234375,-5.0701171875,-6.23072265624999,-8.975328125,0.128113281249995,-16.6048359375,-14.03234765625,-5.98403515625,1.81075,-10.72506640625,-22.3866328125,-12.2012265625,-8.54516015625001,-5.46640625,-23.82435546875,-19.698765625,-8.06503515625,-2.62587890625,-16.65036328125,-24.78834765625,-16.235625,-6.57221484375,-24.5402421875,-8.13162890625,-7.8641171875,-10.4121015625
-1.5503671875,-4.73243359375,-5.775390625,3.6266328125,-4.78690234375,-4.7271171875,-6.09272265625,-9.190328125,3.39911328125,-11.8828359375,-12.49034765625,-5.67503515625,3.00975,-3.22006640625,-17.8606328125,-9.2782265625,-8.37816015625,0.46859375,-14.68735546875,-13.907765625,-5.00903515625001,0.242121093750001,-9.09036328125,-19.22934765625,-11.397625,-4.38721484375,-20.2672421875,-5.26762890625,-5.1851171875,-7.5821015625
-1.2573671875,-4.95243359375,-5.884390625,3.4526328125,-2.67990234375,-4.1311171875,-5.78272265624999,-9.595328125,5.83011328125,-6.7298359375,-10.42134765625,-5.20703515625,3.24975,3.80193359375,-12.5146328125,-5.6202265625,-7.82716015625,5.35359375,-4.82035546875,-6.689765625,-1.19403515625001,2.45012109375,-1.27936328125,-11.44834765625,-4.744625,-1.40521484375,-13.3232421875,-2.11462890625,-1.5441171875,-3.5501015625
-1.3153671875,-5.43643359375,-6.334390625,2.9446328125,-0.67690234375,-3.3301171875,-5.22372265624999,-10.023328125,7.29911328125,-1.5868359375,-7.78434765625,-4.53903515625,2.92975,10.01093359375,-6.5426328125,-1.3382265625,-7.14116015625,9.22659375,5.05464453125,1.598234375,3.03896484374999,4.26812109375,6.34763671875,-1.92234765625,3.315375,2.04478515625,-4.3222421875,1.20537109375,2.7838828125,1.4278984375
-1.5653671875,-5.92443359375,-6.822390625,2.1546328125,0.94709765625,-2.4121171875,-4.41472265624999,-10.333328125,7.78111328125,3.1051640625,-4.72034765625,-3.77503515625,2.48975,15.10993359375,-0.3416328125,3.2407734375,-6.58916015625,12.20859375,14.15064453125,10.229234375,7.25896484374999,5.93412109375,13.31763671875,8.35565234375,11.981375,5.55278515625,5.5877578125,4.46537109375,7.3408828125,6.8218984375
-1.9873671875,-6.32943359375,-7.159390625,0.9646328125,1.84909765625,-1.6081171875,-3.50472265625,-10.509328125,7.20411328125,6.8221640625,-1.60034765625,-3.16503515625,2.12775,18.72793359375,5.4783671875,7.6017734375,-6.33716015624999,14.31959375,21.71564453125,18.258234375,11.04096484375,7.51412109375,19.16063671875,18.12565234375,20.261375,8.74878515624999,15.0687578125,7.34937109375,11.6028828125,11.9548984375
-2.7383671875,-6.78943359375,-7.382390625,-0.908367187500001,1.62209765625,-1.3161171875,-2.79872265624999,-10.685328125,5.42811328125,8.9781640625,1.04165234375,-3.02403515625,1.69575,20.44093359375,10.2053671875,11.1277734375,-6.37916015624999,15.43959375,27.16664453125,24.762234375,14.02896484375,8.90112109375,23.48663671875,26.21065234375,27.214375,11.38778515625,22.9837578125,9.54637109375,15.1068828125,16.1808984375
-4.0413671875,-7.56543359375,-7.705390625,-3.7363671875,-0.0649023437499996,-1.9751171875,-2.67072265624999,-11.077328125,2.36211328125,9.0951640625,2.66665234375,-3.62303515625,0.832750000000004,19.93593359375,13.2403671875,13.2347734375,-6.58516015625,15.42759375,30.23664453125,29.089234375,15.95196484375,9.93712109375,26.07163671875,31.81465234375,32.141375,13.33678515625,28.6557578125,10.87437109375,17.5588828125,19.0408984375
-6.0023671875,-8.84843359375,-8.376390625,-7.5543671875,-3.25390234375,-3.8291171875,-3.40172265624999,-11.872328125,-1.87188671875001,7.0761640625,2.94565234375,-5.08403515625,-0.749249999999996,17.23293359375,14.3233671875,13.5167734375,-6.83116015624999,14.30659375,31.06564453125,30.998234375,16.60096484375,10.57512109375,26.95863671875,34.67465234375,34.667375,14.50878515625,31.9387578125,11.38237109375,18.8818828125,20.3638984375
-8.4543671875,-10.58443359375,-9.503390625,-12.0053671875,-7.54390234375,-6.7221171875,-5.04072265624999,-13.142328125,-6.82788671875,3.3961640625,1.90765234375,-7.33503515625,-3.00625,12.84093359375,13.6773671875,11.8707734375,-7.14316015625,12.38959375,30.18864453125,30.671234375,15.82096484375,10.98212109375,26.49563671875,35.04765234375,34.733375,14.80878515625,33.1087578125,11.36137109375,19.2008828125,20.2728984375
-10.9203671875,-12.42243359375,-10.955390625,-16.3503671875,-12.07990234375,-10.0391171875,-7.33172265624999,-14.813328125,-11.75588671875,-0.9088359375,-0.0303476562499974,-10.13103515625,-5.49025,7.72393359375,11.9763671875,8.5297734375,-7.75916015625,10.25459375,28.40064453125,28.595234375,13.52996484375,11.50712109375,25.26663671875,33.55465234375,32.539375,14.11478515625,32.6507578125,11.24537109375,18.7608828125,19.0988984375
-12.7153671875,-13.80943359375,-12.384390625,-19.6493671875,-15.75490234375,-12.8511171875,-9.75772265625,-16.694328125,-15.75688671875,-4.5328359375,-2.21334765625,-13.13403515625,-7.52325,3.05693359375,10.1163671875,4.0117734375,-9.04516015625001,8.57859375,26.52164453125,25.388234375,9.78896484374999,12.51212109375,23.91963671875,30.94165234375,28.484375,12.32678515625,31.0617578125,11.42837109375,17.8308828125,17.2358984375
-13.1853671875,-14.19843359375,-13.342390625,-21.0793671875,-17.54290234375,-14.2361171875,-11.69072265625,-18.522328125,-18.01688671875,-6.3458359375,-3.98334765625,-15.98303515625,-8.50925,-0.133066406250002,8.8963671875,-1.0232265625,-11.27516015625,7.88459375,25.14464453125,21.612234375,4.87196484374999,14.14712109375,22.92963671875,27.83965234375,23.114375,9.45078515625,28.7127578125,12.07737109375,16.5968828125,15.0018984375
-11.9633671875,-13.26343359375,-13.461390625,-20.2503671875,-16.88390234375,-13.6501171875,-12.61872265625,-20.003328125,-18.06588671875,-5.8198359375,-4.92934765625,-18.34403515625,-8.23025,-1.30706640625,8.7073671875,-5.9532265625,-14.40416015625,8.33059375,24.43264453125,17.624234375,-0.725035156250009,16.18312109375,22.41863671875,24.58665234375,17.053375,5.66878515625,25.8147578125,13.02637109375,15.1148828125,12.5648984375
-9.1533671875,-11.04743359375,-12.601390625,-17.3993671875,-13.92990234375,-11.1881171875,-12.33872265625,-20.839328125,-15.96288671875,-3.2508359375,-5.03234765625,-19.94503515625,-6.94625,-0.600066406250001,9.3793671875,-10.3412265625,-17.96816015625,9.62359375,24.06164453125,13.516234375,-6.35603515625001,18.01812109375,22.09663671875,21.17865234375,10.893375,1.35278515625,22.4517578125,13.81637109375,13.3228828125,9.9448984375
-5.3413671875,-8.00043359375,-10.917390625,-13.3433671875,-9.56590234375,-7.5801171875,-11.04772265625,-20.762328125,-12.33388671875,0.3161640625,-4.67734765625,-20.61103515625,-5.27825,1.21393359375,10.2273671875,-14.0062265625,-21.20316015625,11.08859375,23.32164453125,9.156234375,-11.38103515625,18.85512109375,21.38263671875,17.35165234375,5.073375,-3.00321484375,18.6437578125,13.86937109375,11.1108828125,7.0818984375
-1.4323671875,-4.86243359375,-8.810390625,-9.2163671875,-5.14490234375,-3.9361171875,-9.25572265624999,-19.605328125,-8.21988671875,3.4441640625,-4.49234765625,-20.29803515625,-3.95525,2.97293359375,10.3153671875,-16.9842265625,-23.31316015625,11.88059375,21.38664453125,4.328234375,-15.32903515625,17.98912109375,19.64063671875,12.78065234375,-0.192625,-6.90921484375001,14.4057578125,12.73137109375,8.4158828125,3.9168984375
1.6376328125,-2.42743359375,-6.786390625,-6.0873671875,-2.03390234375,-1.3361171875,-7.56172265624999,-17.382328125,-4.78888671875,4.8091640625,-5.07034765625,-19.09103515625,-3.54225,3.49993359375,8.8223671875,-19.3852265625,-23.76116015625,11.25559375,17.63364453125,-1.066765625,-17.98903515625,15.06212109375,16.44063671875,7.29365234375,-4.883625,-10.00121484375,9.7917578125,10.27037109375,5.2988828125,0.4648984375
3.2186328125,-1.25443359375,-5.267390625,-4.6163671875,-1.11190234375,-0.429117187500001,-6.38472265624999,-14.340328125,-2.97188671875,3.6791640625,-6.66434765625,-17.16403515625,-4.24425,1.99493359375,5.3833671875,-21.2382265625,-22.44016015625,8.82459375,11.91164453125,-6.836765625,-19.40903515625,10.21012109375,11.71963671875,1.01765234375,-9.048625,-12.13221484375,4.9317578125,6.74037109375,1.9568828125,-3.1581015625
3.1716328125,-1.45543359375,-4.447390625,-4.8623671875,-2.45690234375,-1.2101171875,-5.78572265624999,-10.925328125,-3.16888671875,0.1521640625,-9.05234765625,-14.73003515625,-5.88025,-1.73006640625,0.2343671875,-22.4202265625,-19.69116015625,4.67259375,4.61664453125,-12.461765625,-19.82203515625,4.01212109375,5.77463671875,-5.62334765625,-12.700625,-13.38621484375,0.0407578125000008,2.65837109375,-1.3411171875,-6.7391015625
1.8706328125,-2.68443359375,-4.255390625,-6.3323671875,-5.36390234375,-3.0761171875,-5.50172265625,-7.653328125,-5.14588671875,-4.9478359375,-11.63934765625,-12.02103515625,-8.02725,-7.24206640625,-5.9006328125,-22.7332265625,-16.17616015625,-0.692406249999999,-3.47335546875,-17.240765625,-19.56403515625,-2.72687890625,-0.886363281249999,-12.07134765625,-15.780625,-14.03721484375,-4.6342421875,-1.43762890625,-4.3651171875,-10.0341015625
-0.00936718749999976,-4.32443359375,-4.462390625,-8.2403671875,-8.70590234375,-5.1641171875,-5.17572265625,-4.970328125,-8.18888671875,-10.4648359375,-13.77134765625,-9.29903515625,-10.27625,-13.70806640625,-12.1366328125,-22.0782265625,-12.68316015625,-6.54840625,-11.50635546875,-20.586765625,-18.99703515625,-9.24687890625,-7.73636328125,-17.85434765625,-18.207625,-14.45421484375,-8.8962421875,-5.21262890625,-7.0181171875,-12.8581015625
-1.8043671875,-5.77943359375,-4.838390625,-9.8563671875,-11.43890234375,-6.7781171875,-4.64772265625,-3.146328125,-11.42288671875,-15.3788359375,-15.05534765625,-6.85403515625,-12.42525,-20.20506640625,-17.7666328125,-20.6052265625,-9.90616015625,-12.20940625,-18.85035546875,-22.293765625,-18.43903515625,-15.01987890625,-14.35936328125,-22.73834765625,-19.940625,-14.97521484375,-12.6632421875,-8.60762890625,-9.3531171875,-15.1281015625
-3.0833671875,-6.68743359375,-5.264390625,-10.7533671875,-12.97390234375,-7.6481171875,-4.08072265625,-2.250328125,-14.11188671875,-19.0898359375,-15.50734765625,-4.97203515625,-14.50325,-25.96606640625,-22.4376328125,-18.7002265625,-8.25816015625,-17.18340625,-25.20235546875,-22.601765625,-18.08203515625,-19.78087890625,-20.46536328125,-26.72434765625,-20.988625,-15.77621484375,-15.9632421875,-11.73062890625,-11.4871171875,-16.8551015625
-3.6893671875,-6.97043359375,-5.711390625,-10.8553671875,-13.26090234375,-7.9011171875,-3.83572265624999,-2.166328125,-15.81388671875,-21.4348359375,-15.45634765625,-3.83803515625,-16.60425,-30.46806640625,-26.0726328125,-16.8112265625,-7.77416015625001,-21.18840625,-30.48235546875,-22.014765625,-17.91203515625,-23.44087890625,-25.82136328125,-29.91534765625,-21.359625,-16.80121484375,-18.8452421875,-14.67462890625,-13.4931171875,-18.0731015625
-3.6303671875,-6.72143359375,-6.124390625,-10.3293671875,-12.61790234375,-7.8281171875,-4.19472265624999,-2.639328125,-16.39788671875,-22.5058359375,-15.28934765625,-3.45703515625,-18.69025,-33.40406640625,-28.6716328125,-15.2352265625,-8.13616015625,-24.07940625,-34.63235546875,-20.991765625,-17.69903515625,-25.97687890625,-30.18636328125,-32.35734765625,-21.006625,-17.80121484375,-21.2982421875,-17.38562890625,-15.3401171875,-18.8001015625
-2.9483671875,-6.04243359375,-6.327390625,-9.4243671875,-11.44990234375,-7.6331171875,-5.12572265624999,-3.316328125,-15.96888671875,-22.4388359375,-15.19334765625,-3.61103515625,-20.48425,-34.61706640625,-30.1516328125,-13.9772265625,-8.80416015625001,-25.76040625,-37.48335546875,-19.718765625,-17.08303515625,-27.38687890625,-33.31436328125,-33.96334765625,-19.811625,-18.44521484375,-23.2192421875,-19.68062890625,-16.9191171875,-19.0371015625
-1.6723671875,-4.95943359375,-6.027390625,-8.3423671875,-10.04790234375,-7.3241171875,-6.24372265624999,-3.824328125,-14.76988671875,-21.3228359375,-15.04834765625,-3.92203515625,-21.54625,-34.07506640625,-30.3466328125,-12.7812265625,-9.21316015625,-26.15840625,-38.77935546875,-18.081765625,-15.71603515625,-27.70287890625,-35.00236328125,-34.54534765625,-17.649625,-18.45321484375,-24.4582421875,-21.35562890625,-18.1171171875,-18.8071015625
0.1346328125,-3.45643359375,-4.956390625,-7.1933671875,-8.53690234375,-6.7611171875,-6.99372265624999,-3.863328125,-13.10088671875,-19.2508359375,-14.53734765625,-3.98103515625,-21.47725,-31.90306640625,-29.1396328125,-11.2852265625,-8.96216015624999,-25.26740625,-38.33035546875,-15.837765625,-13.41603515625,-27.03587890625,-35.16136328125,-33.93234765625,-14.490625,-17.69621484375,-24.8972421875,-22.29962890625,-18.8681171875,-18.1761015625
2.2866328125,-1.59043359375,-3.059390625,-6.0493671875,-6.97290234375,-5.8171171875,-6.94672265625,-3.320328125,-11.26688671875,-16.4428359375,-13.37634765625,-3.52203515625,-20.14925,-28.43906640625,-26.6366328125,-9.2302265625,-7.93916015625,-23.22340625,-36.18335546875,-12.856765625,-10.27003515625,-25.58987890625,-33.87136328125,-32.10534765625,-10.500625,-16.22921484375,-24.5272421875,-22.53562890625,-19.1611171875,-17.2511015625
4.4506328125,0.43556640625,-0.614390625,-5.0303671875,-5.46390234375,-4.5281171875,-6.04472265624999,-2.335328125,-9.56588671875,-13.2918359375,-11.52334765625,-2.53603515625,-17.82325,-24.23506640625,-23.2326328125,-6.6212265625,-6.35116015625,-20.35940625,-32.68835546875,-9.286765625,-6.65703515625,-23.64187890625,-31.40836328125,-29.26034765625,-6.058625,-14.28321484375,-23.4762421875,-22.18462890625,-19.0241171875,-16.1551015625
6.2436328125,2.29856640625,1.838609375,-4.3463671875,-4.21290234375,-3.1391171875,-4.64072265624999,-1.264328125,-8.26488671875,-10.2828359375,-9.22834765625,-1.28803515625,-15.08725,-19.96606640625,-19.5016328125,-3.7582265625,-4.63516015625,-17.17340625,-28.40135546875,-5.534765625,-3.16303515625,-21.48687890625,-28.21436328125,-25.77334765625,-1.691625,-12.21121484375,-21.9862421875,-21.39562890625,-18.5061171875,-15.0161015625
7.3866328125,3.68356640625,3.710609375,-4.2413671875,-3.44190234375,-2.0141171875,-3.33672265625,-0.529328125000003,-7.55588671875,-7.8228359375,-6.92034765625,-0.221035156249997,-12.64325,-16.25006640625,-15.9726328125,-1.1272265625,-3.30016015625,-14.19540625,-23.88835546875,-2.099765625,-0.419035156250004,-19.38187890625,-24.79836328125,-22.06434765625,2.065375,-10.41521484375,-20.3122421875,-20.29662890625,-17.6791171875,-13.9471015625
7.8186328125,4.41056640625,4.630609375,-4.8853671875,-3.27990234375,-1.4791171875,-2.70672265624999,-0.437328125000001,-7.48388671875,-6.0948359375,-5.01334765625,0.212964843750001,-11.03625,-13.47806640625,-12.9216328125,0.796773437500001,-2.75316015625,-11.82140625,-19.53135546875,0.644234374999999,1.08496484374999,-17.49187890625,-21.59036328125,-18.45334765625,4.812375,-9.23721484375,-18.6182421875,-18.98162890625,-16.6431171875,-13.0451015625
7.6766328125,4.50056640625,4.594609375,-6.2953671875,-3.69590234375,-1.7011171875,-3.07172265625,-1.055328125,-7.93988671875,-5.0298359375,-3.75234765625,-0.282035156249997,-10.47825,-11.72106640625,-10.3006328125,1.7267734375,-3.16316015625,-10.17540625,-15.45235546875,2.582234375,1.14196484375,-15.85287890625,-18.79936328125,-15.05734765625,6.384375,-8.85621484375001,-16.9002421875,-17.52462890625,-15.5061171875,-12.3771015625
7.1936328125,4.14156640625,3.934609375,-8.3153671875,-4.51390234375,-2.6491171875,-4.41372265624999,-2.196328125,-8.70088671875,-4.3618359375,-3.13634765625,-1.72403515625,-10.82825,-10.74406640625,-7.8246328125,1.6547734375,-4.39516015625,-9.08340625,-11.55135546875,3.856234375,-0.111035156250004,-14.37287890625,-16.36236328125,-11.79134765625,6.872375,-9.23421484375,-14.9822421875,-15.97762890625,-14.3541171875,-11.9581015625
6.5746328125,3.58956640625,3.154609375,-10.6323671875,-5.45690234375,-4.0921171875,-6.41772265624999,-3.494328125,-9.48888671875,-3.7388359375,-2.96334765625,-3.83803515625,-11.70325,-10.09906640625,-5.1626328125,0.810773437500004,-6.05716015625001,-8.15840625,-7.62135546875,4.753234375,-2.24803515625,-12.86487890625,-13.98636328125,-8.45234765625,6.569375,-10.13621484375,-12.6082421875,-14.36162890625,-13.2071171875,-11.7221015625
5.9356328125,3.05356640625,2.697609375,-12.8343671875,-6.20890234375,-5.6531171875,-8.60672265624999,-4.550328125,-10.03788671875,-2.8298359375,-2.94334765625,-6.15603515625,-12.65925,-9.27206640625,-2.1176328125,-0.4592265625,-7.65016015625,-6.97240625,-3.47135546875,5.556234375,-4.70903515625001,-11.13087890625,-11.29136328125,-4.85434765625,5.872375,-11.22421484375,-9.5742421875,-12.65462890625,-12.0001171875,-11.5171015625
5.2926328125,2.61756640625,2.759609375,-14.5113671875,-6.51490234375,-6.9331171875,-10.51972265625,-5.098328125,-10.16488671875,-1.4508359375,-2.82934765625,-8.21403515625,-13.35225,-7.86706640625,1.2573671875,-1.8552265625,-8.78316015625001,-5.24540625,0.94764453125,6.433234375,-6.98703515625001,-9.06287890625,-8.00136328125,-0.963347656249997,5.164375,-12.18521484375,-5.8632421875,-10.83062890625,-10.6241171875,-11.1371015625
4.5926328125,2.22556640625,3.222609375,-15.4053671875,-6.28390234375,-7.6761171875,-11.87972265625,-5.135328125,-9.83688671875,0.3381640625,-2.52834765625,-9.75403515625,-13.64225,-5.79606640625,4.6513671875,-3.2192265625,-9.35416015625,-2.98440625,5.46064453125,7.376234375,-8.80603515625,-6.73287890625,-4.13236328125,3.02665234375,4.725375,-12.81821484375,-1.7222421875,-8.92662890625,-9.0121171875,-10.3861015625
3.7656328125,1.73756640625,3.729609375,-15.5113671875,-5.65690234375,-7.8781171875,-12.65072265625,-4.928328125,-9.19788671875,2.2061640625,-2.10834765625,-10.81103515625,-13.57825,-3.37206640625,7.5873671875,-4.5572265625,-9.58316015625,-0.50940625,9.65964453125,8.224234375,-10.17303515625,-4.40487890625,-0.0803632812499977,6.70065234375,4.669375,-13.07321484375,2.3657578125,-7.10262890625,-7.2291171875,-9.1661015625
2.7876328125,1.04456640625,3.895609375,-15.0553671875,-4.94490234375,-7.7371171875,-12.97772265625,-4.869328125,-8.51288671875,3.6661640625,-1.72034765625,-11.63803515625,-13.31425,-1.21306640625,9.6013671875,-5.9612265625,-9.88316015625,1.66959375,12.99964453125,8.730234375,-11.30903515625,-2.42387890625,3.47463671875,9.52465234375,4.912375,-13.04221484375,5.8027578125,-5.61262890625,-5.5081171875,-7.5481015625
1.7536328125,0.19356640625,3.534609375,-14.3523671875,-4.45290234375,-7.4771171875,-13.01972265625,-5.239328125,-8.03188671875,4.3111640625,-1.46534765625,-12.50103515625,-12.98625,0.0199335937500003,10.4273671875,-7.5142265625,-10.62616015625,3.05859375,14.98264453125,8.643234375,-12.50203515625,-1.02987890625,5.83563671875,11.00765234375,5.200375,-12.92321484375,8.0507578125,-4.70262890625,-4.1891171875,-5.8041015625
0.8996328125,-0.57243359375,2.785609375,-13.6163671875,-4.28690234375,-7.1791171875,-12.82172265625,-6.031328125,-7.86188671875,4.0611640625,-1.30934765625,-13.48603515625,-12.63425,-0.0690664062500019,10.1103671875,-9.2212265625,-11.94616015625,3.37759375,15.33564453125,7.761234375,-13.97003515625,-0.209878906249999,6.57363671875,10.85565234375,5.168375,-12.98721484375,8.7827578125,-4.47962890625,-3.6001171875,-4.3781015625
0.5526328125,-0.88643359375,2.063609375,-12.8603671875,-4.26390234375,-6.7171171875,-12.30072265625,-6.935328125,-7.91788671875,3.2501640625,-1.10534765625,-14.43803515625,-12.20525,-1.44406640625,8.9563671875,-11.0332265625,-13.67216015625,2.64359375,14.09664453125,5.935234375,-15.80403515625,0.300121093750001,5.68263671875,9.05065234375,4.441375,-13.52321484375,7.9437578125,-4.85762890625,-3.9251171875,-3.7801015625
1.0026328125,-0.43843359375,1.831609375,-11.9163671875,-3.98590234375,-5.8471171875,-11.35772265625,-7.498328125,-7.99288671875,2.4931640625,-0.73334765625,-15.07403515625,-11.64625,-3.69806640625,7.3593671875,-12.9182265625,-15.43216015625,1.10559375,11.56064453125,3.064234375,-18.00103515625,0.844121093750001,3.50963671875,5.82465234375,2.717375,-14.76221484375,5.7307578125,-5.60962890625,-5.1261171875,-4.4181015625
2.3436328125,0.84456640625,2.342609375,-10.6043671875,-3.06890234375,-4.3961171875,-10.03972265625,-7.371328125,-7.89988671875,2.3831640625,-0.239347656250001,-15.18803515625,-11.01725,-6.29306640625,5.5973671875,-14.9322265625,-16.85216015625,-0.91240625,8.13864453125,-0.907765625000001,-20.52303515625,1.59712109375,0.538636718750002,1.55565234375,-0.163625,-16.80621484375,2.4947578125,-6.50562890625,-6.9711171875,-6.4531015625
4.3736328125,2.72356640625,3.474609375,-8.9073671875,-1.38490234375,-2.4381171875,-8.63272265625,-6.501328125,-7.61188671875,3.1741640625,0.113652343750001,-14.79703515625,-10.52525,-8.81806640625,3.7163671875,-17.2052265625,-17.72616015625,-3.15840625,4.21264453125,-5.952765625,-23.34803515625,2.40012109375,-2.84236328125,-3.36334765625,-4.184625,-19.57821484375,-1.3632421875,-7.45462890625,-9.1501171875,-9.7331015625
6.6336328125,4.72956640625,4.785609375,-7.0593671875,0.80409765625,-0.3541171875,-7.59672265624999,-5.148328125,-7.29588671875,4.6281640625,-0.03834765625,-14.12803515625,-10.45025,-11.14306640625,1.5793671875,-19.8372265625,-18.06116015625,-5.53040625,0.0386445312500001,-11.875765625,-26.44603515625,2.75512109375,-6.46536328125,-8.60934765625,-9.149625,-22.81921484375,-5.4782421875,-8.56962890625,-11.4251171875,-13.8351015625
8.5706328125,6.36556640625,5.744609375,-5.4663671875,2.91409765625,1.2958828125,-7.35572265624999,-3.722328125,-7.22688671875,6.1031640625,-0.960347656250001,-13.45703515625,-10.99425,-13.39506640625,-0.9776328125,-22.7512265625,-17.99416015625,-8.05240625,-4.27535546875,-18.255765625,-29.69603515625,2.00312109375,-10.36636328125,-13.96134765625,-14.698625,-26.14821484375,-9.5752421875,-10.09962890625,-13.6991171875,-18.1981015625
9.7416328125,7.30256640625,6.001609375,-4.5193671875,4.26509765625,2.0148828125,-8.04872265624999,-2.558328125,-7.64088671875,6.8311640625,-2.63434765625,-12.91703515625,-12.16925,-15.83206640625,-3.9856328125,-25.6102265625,-17.66116015625,-10.80940625,-8.74435546875,-24.453765625,-32.82403515625,-0.42087890625,-14.67636328125,-19.28234765625,-20.359625,-29.16221484375,-13.4922421875,-12.28662890625,-15.9911171875,-22.2691015625
9.9756328125,7.49856640625,5.569609375,-4.4173671875,4.35309765625,1.6038828125,-9.39372265624999,-1.754328125,-8.62888671875,6.2451640625,-4.71034765625,-12.39503515625,-13.79925,-18.69006640625,-7.2796328125,-27.8612265625,-17.10616015625,-13.88940625,-13.47835546875,-29.752765625,-35.41403515625,-4.75087890625,-19.50536328125,-24.50334765625,-25.637625,-31.55621484375,-17.2042421875,-15.22362890625,-18.3491171875,-25.6511015625
9.4296328125,7.18656640625,4.818609375,-5.0973671875,3.07509765625,0.265882812499999,-10.76072265625,-1.149328125,-10.11088671875,4.2181640625,-6.60934765625,-11.58803515625,-15.60825,-22.05506640625,-10.5706328125,-28.9172265625,-16.28816015625,-17.34340625,-18.61735546875,-33.571765625,-37.02103515625,-10.76587890625,-24.85136328125,-29.62834765625,-30.116625,-33.20521484375,-20.8242421875,-18.77962890625,-20.7671171875,-28.2001015625
8.5166328125,6.76856640625,4.320609375,-6.2693671875,0.80509765625,-1.4581171875,-11.41872265625,-0.442328125000003,-11.85788671875,1.1171640625,-7.74634765625,-10.18503515625,-17.34025,-25.78406640625,-13.5806328125,-28.3802265625,-15.15216015625,-21.13340625,-24.23835546875,-35.656765625,-37.33103515625,-17.81987890625,-30.55236328125,-34.71234765625,-33.537625,-34.19321484375,-24.5592421875,-22.63862890625,-23.1811171875,-30.0521015625
7.7426328125,6.65856640625,4.592609375,-7.5383671875,-1.71990234375,-2.8931171875,-10.83972265625,0.639671874999998,-13.53988671875,-2.3488359375,-7.75434765625,-8.06503515625,-18.81925,-29.47306640625,-16.1426328125,-26.2082265625,-13.71816015625,-25.06440625,-30.20735546875,-36.130765625,-36.28803515625,-24.99387890625,-36.26136328125,-39.78534765625,-35.814625,-34.74821484375,-28.6172421875,-26.40262890625,-25.5031171875,-31.5481015625
7.5026328125,7.12556640625,5.861609375,-8.5633671875,-3.66690234375,-3.5061171875,-8.94072265625,2.185671875,-14.80288671875,-5.3838359375,-6.61834765625,-5.41403515625,-19.96525,-32.51606640625,-18.2026328125,-22.7482265625,-12.12216015625,-28.75340625,-36.05335546875,-35.373765625,-34.12503515625,-31.32287890625,-41.44836328125,-44.71534765625,-36.993625,-35.11921484375,-33.0522421875,-29.70462890625,-27.6691171875,-33.0751015625
7.9326328125,8.21256640625,7.951609375,-9.1933671875,-4.44390234375,-3.1391171875,-6.13672265624999,4.040671875,-15.36988671875,-7.3618359375,-4.64134765625,-2.67503515625,-20.77025,-34.25406640625,-19.7306328125,-18.6122265625,-10.57816015625,-31.66440625,-40.95135546875,-33.788765625,-31.26803515625,-36.00387890625,-45.45536328125,-49.08334765625,-37.164625,-35.44221484375,-37.6372421875,-32.27862890625,-29.6451171875,-34.8751015625
8.8706328125,9.73056640625,10.358609375,-9.4903671875,-3.91090234375,-2.0431171875,-3.18572265624999,5.863671875,-15.11888671875,-7.9678359375,-2.28234765625,-0.373035156249998,-21.22525,-34.16306640625,-20.5706328125,-14.4442265625,-9.29116015625,-33.22440625,-43.85435546875,-31.560765625,-28.15403515625,-38.53587890625,-47.58236328125,-52.15834765625,-36.348625,-35.64221484375,-41.7932421875,-33.96162890625,-31.3541171875,-36.8771015625
9.9716328125,11.34956640625,12.487609375,-9.6323671875,-2.39090234375,-0.7191171875,-0.869722656249991,7.277671875,-14.08688671875,-7.1828359375,0.0436523437500007,1.09596484375,-21.27125,-32.00606640625,-20.3616328125,-10.6832265625,-8.35016015625,-32.97340625,-43.75935546875,-28.554765625,-25.02903515625,-38.73587890625,-47.22236328125,-53.01734765625,-34.416625,-35.42421484375,-44.6372421875,-34.62262890625,-32.5901171875,-38.6321015625
10.8816328125,12.71756640625,13.882609375,-9.7803671875,-0.46690234375,0.336882812499999,0.298277343750009,8.007671875,-12.42488671875,-5.1958359375,2.09165234375,1.59396484375,-20.80925,-27.89706640625,-18.5966328125,-7.4442265625,-7.68516015625001,-30.69840625,-40.03035546875,-24.412765625,-21.86603515625,-36.69287890625,-44.01036328125,-50.80634765625,-31.102625,-34.35921484375,-45.1802421875,-34.10162890625,-32.9781171875,-39.3891015625
11.3696328125,13.55256640625,14.352609375,-10.0123671875,1.26909765625,0.7998828125,0.201277343750007,7.946671875,-10.35488671875,-2.3228359375,3.77665234375,1.21796484375,-19.78825,-22.29206640625,-14.8766328125,-4.6082265625,-7.13216015624999,-26.51240625,-32.68535546875,-18.837765625,-18.46203515625,-32.69387890625,-37.95936328125,-45.08034765625,-26.129625,-32.05921484375,-42.6372421875,-32.20862890625,-32.0591171875,-38.3511015625
11.3616328125,13.68556640625,13.930609375,-10.3383671875,2.41709765625,0.545882812499999,-0.962722656249994,7.114671875,-8.14888671875,1.0221640625,5.06865234375,0.173964843749999,-18.30525,-15.91306640625,-9.2176328125,-2.0222265625,-6.57016015625,-20.87340625,-22.50135546875,-11.898765625,-14.65103515625,-27.18187890625,-29.55936328125,-36.07734765625,-19.429625,-28.38321484375,-36.7582421875,-28.82362890625,-29.4981171875,-35.0041015625
10.8876328125,13.04756640625,12.749609375,-10.7503671875,2.83909765625,-0.412117187500002,-2.86272265624999,5.584671875,-6.11488671875,4.3441640625,5.88965234375,-1.36803515625,-16.65825,-9.60006640625,-2.2286328125,0.302773437500001,-6.04216015625001,-14.50240625,-10.89035546875,-4.153765625,-10.51403515625,-20.74087890625,-19.74036328125,-24.78134765625,-11.339625,-23.56721484375,-28.0182421875,-24.05862890625,-25.2981171875,-29.3971015625
10.0016328125,11.65756640625,10.932609375,-11.2543671875,2.61909765625,-2.0111171875,-5.19472265624999,3.426671875,-4.53488671875,7.1291640625,6.08265234375,-3.34403515625,-15.26025,-4.10606640625,4.9893671875,2.1677734375,-5.76916015625,-8.20940625,0.47764453125,3.487234375,-6.42403515625001,-14.05087890625,-9.68436328125,-12.70034765625,-2.616625,-18.20821484375,-17.5522421875,-18.34162890625,-19.8881171875,-22.1981015625
8.7336328125,9.60256640625,8.547609375,-11.8733671875,1.96509765625,-4.1801171875,-7.76472265624999,0.698671874999999,-3.58788671875,8.9601640625,5.48765234375,-5.76303515625,-14.46325,0.110933593749998,11.1833671875,3.3197734375,-6.04416015625,-2.67440625,10.15864453125,10.090234375,-2.92103515625001,-7.78087890625,-0.51236328125,-1.42734765625,5.743375,-13.08821484375,-6.8312421875,-12.35562890625,-14.0171171875,-14.5111015625
7.0836328125,7.02956640625,5.645609375,-12.6183671875,1.10109765625,-6.8451171875,-10.47472265625,-2.507328125,-3.28688671875,9.6411640625,4.04965234375,-8.61203515625,-14.34925,3.00193359375,15.3643671875,3.6267734375,-7.06616015625001,1.72659375,17.31864453125,15.015234375,-0.493035156250009,-2.44387890625,7.02363671875,7.82065234375,12.829375,-8.92321484375,2.7837578125,-6.83062890625,-8.4891171875,-7.5071015625
5.0776328125,4.13456640625,2.340609375,-13.4573671875,0.21109765625,-9.8711171875,-13.26872265625,-6.007328125,-3.45588671875,9.2671640625,1.88265234375,-11.75903515625,-14.63025,4.88993359375,17.1073671875,3.1677734375,-8.82016015625,4.99359375,21.88464453125,18.079234375,0.606964843749992,1.72212109375,12.70663671875,14.49765234375,18.087375,-6.15321484375,10.4137578125,-2.29762890625,-3.9011171875,-2.0521015625
2.8196328125,1.15056640625,-1.135390625,-14.2903671875,-0.557902343749999,-12.9981171875,-16.06872265625,-9.494328125,-3.78188671875,8.1921640625,-0.751347656249997,-14.93703515625,-14.74825,6.28793359375,16.6223671875,2.1777734375,-11.05916015625,7.42459375,24.40364453125,19.509234375,0.425964843749995,4.78912109375,16.79063671875,18.73965234375,21.436375,-4.86221484375,15.8187578125,1.04537109375,-0.500117187499999,1.5118984375
0.5116328125,-1.67143359375,-4.445390625,-14.9533671875,-1.08890234375,-15.8561171875,-18.77272265625,-12.606328125,-3.94188671875,6.8871640625,-3.53434765625,-17.83003515625,-14.15825,7.64293359375,14.5903671875,0.891773437499999,-13.42316015625,9.42059375,25.70464453125,19.736234375,-0.766035156250005,7.03512109375,19.75063671875,21.13365234375,23.160375,-4.82521484375,19.2927578125,3.29837109375,1.7648828125,3.3358984375
-1.5813671875,-4.10343359375,-7.234390625,-15.2693671875,-1.31390234375,-18.0751171875,-21.28272265625,-15.036328125,-3.73988671875,5.7511640625,-6.19334765625,-20.21103515625,-12.66025,9.11693359375,11.8693671875,-0.618226562499999,-15.60516015625,11.26659375,26.52264453125,19.172234375,-2.64403515625001,8.76112109375,21.97263671875,22.37265234375,23.680375,-5.67421484375,21.3747578125,4.68237109375,3.0638828125,3.8468984375
-3.1973671875,-5.96743359375,-9.227390625,-15.1073671875,-1.26090234375,-19.4321171875,-23.52772265625,-16.628328125,-3.19888671875,4.9721640625,-8.54834765625,-22.03703515625,-10.56425,10.52093359375,9.2173671875,-2.4882265625,-17.46716015625,12.98559375,27.23464453125,18.064234375,-4.97203515625001,10.12312109375,23.56063671875,22.95765234375,23.334375,-7.06721484375001,22.5237578125,5.36637109375,3.5238828125,3.4758984375
-4.1443671875,-7.15143359375,-10.283390625,-14.4373671875,-1.06890234375,-19.9081171875,-25.42372265625,-17.389328125,-2.53788671875,4.5161640625,-10.48634765625,-23.42903515625,-8.58325,11.43393359375,7.1453671875,-4.9532265625,-19.04716015625,14.34159375,27.81364453125,16.493234375,-7.65803515625001,11.07012109375,24.34163671875,23.06865234375,22.243375,-8.80121484375,22.9267578125,5.38437109375,3.1758828125,2.4868984375
-4.3413671875,-7.58643359375,-10.384390625,-13.3613671875,-0.95490234375,-19.6441171875,-26.81472265625,-17.430328125,-2.08288671875,4.2461640625,-11.88834765625,-24.55703515625,-7.50425,11.41993359375,5.9153671875,-8.1362265625,-20.45916015625,14.98559375,27.96364453125,14.477234375,-10.71003515625,11.42512109375,24.04163671875,22.61065234375,20.339375,-10.80821484375,22.5077578125,4.70537109375,2.0348828125,0.962898437499998
-3.8293671875,-7.22743359375,-9.588390625,-12.1223671875,-1.11790234375,-18.8261171875,-27.45572265625,-16.889328125,-2.15488671875,4.0471640625,-12.56934765625,-25.49903515625,-7.82725,10.20093359375,5.6053671875,-11.8702265625,-21.78916015625,14.62959375,27.32864453125,12.078234375,-14.11903515625,11.03212109375,22.49063671875,21.37665234375,17.494375,-13.07321484375,21.0637578125,3.36237109375,0.205882812500001,-1.0951015625
-2.7383671875,-6.04843359375,-7.991390625,-11.0573671875,-1.65090234375,-17.5851171875,-27.09272265625,-15.878328125,-2.99088671875001,3.8891640625,-12.31034765625,-26.17703515625,-9.56124999999999,7.72893359375,6.1653671875,-15.6522265625,-23.02516015625,13.17059375,25.66464453125,9.455234375,-17.76303515625,9.87512109375,19.73263671875,19.20965234375,13.690375,-15.52521484375,18.4477578125,1.53737109375,-2.0731171875,-3.6351015625
-1.2593671875,-4.10043359375,-5.736390625,-10.5073671875,-2.49890234375,-15.9881171875,-25.60972265625,-14.480328125,-4.69588671875,3.7571640625,-10.98734765625,-26.39503515625,-12.27725,4.12793359375,7.4193671875,-18.8002265625,-24.07016015625,10.70259375,22.91664453125,6.817234375,-21.36403515625,8.09912109375,16.00263671875,16.10065234375,9.132375,-17.98521484375,14.6927578125,-0.458628906250002,-4.4781171875,-6.4681015625
0.3706328125,-1.59643359375,-3.063390625,-10.7113671875,-3.50890234375,-14.1231171875,-23.17272265625,-12.806328125,-7.23088671875,3.5421640625,-8.73534765625,-25.98403515625,-15.33025,-0.38706640625,9.0173671875,-20.7262265625,-24.79716015625,7.44959375,19.18964453125,4.329234375,-24.54503515625,5.94912109375,11.61363671875,12.19765234375,4.255375,-20.19921484375,10.0477578125,-2.28262890625,-6.6951171875,-9.2671015625
1.8616328125,1.04756640625,-0.353390625,-11.7413671875,-4.54090234375,-12.2211171875,-20.27772265625,-11.044328125,-10.41288671875,2.9991640625,-6.02934765625,-24.93203515625,-18.13725,-5.57506640625,10.4083671875,-21.2122265625,-25.11416015625,3.68359375,14.66764453125,2.000234375,-26.96203515625,3.67912109375,6.85663671875,7.73965234375,-0.400624999999999,-21.93321484375,4.9407578125,-3.68162890625,-8.5001171875,-11.6601015625
2.8676328125,3.25056640625,1.898609375,-13.4813671875,-5.56790234375,-10.6981171875,-17.65372265625,-9.454328125,-13.94188671875,1.7941640625,-3.62234765625,-23.43903515625,-20.35725,-11.17406640625,10.8893671875,-20.5402265625,-25.00116015625,-0.327406249999999,9.52464453125,-0.360765625000001,-28.45403515625,1.46712109375,1.94363671875,2.96165234375,-4.388625,-23.06921484375,-0.115242187499999,-4.56962890625,-9.8011171875,-13.3671015625
3.0456328125,4.41756640625,3.182609375,-15.6743671875,-6.71090234375,-10.0641171875,-16.04872265625,-8.293328125,-17.43988671875,-0.3718359375,-2.36834765625,-21.88003515625,-21.92425,-16.89006640625,9.7503671875,-19.4522265625,-24.52616015625,-4.34240625,3.85864453125,-3.118765625,-29.14603515625,-0.611878906249999,-2.96736328125,-1.99834765625,-7.545625,-23.67821484375,-4.6682421875,-5.03662890625,-10.6321171875,-14.3111015625
2.1396328125,4.11156640625,3.106609375,-17.9963671875,-8.19890234375,-10.7661171875,-16.01272265625,-7.739328125,-20.54188671875,-3.6618359375,-3.00534765625,-20.71103515625,-22.98025,-22.40906640625,6.4653671875,-18.9432265625,-23.84816015625,-8.14240625,-2.30935546875,-6.719765625,-29.45603515625,-2.58287890625,-7.74936328125,-7.15534765625,-10.091625,-24.01521484375,-8.4672421875,-5.29962890625,-11.1251171875,-14.6631015625
0.0516328125000002,2.18256640625,1.482609375,-20.1523671875,-10.27190234375,-13.0521171875,-17.76572265625,-7.878328125,-23.00988671875,-8.0698359375,-5.95634765625,-20.36803515625,-23.76125,-27.43306640625,0.8523671875,-19.9552265625,-23.22216015625,-11.53840625,-8.99735546875,-11.559765625,-29.99103515625,-4.52687890625,-12.30436328125,-12.64834765625,-12.555625,-24.45821484375,-11.5342421875,-5.62262890625,-11.4731171875,-14.7831015625
-3.1083671875,-1.18543359375,-1.611390625,-21.9533671875,-13.06490234375,-16.8781171875,-21.18072265625,-8.742328125,-24.80288671875,-13.4128359375,-11.17934765625,-21.16103515625,-24.50425,-31.72706640625,-6.8296328125,-23.0702265625,-22.97216015625,-14.39540625,-16.16535546875,-17.825765625,-31.35803515625,-6.54487890625,-16.57536328125,-18.63034765625,-15.570625,-25.39221484375,-14.1342421875,-6.22762890625,-11.8961171875,-15.0981015625
-7.0043671875,-5.50343359375,-5.811390625,-23.3243671875,-16.50190234375,-21.8831171875,-25.80172265625,-10.331328125,-26.04488671875,-19.3278359375,-18.11634765625,-23.16203515625,-25.37825,-35.12506640625,-15.8716328125,-28.2592265625,-23.41116015625,-16.65140625,-23.62735546875,-25.355765625,-33.93803515625,-8.72787890625,-20.55636328125,-25.12234765625,-19.598625,-27.09821484375,-16.6232421875,-7.24862890625,-12.6141171875,-15.9701015625
-11.0863671875,-10.06643359375,-10.470390625,-24.2663671875,-20.23390234375,-27.3981171875,-30.91772265625,-12.555328125,-26.89588671875,-25.2568359375,-25.74734765625,-26.12203515625,-26.44725,-37.51106640625,-25.1916328125,-34.8072265625,-24.72416015625,-18.34740625,-30.99035546875,-33.555765625,-37.70703515625,-11.16187890625,-24.24836328125,-31.88934765625,-24.704625,-29.67021484375,-19.2702421875,-8.74662890625,-13.8311171875,-17.5991015625
-14.6673671875,-14.07943359375,-14.759390625,-24.8013671875,-23.69090234375,-32.5671171875,-35.67672265625,-15.157328125,-27.42788671875,-30.4778359375,-32.79634765625,-29.49303515625,-27.66025,-38.78406640625,-33.5086328125,-41.4602265625,-26.84916015625,-19.62540625,-37.66635546875,-41.458765625,-42.18903515625,-13.92687890625,-27.62536328125,-38.42534765625,-30.461625,-32.99021484375,-22.1252421875,-10.77262890625,-15.7051171875,-20.0001015625
-17.0863671875,-16.84043359375,-17.849390625,-24.9373671875,-26.23390234375,-36.5531171875,-39.27472265625,-17.690328125,-27.58588671875,-34.2178359375,-38.03434765625,-32.56603515625,-28.87625,-38.86306640625,-39.6166328125,-46.7782265625,-29.43416015625,-20.70840625,-42.96635546875,-47.934765625,-46.58203515625,-17.08687890625,-30.62336328125,-44.06034765625,-36.039625,-36.75421484375,-24.9972421875,-13.41662890625,-18.3211171875,-23.0151015625
-17.9053671875,-17.91243359375,-19.141390625,-24.6563671875,-27.34790234375,-38.7561171875,-41.14372265625,-19.594328125,-27.23888671875,-35.8378359375,-40.60934765625,-34.69003515625,-29.91625,-37.70706640625,-42.6626328125,-49.5652265625,-31.90216015625,-21.83540625,-46.26035546875,-51.987765625,-49.98403515625,-20.63687890625,-33.15236328125,-48.12534765625,-40.438625,-40.53421484375,-27.5322421875,-16.75362890625,-21.6151171875,-26.3421015625
-17.0563671875,-17.24043359375,-18.446390625,-23.9353671875,-26.79390234375,-38.9491171875,-41.09172265625,-20.375328125,-26.27488671875,-35.0188359375,-40.26734765625,-35.46703515625,-30.63025,-35.36106640625,-42.3526328125,-49.2132265625,-33.64216015625,-23.15040625,-47.12635546875,-53.009765625,-51.65103515625,-24.41487890625,-35.11136328125,-50.12434765625,-42.774625,-43.83821484375,-29.3162421875,-20.70562890625,-25.3051171875,-29.5531015625
-14.8693671875,-15.15143359375,-16.053390625,-22.7843671875,-24.66190234375,-37.3061171875,-39.33172265625,-19.811328125,-24.67688671875,-31.8588359375,-37.37334765625,-34.86403515625,-30.96725,-31.97306640625,-38.9966328125,-45.8462265625,-34.22216015625,-24.59440625,-45.45135546875,-50.912765625,-51.17203515625,-28.02587890625,-36.36836328125,-49.83034765625,-42.524625,-46.17621484375,-29.9702421875,-24.87662890625,-28.8601171875,-32.1371015625
-11.9323671875,-12.22543359375,-12.645390625,-21.2903671875,-21.31690234375,-34.3131171875,-36.40772265625,-18.106328125,-22.55788671875,-26.8658359375,-32.74234765625,-33.19403515625,-30.98325,-27.78306640625,-33.3866328125,-40.2422265625,-33.56016015625,-25.85240625,-41.44935546875,-46.097765625,-48.56203515625,-30.85587890625,-36.73036328125,-47.30934765625,-39.645625,-47.15621484375,-29.2142421875,-28.52862890625,-31.5801171875,-33.5771015625
-8.8823671875,-9.10943359375,-9.091390625,-19.6203671875,-17.26690234375,-30.6061171875,-33.04272265625,-15.871328125,-20.12488671875,-20.8198359375,-27.36634765625,-31.00903515625,-30.78525,-23.09006640625,-26.5796328125,-33.6052265625,-31.94716015625,-26.41540625,-35.60135546875,-39.347765625,-44.24803515625,-32.20187890625,-35.95736328125,-42.88234765625,-34.575625,-46.58821484375,-26.9442421875,-30.77162890625,-32.7931171875,-33.4891015625
-6.2083671875,-6.35443359375,-6.199390625,-17.9843671875,-13.02590234375,-26.8041171875,-29.95972265625,-13.915328125,-17.62788671875,-14.5948359375,-22.17134765625,-28.94303515625,-30.45825,-18.20606640625,-19.6676328125,-27.2482265625,-29.93816015625,-25.76040625,-28.55935546875,-31.671765625,-38.97903515625,-31.50387890625,-33.84236328125,-37.07334765625,-28.127625,-44.57921484375,-23.2842421875,-30.89262890625,-32.1041171875,-31.7571015625
-4.1803671875,-4.32543359375,-4.506390625,-16.5853671875,-9.02890234375,-23.3821171875,-27.72572265625,-12.939328125,-15.32488671875,-8.9728359375,-17.86334765625,-27.54903515625,-30.03925,-13.43206640625,-13.5796328125,-22.3002265625,-28.13916015625,-23.56240625,-21.02135546875,-24.141765625,-33.65303515625,-28.56387890625,-30.31936328125,-30.54134765625,-21.311625,-41.53421484375,-18.6162421875,-28.64862890625,-29.5691171875,-28.6251015625
-2.8723671875,-3.16843359375,-4.182390625,-15.5823671875,-5.61590234375,-20.6501171875,-26.64372265625,-13.290328125,-13.45588671875,-4.4968359375,-14.84234765625,-27.17103515625,-29.53825,-9.03006640625,-8.9226328125,-19.4512265625,-27.01716015625,-19.83940625,-13.61635546875,-17.690765625,-29.09603515625,-23.64487890625,-25.53736328125,-23.98034765625,-15.097625,-38.03621484375,-13.5182421875,-24.37462890625,-25.6851171875,-24.6411015625
-2.2263671875,-2.82143359375,-5.033390625,-15.0663671875,-3.02690234375,-18.7491171875,-26.69972265625,-14.873328125,-12.21388671875,-1.3748359375,-13.16134765625,-27.86203515625,-28.96425,-5.20106640625,-5.8746328125,-18.7972265625,-26.77816015625,-14.95040625,-6.79335546875,-12.884765625,-25.83203515625,-17.39687890625,-19.83836328125,-17.98734765625,-10.155625,-34.63921484375,-8.6182421875,-18.83062890625,-21.2011171875,-20.4841015625
-2.0783671875,-3.03643359375,-6.570390625,-15.0283671875,-1.37790234375,-17.6311171875,-27.54172265625,-17.219328125,-11.68688671875,0.5411640625,-12.51634765625,-29.34003515625,-28.29925,-2.06006640625,-4.1396328125,-19.8072265625,-27.33716015625,-9.46640625,-0.752355468749999,-9.745765625,-23.93303515625,-10.66187890625,-13.66636328125,-12.92634765625,-6.676625,-31.67921484375,-4.4122421875,-12.92262890625,-16.8351171875,-16.7261015625
-2.1533671875,-3.41643359375,-8.115390625,-15.3453671875,-0.61190234375,-17.0181171875,-28.51472265625,-19.613328125,-11.78788671875,1.6941640625,-12.30234765625,-31.01403515625,-27.49025,0.373933593749999,-3.0256328125,-21.4292265625,-28.34616015625,-4.00140625,4.55364453125,-7.711765625,-22.98503515625,-4.26287890625,-7.46836328125,-8.84234765625,-4.315625,-29.18021484375,-1.1152421875,-7.42162890625,-13.0601171875,-13.6451015625
-2.0963671875,-3.48143359375,-8.945390625,-15.8143671875,-0.49290234375,-16.4241171875,-28.78772265625,-21.246328125,-12.26188671875,2.6841640625,-11.73234765625,-32.09003515625,-26.48725,2.15693359375,-1.6356328125,-22.3582265625,-29.26116015625,0.92359375,9.33464453125,-5.784765625,-22.22603515625,1.16012109375,-1.62636328125,-5.47334765625,-2.316625,-26.89421484375,1.3817578125,-2.78462890625,-10.0151171875,-11.1681015625
-1.5513671875,-2.79543359375,-8.479390625,-16.2373671875,-0.65290234375,-15.2701171875,-27.58572265625,-21.395328125,-12.78288671875,4.0641640625,-10.04534765625,-31.78603515625,-25.35025,3.36293359375,0.8343671875,-21.4072265625,-29.46916015625,4.93659375,13.81764453125,-2.866765625,-20.81003515625,5.19812109375,3.56363671875,-2.35634765625,0.210375,-24.44721484375,3.4367578125,0.86837109375,-7.5601171875,-8.9571015625
-0.2993671875,-1.11043359375,-6.471390625,-16.4993671875,-0.710902343749999,-13.0921171875,-24.45772265625,-19.610328125,-13.10188671875,6.1521640625,-6.75234765625,-29.60003515625,-24.34925,4.02093359375,4.8023671875,-17.8852265625,-28.48716015625,7.80259375,18.09164453125,1.848234375,-18.12803515625,7.65112109375,7.88263671875,0.985652343750001,3.951375,-21.54521484375,5.4867578125,3.67437109375,-5.4161171875,-6.6021015625
1.6316328125,1.51856640625,-3.123390625,-16.6073671875,-0.376902343749999,-9.7191171875,-19.47672265625,-15.889328125,-13.16288671875,8.9311640625,-1.82134765625,-25.52103515625,-23.93325,4.08693359375,10.1293671875,-11.8542265625,-26.15516015625,9.38959375,22.04364453125,8.561234375,-14.04603515625,8.47312109375,11.16163671875,4.83465234375,9.119375,-18.13921484375,7.8427578125,5.87437109375,-3.3261171875,-3.8261015625
3.9666328125,4.74156640625,0.973609375,-16.6523671875,0.50209765625,-5.3611171875,-13.24672265625,-10.719328125,-13.08888671875,12.1011640625,4.29565234375,-20.07503515625,-24.53525,3.49893359375,16.1803671875,-4.1172265625,-22.73816015625,9.65659375,25.40664453125,16.765234375,-8.96103515625001,7.73212109375,13.27963671875,9.14865234375,15.358375,-14.50321484375,10.5477578125,7.64637109375,-1.1741171875,-0.636101562500002
6.3086328125,8.07056640625,5.070609375,-16.6993671875,1.98309765625,-0.510117187500001,-6.69972265625,-4.945328125,-13.04988671875,15.2921640625,10.83165234375,-14.14703515625,-26.29125,2.29693359375,22.1033671875,4.0497734375,-18.85716015625,8.66759375,27.91764453125,25.392234375,-3.66803515625001,5.60112109375,14.16463671875,13.55165234375,21.857375,-11.16821484375,13.3447578125,8.98337109375,0.941882812500001,2.6458984375
8.3686328125,11.10756640625,8.570609375,-16.6633671875,4.10509765625,4.2918828125,-0.745722656249995,0.523671874999998,-13.09588671875,18.2901640625,17.00065234375,-8.67503515625,-28.88725,0.726933593750001,27.2033671875,11.3107734375,-15.26716015625,6.62959375,29.46864453125,33.153234375,0.917964843749992,2.35512109375,13.82863671875,17.47265234375,27.605375,-8.76421484375,15.7557578125,9.65437109375,2.7278828125,5.4768984375
10.1286328125,13.71256640625,11.255609375,-16.2753671875,6.91409765625,8.7018828125,4.04327734375001,5.013671875,-13.07488671875,21.1511640625,22.23965234375,-4.35303515625,-31.65325,-0.775066406250001,31.1873671875,16.6557734375,-12.59316015625,3.89559375,30.16164453125,38.930234375,4.03896484374999,-1.65187890625,12.39863671875,20.34065234375,31.677375,-7.82021484375001,17.2427578125,9.28937109375,3.7688828125,7.2678984375
11.8306328125,15.99956640625,13.302609375,-15.2073671875,10.38109765625,12.6558828125,7.53827734375001,8.246671875,-12.70988671875,24.0741640625,26.30065234375,-1.47503515625,-33.85625,-1.75206640625,34.1713671875,19.5867734375,-11.15816015625,0.903593750000001,30.21264453125,42.068234375,5.26496484374999,-6.03387890625,10.12163671875,21.76365234375,33.439375,-8.62021484375001,17.3847578125,7.56637109375,3.6708828125,7.5768984375
13.7656328125,18.17256640625,15.073609375,-13.3033671875,14.26709765625,16.2328828125,9.91427734375001,10.290671875,-11.80888671875,27.1571640625,29.16665234375,0.0229648437500032,-35.00225,-1.95006640625,36.4373671875,20.0837734375,-10.95916015625,-1.91440625,29.79164453125,42.473234375,4.50996484374999,-10.39087890625,7.34263671875,21.62765234375,32.643375,-11.15821484375,16.0387578125,4.42537109375,2.1968828125,6.2398984375
16.0136328125,20.31256640625,16.828609375,-10.7463671875,18.03009765625,19.4178828125,11.39427734375,11.380671875,-10.42688671875,30.1651640625,30.88565234375,0.398964843750001,-34.97825,-1.46206640625,38.1383671875,18.4277734375,-11.78516015625,-4.19640625,28.90764453125,40.507234375,1.92996484374999,-14.29787890625,4.47063671875,20.10365234375,29.418375,-15.19421484375,13.4107578125,0.23237109375,-0.5971171875,3.4038984375
18.2756328125,22.23856640625,18.523609375,-8.0443671875,20.90209765625,21.9548828125,12.05127734375,11.727671875,-8.86988671875,32.5171640625,31.43565234375,-0.0850351562500009,-34.01325,-0.68706640625,39.1203671875,14.9957734375,-13.37116015625,-5.66240625,27.43464453125,36.775234375,-2.19403515625001,-17.27287890625,1.95763671875,17.58465234375,24.200375,-20.35221484375,10.0417578125,-4.21762890625,-4.3061171875,-0.5241015625
19.9316328125,23.53356640625,19.790609375,-5.8303671875,22.11609765625,23.3858828125,11.77827734375,11.421671875,-7.55188671875,33.4651640625,30.69665234375,-1.28703515625,-32.50925,-0.130066406250002,38.9663671875,10.1277734375,-15.52016015625,-6.10640625,25.23964453125,31.876234375,-7.54203515625001,-18.82587890625,0.236636718750002,14.55965234375,17.631375,-26.21921484375,6.6487578125,-7.88662890625,-8.2341171875,-4.9901015625
20.2766328125,23.69156640625,20.088609375,-4.6243671875,21.17909765625,23.2028828125,10.36827734375,10.448671875,-6.81088671875001,32.3981640625,28.51065234375,-3.19903515625,-30.87625,-0.18706640625,37.1733671875,4.0837734375,-18.13816015625,-5.43940625,22.29564453125,26.212234375,-13.79503515625,-18.60587890625,-0.391363281249998,11.43665234375,10.406375,-32.40121484375,3.8927578125,-9.83762890625,-11.5941171875,-9.4181015625
18.8126328125,22.32656640625,18.936609375,-4.6633671875,18.04609765625,21.0418828125,7.64927734375001,8.764671875,-6.81288671875,29.0721640625,24.77465234375,-5.87203515625,-29.41325,-1.01406640625,33.3673671875,-2.9352265625,-21.19916015625,-3.77140625,18.68364453125,19.905234375,-20.64803515625,-16.58587890625,0.0696367187500009,8.36865234375,3.114375,-38.54421484375,2.1267578125,-9.59562890625,-13.7871171875,-13.3541015625
15.4676328125,19.33056640625,16.128609375,-5.8693671875,13.14009765625,16.8158828125,3.57227734375001,6.395671875,-7.53688671875,23.7091640625,19.50065234375,-9.31903515625,-28.26025,-2.51906640625,27.4443671875,-10.7202265625,-24.66216015625,-1.48440625,14.49864453125,12.868234375,-27.79503515625,-13.16487890625,1.21963671875,5.17165234375,-3.884625,-44.32321484375,1.2667578125,-7.35762890625,-14.6341171875,-16.5431015625
10.6246328125,14.91756640625,11.817609375,-7.9263671875,7.21609765625,10.7848828125,-1.73972265625,3.468671875,-8.83688671875,16.9141640625,12.84165234375,-13.43703515625,-27.40925,-4.45406640625,19.6223671875,-18.9792265625,-28.40916015625,0.813593750000001,9.77664453125,4.981234375,-34.89003515625,-9.07287890625,2.33463671875,1.41665234375,-10.459625,-49.41621484375,0.846757812500001,-3.92562890625,-14.4081171875,-18.9381015625
4.9796328125,9.54856640625,6.467609375,-10.4203671875,1.12209765625,3.5128828125,-8.00672265624999,0.189671874999998,-10.52788671875,9.4931640625,5.08765234375,-17.98203515625,-26.78025,-6.54006640625,10.4133671875,-27.2672265625,-32.19116015625,2.45059375,4.50264453125,-3.691765625,-41.49303515625,-5.13287890625,2.62263671875,-3.31834765625,-16.587625,-53.49221484375,0.264757812500001,-0.385628906250002,-13.6721171875,-20.6291015625
-0.7073671875,3.80056640625,0.698609375,-12.9793671875,-4.42990234375,-4.2671171875,-14.82872265625,-3.219328125,-12.46488671875,2.2461640625,-3.32634765625,-22.58503515625,-26.31225,-8.58006640625,0.5423671875,-34.9712265625,-35.64316015625,2.91359375,-1.26535546875,-12.766765625,-47.05903515625,-1.99687890625,1.54063671875,-9.16234765625,-22.158625,-56.24121484375,-0.9342421875,2.29337109375,-13.0031171875,-21.7371015625
-5.8103671875,-1.76043359375,-4.878390625,-15.3453671875,-8.99990234375,-11.7981171875,-21.71272265625,-6.543328125,-14.55488671875,-4.1818359375,-11.82534765625,-26.79303515625,-26.04025,-10.49306640625,-9.1426328125,-41.3692265625,-38.33416015625,2.02159375,-7.26135546875,-21.527765625,-51.00003515625,0.00712109375000125,-0.979363281249999,-15.76434765625,-26.855625,-57.44621484375,-2.8652421875,3.56937109375,-12.7671171875,-22.3581015625
-9.9193671875,-6.63743359375,-9.742390625,-17.3753671875,-12.43290234375,-18.4181171875,-28.09072265625,-9.535328125,-16.71388671875,-9.3818359375,-19.70434765625,-30.13603515625,-26.07725,-12.27406640625,-17.7616328125,-45.7572265625,-39.87116015625,-0.000406249999999275,-12.95035546875,-29.044765625,-52.82703515625,0.88412109375,-4.48836328125,-22.31434765625,-30.180625,-57.08321484375,-5.2762421875,3.41037109375,-13.0471171875,-22.5631015625
-12.7983671875,-10.39543359375,-13.456390625,-19.0023671875,-14.76290234375,-23.6111171875,-33.33772265625,-11.882328125,-18.80888671875,-13.1568359375,-26.17234765625,-32.20603515625,-26.51525,-13.90206640625,-24.4716328125,-47.5992265625,-40.00016015625,-2.58540625,-17.59135546875,-34.375765625,-52.31003515625,0.886121093750001,-8.16636328125,-27.74034765625,-31.622625,-55.37421484375,-7.6802421875,2.18237109375,-13.7261171875,-22.4671015625
-14.3053671875,-12.63843359375,-15.629390625,-20.1993671875,-16.07790234375,-27.0171171875,-36.83872265625,-13.214328125,-20.64488671875,-15.4538359375,-30.44134765625,-32.73103515625,-27.32325,-15.26706640625,-28.5506328125,-46.6572265625,-38.68816015625,-4.99940625,-20.41335546875,-36.776765625,-49.57203515625,0.38412109375,-11.09436328125,-31.01634765625,-30.872625,-52.76921484375,-9.5522421875,0.436371093750001,-14.6361171875,-22.2851015625
-14.3443671875,-13.04243359375,-15.914390625,-20.9613671875,-16.41590234375,-28.4121171875,-38.10072265625,-13.179328125,-22.00388671875,-16.2728359375,-31.87834765625,-31.63303515625,-28.32325,-16.16706640625,-29.5126328125,-43.0562265625,-36.13816015625,-6.55840625,-20.84035546875,-35.859765625,-45.07203515625,-0.24687890625,-12.53936328125,-31.47334765625,-27.985625,-49.84421484375,-10.5142421875,-1.31462890625,-15.6641171875,-22.3181015625
-12.8873671875,-11.44843359375,-14.100390625,-21.2923671875,-15.74990234375,-27.7091171875,-36.89372265625,-11.579328125,-22.71688671875,-15.6398359375,-30.20034765625,-29.05803515625,-29.30125,-16.37906640625,-27.2216328125,-37.2612265625,-32.73416015625,-6.84540625,-18.68035546875,-31.678765625,-39.46803515625,-0.71887890625,-12.16636328125,-29.00134765625,-23.397625,-47.14121484375,-10.4422421875,-2.74262890625,-16.7741171875,-22.8491015625
-10.0463671875,-7.98643359375,-10.252390625,-21.2253671875,-14.05590234375,-24.9951171875,-33.38072265625,-8.496328125,-22.73688671875,-13.6298359375,-25.62934765625,-25.37503515625,-30.14825,-15.77506640625,-21.9806328125,-29.9972265625,-28.94916015625,-5.82740625,-14.20335546875,-24.721765625,-33.43703515625,-0.89787890625,-10.09736328125,-24.08434765625,-17.802625,-45.01621484375,-9.4442421875,-3.74362890625,-17.9391171875,-23.9941015625
-6.1493671875,-3.14843359375,-4.818390625,-20.8373671875,-11.41690234375,-20.6171171875,-28.16672265625,-4.346328125,-22.17188671875,-10.4318359375,-18.92034765625,-21.13603515625,-30.94125,-14.39606640625,-14.5326328125,-22.1192265625,-25.23516015625,-3.83040625,-8.07235546875,-15.839765625,-27.52503515625,-0.819878906249999,-6.82036328125,-17.63334765625,-11.949625,-43.54621484375,-7.7632421875,-4.37462890625,-19.0621171875,-25.5971015625
-1.7333671875,2.27356640625,1.397609375,-20.2463671875,-8.09490234375,-15.2041171875,-22.21372265625,0.195671874999999,-21.23988671875,-6.3748359375,-11.21434765625,-16.96803515625,-31.85525,-12.43406640625,-5.9386328125,-14.4672265625,-21.93716015625,-1.38140625,-1.15335546875,-6.112765625,-22.07203515625,-0.65787890625,-3.00336328125,-10.69234765625,-6.437625,-42.52621484375,-5.6582421875,-4.74762890625,-19.9541171875,-27.2301015625
2.5506328125,7.38056640625,7.413609375,-19.5673671875,-4.51790234375,-9.5811171875,-16.61072265625,4.379671875,-20.16688671875,-1.9048359375,-3.75934765625,-13.43403515625,-32.97725,-10.12706640625,2.6513671875,-7.7342265625,-19.25716015625,1.03159375,5.72064453125,3.333234375,-17.23303515625,-0.65087890625,0.716636718750003,-4.15334765625,-1.603625,-41.58421484375,-3.3332421875,-4.95462890625,-20.3931171875,-28.3251015625
6.0996328125,11.41956640625,12.340609375,-18.8853671875,-1.21390234375,-4.5941171875,-12.28372265625,7.597671875,-19.08188671875,2.4821640625,2.38365234375,-10.91303515625,-34.16325,-7.67006640625,10.2483671875,-2.3722265625,-17.24816015625,3.12959375,11.91364453125,11.509234375,-13.06303515625,-0.99987890625,3.86863671875,1.41365234375,2.470375,-40.35721484375,-0.940242187499999,-5.06662890625,-20.2411171875,-28.3831015625
8.4836328125,13.96856640625,15.605609375,-18.2753671875,1.28609765625,-0.920117187500001,-9.77572265625,9.529671875,-18.02288671875,6.2931640625,6.54865234375,-9.54103515625,-35.07625,-5.20106640625,16.1843671875,1.4137734375,-15.87416015625,4.85959375,17.01164453125,17.702234375,-9.63703515625001,-1.80387890625,6.17563671875,5.75665234375,5.840375,-38.68021484375,1.3567578125,-5.18362890625,-19.5411171875,-27.2011015625
9.4946328125,14.97456640625,17.035609375,-17.8623671875,2.54109765625,1.0438828125,-9.17672265624999,10.170671875,-17.02688671875,9.0791640625,8.52565234375,-9.23703515625,-35.38025,-2.87706640625,20.1443671875,3.6187734375,-15.08316015625,6.26059375,20.75564453125,21.540234375,-7.13703515625001,-3.03387890625,7.50363671875,8.82465234375,8.545375,-36.67921484375,3.3277578125,-5.46862890625,-18.5341171875,-24.9891015625
9.1316328125,14.65956640625,16.816609375,-17.8173671875,2.30309765625,1.2098828125,-10.20172265625,9.757671875,-16.22488671875,10.4721640625,8.49465234375,-9.77703515625,-34.96825,-0.947066406250002,22.1063671875,4.3537734375,-14.87916015625,7.29659375,22.97864453125,23.015234375,-5.83203515625001,-4.56987890625,7.80163671875,10.64165234375,10.522375,-34.72921484375,4.6927578125,-6.11862890625,-17.5791171875,-22.3151015625
7.5636328125,13.35056640625,15.356609375,-18.2743671875,0.59809765625,-0.234117187500001,-12.34272265625,8.646671875,-15.84988671875,10.2611640625,6.89265234375,-10.90103515625,-34.05425,0.27293359375,22.2723671875,3.7897734375,-15.33516015625,7.80259375,23.63564453125,22.461234375,-5.94903515625001,-6.27187890625,7.09763671875,11.26665234375,11.633375,-33.28421484375,5.2237578125,-7.26662890625,-16.9991171875,-19.8661015625
5.1096328125,11.36356640625,13.125609375,-19.2133671875,-2.22890234375,-2.8911171875,-15.05572265625,7.175671875,-16.14888671875,8.4831640625,4.27965234375,-12.40403515625,-33.08525,0.512933593749999,21.0173671875,2.1357734375,-16.55116015625,7.55659375,22.87864453125,20.471234375,-7.52603515625001,-8.01587890625,5.51463671875,10.83165234375,11.791375,-32.67521484375,4.8687578125,-8.86362890625,-16.9361171875,-18.1631015625
2.2086328125,8.95456640625,10.533609375,-20.3883671875,-5.57190234375,-6.2461171875,-17.89672265625,5.547671875,-17.24788671875,5.4931640625,1.22065234375,-14.19503515625,-32.51125,-0.331066406249999,18.8403671875,-0.3982265625,-18.59316015625,6.43959375,21.08964453125,17.752234375,-10.34703515625,-9.68587890625,3.29863671875,9.57665234375,11.050375,-32.99121484375,3.8147578125,-10.62062890625,-17.2741171875,-17.3631015625
-0.6373671875,6.34956640625,7.858609375,-21.3783671875,-8.70090234375,-9.7451171875,-20.59772265625,3.783671875,-19.05888671875,1.9221640625,-1.81234765625,-16.31203515625,-32.57325,-2.16306640625,16.2753671875,-3.6352265625,-21.45016015625,4.54359375,18.78164453125,14.923234375,-14.01003515625,-11.12287890625,0.783636718750003,7.82665234375,9.599375,-34.10321484375,2.4177578125,-12.04162890625,-17.6871171875,-17.2671015625
-2.9713671875,3.77556640625,5.238609375,-21.7493671875,-10.96790234375,-12.8591171875,-23.05272265625,1.786671875,-21.29288671875,-1.4778359375,-4.51034765625,-18.86203515625,-33.21725,-4.76606640625,13.7623671875,-7.4782265625,-25.01916015625,2.16659375,16.40564453125,12.328234375,-18.10403515625,-12.10887890625,-1.68436328125,5.88565234375,7.632375,-35.80421484375,1.0487578125,-12.57462890625,-17.7661171875,-17.4881015625
-4.4993671875,1.45956640625,2.702609375,-21.2473671875,-11.99990234375,-15.1681171875,-25.26372265625,-0.534328125000002,-23.56188671875,-4.0638359375,-6.74734765625,-21.92603515625,-34.18525,-7.91006640625,11.5233671875,-11.8992265625,-29.11216015625,-0.30340625,14.17564453125,9.959234375,-22.38103515625,-12.41287890625,-3.85136328125,3.91865234375,5.213375,-37.95721484375,-0.0652421874999991,-11.80762890625,-17.2111171875,-17.6921015625
-5.1643671875,-0.40843359375,0.256609375,-19.9313671875,-11.79890234375,-16.4281171875,-27.25472265625,-3.133328125,-25.50988671875,-5.4998359375,-8.54434765625,-25.44303515625,-35.20225,-11.40806640625,9.5353671875,-16.8772265625,-33.46416015625,-2.54740625,12.01364453125,7.526234375,-26.81603515625,-11.91087890625,-5.62736328125,1.90465234375,2.243375,-40.56121484375,-0.917242187499999,-9.64962890625,-15.9661171875,-17.7621015625
-5.1183671875,-1.70443359375,-2.024390625,-18.1293671875,-10.69290234375,-16.6181171875,-28.99872265625,-5.755328125,-26.89388671875,-5.8318359375,-9.98534765625,-29.13703515625,-36.11925,-15.09606640625,7.6163671875,-22.2832265625,-37.73016015625,-4.41940625,9.64364453125,4.672234375,-31.50803515625,-10.69287890625,-7.10136328125,-0.306347656249997,-1.431625,-43.69321484375,-1.6682421875,-6.41162890625,-14.2601171875,-17.8201015625
-4.6233671875,-2.39143359375,-3.936390625,-16.2663671875,-9.17190234375,-15.8981171875,-30.37272265625,-7.974328125,-27.58888671875,-5.3958359375,-11.12034765625,-32.53503515625,-36.92225,-18.76506640625,5.6033671875,-27.7782265625,-41.50216015625,-5.94940625,6.78664453125,1.221234375,-36.48503515625,-9.10887890625,-8.47536328125,-2.87134765625,-5.829625,-47.37621484375,-2.5242421875,-2.73462890625,-12.5081171875,-18.1081015625
-3.9143671875,-2.49143359375,-5.188390625,-14.6673671875,-7.68190234375,-14.5471171875,-31.18672265625,-9.325328125,-27.55488671875,-4.6398359375,-11.92134765625,-35.09703515625,-37.64625,-22.12706640625,3.5073671875,-32.8132265625,-44.36716015625,-7.26940625,3.33464453125,-2.680765625,-41.54003515625,-7.67487890625,-9.94536328125,-5.83734765625,-10.699625,-51.47321484375,-3.6052421875,0.614371093749998,-11.1331171875,-18.8231015625
-3.1283671875,-2.06643359375,-5.515390625,-13.4593671875,-6.49690234375,-12.8941171875,-31.28372265625,-9.499328125,-26.83088671875,-3.9458359375,-12.28734765625,-36.40803515625,-38.28625,-24.83506640625,1.5503671875,-36.7642265625,-46.02216015625,-8.49440625,-0.55935546875,-6.604765625,-46.21703515625,-6.87987890625,-11.58236328125,-9.08034765625,-15.541625,-55.67621484375,-4.8762421875,3.00637109375,-10.4001171875,-20.0121015625
-2.2973671875,-1.20143359375,-4.828390625,-12.6003671875,-5.69690234375,-11.2731171875,-30.65272265625,-8.482328125,-25.54388671875,-3.5188359375,-12.12534765625,-36.35403515625,-38.77325,-26.56806640625,0.0543671875,-39.1612265625,-46.39616015625,-9.63540625,-4.52135546875,-10.037765625,-49.99103515625,-6.97687890625,-13.28136328125,-12.33734765625,-19.779625,-59.60221484375,-6.1702421875,4.12637109375,-10.3591171875,-21.5831015625
-1.3893671875,0.0145664062500002,-3.277390625,-11.9863671875,-5.23890234375,-9.9831171875,-29.47272265625,-6.562328125,-23.91888671875,-3.3668359375,-11.44434765625,-35.17203515625,-38.99225,-27.11506640625,-0.7266328125,-39.8932265625,-45.70816015625,-10.57040625,-8.07535546875,-12.621765625,-52.50503515625,-7.87987890625,-14.80036328125,-15.29534765625,-22.990625,-62.94521484375,-7.2792421875,3.99537109375,-10.9111171875,-23.4041015625
-0.3633671875,1.48856640625,-1.201390625,-11.5523671875,-5.04290234375,-9.2431171875,-28.06172265625,-4.202328125,-22.23988671875,-3.3558359375,-10.40834765625,-33.36203515625,-38.82425,-26.42606640625,-0.7306328125,-39.2602265625,-44.42616015625,-11.08040625,-10.79235546875,-14.309765625,-53.75203515625,-9.23187890625,-15.86636328125,-17.69334765625,-25.049625,-65.59221484375,-8.0442421875,2.84937109375,-11.9291171875,-25.3981015625
0.7936328125,3.13956640625,0.995609375,-11.3243671875,-5.05890234375,-9.1661171875,-26.75572265625,-1.863328125,-20.78788671875,-3.2978359375,-9.28934765625,-31.49703515625,-38.19425,-24.60706640625,-0.0996328124999999,-37.8362265625,-43.09616015625,-10.95140625,-12.41235546875,-15.355765625,-54.04403515625,-10.57687890625,-16.29436328125,-19.40034765625,-26.131625,-67.64821484375,-8.4152421875,0.97637109375,-13.3431171875,-27.5881015625
2.0556328125,4.90356640625,2.996609375,-11.3763671875,-5.27690234375,-9.7581171875,-25.78472265625,0.152671874999999,-19.75088671875,-3.0428359375,-8.34334765625,-29.99703515625,-37.10525,-21.87206640625,0.9183671875,-36.2092265625,-42.13716015625,-10.08340625,-12.91135546875,-16.144765625,-53.83403515625,-11.56987890625,-16.05636328125,-20.43634765625,-26.572625,-69.34321484375,-8.4392421875,-1.38862890625,-15.1331171875,-30.0441015625
3.3766328125,6.74056640625,4.686609375,-11.7423671875,-5.68190234375,-10.9021171875,-25.19772265625,1.770671875,-19.14788671875,-2.5468359375,-7.68234765625,-28.98903515625,-35.65225,-18.49406640625,2.0953671875,-34.7312265625,-41.67916015625,-8.55140625,-12.50535546875,-16.973765625,-53.48303515625,-12.10387890625,-15.28336328125,-20.95434765625,-26.695625,-70.90121484375,-8.2242421875,-4.07662890625,-17.2641171875,-32.7901015625
4.7206328125,8.62556640625,6.161609375,-12.3333671875,-6.20890234375,-12.3531171875,-24.85472265625,3.139671875,-18.80988671875,-1.8788359375,-7.22434765625,-28.30203515625,-33.99525,-14.77806640625,3.3043671875,-33.4332265625,-41.54516015625,-6.61740625,-11.60535546875,-17.927765625,-53.14703515625,-12.32787890625,-14.21436328125,-21.19734765625,-26.718625,-72.44221484375,-7.8962421875,-6.93662890625,-19.6131171875,-35.7381015625
4.7206328125,8.62556640625,6.161609375,-12.3333671875,-6.20890234375,-12.3531171875,-24.85472265625,3.139671875,-18.80988671875,-1.8788359375,-7.22434765625,-28.30203515625,-33.99525,-14.77806640625,3.3043671875,-33.4332265625,-41.54516015625,-6.61740625,-11.60535546875,-17.927765625,-53.14703515625,-12.32787890625,-14.21436328125,-21.19734765625,-26.718625,-72.44221484375,-7.8962421875,-6.93662890625,-19.6131171875,-35.7381015625
