"Fp1","Fpz","Fp2","F7","F3","Fz","F4","F8","FC5","FC1","FC2","FC6","T7","C3","Cz","C4","T8","CP5","CP1","CP2","CP6","P7","P3","Pz","P4","P8","POz","O1","Oz","O2"
0.3663359375,-0.358,-2.3930078125,8.92204296875,3.40865234375,-0.5628359375,5.301265625,12.0087734375,-0.7490546875,-5.00688671875,-3.224796875,5.78333984375,-11.68491015625,5.8785546875,3.82200390625,6.59053125,5.60428125,3.88457421875,7.179796875,8.60803515625,6.46290625,1.28591015625,1.9159453125,11.40265625,7.3200625,4.93271484375,11.43846875,-2.80453125,1.39471484375,4.903609375
-0.0676640625,0.972,-2.0560078125,9.34404296875,4.16065234375,2.1591640625,7.215265625,11.0567734375,0.0959453125000003,-3.90488671875,-0.607796875,8.91933984375,-10.49791015625,7.8145546875,5.38500390625,5.81653125,4.91428125,5.67157421875,8.390796875,9.02203515625,6.72990625,1.57091015625,2.0879453125,11.92965625,8.3400625,6.92971484375,10.70046875,-2.31853125,1.93871484375,9.581609375
-0.7496640625,1.427,-2.1790078125,9.33704296875,4.53665234375,3.6361640625,8.103265625,10.1877734375,0.4409453125,-3.31088671875,1.110203125,9.28333984375,-9.69391015625,8.5485546875,6.36300390625,5.11253125,3.87228125,6.82257421875,9.079796875,9.03603515625,6.82190625,1.68691015625,1.9399453125,11.87865625,8.9280625,8.27271484375,9.65246875,-2.36953125,1.61171484375,12.544609375
-1.8736640625,0.918,-2.8140078125,8.73004296875,4.31865234375,3.6931640625,7.729265625,9.3987734375,0.1359453125,-3.35888671875,1.778203125,6.95133984375,-9.28791015625,7.8765546875,6.65200390625,4.55353125,2.54128125,7.21257421875,9.165796875,8.67703515625,6.70790625,1.49991015625,1.4299453125,11.23765625,9.0960625,8.66071484375,8.32846875,-3.13953125,0.34571484375,13.459609375
-3.4776640625,-0.314,-3.7920078125,7.54604296875,3.41865234375,2.5751640625,6.200265625,8.6687734375,-0.7830546875,-4.00288671875,1.532203125,3.05033984375,-9.20091015625,5.9775546875,6.32900390625,4.26853125,1.15828125,6.88157421875,8.732796875,8.14403515625,6.43590625,0.89991015625,0.6299453125,10.20665625,9.0130625,7.94071484375,6.92546875,-4.66153125,-1.62428515625,12.484609375
-5.2996640625,-1.767,-4.7310078125,6.10704296875,2.01465234375,0.8791640625,3.980265625,8.0107734375,-2.0440546875,-4.95888671875,0.758203125,-0.79866015625,-9.33691015625,3.3935546875,5.65400390625,4.42253125,0.0692812499999995,6.00957421875,8.020796875,7.73903515625,6.13790625,-0.11608984375,-0.2800546875,9.12065625,8.9210625,6.19071484375,5.74046875,-6.77653125,-3.85328515625,10.205609375
-6.8276640625,-2.869,-5.1980078125,4.97104296875,0.54565234375,-0.6518359375,1.732265625,7.4987734375,-3.2030546875,-5.77288671875,-0.0557968749999999,-3.25266015625,-9.62591015625,0.8635546875,4.99700390625,5.12053125,-0.387718750000001,4.85457421875,7.336796875,7.72803515625,5.96490625,-1.39908984375,-1.0620546875,8.31165625,9.0000625,3.71171484375,5.05546875,-9.13053125,-5.86028515625,7.418609375
-7.5416640625,-3.212,-4.9480078125,4.66204296875,-0.46934765625,-1.4248359375,0.0312656250000003,7.1987734375,-3.8380546875,-6.01888671875,-0.522796875,-3.77866015625,-10.00791015625,-0.9504453125,4.67500390625,6.28253125,-0.0197187500000005,3.67157421875,6.932796875,8.18703515625,5.98590625,-2.68808984375,-1.5130546875,7.96765625,9.2570625,0.92671484375,5.00146875,-11.26553125,-7.30428515625,4.840609375
-7.1866640625,-2.705,-4.0910078125,5.37204296875,-0.70434765625,-1.2428359375,-0.890734375,7.0837734375,-3.7450546875,-5.54088671875,-0.539796875,-2.71966015625,-10.39791015625,-1.7244453125,4.79000390625,7.56553125,1.09528125,2.63557421875,6.864796875,8.92203515625,6.10690625,-3.72008984375,-1.5740546875,8.04965625,9.4930625,-1.76128515625,5.49046875,-12.74153125,-8.07328515625,2.889609375
-5.8926640625,-1.604,-3.0510078125,6.89604296875,-0.20334765625,-0.3918359375,-1.192734375,7.0777734375,-3.0220546875,-4.57488671875,-0.330796875,-0.93866015625,-10.66291015625,-1.5914453125,5.14000390625,8.41853125,2.60328125,1.81357421875,6.945796875,9.50203515625,6.07290625,-4.33508984375,-1.3850546875,8.30165625,9.3740625,-4.07928515625,6.22946875,-13.27353125,-8.26228515625,1.615609375
-4.0856640625,-0.373,-2.3120078125,8.79604296875,0.63665234375,0.5131640625,-1.263734375,7.1637734375,-1.9980546875,-3.64488671875,-0.311796875,0.67733984375,-10.65591015625,-1.0314453125,5.31500390625,8.27253125,4.00228125,1.18957421875,6.837796875,9.43203515625,5.55990625,-4.52108984375,-1.2170546875,8.37665625,8.5790625,-5.90628515625,6.85646875,-12.78453125,-8.05228515625,0.803609375000001
-2.2796640625,0.544,-2.1380078125,10.63304296875,1.27365234375,0.8671640625,-1.480734375,7.3737734375,-1.0680546875,-3.30288671875,-0.839796875,1.58833984375,-10.29491015625,-0.5904453125,4.93600390625,6.80053125,4.83528125,0.73057421875,6.240796875,8.37703515625,4.32390625,-4.36208984375,-1.3330546875,7.99865625,6.9580625,-7.25028515625,7.09046875,-11.36953125,-7.58028515625,0.160609375
-0.9016640625,0.908,-2.4520078125,12.08404296875,1.27165234375,0.3721640625,-2.026734375,7.6667734375,-0.5450546875,-3.84788671875,-1.993796875,1.67933984375,-9.63391015625,-0.6074453125,3.88100390625,4.08653125,4.85928125,0.42957421875,5.070796875,6.32103515625,2.30390625,-3.97408984375,-1.8610546875,7.08465625,4.6010625,-8.20428515625,6.82246875,-9.23653125,-6.90328515625,-0.543390625
-0.2056640625,0.715,-2.9550078125,12.92604296875,0.47865234375,-0.8608359375,-2.844734375,7.8637734375,-0.5640546875,-5.19188671875,-3.539796875,1.07733984375,-8.86191015625,-1.1104453125,2.34300390625,0.60453125,4.09728125,0.301574218750001,3.491796875,3.55503515625,-0.35209375,-3.44008984375,-2.7710546875,5.72565625,1.7660625,-8.91828515625,6.08046875,-6.68553125,-6.06028515625,-1.433390625
-0.2546640625,0.124,-3.3390078125,13.00204296875,-0.92634765625,-2.4308359375,-3.699734375,7.7317734375,-1.0530546875,-6.91288671875,-5.050796875,-0.0606601562499995,-8.21691015625,-1.8844453125,0.72100390625,-2.94946875,2.80328125,0.34257421875,1.823796875,0.55703515625,-3.33109375,-2.79908984375,-3.9250546875,4.09365625,-1.2309375,-9.53228515625,4.94646875,-4.08153125,-5.14528515625,-2.528390625
-0.9196640625,-0.616,-3.4220078125,12.22004296875,-2.49734765625,-3.8308359375,-4.304734375,7.1527734375,-1.7570546875,-8.42888671875,-6.062796875,-1.56466015625,-7.86191015625,-2.6124453125,-0.538996093750001,-5.84846875,1.36828125,0.52457421875,0.426796875,-2.14496484375,-6.21509375,-2.04508984375,-5.1060546875,2.38865625,-4.0639375,-10.06328515625,3.54946875,-1.76153125,-4.29128515625,-3.712390625
-1.8916640625,-1.191,-3.1250078125,10.63804296875,-3.66034765625,-4.5968359375,-4.409734375,6.2567734375,-2.2940546875,-9.19388671875,-6.193796875,-3.08366015625,-7.78891015625,-2.9884453125,-1.06399609375,-7.48246875,0.219281249999999,0.85057421875,-0.374203125,-4.04096484375,-8.51409375,-1.15308984375,-6.0190546875,0.867656250000001,-6.3679375,-10.29528515625,2.12146875,0.119468750000001,-3.55228515625,-4.694390625
-2.7446640625,-1.283,-2.4080078125,8.55104296875,-3.88534765625,-4.4148359375,-3.842734375,5.4697734375,-2.2730546875,-8.86088671875,-5.236796875,-4.01166015625,-7.80191015625,-2.7794453125,-0.628996093750001,-7.46646875,-0.283718750000001,1.39657421875,-0.334203125,-4.71096484375,-9.74209375,-0.0960898437499998,-6.2950546875,-0.129343749999999,-7.7179375,-9.80728515625,1.02946875,1.67246875,-2.81628515625,-5.040390625
-3.0846640625,-0.696,-1.2750078125,6.49604296875,-2.89034765625,-3.2398359375,-2.545734375,5.3937734375,-1.4320546875,-7.38588671875,-3.259796875,-3.70366015625,-7.61191015625,-1.8664453125,0.78700390625,-5.75546875,0.0772812499999995,2.31057421875,0.680796875,-3.90896484375,-9.53309375,1.12791015625,-5.5830546875,-0.231343749999999,-7.7109375,-8.16528515625,0.68446875,3.21146875,-1.83528515625,-4.328390625
-2.7316640625,0.515,0.1419921875,5.06404296875,-0.80034765625,-1.3488359375,-0.626734375,6.4827734375,0.2209453125,-5.04988671875,-0.627796875,-1.88166015625,-6.98191015625,-0.2804453125,2.97700390625,-2.68546875,1.32828125,3.72457421875,2.640796875,-1.66896484375,-7.77909375,2.47491015625,-3.6930546875,0.831656250000001,-6.1249375,-5.19728515625,1.38546875,5.02446875,-0.36528515625,-2.341390625
-1.8316640625,2.043,1.5419921875,4.60904296875,1.83965234375,0.7381640625,1.625265625,8.6997734375,2.3609453125,-2.38488671875,2.090203125,1.13633984375,-5.83891015625,1.7735546875,5.56700390625,1.11353125,3.30528125,5.64757421875,5.341796875,1.67703515625,-4.68009375,3.82691015625,-0.7240546875,3.08465625,-3.0419375,-1.16028515625,3.16746875,7.12946875,1.67271484375,0.794609375000001
-0.7886640625,3.447,2.5409921875,5.04604296875,4.25665234375,2.4681640625,3.836265625,11.4787734375,4.4269453125,0.0101132812499998,4.341203125,4.58733984375,-4.29791015625,3.9455546875,8.13600390625,4.92153125,5.70228125,7.87457421875,8.419796875,5.56003515625,-0.72409375,4.98891015625,2.9039453125,6.23465625,1.0970625,3.28671484375,5.74446875,9.15646875,4.09371484375,4.608609375
-0.0546640625000001,4.327,2.8839921875,5.88404296875,5.75665234375,3.4781640625,5.718265625,14.0467734375,5.8199453125,1.68411328125,5.789203125,7.63633984375,-2.59691015625,5.8175546875,10.33300390625,8.11453125,8.12028125,9.97257421875,11.394796875,9.29603515625,3.40390625,5.70591015625,6.5169453125,9.67065625,5.5440625,7.27571484375,8.52946875,10.45246875,6.46571484375,8.396609375
0.1023359375,4.48,2.6009921875,6.48404296875,6.00765234375,3.7421640625,7.171265625,15.8187734375,6.1289453125,2.47011328125,6.407203125,9.70433984375,-0.984910156250001,7.0145546875,11.94500390625,10.26053125,10.11328125,11.39457421875,13.746796875,12.22203515625,6.92390625,5.71791015625,9.3479453125,12.58965625,9.3840625,10.01871484375,10.76446875,10.34946875,8.22671484375,11.420609375
-0.2886640625,3.99,2.0199921875,6.36204296875,5.14665234375,3.5541640625,8.238265625,16.5617734375,5.2909453125,2.51111328125,6.435203125,10.60233984375,0.36408984375,7.3405546875,12.92000390625,11.13153125,11.24428125,11.68657421875,15.037796875,13.84803515625,9.10790625,4.85891015625,10.7439453125,14.21665625,11.7690625,11.06171484375,11.72546875,8.48646875,8.88471484375,13.107609375
-0.9566640625,3.183,1.5869921875,5.41904296875,3.69365234375,3.3671640625,9.002265625,16.3237734375,3.6199453125,2.15511328125,6.243203125,10.45633984375,1.37808984375,6.8595546875,13.34600390625,10.69153125,11.19628125,10.70857421875,15.059796875,13.97203515625,9.47390625,3.17291015625,10.3749453125,14.06465625,12.1640625,10.42771484375,10.96446875,5.01446875,8.18771484375,13.204609375
-1.5556640625,2.455,1.6059921875,3.99704296875,2.31165234375,3.5511640625,9.513265625,15.3297734375,1.6939453125,1.79111328125,6.151203125,9.53933984375,2.06608984375,5.8845546875,13.38800390625,9.07553125,9.89328125,8.73457421875,13.914796875,12.71103515625,7.94390625,0.97791015625,8.3539453125,12.10565625,10.4980625,8.57871484375,8.46846875,0.60646875,6.21971484375,11.815609375
-1.8586640625,2.056,2.0689921875,2.71904296875,1.52165234375,4.1831640625,9.773265625,13.9077734375,0.1219453125,1.66411328125,6.274203125,8.12233984375,2.47808984375,4.8495546875,13.19000390625,6.56453125,7.56128125,6.35557421875,12.001796875,10.43503515625,4.91090625,-1.17408984375,5.2259453125,8.78865625,7.1810625,6.22471484375,4.68046875,-3.71553125,3.38871484375,9.328609375
-1.8746640625,1.991,2.6679921875,2.15704296875,1.46965234375,5.0041640625,9.726265625,12.3707734375,-0.6980546875,1.76711328125,6.482203125,6.43133984375,2.66808984375,4.1275546875,12.81400390625,3.57453125,4.68828125,4.25357421875,9.888796875,7.64903515625,1.15290625,-2.67208984375,1.8349453125,4.92065625,2.9990625,4.10671484375,0.40846875,-6.85553125,0.36771484375,6.315609375
-1.8506640625,2.069,2.9829921875,2.48204296875,1.88465234375,5.5491640625,9.273265625,10.9037734375,-0.7180546875,1.85011328125,6.485203125,4.71933984375,2.68808984375,3.8835546875,12.24300390625,0.63053125,1.90828125,2.96157421875,8.146796875,4.88803515625,-2.37109375,-3.05408984375,-0.9110546875,1.44565625,-1.0679375,2.82071484375,-3.35453125,-7.94253125,-2.03628515625,3.412609375
-2.1416640625,2.027,2.7099921875,3.33504296875,2.21665234375,5.3611640625,8.328265625,9.5627734375,-0.2230546875,1.55411328125,5.999203125,3.32333984375,2.59108984375,4.0325546875,11.40900390625,-1.72546875,-0.139718750000001,2.69657421875,7.163796875,2.64003515625,-4.80309375,-2.18408984375,-2.3080546875,-0.827343749999999,-4.0839375,2.68671484375,-5.67853125,-6.60953125,-3.10428515625,1.192609375
-2.9856640625,1.658,1.7879921875,4.01904296875,1.91065234375,4.1931640625,6.884265625,8.3927734375,0.3429453125,0.60411328125,4.881203125,2.61633984375,2.43608984375,4.3005546875,10.24600390625,-3.07246875,-0.97871875,3.31057421875,7.034796875,1.27303515625,-5.64109375,-0.31208984375,-2.0800546875,-1.45434375,-5.4099375,3.66871484375,-5.96553125,-3.14753125,-2.47128515625,0.0196093750000004
-4.3146640625,0.911,0.4259921875,3.87004296875,0.67765234375,2.1541640625,5.049265625,7.5057734375,0.5939453125,-1.02788671875,3.213203125,2.85133984375,2.27208984375,4.3815546875,8.76100390625,-3.23646875,-0.43871875,4.37357421875,7.573796875,0.98803515625,-4.86009375,1.99591015625,-0.4460546875,-0.461343749999999,-4.8729375,5.37571484375,-4.13853125,1.54246875,-0.31628515625,-0.0583906249999995
-5.7346640625,-0.0809999999999998,-0.9980078125,2.57504296875,-1.36934765625,-0.2828359375,3.019265625,7.0287734375,0.3329453125,-3.08488671875,1.273203125,3.96933984375,2.09608984375,4.0705546875,7.09300390625,-2.33246875,1.27128125,5.32957421875,8.424796875,1.77303515625,-2.89309375,4.02191015625,1.9529453125,1.71565625,-2.7889375,7.15671484375,-0.685531249999999,6.20646875,2.66071484375,0.660609375
-6.7386640625,-1.105,-2.1240078125,0.24604296875,-3.78834765625,-2.4658359375,1.011265625,6.9877734375,-0.4560546875,-5.14188671875,-0.591796875,5.48833984375,1.78908984375,3.2945546875,5.48300390625,-0.75446875,3.59828125,5.64657421875,9.174796875,3.34603515625,-0.48409375,5.09691015625,4.2459453125,4.35865625,0.1130625,8.26971484375,3.44546875,9.62646875,5.44271484375,1.597609375
-7.0556640625,-2.061,-2.8290078125,-2.73195703125,-6.06434765625,-3.8918359375,-0.810734375,7.2627734375,-1.7340546875,-6.83388671875,-2.140796875,6.57733984375,1.09808984375,2.0465546875,4.14800390625,0.88953125,5.81128125,4.92257421875,9.425796875,5.14203515625,1.49890625,4.78391015625,5.5679453125,6.62265625,2.8690625,8.06771484375,7.08246875,10.98446875,7.03471484375,2.028609375
-6.8646640625,-3.057,-3.3060078125,-5.93995703125,-7.86034765625,-4.4418359375,-2.394734375,7.5847734375,-3.5010546875,-8.05088671875,-3.326796875,6.39033984375,-0.295910156250001,0.3145546875,3.15000390625,1.90953125,7.21828125,2.96857421875,8.847796875,6.40503515625,2.29490625,2.98191015625,5.3089453125,7.72165625,4.5370625,6.19771484375,9.16546875,10.08446875,6.79971484375,1.310609375
-6.6786640625,-4.298,-3.9120078125,-9.07995703125,-9.12934765625,-4.3858359375,-3.797734375,7.5637734375,-5.7700546875,-8.95788671875,-4.244796875,4.51733984375,-2.60291015625,-1.9054453125,2.37100390625,1.75553125,7.36328125,-0.13142578125,7.269796875,6.44003515625,1.47290625,-0.0480898437499998,3.3139453125,7.15265625,4.4880625,2.76871484375,9.09346875,7.36746875,4.68971484375,-0.854390625
-6.9956640625,-5.877,-4.8930078125,-11.99895703125,-10.01734765625,-4.1648359375,-5.120734375,6.7987734375,-8.4520546875,-9.83788671875,-5.014796875,1.26333984375,-5.72991015625,-4.5234453125,1.60000390625,0.22653125,6.11728125,-4.00142578125,4.762796875,4.89903515625,-0.92009375,-3.76208984375,-0.0750546875,4.86365625,2.6190625,-1.59228515625,6.90846875,3.69146875,1.24871484375,-4.235390625
-7.9866640625,-7.66,-6.2150078125,-14.59095703125,-10.69734765625,-4.1548359375,-6.402734375,5.0977734375,-11.2810546875,-10.88688671875,-5.697796875,-2.48466015625,-9.23191015625,-7.3064453125,0.64900390625,-2.46346875,3.65428125,-8.07542578125,1.628796875,1.92203515625,-4.38609375,-7.50008984375,-4.1830546875,1.25165625,-0.6609375,-5.89128515625,3.20346875,-0.0345312499999997,-2.64228515625,-8.121390625
-9.4746640625,-9.385,-7.6620078125,-16.74095703125,-11.27934765625,-4.5518359375,-7.599734375,2.6217734375,-13.8670546875,-12.12588671875,-6.333796875,-5.74666015625,-12.46591015625,-9.9324453125,-0.602996093750001,-5.80646875,0.36228125,-11.79542578125,-1.706203125,-1.94196484375,-8.18709375,-10.70308984375,-8.2970546875,-3.02134375,-4.6329375,-9.10428515625,-1.20653125,-3.20953125,-6.15428515625,-11.586390625
-11.1556640625,-10.847,-9.0770078125,-18.33095703125,-11.83634765625,-5.4008359375,-8.662734375,-0.194226562500001,-15.8780546875,-13.46488671875,-7.011796875,-7.93166015625,-14.88691015625,-12.1134453125,-2.21699609375,-9.23646875,-3.29671875,-14.80042578125,-4.860203125,-5.97596484375,-11.64509375,-13.09608984375,-11.9430546875,-7.29934375,-8.5639375,-10.54728515625,-5.62753125,-5.72153125,-8.83028515625,-13.855390625
-12.8206640625,-12.029,-10.5140078125,-19.31395703125,-12.47734765625,-6.6918359375,-9.648734375,-2.8892265625,-17.1880546875,-14.84188671875,-7.917796875,-9.05766015625,-16.28491015625,-13.7094453125,-4.23499609375,-12.33446875,-6.90371875,-16.99942578125,-7.615203125,-9.57696484375,-14.37409375,-14.74108984375,-14.9880546875,-11.13034375,-11.9379375,-10.11228515625,-9.67953125,-7.87953125,-10.69428515625,-14.582390625
-14.3986640625,-13.09,-12.1700078125,-19.73595703125,-13.36134765625,-8.4458359375,-10.739734375,-5.1692265625,-17.9050546875,-16.29188671875,-9.307796875,-9.62866015625,-16.82191015625,-14.7584453125,-6.68299609375,-14.92246875,-10.15571875,-18.52242578125,-9.950203125,-12.43796484375,-16.35809375,-15.93308984375,-17.5700546875,-14.33934375,-14.5499375,-8.28428515625,-13.27653125,-10.16453125,-12.12228515625,-13.922390625
-15.8326640625,-14.239,-14.1690078125,-19.70795703125,-14.60834765625,-10.6978359375,-12.145734375,-6.9592265625,-18.2690546875,-17.90188671875,-11.373796875,-10.31766015625,-16.88491015625,-15.4104453125,-9.52799609375,-16.99446875,-12.88571875,-19.57142578125,-11.968203125,-14.55996484375,-17.82609375,-16.98608984375,-19.8920546875,-16.94934375,-16.4449375,-5.92428515625,-16.45153125,-12.91453125,-13.57528515625,-12.400390625
-16.9566640625,-15.551,-16.3640078125,-19.35095703125,-16.19734765625,-13.3738359375,-13.948734375,-8.3702265625,-18.4940546875,-19.68588671875,-14.066796875,-11.59166015625,-16.84191015625,-15.8164453125,-12.58699609375,-18.55946875,-15.03271875,-20.25842578125,-13.744203125,-16.08696484375,-19.02509375,-18.00708984375,-22.0000546875,-19.00934375,-17.7469375,-3.91728515625,-19.16053125,-16.07853125,-15.29528515625,-10.648390625
-17.5086640625,-16.857,-18.3120078125,-18.75595703125,-17.90234765625,-16.1648359375,-15.984734375,-9.6162265625,-18.6580546875,-21.48188671875,-16.987796875,-13.45166015625,-16.85691015625,-16.0414453125,-15.48799609375,-19.50446875,-16.60771875,-20.51542578125,-15.206203125,-17.10296484375,-20.01709375,-18.77608984375,-23.6630546875,-20.44834375,-18.5009375,-2.85628515625,-21.18853125,-19.15153125,-17.14428515625,-9.147390625
-17.2686640625,-17.811,-19.4480078125,-17.94795703125,-19.34934765625,-18.5478359375,-17.831734375,-10.8552265625,-18.6700546875,-22.97388671875,-19.467796875,-15.41466015625,-16.82291015625,-16.0714453125,-17.75699609375,-19.60646875,-17.65271875,-20.12142578125,-16.143203125,-17.53596484375,-20.63109375,-18.81908984375,-24.4410546875,-21.07934375,-18.6329375,-2.87628515625,-22.24053125,-21.34453125,-18.66028515625,-8.101390625
-16.2156640625,-18.082,-19.3650078125,-16.89995703125,-20.16734765625,-19.9758359375,-18.939734375,-12.0322265625,-18.3560546875,-23.82688671875,-20.827796875,-16.74366015625,-16.43691015625,-15.8964453125,-19.01699609375,-18.68346875,-18.21771875,-18.85942578125,-16.342203125,-17.24796484375,-20.59709375,-17.63608984375,-23.9330546875,-20.76034375,-18.0659375,-3.73828515625,-22.14353125,-21.92153125,-19.32828515625,-7.475390625
-14.5776640625,-17.541,-18.0380078125,-15.60895703125,-20.16234765625,-20.1188359375,-18.876734375,-12.9102265625,-17.5890546875,-23.87088671875,-20.679796875,-16.79566015625,-15.36491015625,-15.5984453125,-19.16799609375,-16.78046875,-18.37171875,-16.70942578125,-15.768203125,-16.22796484375,-19.76409375,-14.99008984375,-22.0470546875,-19.58034375,-16.8829375,-5.06928515625,-21.03053125,-20.52953125,-18.87528515625,-7.140390625
-12.7476640625,-16.322,-15.8600078125,-14.20395703125,-19.41034765625,-19.0158359375,-17.578734375,-13.2852265625,-16.4060546875,-23.20788671875,-19.107796875,-15.33966015625,-13.44191015625,-15.3504453125,-18.45599609375,-14.26946875,-18.22871875,-13.94942578125,-14.645203125,-14.73396484375,-18.28109375,-11.09908984375,-19.1420546875,-17.94634375,-15.4259375,-6.60528515625,-19.35953125,-17.36053125,-17.43428515625,-7.030390625
-11.1456640625,-14.772,-13.4930078125,-12.97595703125,-18.22534765625,-17.0838359375,-15.428734375,-13.1972265625,-15.0180546875,-22.17988671875,-16.659796875,-12.72966015625,-10.81591015625,-15.3464453125,-17.40799609375,-11.79846875,-17.95071875,-11.10742578125,-13.421203125,-13.29996484375,-16.61909375,-6.63608984375,-15.9540546875,-16.49434375,-14.2579375,-8.30528515625,-17.78953125,-13.09853125,-15.49528515625,-7.209390625
-10.1176640625,-13.359,-11.6040078125,-12.25495703125,-17.01634765625,-14.9948359375,-13.137734375,-12.8982265625,-13.7260546875,-21.22588671875,-14.184796875,-9.85266015625,-7.96991015625,-15.7244453125,-16.66099609375,-10.12146875,-17.70671875,-8.80142578125,-12.637203125,-12.57796484375,-15.43109375,-2.54108984375,-13.3550546875,-15.89434375,-13.9889375,-10.26628515625,-16.97553125,-8.70753125,-13.71628515625,-7.852390625
-9.9066640625,-12.528,-10.6220078125,-12.24295703125,-16.12934765625,-13.4578359375,-11.471734375,-12.6582265625,-12.8030546875,-20.72388671875,-12.549796875,-7.85366015625,-5.60991015625,-16.5304453125,-16.73399609375,-9.83646875,-17.60771875,-7.55642578125,-12.765203125,-13.07396484375,-15.27809375,0.25991015625,-12.0690546875,-16.59834375,-15.0349375,-12.49728515625,-17.36153125,-5.16753125,-12.66528515625,-9.114390625
-10.6416640625,-12.549,-10.5940078125,-12.91895703125,-15.73234765625,-12.9538359375,-10.988734375,-12.6082265625,-12.3980546875,-20.85988671875,-12.332796875,-7.66866015625,-4.43491015625,-17.7084453125,-17.82499609375,-11.14446875,-17.67871875,-7.65642578125,-14.036203125,-14.88596484375,-16.37109375,1.12491015625,-12.4420546875,-18.65434375,-17.3839375,-14.72328515625,-19.01353125,-3.20753125,-12.61028515625,-10.967390625
-12.2616640625,-13.395,-11.2090078125,-14.04095703125,-15.77334765625,-13.5428359375,-11.839734375,-12.6902265625,-12.4990546875,-21.56488671875,-13.589796875,-9.58666015625,-4.87591015625,-19.0984453125,-19.71599609375,-13.72246875,-17.87471875,-9.07842578125,-16.323203125,-17.59596484375,-18.43909375,-0.13508984375,-14.3530546875,-21.64434375,-20.5059375,-16.36728515625,-21.57453125,-3.10253125,-13.42028515625,-13.081390625
-14.4346640625,-14.741,-11.9550078125,-15.21295703125,-16.01234765625,-14.8658359375,-13.703734375,-12.6922265625,-12.9490546875,-22.52188671875,-15.825796875,-13.06966015625,-6.89891015625,-20.4224453125,-21.82999609375,-16.80646875,-18.10871875,-11.49142578125,-19.130203125,-20.37896484375,-20.79109375,-3.19808984375,-17.2570546875,-24.80434375,-23.4739375,-16.75328515625,-24.35253125,-4.58453125,-14.62328515625,-14.854390625
-16.5466640625,-16.07,-12.3280078125,-15.97995703125,-16.11934765625,-16.3078359375,-15.878734375,-12.3692265625,-13.4810546875,-23.26488671875,-18.175796875,-16.98966015625,-9.95791015625,-21.2884453125,-23.42399609375,-19.44346875,-18.27871875,-14.29742578125,-21.686203125,-22.28896484375,-22.55109375,-7.31008984375,-20.3350546875,-27.22934375,-25.2669375,-15.43828515625,-26.51453125,-6.92553125,-15.58728515625,-15.583390625
-17.8316640625,-16.812,-11.9790078125,-15.95595703125,-15.78834765625,-17.2218359375,-17.535734375,-11.6222265625,-13.7790546875,-23.32988671875,-19.695796875,-20.11866015625,-13.12791015625,-21.2324453125,-23.80599609375,-20.78146875,-18.26871875,-16.71342578125,-23.112203125,-22.56496484375,-22.95609375,-11.47008984375,-22.6860546875,-28.10934375,-25.1149375,-12.46028515625,-27.30153125,-9.15353125,-15.72928515625,-14.715390625
-17.6136640625,-16.48,-10.7450078125,-14.94895703125,-14.81834765625,-17.1118359375,-17.988734375,-10.5752265625,-13.5450546875,-22.37388671875,-19.645796875,-21.57066015625,-15.39091015625,-19.8304453125,-22.49499609375,-20.27046875,-17.94371875,-17.90542578125,-22.637203125,-20.83796484375,-21.61009375,-14.66908984375,-23.5250546875,-26.90534375,-22.7269375,-8.36628515625,-26.20253125,-10.36253125,-14.69628515625,-12.073390625
-15.5366640625,-14.795,-8.6260078125,-13.02795703125,-13.13234765625,-15.7268359375,-16.845734375,-9.4382265625,-12.5580546875,-20.23888671875,-17.665796875,-20.96666015625,-15.95691015625,-16.8554453125,-19.32199609375,-17.74346875,-17.12471875,-17.19442578125,-19.802203125,-17.17896484375,-18.58209375,-16.12908984375,-22.3580546875,-23.47134375,-18.3519375,-4.00328515625,-23.07453125,-9.97953125,-12.46428515625,-7.945390625
-11.7456640625,-11.805,-5.7640078125,-10.51795703125,-10.77034765625,-13.0988359375,-14.043734375,-8.2432265625,-10.7460546875,-16.97288671875,-13.848796875,-18.35466015625,-14.52391015625,-12.4154453125,-14.47299609375,-13.40746875,-15.61071875,-14.28542578125,-14.637203125,-12.02496484375,-14.34509375,-15.47508984375,-19.1150546875,-18.09334375,-12.6599375,-0.19028515625,-18.18753125,-7.90253125,-9.32028515625,-3.012390625
-6.9306640625,-7.926,-2.4540078125,-7.95195703125,-7.90534765625,-9.5418359375,-9.864734375,-6.7802265625,-8.2350546875,-12.86788671875,-8.728796875,-14.07866015625,-11.37791015625,-7.0194453125,-8.51199609375,-7.80346875,-13.28771875,-9.42842578125,-7.742203125,-6.06396484375,-9.59009375,-12.81608984375,-14.1820546875,-11.45034375,-6.5279375,2.56671484375,-12.16953125,-4.46953125,-5.74928515625,1.883609375
-2.1686640625,-3.839,0.8769921875,-5.94095703125,-4.85334765625,-5.5908359375,-4.927734375,-4.8202265625,-5.3570546875,-8.46588671875,-3.179796875,-8.72566015625,-7.27491015625,-1.5024453125,-2.33199609375,-1.73646875,-10.28971875,-3.41042578125,-0.206203125,-0.10696484375,-5.02709375,-8.69208984375,-8.3280546875,-4.47134375,-0.821937500000001,4.15671484375,-5.86353125,-0.324531249999999,-2.27028515625,6.000609375
1.4473359375,-0.272,3.7729921875,-4.92895703125,-2.02734765625,-1.8918359375,-0.0937343749999997,-2.3742265625,-2.5600546875,-4.46388671875,1.787203125,-3.12466015625,-3.14791015625,3.2065546875,3.02600390625,3.86353125,-7.07571875,2.65857421875,6.639796875,5.04603515625,-1.21509375,-3.91508984375,-2.4930546875,1.86865625,3.7730625,4.76671484375,-0.11253125,3.80046875,0.72171484375,8.905609375
3.2823359375,2.27,5.9279921875,-4.93595703125,0.19365234375,1.0051640625,3.794265625,0.2697734375,-0.2270546875,-1.47588671875,5.329203125,1.73233984375,0.25808984375,6.4005546875,6.69400390625,8.16653125,-4.29971875,7.71457421875,11.633796875,8.78003515625,1.54790625,0.70591015625,2.5069453125,6.80265625,6.8950625,4.71471484375,4.47146875,7.30546875,3.07771484375,10.591609375
3.4573359375,3.696,7.3369921875,-5.50395703125,1.61065234375,2.8631640625,6.212265625,2.7117734375,1.4639453125,0.22411328125,7.068203125,4.92033984375,2.64908984375,7.8665546875,8.31700390625,10.69853125,-2.52771875,11.12357421875,14.184796875,10.84503515625,3.28690625,4.62691015625,6.2479453125,9.97665625,8.5720625,4.35071484375,7.69546875,9.93046875,4.95771484375,11.448609375
2.7753359375,4.34,8.2939921875,-5.93295703125,2.26465234375,3.8511640625,7.103265625,4.6057734375,2.5729453125,0.80011328125,7.192203125,5.87033984375,4.21708984375,7.9445546875,8.19000390625,11.47053125,-1.98071875,12.86057421875,14.460796875,11.41703515625,4.28190625,7.69091015625,8.7719453125,11.51465625,9.1740625,3.99771484375,9.78546875,11.79746875,6.74071484375,12.091609375
2.2583359375,4.74,9.1969921875,-5.66495703125,2.38665234375,4.3861640625,6.789265625,5.7007734375,3.2859453125,0.72211328125,6.291203125,4.58833984375,5.42908984375,7.3245546875,7.06200390625,10.87853125,-2.47471875,13.40357421875,13.223796875,10.95403515625,4.87490625,10.04791015625,10.4159453125,11.85165625,9.1970625,3.86571484375,11.15846875,13.26746875,8.77771484375,13.044609375
2.5763359375,5.295,10.2509921875,-4.58195703125,2.25665234375,4.8251640625,5.735265625,5.8527734375,3.7609453125,0.50311328125,4.991203125,1.65433984375,6.69408984375,6.6875546875,5.72500390625,9.43953125,-3.57271875,13.41557421875,11.408796875,9.92103515625,5.23790625,11.94291015625,11.5049453125,11.44065625,8.9780625,3.91371484375,12.10046875,14.65746875,11.09771484375,14.437609375
3.6813359375,6.036,11.2839921875,-3.06995703125,2.06265234375,5.2171640625,4.303265625,5.0227734375,4.0189453125,0.44411328125,3.657203125,-1.99866015625,8.10608984375,6.3985546875,4.62900390625,7.54053125,-4.81771875,13.38657421875,9.687796875,8.55403515625,5.24390625,13.49991015625,12.1379453125,10.52965625,8.5350625,3.80871484375,12.57846875,16.01946875,13.29771484375,15.919609375
4.8503359375,6.621,11.7839921875,-1.84495703125,1.81265234375,5.3011640625,2.628265625,3.2927734375,3.9359453125,0.51011328125,2.303203125,-5.42266015625,9.37008984375,6.3905546875,3.74700390625,5.36253125,-5.91171875,13.44257421875,8.259796875,6.83703515625,4.56290625,14.63791015625,12.1739453125,9.14465625,7.6320625,3.05271484375,12.31146875,17.10946875,14.70271484375,16.833609375
5.1033359375,6.548,11.1729921875,-1.62795703125,1.34165234375,4.6941640625,0.673265625,0.8517734375,3.3169453125,0.39311328125,0.720203125,-7.95366015625,9.96708984375,6.2625546875,2.69700390625,2.95853125,-6.76771875,13.33957421875,6.918796875,4.65003515625,2.87990625,15.13691015625,11.3899453125,7.22565625,6.0150625,1.23971484375,11.01346875,17.52046875,14.70271484375,16.552609375
3.7673359375,5.435,9.1319921875,-2.77295703125,0.43665234375,3.1391640625,-1.599734375,-2.0242265625,2.0219453125,-0.27588671875,-1.302796875,-9.34266015625,9.43408984375,5.5345546875,1.03600390625,0.40053125,-7.46271875,12.63257421875,5.309796875,1.97403515625,0.133906249999999,14.77491015625,9.6719453125,4.79265625,3.6370625,-1.70928515625,8.62846875,16.88546875,13.04071484375,14.780609375
0.8963359375,3.265,5.8309921875,-5.03495703125,-0.98434765625,0.7001640625,-4.055734375,-5.0292265625,0.0939453125000003,-1.65988671875,-3.761796875,-9.70466015625,7.63008984375,3.9325546875,-1.41599609375,-2.10646875,-8.13771875,10.94057421875,3.231796875,-0.95996484375,-3.35509375,13.46291015625,7.1419453125,2.05865625,0.7680625,-5.45528515625,5.43046875,15.03946875,9.94071484375,11.707609375
-2.6856640625,0.49,1.9459921875,-7.63895703125,-2.71834765625,-2.1628359375,-6.338734375,-7.8772265625,-2.1690546875,-3.51688671875,-6.321796875,-9.35266015625,4.85908984375,1.6175546875,-4.35399609375,-4.16546875,-8.85471875,8.21157421875,0.863796874999999,-3.62296484375,-6.90309375,11.32091015625,4.1949453125,-0.527343749999998,-2.0199375,-9.28728515625,2.01546875,12.12546875,6.05471484375,7.976609375
-5.7376640625,-2.078,-1.5610078125,-9.64395703125,-4.28734765625,-4.6938359375,-7.962734375,-10.2962265625,-4.2540546875,-5.22488671875,-8.357796875,-8.62466015625,1.80008984375,-0.8014453125,-6.98499609375,-5.22946875,-9.48371875,4.84357421875,-1.211203125,-5.28196484375,-9.62509375,8.67491015625,1.4219453125,-2.34234375,-3.9879375,-12.31128515625,-0.82453125,8.58646875,2.26771484375,4.488609375
-7.1746640625,-3.619,-3.8060078125,-10.40995703125,-5.12934765625,-6.1398359375,-8.490734375,-11.9762265625,-5.6270546875,-6.04788671875,-9.196796875,-7.77166015625,-0.74891015625,-2.5174453125,-8.33799609375,-4.79746875,-9.68271875,1.56857421875,-2.248203125,-5.25796484375,-10.73209375,5.95891015625,-0.5720546875,-2.78234375,-4.4889375,-13.72628515625,-2.34853125,5.02946875,-0.59228515625,2.081609375
-6.5566640625,-3.69,-4.3370078125,-9.89695703125,-4.90534765625,-6.1088359375,-7.742734375,-12.6082265625,-5.9850546875,-5.53588671875,-8.470796875,-6.92466015625,-2.18991015625,-2.9234453125,-7.74499609375,-2.68946875,-9.05971875,-0.87642578125,-1.730203125,-3.25896484375,-9.86709375,3.55691015625,-1.3950546875,-1.54234375,-3.2619375,-13.13528515625,-2.15553125,2.01046875,-2.03928515625,1.204609375
-4.2456640625,-2.423,-3.2930078125,-8.65095703125,-3.71734765625,-4.7778359375,-5.941734375,-12.1112265625,-5.4280546875,-3.80188671875,-6.381796875,-6.12266015625,-2.35291015625,-1.9474453125,-5.23199609375,0.74053125,-7.45671875,-2.08342578125,0.313796875,0.37503515625,-7.31509375,1.64391015625,-1.0250546875,1.17365625,-0.6139375,-10.71228515625,-0.36653125,-0.157531249999999,-2.06628515625,1.759609375
-1.1766640625,-0.399,-1.3180078125,-7.47695703125,-2.07434765625,-2.7988359375,-3.692734375,-10.8612265625,-4.4040546875,-1.50888671875,-3.679796875,-5.36766015625,-1.52391015625,-0.0984453125,-1.57699609375,4.61253125,-5.17871875,-2.12742578125,3.257796875,4.70503515625,-3.94209375,0.13691015625,0.1859453125,4.65965625,2.6520625,-7.16328515625,2.41346875,-1.46053125,-1.08928515625,3.198609375
1.5913359375,1.653,0.7139921875,-6.99195703125,-0.62934765625,-0.9998359375,-1.785734375,-9.6262265625,-3.4500546875,0.46011328125,-1.380796875,-4.71366015625,-0.27091015625,1.7995546875,1.99300390625,7.77553125,-2.96271875,-1.47642578125,6.114796875,8.49303515625,-0.88509375,-1.19908984375,1.6559453125,7.91865625,5.5140625,-3.47528515625,5.32446875,-2.12453125,0.25871484375,4.786609375
3.3113359375,3.135,2.0179921875,-7.33095703125,0.12765234375,-0.0638359374999998,-0.891734375,-9.1682265625,-2.9250546875,1.41811328125,-0.357796875,-4.30966015625,0.814089843749999,2.9865546875,4.30400390625,9.20953125,-1.67571875,-0.74742578125,7.925796875,10.64703515625,0.87290625,-2.57408984375,2.7809453125,9.99665625,7.0960625,-0.59228515625,7.53646875,-2.46153125,1.36271484375,5.897609375
3.7563359375,3.718,2.1339921875,-8.20995703125,0.0386523437500002,-0.3238359375,-1.342734375,-9.8532265625,-2.8950546875,1.14811328125,-1.006796875,-4.33866015625,1.31708984375,3.0685546875,4.68800390625,8.39053125,-1.90971875,-0.46642578125,8.096796875,10.59303515625,0.84290625,-4.05308984375,3.0999453125,10.27965625,6.9540625,0.86271484375,8.47846875,-2.75753125,1.79871484375,6.174609375
3.1383359375,3.341,1.0129921875,-9.26395703125,-0.76334765625,-1.7188359375,-3.097734375,-11.5622265625,-3.2320546875,-0.0858867187499999,-3.140796875,-4.91666015625,1.07608984375,2.0815546875,3.18900390625,5.47053125,-3.72071875,-0.93642578125,6.552796875,8.43203515625,-0.84409375,-5.57608984375,2.3869453125,8.65765625,5.1810625,0.74871484375,7.92446875,-3.21853125,1.38871484375,5.567609375
1.8463359375,2.128,-1.0480078125,-10.37195703125,-2.00934765625,-3.8968359375,-5.835734375,-13.8942265625,-3.7900546875,-1.74188671875,-6.137796875,-6.05766015625,0.132089843749999,0.3475546875,0.45400390625,1.20253125,-6.61571875,-2.22842578125,3.673796875,4.83803515625,-3.54509375,-7.08108984375,0.6489453125,5.49765625,2.3160625,-0.59828515625,5.97046875,-4.00353125,0.16971484375,4.248609375
0.2093359375,0.278,-3.5700078125,-11.72495703125,-3.43234765625,-6.3908359375,-9.071734375,-16.3902265625,-4.5130546875,-3.26488671875,-9.214796875,-7.72666015625,-1.36591015625,-1.7354453125,-2.59399609375,-3.34146875,-9.78271875,-4.24442578125,0.104796875,0.78403515625,-6.38109375,-8.58708984375,-1.8970546875,1.48965625,-0.8609375,-2.50628515625,2.95646875,-5.23153125,-1.66428515625,2.526609375
-1.5716640625,-1.963,-6.0370078125,-13.59195703125,-4.81934765625,-8.7308359375,-12.220734375,-18.6302265625,-5.4010546875,-4.27388671875,-11.669796875,-9.83266015625,-3.22091015625,-3.8234453125,-5.09199609375,-7.08846875,-12.41271875,-6.75942578125,-3.422203125,-2.73096484375,-8.50609375,-10.16108984375,-4.8540546875,-2.52334375,-3.5369375,-4.19028515625,-0.576531249999999,-6.91853125,-3.78028515625,0.774609375000001
-3.3256640625,-4.243,-7.9640078125,-16.00395703125,-5.96534765625,-10.4548359375,-14.611734375,-20.1912265625,-6.3930546875,-4.59188671875,-12.940796875,-12.06866015625,-5.19791015625,-5.6314453125,-6.41099609375,-9.16946875,-13.95671875,-9.42142578125,-6.186203125,-4.86496484375,-9.27809375,-11.79608984375,-7.6660546875,-5.66734375,-4.9859375,-4.95428515625,-3.88853125,-8.86253125,-5.69728515625,-0.587390624999999
-4.7666640625,-6.058,-8.9030078125,-18.54195703125,-6.60634765625,-11.0868359375,-15.508734375,-20.5802265625,-7.2770546875,-4.17988671875,-12.584796875,-13.71066015625,-6.98691015625,-6.8794453125,-6.19399609375,-9.00746875,-14.21971875,-11.74142578125,-7.541203125,-5.00096484375,-8.31609375,-13.29908984375,-9.6940546875,-7.14034375,-4.6369375,-4.33728515625,-6.09953125,-10.60453125,-6.82828515625,-1.112390625
-5.4646640625,-6.847,-8.5000078125,-20.40195703125,-6.45134765625,-10.2318359375,-14.248734375,-19.2522265625,-7.7270546875,-3.06588671875,-10.316796875,-13.70266015625,-8.21091015625,-7.3004453125,-4.35399609375,-6.36846875,-13.30371875,-13.18542578125,-7.033203125,-2.83296484375,-5.52009375,-14.29908984375,-10.3790546875,-6.39234375,-2.1639375,-2.19428515625,-6.39753125,-11.53653125,-6.61828515625,-0.397390625
-4.9946640625,-6.235,-6.6560078125,-20.74595703125,-5.32534765625,-7.8048359375,-10.548734375,-15.8592265625,-7.4710546875,-1.35688671875,-6.192796875,-11.16066015625,-8.50391015625,-6.7364453125,-1.12899609375,-1.46546875,-11.49071875,-13.34842578125,-4.576203125,1.51803515625,-1.11109375,-14.40408984375,-9.4480546875,-3.33534375,2.3740625,1.26971484375,-4.34753125,-11.15153125,-4.76528515625,1.776609375
-3.1946640625,-4.254,-3.6780078125,-19.16795703125,-3.36834765625,-4.2278359375,-4.860734375,-10.6642265625,-6.4820546875,0.67411328125,-0.818796875,-6.07166015625,-7.64591015625,-5.2734453125,2.85900390625,4.93253125,-9.16671875,-12.14342578125,-0.585203125,7.39203515625,4.31690625,-13.42708984375,-7.0530546875,1.53165625,8.4210625,5.51771484375,-0.13853125,-9.29453125,-1.39428515625,5.280609375
-0.3426640625,-1.404,-0.2730078125,-15.96695703125,-1.11034765625,-0.4238359375,1.519265625,-4.7572265625,-5.0550546875,2.55211328125,4.615203125,0.35033984375,-5.65091015625,-3.2994453125,6.64600390625,11.51553125,-6.79371875,-9.89342578125,4.050796875,13.62003515625,9.81990625,-11.53108984375,-3.7570546875,7.18865625,14.9420625,9.76871484375,5.40246875,-6.26653125,2.91571484375,9.571609375
2.8703359375,1.499,2.6859921875,-12.01795703125,0.68165234375,2.4511640625,6.808265625,0.2557734375,-3.6890546875,3.70811328125,8.639203125,5.97633984375,-2.79091015625,-1.4084453125,9.14900390625,16.69053125,-4.85671875,-7.23342578125,8.189796875,18.76603515625,14.26790625,-9.17808984375,-0.3420546875,12.36765625,20.6230625,13.17671484375,11.04246875,-2.73953125,7.28171484375,13.791609375
5.5933359375,3.62,4.5319921875,-8.30095703125,1.33665234375,3.4681640625,9.473265625,3.0457734375,-2.8380546875,3.70711328125,10.045203125,8.72733984375,0.48508984375,-0.1914453125,9.52900390625,19.06453125,-3.76971875,-4.86442578125,10.811796875,21.53603515625,16.65490625,-6.88808984375,2.4749453125,15.94265625,24.2290625,15.08071484375,15.54246875,0.51446875,10.80371484375,17.034609375
7.1323359375,4.44,5.0789921875,-5.46495703125,0.59965234375,2.3591640625,8.942265625,3.2237734375,-2.6860546875,2.46511328125,8.435203125,7.64333984375,3.67108984375,0.0175546875000001,7.54800390625,17.97453125,-3.75371875,-3.26942578125,11.374796875,21.22903515625,16.43690625,-4.95808984375,4.3009453125,17.26965625,24.9900625,15.21271484375,18.05246875,2.92646875,12.87671484375,18.674609375
7.1723359375,3.939,4.6479921875,-3.69495703125,-1.25034765625,-0.3288359375,5.869265625,1.4167734375,-3.1050546875,0.31711328125,4.457203125,3.42933984375,6.32108984375,-0.7154453125,3.71200390625,13.78553125,-4.78071875,-2.54842578125,9.991796875,17.98303515625,13.71990625,-3.33208984375,5.1529453125,16.34965625,22.8410625,13.75671484375,18.32446875,4.32246875,13.36571484375,18.584609375
5.8233359375,2.523,3.8109921875,-2.89595703125,-3.57034765625,-3.4918359375,1.794265625,-1.2322265625,-3.7970546875,-2.12288671875,-0.465796875,-1.93066015625,8.11908984375,-1.9824453125,-0.90999609375,7.73653125,-6.60371875,-2.46142578125,7.314796875,12.67703515625,9.20190625,-1.70908984375,5.3279453125,13.70965625,18.3810625,11.22371484375,16.66746875,4.89546875,12.56271484375,17.121609375
3.5083359375,0.737,3.0149921875,-2.92595703125,-5.69234765625,-6.0218359375,-1.616734375,-3.7302265625,-4.5330546875,-4.22588671875,-4.784796875,-6.27766015625,8.89608984375,-3.2714453125,-5.15099609375,1.39453125,-8.87671875,-2.64542578125,4.184796875,6.51603515625,3.87190625,0.17891015625,5.1459453125,10.07465625,12.5780625,8.21171484375,13.67346875,4.97846875,10.93471484375,14.898609375
0.7923359375,-1.016,2.3259921875,-3.66495703125,-7.22434765625,-7.3238359375,-3.351734375,-5.6762265625,-5.2880546875,-5.61088671875,-7.505796875,-8.39366015625,8.65008984375,-4.2544453125,-8.23099609375,-3.99346875,-11.29671875,-2.85942578125,1.240796875,0.53403515625,-1.35309375,2.28491015625,4.7079453125,6.01765625,6.3930625,5.19771484375,9.89246875,4.78546875,8.84271484375,12.476609375
-1.7676640625,-2.564,1.4579921875,-4.88795703125,-8.14834765625,-7.4798359375,-3.432734375,-7.3022265625,-6.1870546875,-6.26088671875,-8.538796875,-8.47766015625,7.55708984375,-4.9344453125,-10.01099609375,-7.88646875,-13.70471875,-3.11642578125,-1.290203125,-4.69796484375,-5.87509375,4.15591015625,3.8309453125,1.79765625,0.5350625,2.45071484375,5.65046875,4.28346875,6.40571484375,10.161609375
-3.7246640625,-3.88,0.0489921875000003,-6.12395703125,-8.68234765625,-7.0478359375,-2.731734375,-9.1442265625,-7.3090546875,-6.44388671875,-8.561796875,-7.81566015625,5.96808984375,-5.5844453125,-10.92299609375,-10.43946875,-16.05771875,-3.63842578125,-3.555203125,-9.05696484375,-9.45109375,5.08891015625,2.1689453125,-2.56834375,-4.5819375,0.0807148437500001,1.05946875,3.24946875,3.54971484375,7.972609375
-4.7976640625,-4.964,-2.0400078125,-6.70395703125,-9.05334765625,-6.6698359375,-2.361734375,-11.5422265625,-8.5030546875,-6.53488671875,-8.562796875,-7.92866015625,4.31808984375,-6.5364453125,-11.66499609375,-12.17946875,-18.31571875,-4.71042578125,-5.858203125,-12.64096484375,-12.07509375,4.45291015625,-0.5530546875,-7.08934375,-8.7499375,-1.87828515625,-3.82353125,1.43346875,0.17771484375,5.764609375
-4.9186640625,-5.774,-4.5630078125,-6.07295703125,-9.32134765625,-6.7278359375,-3.045734375,-14.3272265625,-9.3720546875,-6.81788671875,-9.305796875,-9.65966015625,2.99308984375,-7.9604453125,-12.82699609375,-13.58146875,-20.31771875,-6.50542578125,-8.411203125,-15.49896484375,-13.80009375,2.00991015625,-4.3190546875,-11.60434375,-11.8339375,-3.40028515625,-8.81453125,-1.25753125,-3.64528515625,3.414609375
-4.2006640625,-6.198,-6.9370078125,-4.14995703125,-9.36234765625,-7.1908359375,-4.779734375,-16.8922265625,-9.4290546875,-7.38988671875,-10.976796875,-12.65366015625,2.23608984375,-9.7374453125,-14.61199609375,-14.75346875,-21.76771875,-8.94042578125,-11.148203125,-17.48296484375,-14.60509375,-1.89608984375,-8.6910546875,-15.68334375,-13.6749375,-4.41828515625,-13.46653125,-4.61253125,-7.57628515625,0.984609375000001
-2.8626640625,-6.077,-8.4670078125,-1.42995703125,-8.97134765625,-7.6988359375,-6.933734375,-18.5322265625,-8.3330546875,-8.14488671875,-13.150796875,-15.53066015625,2.15408984375,-11.4744453125,-16.75499609375,-15.37546875,-22.36171875,-11.61842578125,-13.689203125,-18.28096484375,-14.39109375,-6.36408984375,-12.8550546875,-18.69734375,-14.0759375,-4.82428515625,-17.10153125,-8.07453125,-11.01328515625,-1.222390625
-1.1926640625,-5.318,-8.6750078125,1.27204296875,-8.04634765625,-7.8468359375,-8.667734375,-18.7862265625,-6.1010546875,-8.86988671875,-15.099796875,-16.72266015625,2.75608984375,-12.6664453125,-18.69099609375,-14.95746875,-21.97071875,-13.91242578125,-15.482203125,-17.63496484375,-13.10509375,-10.19108984375,-15.8570546875,-20.04534375,-12.9299375,-4.53828515625,-19.01453125,-10.86153125,-13.30228515625,-2.802390625
0.4313359375,-4.055,-7.6100078125,3.21504296875,-6.75334765625,-7.4998359375,-9.434734375,-17.6592265625,-3.2230546875,-9.39488671875,-16.234796875,-15.50566015625,3.96908984375,-12.9364453125,-19.88999609375,-13.25046875,-20.79371875,-15.18842578125,-16.078203125,-15.59696484375,-10.92109375,-12.27708984375,-16.9480546875,-19.43634375,-10.4159375,-3.63928515625,-18.80153125,-12.24753125,-14.03728515625,-3.501390625
1.5173359375,-2.713,-5.9100078125,3.99404296875,-5.56934765625,-6.9098359375,-9.281734375,-15.6572265625,-0.5720546875,-9.71088671875,-16.414796875,-12.52266015625,5.60408984375,-12.2164453125,-20.12599609375,-10.53146875,-19.33371875,-15.04742578125,-15.358203125,-12.64796484375,-8.30909375,-12.03608984375,-15.8770546875,-17.06034375,-7.0899375,-2.44128515625,-16.59253125,-11.86253125,-13.28528515625,-3.420390625
1.5863359375,-1.848,-4.5090078125,3.57404296875,-5.08434765625,-6.5488359375,-8.764734375,-13.5972265625,0.9429453125,-9.96788671875,-15.916796875,-9.41266015625,7.36708984375,-10.7644453125,-19.53999609375,-7.53946875,-18.18071875,-13.46342578125,-13.586203125,-9.53196484375,-5.89409375,-9.60008984375,-12.9640546875,-13.52034375,-3.7469375,-1.42328515625,-13.01953125,-9.83653125,-11.54128515625,-2.980390625
0.4503359375,-1.836,-4.1080078125,2.22404296875,-5.65634765625,-6.7728359375,-8.511734375,-12.2202265625,0.8479453125,-10.31588671875,-15.142796875,-7.77366015625,8.93108984375,-9.0064453125,-18.46399609375,-5.10446875,-17.68271875,-10.74542578125,-11.254203125,-6.91696484375,-4.17409375,-5.71308984375,-8.9230546875,-9.57834375,-1.1009375,-1.01328515625,-8.94853125,-6.69653125,-9.44628515625,-2.652390625
-1.5606640625,-2.632,-4.7690078125,0.415042968750001,-7.14134765625,-7.5628359375,-8.776734375,-11.8382265625,-0.6100546875,-10.73188671875,-14.312796875,-8.15066015625,10.04408984375,-7.3384453125,-17.17899609375,-3.71246875,-17.74171875,-7.40442578125,-8.852203125,-5.09196484375,-3.28309375,-1.38408984375,-4.5660546875,-5.85534375,0.5180625,-1.35728515625,-5.12153125,-3.09553125,-7.44228515625,-2.647390625
-3.6386640625,-3.747,-5.9080078125,-1.30295703125,-8.93134765625,-8.5148359375,-9.309734375,-12.2882265625,-2.6050546875,-10.98688671875,-13.352796875,-9.70166015625,10.57408984375,-5.9934453125,-15.76999609375,-3.28446875,-17.89071875,-4.00542578125,-6.718203125,-3.90496484375,-2.96709375,2.48191015625,-0.5610546875,-2.68834375,1.2530625,-2.23828515625,-1.93253125,0.43646875,-5.61728515625,-2.791390625
-4.8836640625,-4.507,-6.6770078125,-2.45795703125,-10.28234765625,-9.0758359375,-9.630734375,-13.1932265625,-4.2110546875,-10.77488671875,-12.054796875,-10.77466015625,10.47508984375,-5.0344453125,-14.16599609375,-3.29446875,-17.64171875,-1.07042578125,-5.021203125,-2.96296484375,-2.78709375,5.31191015625,2.6629453125,-0.164343749999999,1.5340625,-3.20128515625,0.54646875,3.57646875,-3.81528515625,-2.679390625
-4.7836640625,-4.419,-6.4470078125,-2.79195703125,-10.69634765625,-8.8688359375,-9.433734375,-14.2272265625,-4.8760546875,-9.91388671875,-10.346796875,-9.99066015625,9.75208984375,-4.4144453125,-12.30199609375,-3.14946875,-16.83771875,0.98457421875,-3.839203125,-1.96196484375,-2.41109375,6.91291015625,4.8749453125,1.71165625,1.7580625,-3.82928515625,2.38046875,6.12946875,-1.90528515625,-2.005390625
-3.4766640625,-3.418,-5.0740078125,-2.30795703125,-10.10834765625,-7.8798359375,-8.796734375,-15.1582265625,-4.5690546875,-8.42888671875,-8.448796875,-7.13266015625,8.48308984375,-4.0334453125,-10.25399609375,-2.56146875,-15.76271875,1.92557421875,-3.211203125,-0.89696484375,-1.81009375,7.41291015625,5.9879453125,2.88765625,2.0350625,-3.96228515625,3.58246875,7.93246875,0.00571484375000009,-0.820390624999999
-1.6006640625,-1.833,-2.8460078125,-1.24995703125,-8.78234765625,-6.3778359375,-8.074734375,-15.7852265625,-3.6130546875,-6.48888671875,-6.776796875,-3.29366015625,6.90608984375,-3.7374453125,-8.22499609375,-1.67446875,-14.91971875,1.77857421875,-3.114203125,-0.0249648437500003,-1.23609375,7.14991015625,6.0539453125,3.27965625,2.1720625,-3.73428515625,4.08446875,8.84046875,1.58271484375,0.458609375
0.1153359375,-0.119,-0.2260078125,-0.0389570312499998,-7.06834765625,-4.6588359375,-7.613734375,-15.9392265625,-2.3810546875,-4.26788671875,-5.656796875,-0.23766015625,5.44808984375,-3.3174453125,-6.41999609375,-0.89246875,-14.66071875,0.86357421875,-3.380203125,0.36903515625,-1.02109375,6.53891015625,5.3049453125,2.91065625,1.8700625,-3.42728515625,3.85046875,8.81646875,2.47171484375,1.274609375
1.2393359375,1.408,2.3709921875,0.82004296875,-5.19634765625,-2.8368359375,-7.480734375,-15.5572265625,-1.1170546875,-1.84388671875,-5.078796875,0.58033984375,4.61808984375,-2.5464453125,-4.90299609375,-0.55946875,-14.91371875,-0.26642578125,-3.671203125,0.219035156249999,-1.34909375,5.94691015625,4.1559453125,2.02965625,0.9740625,-3.28128515625,3.00246875,8.02146875,2.51571484375,1.221609375
1.7723359375,2.653,4.6569921875,0.899042968750001,-3.23434765625,-0.8378359375,-7.376734375,-14.6962265625,0.0889453125000003,0.79611328125,-4.657796875,-1.19366015625,4.77908984375,-1.2654453125,-3.54299609375,-0.69746875,-15.18071875,-0.999425781249999,-3.560203125,-0.21696484375,-2.11509375,5.61091015625,3.1219453125,1.09865625,-0.3769375,-3.35928515625,1.85046875,6.81546875,1.85171484375,0.249609375
2.0563359375,3.686,6.4409921875,0.0700429687500002,-1.15634765625,1.4651640625,-6.750734375,-13.4702265625,1.2199453125,3.69011328125,-3.797796875,-4.60866015625,5.94708984375,0.5535546875,-2.06299609375,-0.94046875,-14.79471875,-0.86042578125,-2.671203125,-0.44996484375,-2.92409375,5.63291015625,2.6749453125,0.642656250000001,-1.7649375,-3.50228515625,0.80446875,5.66646875,0.84871484375,-1.284390625
2.5653359375,4.651,7.6029921875,-1.35195703125,1.05265234375,4.1031640625,-5.119734375,-12.0572265625,2.2579453125,6.80911328125,-1.976796875,-7.87966015625,7.75508984375,2.7895546875,-0.158996093750001,-0.70446875,-13.30771875,0.327574218750001,-0.829203125,0.0230351562499997,-3.24409375,5.99491015625,3.0919453125,1.04765625,-2.6499375,-3.37728515625,0.24446875,5.00446875,-0.0432851562500001,-2.729390625
3.6663359375,5.686,8.1109921875,-2.67195703125,3.31265234375,6.9151640625,-2.393734375,-10.7462265625,3.1369453125,9.99311328125,0.973203125,-9.29566015625,9.59108984375,5.1975546875,2.31800390625,0.46753125,-10.76471875,2.39257421875,1.841796875,1.44103515625,-2.66309375,6.59791015625,4.3579453125,2.39565625,-2.6019375,-2.60728515625,0.37946875,5.10046875,-0.44428515625,-3.362390625
5.4383359375,6.821,8.0359921875,-3.13995703125,5.41765234375,9.5351640625,0.967265625,-9.8962265625,3.7509453125,12.93911328125,4.691203125,-8.09266015625,10.82808984375,7.4455546875,5.21700390625,2.57053125,-7.71271875,4.86657421875,4.909796875,3.59303515625,-1.12009375,7.29791015625,6.1529453125,4.38565625,-1.5319375,-0.96428515625,1.15946875,6.01946875,-0.14828515625,-2.658390625
7.5793359375,7.904,7.5429921875,-2.36195703125,7.07065234375,11.4801640625,4.101265625,-9.7402265625,3.9709453125,15.26511328125,8.356203125,-4.80966015625,11.05008984375,9.1745546875,8.05000390625,5.03453125,-4.94471875,7.14557421875,7.730796875,5.81903515625,1.01090625,7.94791015625,7.9629453125,6.41265625,0.2110625,1.50171484375,2.28046875,7.63946875,0.83471484375,-0.508390625
9.4793359375,8.637,6.8489921875,-0.56395703125,7.98665234375,12.3411640625,6.097265625,-10.2332265625,3.6889453125,16.61411328125,11.006203125,-0.96266015625,10.17408984375,10.0735546875,10.14500390625,6.95753125,-3.14371875,8.68557421875,9.635796875,7.25403515625,3.06690625,8.44191015625,9.2569453125,7.76965625,1.9540625,4.45371484375,3.29246875,9.73646875,2.31971484375,2.733609375
10.4613359375,8.728,6.1539921875,1.49404296875,8.02065234375,11.9631640625,6.387265625,-11.0822265625,2.8619453125,16.77311328125,11.946203125,1.72933984375,8.43808984375,9.9675546875,10.91000390625,7.54153125,-2.61771875,9.15757421875,10.130796875,7.18103515625,4.39590625,8.71991015625,9.6509453125,7.89565625,2.9610625,7.41571484375,3.75646875,12.03546875,4.01871484375,6.374609375
10.0943359375,8.027,5.5559921875,2.89504296875,7.24265234375,10.4921640625,4.959265625,-11.8972265625,1.5489453125,15.73211328125,11.015203125,2.12033984375,6.27408984375,8.8575546875,10.05800390625,6.44053125,-3.23371875,8.51157421875,9.033796875,5.31203515625,4.61390625,8.74291015625,8.9749453125,6.53465625,2.7000625,9.93071484375,3.36046875,14.20646875,5.59571484375,9.599609375
8.3743359375,6.56,4.9939921875,2.99004296875,5.88865234375,8.2581640625,2.324265625,-12.3422265625,-0.1090546875,13.67411328125,8.589203125,0.0753398437500006,4.12808984375,6.9265546875,7.71200390625,3.86553125,-4.52571875,6.92357421875,6.496796875,1.87703515625,3.72590625,8.45791015625,7.2549453125,3.77765625,1.0110625,11.68371484375,1.97546875,15.82246875,6.70071484375,11.705609375
5.6763359375,4.498,4.2829921875,1.62004296875,4.22565234375,5.6061640625,-0.747734375,-12.2482265625,-1.9350546875,10.92411328125,5.371203125,-3.56066015625,2.32908984375,4.4905546875,4.36700390625,0.45653125,-5.89271875,4.71057421875,2.964796875,-2.47096484375,2.07690625,7.79291015625,4.6749453125,0.023656250000001,-1.8329375,12.53871484375,-0.30853125,16.40846875,7.03671484375,12.300609375
2.5343359375,2.11,3.2439921875,-0.937957031249999,2.41165234375,2.8171640625,-3.548734375,-11.6732265625,-3.7700546875,7.88911328125,2.126203125,-7.40566015625,1.04608984375,1.9485546875,0.762003906249999,-2.95446875,-6.80171875,2.26357421875,-0.906203125,-6.84496484375,0.21190625,6.70191015625,1.5769453125,-4.08234375,-5.1659375,12.54971484375,-3.13153125,15.61446875,6.50071484375,11.449609375
-0.5636640625,-0.282,1.8559921875,-4.17295703125,0.46565234375,0.1061640625,-5.636734375,-10.8592265625,-5.4880546875,4.99911328125,-0.534796875,-10.15966015625,0.327089843749999,-0.2884453125,-2.31999609375,-5.59246875,-6.94871875,0.0105742187500004,-4.377203125,-10.35796484375,-1.30109375,5.25691015625,-1.5410546875,-7.75434375,-8.0949375,11.94371484375,-5.86853125,13.45446875,5.31571484375,9.687609375
-3.2676640625,-2.355,0.3319921875,-7.51195703125,-1.65034765625,-2.3588359375,-6.862734375,-10.0592265625,-6.9650546875,2.62811328125,-2.288796875,-11.10466015625,0.14908984375,-1.8844453125,-4.28999609375,-6.94946875,-6.34871875,-1.64942578125,-6.813203125,-12.36396484375,-2.04709375,3.71091015625,-4.0890546875,-10.24834375,-9.7629375,11.05071484375,-7.75753125,10.42646875,4.03271484375,7.856609375
-5.3216640625,-3.836,-0.9500078125,-10.41595703125,-3.90534765625,-4.4588359375,-7.303734375,-9.3972265625,-8.0340546875,1.00711328125,-3.149796875,-10.24266015625,0.442089843749999,-2.6634453125,-4.93899609375,-6.90646875,-5.31871875,-2.43742578125,-7.872203125,-12.62196484375,-1.89009375,2.46591015625,-5.5470546875,-11.08034375,-9.6489375,10.19371484375,-8.13953125,7.39346875,3.36071484375,6.794609375
-6.5186640625,-4.536,-1.6110078125,-12.45995703125,-6.13734765625,-6.1278359375,-7.203734375,-8.8952265625,-8.5040546875,0.14911328125,-3.398796875,-8.11166015625,1.07908984375,-2.6604453125,-4.48999609375,-5.70546875,-4.31971875,-2.28542578125,-7.609203125,-11.33696484375,-0.98809375,1.92491015625,-5.6550546875,-10.19234375,-7.7519375,9.59171484375,-6.71353125,5.26146875,3.87771484375,7.008609375
-6.7446640625,-4.399,-1.4730078125,-13.41295703125,-8.09734765625,-7.3868359375,-6.922734375,-8.5692265625,-8.2480546875,-0.16488671875,-3.459796875,-5.47666015625,1.87508984375,-2.1234453125,-3.50299609375,-3.83346875,-3.71771875,-1.38342578125,-6.453203125,-9.05896484375,0.28990625,2.27691015625,-4.5550546875,-7.99534375,-4.6029375,9.30471484375,-3.69553125,4.57546875,5.76371484375,8.467609375
-6.1076640625,-3.586,-0.7280078125,-13.27895703125,-9.59034765625,-8.3758359375,-6.873734375,-8.4802265625,-7.3600546875,-0.32188671875,-3.774796875,-3.11166015625,2.59908984375,-1.4844453125,-2.67599609375,-1.89346875,-3.59971875,-0.15742578125,-5.077203125,-6.52796484375,1.48590625,3.34291015625,-2.7980546875,-5.26934375,-1.1029375,9.21871484375,0.17546875,5.25946875,8.64371484375,10.583609375
-5.0356640625,-2.521,0.0579921875000002,-12.25195703125,-10.59634765625,-9.3568359375,-7.424734375,-8.6832265625,-6.2430546875,-0.75888671875,-4.692796875,-1.71766015625,3.01608984375,-1.2644453125,-2.61899609375,-0.50646875,-3.77371875,0.827574218750001,-4.204203125,-4.50896484375,2.15690625,4.59091015625,-1.1930546875,-2.94934375,1.7310625,9.08171484375,3.81846875,6.61346875,11.63671484375,12.395609375
-4.1746640625,-1.774,0.1659921875,-10.64295703125,-11.26034765625,-10.5928359375,-8.780734375,-9.1942265625,-5.5130546875,-1.79188671875,-6.366796875,-1.82766015625,2.96408984375,-1.8874453125,-3.63499609375,-0.19746875,-3.95371875,1.04357421875,-4.364203125,-3.60096484375,1.97490625,5.35491015625,-0.5140546875,-1.80534375,3.0850625,8.60071484375,6.15946875,7.61946875,13.65171484375,12.928609375
-4.0696640625,-1.797,-0.8930078125,-8.79495703125,-11.74834765625,-12.1498359375,-10.870734375,-9.9782265625,-5.6910546875,-3.44588671875,-8.649796875,-3.64066015625,2.42508984375,-3.4764453125,-5.59299609375,-1.22946875,-3.97371875,0.22057421875,-5.693203125,-4.05496484375,0.83190625,5.16091015625,-1.1720546875,-2.15834375,2.6280625,7.60871484375,6.52546875,7.39846875,13.82571484375,11.601609375
-4.8426640625,-2.687,-3.0720078125,-7.02495703125,-12.07434765625,-13.7868359375,-13.279734375,-10.8792265625,-6.8490546875,-5.38388671875,-11.100796875,-6.85066015625,1.55408984375,-5.7284453125,-7.97299609375,-3.45946875,-3.86671875,-1.50942578125,-7.885203125,-5.67996484375,-1.08109375,3.96891015625,-3.0410546875,-3.77134375,0.6260625,6.18771484375,4.88546875,5.59746875,11.89071484375,8.483609375
-6.0956640625,-4.152,-5.7770078125,-5.59295703125,-12.06034765625,-15.0298359375,-15.342734375,-11.5892265625,-8.4950546875,-7.02788671875,-13.126796875,-10.63566015625,0.62008984375,-8.0124453125,-10.10199609375,-6.31346875,-3.76171875,-3.65342578125,-10.330203125,-7.92096484375,-3.29609375,2.17891015625,-5.5330546875,-6.01034375,-2.1899375,4.67271484375,1.80546875,2.49346875,8.27271484375,4.253609375
-7.1496640625,-5.67,-8.1710078125,-4.66895703125,-11.47634765625,-15.4168359375,-16.410734375,-11.7562265625,-9.8020546875,-7.83688671875,-14.231796875,-13.86066015625,-0.0949101562500001,-9.6364453125,-11.46899609375,-8.96346875,-3.71971875,-5.56142578125,-12.388203125,-10.08796484375,-5.19809375,0.39091015625,-7.8880546875,-8.16834375,-4.9229375,3.50271484375,-1.84553125,-1.19353125,3.87671484375,-0.112390625
-7.4356640625,-6.739,-9.6090078125,-4.32095703125,-10.23634765625,-14.7518359375,-16.156734375,-11.1942265625,-10.0330546875,-7.58888671875,-14.221796875,-15.44766015625,-0.38791015625,-10.1534453125,-11.92599609375,-10.61746875,-3.62971875,-6.67142578125,-13.633203125,-11.61496484375,-6.23609375,-0.90608984375,-9.5060546875,-9.76134375,-6.8499375,2.99971484375,-5.26353125,-4.65453125,-0.30028515625,-3.744390625
-6.8106640625,-7.115,-9.9460078125,-4.49295703125,-8.51734765625,-13.2398359375,-14.728734375,-9.9712265625,-8.8850546875,-6.47788671875,-13.269796875,-14.78866015625,-0.17991015625,-9.5224453125,-11.69799609375,-10.81546875,-3.23871875,-6.69442578125,-13.968203125,-12.23196484375,-6.09909375,-1.52708984375,-10.1440546875,-10.65134375,-7.6359375,3.17771484375,-7.97153125,-7.30453125,-3.54228515625,-6.195390625
-5.6126640625,-6.898,-9.5670078125,-5.00395703125,-6.70234765625,-11.4118359375,-12.636734375,-8.2942265625,-6.5770546875,-4.97388671875,-11.811796875,-12.01666015625,0.486089843749999,-8.0674453125,-11.18099609375,-9.58246875,-2.26571875,-5.65442578125,-13.570203125,-11.98196484375,-4.80209375,-1.58008984375,-9.9010546875,-10.96734375,-7.3649375,3.69871484375,-9.86053125,-8.90453125,-5.56928515625,-7.524390625
-4.4236640625,-6.426,-9.1110078125,-5.56695703125,-5.19134765625,-9.8608359375,-10.480734375,-6.3672265625,-3.6920546875,-3.54788671875,-10.292796875,-7.96466015625,1.47408984375,-6.2554453125,-10.66499609375,-7.33846875,-0.549718750000001,-3.80742578125,-12.711203125,-11.08396484375,-2.62309375,-1.28008984375,-9.0140546875,-10.90734375,-6.3859375,4.01571484375,-11.02053125,-9.48553125,-6.45928515625,-8.161390625
-3.7116640625,-6.007,-9.0560078125,-5.88195703125,-4.19034765625,-8.8958359375,-8.657734375,-4.3642265625,-0.8790546875,-2.40888671875,-8.904796875,-3.79766015625,2.63408984375,-4.4364453125,-10.10899609375,-4.63846875,1.85128125,-1.48442578125,-11.552203125,-9.73396484375,0.0359062499999996,-0.72308984375,-7.6350546875,-10.53734375,-5.0689375,3.64471484375,-11.50853125,-9.16053125,-6.43028515625,-8.622390625
-3.5526640625,-5.687,-9.3980078125,-5.72295703125,-3.58234765625,-8.3578359375,-7.167734375,-2.4302265625,1.4309453125,-1.39488671875,-7.455796875,-0.488660156249999,3.90508984375,-2.6774453125,-9.13199609375,-1.88046875,4.65528125,1.06157421875,-10.025203125,-7.95696484375,2.80390625,0.23991015625,-5.7230546875,-9.70734375,-3.6149375,2.41971484375,-11.20953125,-7.99153125,-5.64528515625,-9.224390625
-3.5706640625,-5.196,-9.6100078125,-4.99895703125,-2.95634765625,-7.6918359375,-5.615734375,-0.6152265625,3.1929453125,-0.0718867187500001,-5.472796875,1.59233984375,5.38508984375,-0.7764453125,-7.20499609375,0.83853125,7.45728125,3.73357421875,-7.878203125,-5.61096484375,5.42490625,1.94291015625,-3.1040546875,-8.12334375,-1.9899375,0.59871484375,-9.88853125,-5.97753125,-4.15328515625,-9.935390625
-3.1166640625,-4.09,-8.9060078125,-3.75395703125,-1.80634765625,-6.2348359375,-3.431734375,1.1767734375,4.7349453125,2.02711328125,-2.484796875,2.75433984375,7.30008984375,1.5845546875,-3.96799609375,3.66853125,9.89928125,6.55657421875,-4.829203125,-2.50696484375,7.78790625,4.69091015625,0.3689453125,-5.50234375,-0.00393750000000015,-1.23028515625,-7.33953125,-3.15053125,-1.94728515625,-10.397390625
-1.5796640625,-1.97,-6.6470078125,-2.14195703125,0.22765234375,-3.5408359375,-0.226734375,3.0937734375,6.5579453125,5.13911328125,1.680203125,3.72533984375,9.86908984375,4.6305546875,0.54400390625,6.82053125,11.79628125,9.57557421875,-0.749203125,1.41603515625,9.90790625,8.50791015625,4.6749453125,-1.71434375,2.5570625,-2.38628515625,-3.53153125,0.32746875,0.96171484375,-10.103390625
1.3463359375,1.325,-2.6810078125,-0.34295703125,3.19465234375,0.4071640625,3.941265625,5.1687734375,9.0569453125,9.12611328125,6.728203125,5.22233984375,13.12408984375,8.3435546875,5.83500390625,10.35153125,13.14528125,12.76557421875,4.227796875,5.97903515625,11.88290625,13.03491015625,9.5859453125,3.13865625,5.7840625,-2.37028515625,1.34046875,4.15246875,4.49171484375,-8.631390625
5.5453359375,5.609,2.5739921875,1.55204296875,6.83065234375,5.1821640625,8.539265625,7.2517734375,12.2799453125,13.52111328125,11.946203125,7.60233984375,16.82008984375,12.4205546875,11.09100390625,14.05053125,14.02628125,15.98257421875,9.689796875,10.74703515625,13.81090625,17.64191015625,14.7149453125,8.70965625,9.5490625,-1.06028515625,6.86946875,7.93146875,8.45671484375,-5.856390625
10.5213359375,10.367,8.2849921875,3.59804296875,10.67065234375,10.0601640625,12.764265625,9.0517734375,15.8309453125,17.69811328125,16.439203125,10.71633984375,20.45008984375,16.3535546875,15.44900390625,17.46053125,14.47228125,18.98357421875,15.028796875,15.13703515625,15.70590625,21.68091015625,19.6039453125,14.45065625,13.4970625,1.23971484375,12.50846875,11.28546875,12.54671484375,-2.051390625
15.5423359375,14.894,13.4999921875,5.90604296875,14.19965234375,14.2781640625,15.836265625,10.1907734375,18.9889453125,21.09511328125,19.455203125,13.98233984375,23.38908984375,19.5925546875,18.30100390625,20.03753125,14.40128125,21.48957421875,19.594796875,18.59503515625,17.44090625,24.72291015625,23.8239453125,19.71665625,17.1320625,3.92871484375,17.66646875,13.94046875,16.35371484375,2.158609375
19.8513359375,18.522,17.4429921875,8.48404296875,17.00165234375,17.2931640625,17.260265625,10.3087734375,21.0259453125,23.39011328125,20.654203125,16.62433984375,25.05908984375,21.7265546875,19.50100390625,21.35653125,13.67128125,23.28557421875,22.868796875,20.76403515625,18.77390625,26.66491015625,27.0519453125,23.91865625,19.9730625,6.34271484375,21.83046875,15.77646875,19.45171484375,6.015609375
22.9113359375,20.825,19.7129921875,11.16404296875,18.88665234375,18.9351640625,16.982265625,9.2977734375,21.6089453125,24.59511328125,20.196203125,17.97233984375,25.11008984375,22.6285546875,19.39000390625,21.25253125,12.21228125,24.29657421875,24.604796875,21.56203515625,19.44290625,27.69991015625,29.1359453125,26.66165625,21.6890625,7.99771484375,24.66246875,16.83246875,21.51771484375,8.905609375
24.6053359375,21.744,20.3639921875,13.69204296875,19.97565234375,19.4091640625,15.405265625,7.5577734375,21.0559453125,25.04511328125,18.634203125,17.67833984375,23.56508984375,22.5115546875,18.62300390625,19.86353125,10.16228125,24.62357421875,24.896796875,21.15503515625,19.27190625,28.18191015625,30.1139453125,27.82865625,22.1660625,8.73571484375,26.05546875,17.26946875,22.43771484375,10.581609375
25.2593359375,21.603,19.8479921875,15.88404296875,20.64665234375,19.1841640625,13.204265625,5.9687734375,20.2219453125,25.24411328125,16.695203125,15.79733984375,20.89008984375,21.8475546875,17.89600390625,17.56853125,7.89928125,24.49957421875,24.134796875,19.85703515625,18.24590625,28.45591015625,30.1899453125,27.56665625,21.4870625,8.70771484375,26.10346875,17.32046875,22.33271484375,11.195609375
25.4403359375,20.975,18.8309921875,17.70604296875,21.33465234375,18.8141640625,11.061265625,5.4687734375,20.0379453125,25.62511328125,15.040203125,12.76133984375,17.91208984375,21.1685546875,17.69400390625,14.86653125,5.92028125,24.15857421875,22.862796875,18.00903515625,16.49290625,28.68491015625,29.6189453125,26.19165625,19.8490625,8.22771484375,25.01046875,17.19946875,21.47871484375,11.122609375
25.6143359375,20.418,17.9119921875,19.21004296875,22.24465234375,18.7081640625,9.449265625,6.5457734375,20.9499453125,26.31811328125,14.094203125,9.29733984375,15.56308984375,20.7975546875,18.12900390625,12.22553125,4.62528125,23.67457421875,21.554796875,15.88103515625,14.20790625,28.74091015625,28.5559453125,24.02765625,17.4710625,7.55971484375,22.95646875,16.98446875,20.14171484375,10.687609375
25.8723359375,20.192,17.3629921875,20.41804296875,23.17865234375,18.9601640625,8.577265625,8.9827734375,22.5969453125,27.06711328125,13.958203125,6.28733984375,14.52708984375,20.6795546875,18.93300390625,9.96353125,4.13528125,22.86857421875,20.413796875,13.61503515625,11.57490625,28.24291015625,26.9639453125,21.28565625,14.5280625,6.77871484375,20.02146875,16.52346875,18.43371484375,9.971609375
25.8913359375,20.142,17.0359921875,21.22504296875,23.59165234375,19.3321640625,8.447265625,11.9417734375,23.9629453125,27.35611328125,14.448203125,4.52833984375,14.95908984375,20.4255546875,19.62500390625,8.22353125,4.26328125,21.41557421875,19.347796875,11.28203515625,8.78490625,26.77291015625,24.6849453125,18.09465625,11.2020625,5.78571484375,16.25746875,15.49546875,16.32471484375,8.858609375
25.1753359375,19.853,16.5099921875,21.40304296875,22.90065234375,19.4191640625,8.928265625,14.3037734375,23.9479453125,26.70511328125,15.240203125,4.45133984375,16.43508984375,19.5855546875,19.79000390625,7.06553125,4.65428125,19.11857421875,18.148796875,9.02603515625,6.11390625,24.19091015625,21.6759453125,14.66665625,7.8120625,4.50271484375,11.89746875,13.64246875,13.82171484375,7.278609375
23.4393359375,18.972,15.3949921875,20.74604296875,20.86065234375,18.8921640625,9.790265625,15.1457734375,22.0379453125,24.95711328125,16.024203125,5.87833984375,18.20208984375,17.9685546875,19.29300390625,6.55453125,5.02428125,16.16157421875,16.742796875,7.16003515625,3.97890625,20.85391015625,18.2129453125,11.44865625,4.8780625,3.05871484375,7.51146875,11.03746875,11.15771484375,5.430609375
20.8873359375,17.451,13.5949921875,19.29104296875,17.75665234375,17.6421640625,10.704265625,14.1887734375,18.6549453125,22.39311328125,16.577203125,7.95433984375,19.59008984375,15.7925546875,18.31900390625,6.75953125,5.31928125,13.13857421875,15.314796875,6.12003515625,2.83290625,17.56991015625,14.9069453125,9.06965625,3.0040625,1.83171484375,3.92746875,8.16746875,8.80871484375,3.783609375
18.1743359375,15.571,11.3849921875,17.44504296875,14.28965234375,15.7951640625,11.274265625,11.9547734375,14.9419453125,19.60711328125,16.752203125,9.48933984375,20.31108984375,13.5835546875,17.22200390625,7.66153125,5.70628125,10.80057421875,14.222796875,6.25303515625,2.97290625,15.29291015625,12.4759453125,8.08265625,2.6330625,1.28171484375,1.92146875,5.75946875,7.28271484375,2.845609375
16.0793359375,13.781,9.2789921875,15.86404296875,11.22765234375,13.6521640625,11.160265625,9.4287734375,12.1329453125,17.22311328125,16.480203125,9.67133984375,20.44008984375,11.8935546875,16.32300390625,9.10853125,6.40728125,9.70657421875,13.786796875,7.62403515625,4.36490625,14.69991015625,11.4229453125,8.68465625,3.8340625,1.73371484375,1.88446875,4.47046875,6.87671484375,2.911609375
15.0953359375,12.463,7.7969921875,15.12404296875,9.06765234375,11.5751640625,10.256265625,7.4347734375,10.8979453125,15.62811328125,15.783203125,8.69633984375,20.16908984375,11.0435546875,15.76900390625,10.83553125,7.52328125,9.97457421875,14.107796875,9.94003515625,6.63390625,15.90191015625,11.8239453125,10.60865625,6.2680625,3.23271484375,3.65446875,4.62246875,7.54071484375,3.935609375
15.1733359375,11.735,7.2029921875,15.39904296875,7.85765234375,9.8421640625,8.790265625,6.1757734375,11.0609453125,14.83011328125,14.763203125,7.69933984375,19.56708984375,10.9935546875,15.49000390625,12.51753125,8.97528125,11.24457421875,14.993796875,12.63503515625,9.19790625,18.40291015625,13.2969453125,13.21965625,9.3080625,5.52871484375,6.58346875,6.09946875,8.90971484375,5.582609375
15.7373359375,11.346,7.3229921875,16.31804296875,7.23565234375,8.4871640625,7.153265625,5.2427734375,11.7709453125,14.46811328125,13.505203125,7.88633984375,18.52908984375,11.3805546875,15.23400390625,13.78353125,10.53828125,12.82557421875,16.006796875,15.01603515625,11.43790625,21.29891015625,15.1659453125,15.74465625,12.2210625,8.13471484375,9.76946875,8.37946875,10.41871484375,7.350609375
15.9243359375,10.756,7.5419921875,17.04304296875,6.58665234375,7.2411640625,5.551265625,3.9977734375,11.9829453125,13.94011328125,11.959203125,9.46633984375,16.90608984375,11.6545546875,14.63700390625,14.22153125,11.90928125,13.94457421875,16.607796875,16.43503515625,12.84090625,23.59091015625,16.6889453125,17.50365625,14.3350625,10.42671484375,12.32046875,10.70046875,11.44771484375,8.703609375
14.9393359375,9.367,7.0609921875,16.55204296875,5.30165234375,5.6431640625,3.749265625,2.0217734375,10.9619453125,12.61111328125,9.931203125,11.22533984375,14.66308984375,11.2695546875,13.35500390625,13.44553125,12.76128125,14.00857421875,16.333796875,16.44303515625,13.09490625,24.51591015625,17.3039453125,18.07465625,15.1820625,11.79071484375,13.60746875,12.31146875,11.49071484375,9.202609375
12.4073359375,6.83,5.3209921875,14.14004296875,3.06365234375,3.3131640625,1.225265625,-0.5922265625,8.5939453125,10.08811328125,7.231203125,11.14333984375,11.95708984375,9.8885546875,11.21800390625,11.26753125,12.84028125,12.81257421875,14.968796875,14.93003515625,12.16290625,23.79091015625,16.8109453125,17.36965625,14.6040625,11.82071484375,13.41946875,12.74946875,10.33671484375,8.647609375
8.5643359375,3.287,2.3919921875,9.91004296875,0.0746523437500002,0.2321640625,-2.316734375,-3.2362265625,5.4039453125,6.46311328125,3.919203125,7.72833984375,9.11808984375,7.5375546875,8.37800390625,7.88053125,12.07828125,10.61957421875,12.659796875,12.20503515625,10.32690625,21.70291015625,15.4399453125,15.63965625,12.8210625,10.49371484375,12.01446875,12.04546875,8.19071484375,7.164609375
4.2033359375,-0.575,-0.9430078125,4.90504296875,-2.94134765625,-3.1218359375,-6.491734375,-5.1522265625,2.2819453125,2.38811328125,0.470203125,1.19233984375,6.58008984375,4.6425546875,5.34700390625,3.95353125,10.65828125,8.06557421875,9.902796875,8.96903515625,8.14990625,18.95691015625,13.7709453125,13.40565625,10.3940625,8.24071484375,10.03146875,10.70946875,5.64971484375,5.193609375
0.3793359375,-3.736,-3.5170078125,0.66404296875,-5.02634765625,-5.9158359375,-10.233734375,-5.9672265625,0.0439453125000003,-1.12388671875,-2.294796875,-6.40666015625,4.77808984375,1.8895546875,2.87200390625,0.48653125,8.98128125,5.88357421875,7.398796875,6.12403515625,6.30790625,16.35291015625,12.4909453125,11.32165625,8.0690625,5.80871484375,8.26146875,9.48946875,3.48371484375,3.324609375
-2.0156640625,-5.297,-4.3790078125,-1.56695703125,-5.44134765625,-7.3508359375,-12.311734375,-5.9272265625,-0.9450546875,-3.11288671875,-3.557796875,-12.22766015625,4.00308984375,-0.0564453124999997,1.63700390625,-1.56546875,7.51328125,4.58657421875,5.781796875,4.44903515625,5.32790625,14.43191015625,12.0759453125,9.94165625,6.5030625,3.95871484375,7.32246875,8.98446875,2.29271484375,2.044609375
-2.5636640625,-4.909,-3.2870078125,-1.41295703125,-4.00734765625,-7.0568359375,-11.977734375,-5.6002265625,-0.8320546875,-3.06188671875,-2.902796875,-14.14566015625,4.24208984375,-0.8024453125,1.96200390625,-1.68946875,6.60428125,4.26057421875,5.355796875,4.29503515625,5.36190625,13.31491015625,12.5659453125,9.50965625,6.0070625,3.14471484375,7.40746875,9.35346875,2.23371484375,1.521609375
-1.3406640625,-2.89,-0.7520078125,0.607042968750001,-1.12434765625,-5.2328359375,-9.283734375,-5.3402265625,-0.00805468749999971,-1.06888671875,-0.493796875,-11.63366015625,5.12408984375,-0.3284453125,3.68100390625,0.0295312500000002,6.35528125,4.61157421875,6.010796875,5.48803515625,6.17790625,12.76991015625,13.5749453125,9.89965625,6.4690625,3.38771484375,8.25246875,10.27846875,3.01271484375,1.584609375
1.2743359375,0.0500000000000002,2.3449921875,3.52604296875,2.52465234375,-2.4508359375,-4.945734375,-5.0122265625,1.2749453125,2.27411328125,3.057203125,-5.61766015625,6.04108984375,1.0995546875,6.25600390625,3.07753125,6.63828125,5.20357421875,7.333796875,7.49203515625,7.36490625,12.45391015625,14.5319453125,10.74065625,7.5120625,4.41271484375,9.35346875,11.20646875,4.14071484375,1.918609375
4.7753359375,3.195,5.2409921875,6.45204296875,6.29965234375,0.6411640625,0.0462656250000002,-4.1432265625,3.0259453125,6.14611328125,6.964203125,2.23933984375,6.40008984375,3.0765546875,9.00500390625,6.78153125,7.24028125,5.72557421875,8.818796875,9.67303515625,8.57990625,12.12791015625,14.9739453125,11.63265625,8.7320625,5.88271484375,10.26846875,11.67546875,5.24371484375,2.296609375
8.5483359375,6.009,7.5089921875,8.85404296875,9.76265234375,3.5021640625,4.771265625,-2.3212265625,5.3009453125,9.74411328125,10.466203125,10.15433984375,5.86208984375,5.1745546875,11.29400390625,10.45653125,8.03828125,6.10457421875,10.032796875,11.49303515625,9.64490625,11.74491015625,14.7229453125,12.28865625,9.8400625,7.53071484375,10.79246875,11.51946875,6.20371484375,2.683609375
11.8603359375,8.132,8.9989921875,10.53404296875,12.62465234375,5.7311640625,8.520265625,0.414773437499999,7.8669453125,12.42911328125,12.907203125,16.51333984375,4.47308984375,7.0025546875,12.64900390625,13.42653125,9.04228125,6.43157421875,10.694796875,12.58003515625,10.48390625,11.38791015625,13.8799453125,12.57565625,10.6800625,9.13771484375,10.97346875,10.86946875,7.07971484375,3.158609375
13.9953359375,9.359,9.6969921875,11.41904296875,14.64965234375,7.0781640625,10.809265625,3.3887734375,10.1189453125,13.81511328125,13.817203125,20.02133984375,2.66908984375,8.2645546875,12.83500390625,15.06053125,10.29228125,6.81657421875,10.710796875,12.74803515625,11.03590625,11.16391015625,12.7199453125,12.50865625,11.1960625,10.47271484375,11.02446875,10.04746875,7.96671484375,3.800609375
14.5493359375,9.701,9.6819921875,11.43704296875,15.67365234375,7.5011640625,11.393265625,5.4937734375,11.3689453125,13.83511328125,13.057203125,19.92533984375,1.14808984375,8.8325546875,11.93100390625,14.94253125,11.68828125,7.29957421875,10.192796875,12.04603515625,11.23890625,11.14091015625,11.5759453125,12.23365625,11.4210625,11.32271484375,11.23046875,9.43146875,8.92471484375,4.635609375
13.7083359375,9.456,9.1749921875,10.62704296875,15.73265234375,7.2151640625,10.349265625,5.7857734375,11.3089453125,12.77911328125,10.927203125,16.31233984375,0.62908984375,8.7995546875,10.33200390625,13.09253125,12.92928125,7.85157421875,9.432796875,10.76603515625,11.08690625,11.36391015625,10.7729453125,11.98765625,11.4880625,11.59971484375,11.84446875,9.33146875,9.98071484375,5.654609375
12.2963359375,9.167,8.5849921875,9.36304296875,15.16965234375,6.6711640625,8.161265625,4.0817734375,10.2879453125,11.24611328125,8.155203125,10.24633984375,1.57908984375,8.4535546875,8.64900390625,10.06353125,13.62428125,8.45057421875,8.804796875,9.38003515625,10.67990625,11.88191015625,10.5639453125,12.00565625,11.5920625,11.41771484375,12.98446875,9.88546875,11.15471484375,6.808609375
11.4793359375,9.447,8.4139921875,8.39104296875,14.55665234375,6.4201640625,5.657265625,1.0667734375,9.1769453125,9.95411328125,5.694203125,3.56333984375,3.99208984375,8.1625546875,7.51000390625,6.80253125,13.50428125,9.12657421875,8.629796875,8.38103515625,10.19490625,12.70891015625,11.0789453125,12.42065625,11.9030625,11.04671484375,14.56046875,10.98846875,12.42371484375,7.969609375
12.2283359375,10.713,9.0599921875,8.50504296875,14.44565234375,6.9091640625,3.760265625,-2.1692265625,8.8889453125,9.45011328125,4.376203125,-1.66866015625,7.35808984375,8.1865546875,7.31300390625,4.28553125,12.57028125,9.92657421875,9.023796875,8.07403515625,9.77790625,13.71291015625,12.2409453125,13.16365625,12.4460625,10.74271484375,16.24646875,12.29446875,13.66171484375,8.878609375
14.7773359375,12.92,10.5789921875,10.07104296875,15.06765234375,8.2561640625,3.166265625,-4.7112265625,9.8389453125,9.84711328125,4.561203125,-3.84766015625,10.82508984375,8.5155546875,8.02200390625,3.09953125,11.09528125,10.77457421875,9.805796875,8.40503515625,9.41790625,14.53291015625,13.7059453125,13.91365625,12.9980625,10.54871484375,17.51046875,13.29846875,14.57271484375,9.146609375
18.3523359375,15.441,12.5559921875,12.73904296875,16.16165234375,10.1251640625,4.065265625,-6.0192265625,11.6729453125,10.73911328125,5.939203125,-2.46466015625,13.48208984375,8.8225546875,9.11400390625,3.16953125,9.50428125,11.36357421875,10.507796875,8.92103515625,8.90390625,14.62291015625,14.8799453125,14.13165625,13.0870625,10.20571484375,17.72546875,13.47846875,14.69871484375,8.347609375
21.3883359375,17.219,14.1719921875,15.54504296875,17.06565234375,11.8281640625,6.029265625,-5.8222265625,13.4439453125,11.36011328125,7.630203125,1.61033984375,14.60608984375,8.6025546875,9.74800390625,3.80853125,8.22528125,11.22657421875,10.524796875,8.92803515625,7.91690625,13.46291015625,15.0779453125,13.22965625,12.1510625,9.25771484375,16.36246875,12.46646875,13.55571484375,6.177609375
22.2043359375,17.2,14.5249921875,17.32404296875,17.04965234375,12.6361640625,8.162265625,-4.0072265625,14.1229453125,10.95011328125,8.586203125,6.45633984375,13.81008984375,7.4355546875,9.13700390625,4.08153125,7.56728125,9.97457421875,9.375796875,7.80503515625,6.21690625,10.85091015625,13.7899453125,10.83565625,9.8070625,7.30571484375,13.22846875,10.18246875,10.84471484375,2.610609375
19.8063359375,14.835,13.0299921875,17.22404296875,15.69665234375,12.1481640625,9.514265625,-0.6472265625,13.1379453125,9.14311328125,8.097203125,10.01733984375,11.10908984375,5.2115546875,6.91900390625,3.28553125,7.62628125,7.53757421875,6.908796875,5.30503515625,3.81390625,7.04891015625,10.8959453125,6.98565625,6.0730625,4.24371484375,8.57946875,6.85046875,6.64471484375,-2.037390625
14.3423359375,10.353,9.6979921875,15.04404296875,13.11365234375,10.4631640625,9.557265625,3.9067734375,10.5769453125,6.13711328125,6.095203125,11.11133984375,6.92208984375,2.1655546875,3.30900390625,1.24253125,8.24128125,4.20457421875,3.322796875,1.63903515625,0.98090625,2.68991015625,6.6999453125,2.11265625,1.3740625,0.33271484375,3.03246875,2.88946875,1.42671484375,-7.196390625
6.9963359375,4.682,5.1499921875,11.28304296875,9.86965234375,8.1271640625,8.414265625,8.9497734375,7.0129453125,2.59611328125,3.138203125,9.91933984375,2.01208984375,-1.2644453125,-1.01299609375,-1.70946875,9.04828125,0.442574218750001,-0.957203125,-2.66196484375,-1.89009375,-1.54208984375,1.7729453125,-3.14534375,-3.6409375,-3.90128515625,-2.68053125,-1.26553125,-4.08928515625,-12.228390625
-0.5056640625,-0.84,0.4309921875,6.94604296875,6.79465234375,5.9301640625,6.733265625,13.4347734375,3.2209453125,-0.60488671875,0.130203125,7.63733984375,-2.65691015625,-4.5874453125,-5.16599609375,-4.95746875,9.60828125,-3.31942578125,-5.440203125,-6.97296484375,-4.46209375,-5.23408984375,-3.2510546875,-8.17034375,-8.3399375,-7.84428515625,-7.94453125,-5.28553125,-9.16028515625,-16.602390625
-6.4576640625,-4.847,-3.2770078125,3.27704296875,4.75165234375,4.6771640625,5.328265625,16.2417734375,0.0109453125000003,-2.64388671875,-2.033796875,5.62333984375,-6.15191015625,-7.3354453125,-8.32899609375,-7.89146875,9.57928125,-6.79042578125,-9.644203125,-10.73596484375,-6.54409375,-8.35408984375,-7.8210546875,-12.48334375,-12.2579375,-10.95628515625,-12.36153125,-8.97253125,-13.21328515625,-19.973390625
-9.6426640625,-6.353,-4.9930078125,1.42704296875,4.42365234375,4.9441640625,4.848265625,16.7357734375,-1.8610546875,-2.94988671875,-2.751796875,4.69533984375,-7.86891015625,-9.0794453125,-9.93699609375,-10.05646875,8.84628125,-9.76842578125,-13.121203125,-13.53196484375,-8.06509375,-11.12108984375,-11.5300546875,-15.78434375,-15.1429375,-12.89328515625,-15.72953125,-12.22053125,-15.95928515625,-22.200390625
-9.6626640625,-5.123,-4.2950078125,2.04204296875,6.07465234375,6.8581640625,5.588265625,15.2387734375,-1.8930546875,-1.37488671875,-1.862796875,4.99233984375,-7.78491015625,-9.5094453125,-9.80999609375,-11.18746875,7.54228125,-12.07842578125,-15.514203125,-15.11196484375,-9.00409375,-13.76008984375,-14.1400546875,-17.93934375,-16.9419375,-13.60828515625,-17.99153125,-14.95853125,-17.42628515625,-23.337390625
-7.0666640625,-1.797,-1.5450078125,4.85204296875,9.36565234375,10.0001640625,7.419265625,12.9347734375,-0.1160546875,1.69711328125,0.349203125,6.21033984375,-6.48491015625,-8.5684453125,-8.18499609375,-11.18546875,5.99928125,-13.57042578125,-16.639203125,-15.41996484375,-9.35409375,-16.32508984375,-15.6010546875,-18.97334375,-17.7349375,-13.37128515625,-19.19253125,-17.12953125,-17.89028515625,-23.595390625
-3.1276640625,2.339,2.1879921875,8.61904296875,13.38265234375,13.5011640625,9.818265625,11.1917734375,2.7839453125,5.40511328125,3.262203125,7.84433984375,-4.86491015625,-6.5514453125,-5.65699609375,-10.12846875,4.62628125,-14.19842578125,-16.566203125,-14.61996484375,-9.14009375,-18.70408984375,-16.0520546875,-19.04934375,-17.6879375,-12.67428515625,-19.45353125,-18.69153125,-17.72628515625,-23.250390625
0.6723359375,5.876,5.5439921875,11.66604296875,16.92865234375,16.3431640625,12.044265625,10.8037734375,5.7019453125,8.67111328125,6.105203125,9.29433984375,-3.69391015625,-4.0644453125,-3.00299609375,-8.30246875,3.76328125,-14.09442578125,-15.609203125,-13.08496484375,-8.47009375,-20.73808984375,-15.7700546875,-18.43634375,-17.0169375,-12.05328515625,-18.97453125,-19.62753125,-17.27128515625,-22.547390625
3.2153359375,7.813,7.4109921875,12.75704296875,18.95365234375,17.7111640625,13.408265625,11.6637734375,7.5649453125,10.59411328125,8.198203125,9.94633984375,-3.29091015625,-1.8364453125,-0.95199609375,-6.18246875,3.55628125,-13.55942578125,-14.218203125,-11.31996484375,-7.55409375,-22.33008984375,-15.0700546875,-17.44034375,-15.9739375,-11.91228515625,-18.01653125,-19.96253125,-16.73428515625,-21.640390625
4.0633359375,7.839,7.3199921875,11.74404296875,18.88565234375,17.2751640625,13.514265625,12.9597734375,7.7499453125,10.76511328125,9.160203125,9.37733984375,-3.52191015625,-0.4464453125,0.0570039062499994,-4.30446875,3.90128125,-12.93842578125,-12.799203125,-9.80396484375,-6.63609375,-23.45608984375,-14.1810546875,-16.29734375,-14.7939375,-12.38628515625,-16.83653125,-19.76753125,-16.19828515625,-20.596390625
3.3923359375,6.291,5.5229921875,9.53504296875,16.73665234375,15.2611640625,12.378265625,13.6627734375,6.2379453125,9.36411328125,9.024203125,7.60133984375,-4.02391015625,-0.1184453125,0.0160039062499999,-3.04646875,4.50328125,-12.44542578125,-11.559203125,-8.78996484375,-5.88009375,-24.07108984375,-13.1590546875,-15.07834375,-13.6069375,-13.29928515625,-15.60153125,-19.13553125,-15.66628515625,-19.435390625
1.6963359375,3.872,2.7709921875,7.46204296875,13.00465234375,12.3081640625,10.394265625,13.0497734375,3.5379453125,7.00911328125,8.168203125,5.20133984375,-4.47991015625,-0.6804453125,-0.69199609375,-2.47046875,5.01628125,-12.05042578125,-10.467203125,-8.21596484375,-5.28109375,-24.01908984375,-11.9000546875,-13.68634375,-12.4019375,-14.22228515625,-14.34253125,-18.15753125,-15.11228515625,-18.180390625
-0.5126640625,1.29,-0.0590078124999998,6.48804296875,8.46665234375,9.1921640625,8.220265625,11.0547734375,0.4529453125,4.47411328125,7.124203125,3.17733984375,-4.75791015625,-1.6884453125,-1.50399609375,-2.33446875,5.19928125,-11.51742578125,-9.378203125,-7.78596484375,-4.70309375,-23.04108984375,-10.2730546875,-11.98734375,-11.0919375,-14.65428515625,-13.00853125,-16.90853125,-14.52328515625,-16.891390625
-2.8556640625,-0.956,-2.2770078125,6.71504296875,3.95665234375,6.5631640625,6.569265625,8.2687734375,-2.1930546875,2.38511328125,6.360203125,2.53933984375,-4.86991015625,-2.6544453125,-1.96199609375,-2.28846875,4.99828125,-10.58142578125,-8.206203125,-7.19996484375,-4.01809375,-20.94208984375,-8.2960546875,-9.98234375,-9.6619375,-14.25528515625,-11.57353125,-15.46253125,-13.89528515625,-15.680390625
-5.0586640625,-2.613,-3.5280078125,7.41404296875,0.17665234375,4.8051640625,5.985265625,5.5647734375,-3.7910546875,1.04311328125,6.128203125,3.82933984375,-4.82591015625,-3.2634453125,-1.90599609375,-2.09446875,4.54428125,-9.17042578125,-7.065203125,-6.37696484375,-3.23909375,-17.79008984375,-6.2380546875,-7.92434375,-8.2659375,-12.99928515625,-10.13653125,-13.91653125,-13.22728515625,-14.689390625
-6.8586640625,-3.589,-3.7630078125,7.53804296875,-2.40334765625,4.0191640625,6.675265625,3.6337734375,-4.0910546875,0.42511328125,6.438203125,6.85233984375,-4.51691015625,-3.4764453125,-1.48899609375,-1.73246875,4.10928125,-7.54042578125,-6.254203125,-5.51496484375,-2.52009375,-14.02908984375,-4.6050546875,-6.28134375,-7.1909375,-11.15028515625,-8.93453125,-12.40853125,-12.51128515625,-14.026390625
-7.9506640625,-3.869,-3.1370078125,6.39304296875,-3.56934765625,4.0751640625,8.485265625,2.7547734375,-3.1920546875,0.33111328125,7.127203125,10.75833984375,-3.75191015625,-3.4784453125,-1.00899609375,-1.31746875,4.07828125,-6.22642578125,-6.121203125,-4.94396484375,-2.01009375,-10.40008984375,-3.9750546875,-5.56134375,-6.6799375,-9.06628515625,-8.26053125,-11.09253125,-11.73128515625,-13.687390625
-8.0886640625,-3.504,-1.9190078125,4.10604296875,-3.33634765625,4.7171640625,10.977265625,2.8957734375,-1.4610546875,0.58411328125,7.990203125,14.41033984375,-2.43991015625,-3.4994453125,-0.67399609375,-0.91646875,4.90128125,-5.81342578125,-6.856203125,-4.85996484375,-1.65309375,-7.69808984375,-4.7630546875,-6.07834375,-6.7359375,-6.96628515625,-8.33053125,-10.07153125,-10.85928515625,-13.505390625
-7.2566640625,-2.655,-0.4460078125,1.56904296875,-1.92534765625,5.6631640625,13.565265625,3.9357734375,0.5719453125,1.13511328125,8.895203125,16.80233984375,-0.79791015625,-3.6334453125,-0.43699609375,-0.42346875,6.97528125,-6.63142578125,-8.329203125,-5.13696484375,-1.12709375,-6.48508984375,-7.0140546875,-7.75834375,-7.0329375,-4.81028515625,-9.15153125,-9.32953125,-9.83628515625,-13.168390625
-5.7676640625,-1.609,0.9169921875,-0.062957031249999,0.25965234375,6.6641640625,15.667265625,5.7767734375,2.3109453125,2.03011328125,9.805203125,17.37033984375,0.61908984375,-3.7604453125,-0.03699609375,0.37153125,10.41128125,-8.54642578125,-10.086203125,-5.36696484375,-0.0190937500000006,-6.88708984375,-10.3210546875,-10.12134375,-7.0559375,-2.38828515625,-10.49153125,-8.72953125,-8.58228515625,-12.332390625
-4.1656640625,-0.744,1.8589921875,-0.0129570312499991,2.66665234375,7.4891640625,16.869265625,8.2887734375,3.2419453125,3.26311328125,10.675203125,16.14233984375,1.16308984375,-3.6534453125,0.762003906249999,1.56053125,14.82328125,-10.97842578125,-11.546203125,-5.12996484375,1.85190625,-8.56808984375,-13.9290546875,-12.46634375,-6.4069375,0.42171484375,-11.96953125,-8.10053125,-7.04528515625,-10.804390625
-2.9926640625,-0.398,2.1929921875,1.68304296875,4.66965234375,7.8801640625,16.992265625,11.1387734375,3.0939453125,4.63111328125,11.306203125,13.70433984375,0.452089843749999,-3.1764453125,1.88900390625,2.92253125,19.29728125,-13.16542578125,-12.279203125,-4.31396484375,4.17790625,-10.90708984375,-16.9920546875,-14.17134375,-5.0919375,3.41471484375,-13.21553125,-7.35153125,-5.27328515625,-8.674390625
-2.5976640625,-0.753,1.8499921875,4.12604296875,5.69165234375,7.5491640625,16.001265625,13.6857734375,1.9449453125,5.68611328125,11.288203125,10.90533984375,-1.42391015625,-2.4454453125,2.87400390625,3.90153125,22.66628125,-14.50142578125,-12.219203125,-3.25696484375,6.21090625,-13.25508984375,-18.8490546875,-14.92734375,-3.5779375,6.02871484375,-13.96853125,-6.50753125,-3.41528515625,-6.298390625
-3.0686640625,-1.77,0.8349921875,5.96004296875,5.35365234375,6.2451640625,13.850265625,15.1577734375,0.1699453125,5.85711328125,10.105203125,8.36433984375,-3.96691015625,-1.8244453125,3.02500390625,3.80153125,23.97228125,-14.76442578125,-11.666203125,-2.60196484375,7.09290625,-15.14908984375,-19.2050546875,-14.76734375,-2.5569375,7.57771484375,-14.07253125,-5.64053125,-1.65228515625,-4.101390625
-4.2386640625,-3.231,-0.7610078125,6.05804296875,3.61665234375,3.8691640625,10.475265625,15.1187734375,-1.7310546875,4.71211328125,7.391203125,6.13233984375,-6.51191015625,-1.7404453125,1.79600390625,2.11453125,22.86628125,-14.12042578125,-11.087203125,-2.94396484375,6.29490625,-16.35608984375,-18.1460546875,-13.93334375,-2.5719375,7.60571484375,-13.40653125,-4.76053125,-0.09028515625,-2.342390625
-5.6946640625,-4.806,-2.6680078125,4.16604296875,0.86865234375,0.5981640625,6.000265625,13.8387734375,-3.2930546875,2.23211328125,3.217203125,3.84833984375,-8.46691015625,-2.4044453125,-0.86199609375,-1.16946875,19.71928125,-12.93742578125,-10.828203125,-4.47396484375,3.91790625,-16.80508984375,-15.9980546875,-12.67234375,-3.6999375,6.15971484375,-11.86053125,-3.78953125,1.28971484375,-0.981390625
-6.8136640625,-6.093,-4.3700078125,1.08004296875,-2.14234765625,-3.0498359375,0.953265625,12.1497734375,-4.1820546875,-1.05888671875,-1.760796875,1.26733984375,-9.47191015625,-3.6244453125,-4.37499609375,-5.42846875,15.40928125,-11.53842578125,-10.903203125,-6.80496484375,0.67990625,-16.48708984375,-13.1280546875,-11.09634375,-5.4779375,3.81171484375,-9.36953125,-2.63253125,2.58971484375,0.246609375000001
-6.9156640625,-6.667,-5.2260078125,-1.78795703125,-4.54034765625,-6.2998359375,-3.768734375,10.7937734375,-4.2500546875,-4.24288671875,-6.422796875,-1.33266015625,-9.47191015625,-4.8444453125,-7.72099609375,-9.57246875,10.93828125,-10.04342578125,-10.994203125,-9.10696484375,-2.39009375,-15.42708984375,-9.8180546875,-9.18434375,-7.1129375,1.40671484375,-6.00453125,-1.29153125,3.90171484375,1.619609375
-5.5366640625,-6.209,-4.7590078125,-3.16195703125,-5.64634765625,-8.3758359375,-7.211734375,9.8757734375,-3.5860546875,-6.35588671875,-9.591796875,-3.25266015625,-8.70791015625,-5.4184453125,-9.86199609375,-12.46846875,7.06928125,-8.39742578125,-10.663203125,-10.49196484375,-4.40309375,-13.74208984375,-6.2830546875,-6.90634375,-7.8699375,-0.32228515625,-2.06553125,0.0564687500000005,5.20671484375,3.200609375
-2.6996640625,-4.673,-2.9440078125,-2.53095703125,-5.20834765625,-8.7978359375,-8.740734375,8.9057734375,-2.4910546875,-6.77488671875,-10.511796875,-3.83766015625,-7.61591015625,-4.9514453125,-10.19999609375,-13.39646875,4.13828125,-6.52642578125,-9.648203125,-10.44496484375,-4.96209375,-11.71208984375,-2.7900546875,-4.39634375,-7.4449375,-1.09128515625,1.89046875,1.07546875,6.32871484375,4.735609375
1.0233359375,-2.329,-0.2490078125,-0.29195703125,-3.42534765625,-7.5418359375,-8.237734375,7.3527734375,-1.3080546875,-5.42688671875,-9.118796875,-2.88666015625,-6.62791015625,-3.4834453125,-8.79799609375,-12.29146875,2.09728125,-4.50342578125,-8.047203125,-9.04496484375,-4.24509375,-9.77208984375,0.2639453125,-2.00734375,-6.0919375,-1.14528515625,5.16046875,1.39146875,6.98071484375,5.733609375
4.7373359375,0.379,2.6059921875,2.58904296875,-0.75634765625,-4.9578359375,-6.047734375,5.2157734375,-0.1730546875,-2.74488671875,-5.968796875,-0.74166015625,-5.95291015625,-1.4084453125,-6.24599609375,-9.64146875,0.72528125,-2.57442578125,-6.252203125,-6.84396484375,-2.79209375,-8.38408984375,2.4189453125,-0.194343749999999,-4.4219375,-1.07528515625,7.12546875,0.76846875,6.90071484375,5.699609375
7.6363359375,3.043,5.0179921875,5.17204296875,2.33465234375,-1.5528359375,-2.760734375,3.1847734375,1.1239453125,0.59911328125,-1.927796875,1.89833984375,-5.48291015625,0.7865546875,-3.31199609375,-6.18246875,-0.10171875,-1.04642578125,-4.714203125,-4.53096484375,-1.17009375,-7.83408984375,3.3399453125,0.720656250000001,-3.0429375,-1.46628515625,7.50046875,-0.76353125,5.99971484375,4.389609375
9.3153359375,5.39,6.7169921875,7.00504296875,5.51765234375,2.1771640625,1.011265625,2.3257734375,2.9989453125,3.98411328125,2.173203125,4.23633984375,-4.95491015625,2.7605546875,-0.594996093750001,-2.59446875,-0.27471875,-0.132425781249999,-3.700203125,-2.60596484375,0.28990625,-8.08108984375,2.9949453125,0.704656250000001,-2.2599375,-2.58528515625,6.44146875,-2.89953125,4.42771484375,1.971609375
9.8043359375,7.226,7.7369921875,8.20204296875,8.55865234375,5.8031640625,4.741265625,3.4747734375,5.6799453125,7.00811328125,5.731203125,5.66333984375,-4.24791015625,4.3925546875,1.61800390625,0.64753125,0.44628125,0.15057421875,-3.203203125,-1.23196484375,1.53490625,-8.76608984375,1.6919453125,0.0186562500000012,-1.9979375,-4.25128515625,4.44146875,-5.18253125,2.51171484375,-1.011390625
9.3703359375,8.353,8.2249921875,9.13404296875,11.18465234375,8.9451640625,7.989265625,6.6757734375,8.8659453125,9.46711328125,8.433203125,6.03233984375,-3.58291015625,5.7065546875,3.30800390625,3.30253125,2.16028125,-0.04642578125,-3.015203125,-0.296964843750001,2.67890625,-9.41208984375,-0.0510546875,-0.932343749999999,-1.9479375,-5.93928515625,2.10646875,-7.17453125,0.62071484375,-3.843390625
8.2963359375,8.569,8.2619921875,10.01804296875,13.02565234375,11.2721640625,10.414265625,11.0147734375,11.7079453125,11.25511328125,10.219203125,5.77633984375,-3.41291015625,6.7385546875,4.58500390625,5.30453125,4.59428125,-0.49542578125,-2.881203125,0.43303515625,3.84590625,-9.66208984375,-1.7040546875,-1.78134375,-1.7699375,-7.05128515625,-0.0795312499999996,-8.58253125,-0.97128515625,-5.906390625
6.7693359375,7.745,7.7949921875,10.73504296875,13.70765234375,12.5371640625,11.835265625,15.0127734375,13.1759453125,12.29111328125,11.207203125,5.68033984375,-4.10491015625,7.4885546875,5.55900390625,6.69153125,7.13828125,-0.97142578125,-2.612203125,1.17303515625,5.07490625,-9.40808984375,-2.8700546875,-2.30834375,-1.2559375,-7.19128515625,-1.85053125,-9.27953125,-2.14328515625,-6.883390625
4.9163359375,5.925,6.7029921875,10.96504296875,13.04265234375,12.6591640625,12.312265625,17.3557734375,12.5999453125,12.52911328125,11.628203125,6.36033984375,-5.65791015625,7.9615546875,6.29800390625,7.53453125,9.11028125,-1.26942578125,-2.104203125,2.03803515625,6.31990625,-8.71708984375,-3.3140546875,-2.43734375,-0.3659375,-6.32728515625,-3.10353125,-9.25953125,-2.87628515625,-6.798390625
2.8933359375,3.393,4.9439921875,10.42804296875,11.16065234375,11.7851640625,12.118265625,17.4427734375,10.0569453125,12.01011328125,11.743203125,7.81433984375,-7.63991015625,8.2275546875,6.83600390625,7.89353125,10.08128125,-1.18542578125,-1.301203125,3.02803515625,7.48590625,-7.69108984375,-2.9060546875,-2.14934375,0.8200625,-4.75928515625,-3.76453125,-8.57853125,-3.17328515625,-5.928390625
0.9283359375,0.632,2.6729921875,9.04804296875,8.48765234375,10.2811640625,11.616265625,15.4847734375,6.3589453125,10.88211328125,11.767203125,9.37733984375,-9.38691015625,8.4075546875,7.19400390625,7.79553125,10.04328125,-0.53342578125,-0.169203125,4.04303515625,8.46390625,-6.37308984375,-1.5900546875,-1.43034375,2.1560625,-2.96628515625,-3.71753125,-7.34153125,-3.00828515625,-4.651390625
-0.7236640625,-1.83,0.2639921875,6.95904296875,5.59365234375,8.5901640625,11.100265625,12.2817734375,2.6559453125,9.37411328125,11.783203125,10.13733984375,-10.32191015625,8.5835546875,7.35200390625,7.25153125,9.37128125,0.779574218750001,1.248796875,4.90903515625,9.15990625,-4.79508984375,0.5809453125,-0.288343749999999,3.4860625,-1.40328515625,-2.84253125,-5.71753125,-2.35728515625,-3.323390625
-1.8586640625,-3.611,-1.7950078125,4.45404296875,3.02165234375,7.0651640625,10.734265625,8.9157734375,-0.0450546874999997,7.74911328125,11.726203125,9.52033984375,-10.21191015625,8.7225546875,7.24300390625,6.29953125,8.65428125,2.65857421875,2.790796875,5.44003515625,9.52490625,-3.08108984375,3.3899453125,1.19965625,4.6650625,-0.34128515625,-1.12753125,-3.95253125,-1.27228515625,-2.201390625
-2.3766640625,-4.548,-3.0440078125,1.91804296875,1.19165234375,5.9051640625,10.565265625,6.4397734375,-1.1810546875,6.26111328125,11.465203125,7.69433984375,-9.24091015625,8.7105546875,6.79100390625,5.08853125,8.47728125,4.82757421875,4.195796875,5.53503515625,9.60090625,-1.49208984375,6.4569453125,2.88565625,5.6100625,0.20071484375,1.27146875,-2.32353125,0.0917148437499999,-1.407390625
-2.2786640625,-4.651,-3.1990078125,-0.241957031249999,0.36165234375,5.1971640625,10.567265625,5.5397734375,-0.6510546875,5.11511328125,10.940203125,5.54533984375,-7.90291015625,8.4565546875,5.99800390625,3.91253125,9.21328125,6.90557421875,5.199796875,5.25203515625,9.53190625,-0.35608984375,9.3199453125,4.58965625,6.3260625,0.40371484375,4.04546875,-1.04553125,1.49971484375,-0.942390625
-1.6846640625,-4.041,-2.2760078125,-1.68195703125,0.57365234375,4.9441640625,10.667265625,6.2887734375,1.2829453125,4.40611328125,10.217203125,4.21233984375,-6.78391015625,7.9605546875,4.98000390625,3.12653125,10.86828125,8.52857421875,5.627796875,4.77303515625,9.50590625,0.0709101562500002,11.5269453125,6.11265625,6.8580625,0.49971484375,6.76646875,-0.22653125,2.67771484375,-0.750390625
-0.8486640625,-2.977,-0.6360078125,-2.19095703125,1.59065234375,5.0171640625,10.735265625,8.1747734375,4.0809453125,4.06111328125,9.412203125,4.45533984375,-6.34391015625,7.2705546875,3.90100390625,2.95453125,13.04828125,9.41057421875,5.395796875,4.26203515625,9.62590625,-0.29508984375,12.6889453125,7.19365625,7.1670625,0.56571484375,8.91246875,0.10146875,3.32371484375,-0.823390624999999
-0.1746640625,-1.907,1.0889921875,-1.80295703125,2.87065234375,5.1001640625,10.586265625,10.3627734375,6.9579453125,3.82611328125,8.563203125,6.26133984375,-6.76791015625,6.3865546875,2.85400390625,3.32853125,15.06528125,9.33957421875,4.456796875,3.71503515625,9.80590625,-1.37608984375,12.5169453125,7.47665625,7.0380625,0.41371484375,9.90646875,-0.10053125,3.12671484375,-1.283390625
-0.1256640625,-1.4,2.1939921875,-0.898957031249999,3.66365234375,4.7441640625,10.018265625,12.0257734375,8.9789453125,3.33111328125,7.565203125,8.94133984375,-7.90291015625,5.2015546875,1.78800390625,3.88153125,16.18128125,8.17757421875,2.764796875,2.92503515625,9.76590625,-3.01008984375,10.8539453125,6.57465625,6.1280625,-0.35028515625,9.25146875,-0.90453125,1.84371484375,-2.352390625
-1.0596640625,-1.967,2.1439921875,-0.209957031249999,3.24565234375,3.5281640625,8.907265625,12.5917734375,9.2999453125,2.23211328125,6.226203125,11.58433984375,-9.32491015625,3.5285546875,0.52600390625,4.10953125,15.90328125,5.88857421875,0.293796875,1.59203515625,9.15390625,-5.02708984375,7.7409453125,4.23665625,4.1370625,-2.09328515625,6.72146875,-2.34753125,-0.56428515625,-4.223390625
-3.0606640625,-3.839,0.7359921875,-0.54595703125,1.20665234375,1.2491640625,7.262265625,11.8767734375,7.5349453125,0.34211328125,4.370203125,13.48933984375,-10.52391015625,1.2165546875,-1.14999609375,3.57353125,14.22028125,2.61457421875,-2.903203125,-0.49696484375,7.71490625,-7.27108984375,3.4649453125,0.520656250000001,1.0270625,-4.89428515625,2.51946875,-4.32353125,-3.83528515625,-6.880390625
-5.9086640625,-6.829,-1.8950078125,-2.36395703125,-2.37434765625,-1.9788359375,5.167265625,10.0307734375,4.0299453125,-2.30588671875,1.924203125,14.25133984375,-11.19791015625,-1.7304453125,-3.40199609375,2.02353125,11.64328125,-1.27642578125,-6.635203125,-3.34496484375,5.40490625,-9.59608984375,-1.4560546875,-4.12534375,-2.8679375,-8.38528515625,-2.69153125,-6.52853125,-7.40528515625,-9.990390625
-9.2316640625,-10.357,-5.4000078125,-5.50695703125,-6.96034765625,-5.7348359375,2.592265625,7.2817734375,-0.1970546875,-5.51488671875,-1.059796875,13.57833984375,-11.47291015625,-5.1074453125,-6.25399609375,-0.58346875,8.97228125,-5.21842578125,-10.561203125,-6.71796484375,2.39890625,-11.86508984375,-6.3590546875,-8.94434375,-6.9009375,-11.81728515625,-7.92553125,-8.48953125,-10.53128515625,-12.946390625
-12.7066640625,-13.641,-9.3890078125,-9.33895703125,-11.81634765625,-9.4398359375,-0.703734375,3.6687734375,-3.8780546875,-9.04388671875,-4.427796875,11.19433984375,-11.88591015625,-8.5864453125,-9.57699609375,-4.12646875,6.92528125,-8.60242578125,-14.270203125,-10.24696484375,-1.00509375,-13.98308984375,-10.6200546875,-13.10834375,-10.3299375,-14.33028515625,-12.17353125,-9.71053125,-12.50828515625,-15.068390625
-16.1796640625,-16.039,-13.5620078125,-13.17595703125,-16.34134765625,-12.6018359375,-5.036734375,-0.9492265625,-6.0800546875,-12.70688671875,-7.990796875,6.98833984375,-13.05491015625,-11.8744453125,-13.15399609375,-8.37846875,5.84328125,-11.01042578125,-17.440203125,-13.58996484375,-4.52109375,-15.92608984375,-13.8600546875,-16.04534375,-12.6279375,-15.32828515625,-14.76853125,-9.86753125,-12.93028515625,-15.891390625
-19.6316640625,-17.35,-17.7570078125,-16.64895703125,-20.29634765625,-15.0438359375,-10.482734375,-6.6132265625,-6.6150546875,-16.40788671875,-11.597796875,1.23733984375,-15.25491015625,-14.8514453125,-16.79699609375,-13.07446875,5.63028125,-12.41542578125,-19.992203125,-16.58996484375,-7.97509375,-17.73508984375,-16.0950546875,-17.69134375,-13.7199375,-14.76728515625,-15.68653125,-8.97853125,-11.88028515625,-15.404390625
-23.0856640625,-17.929,-21.9380078125,-19.78995703125,-23.83934765625,-16.9878359375,-16.664734375,-12.9862265625,-6.0820546875,-20.11088671875,-15.182796875,-5.36266015625,-18.20491015625,-17.6024453125,-20.41699609375,-17.96046875,5.89828125,-13.20842578125,-22.144203125,-19.32396484375,-11.34009375,-19.48708984375,-17.7370546875,-18.53134375,-14.0449375,-13.22528515625,-15.57953125,-7.44753125,-9.95328515625,-14.101390625
-23.0856640625,-17.929,-21.9380078125,-19.78995703125,-23.83934765625,-16.9878359375,-16.664734375,-12.9862265625,-6.0820546875,-20.11088671875,-15.182796875,-5.36266015625,-18.20491015625,-17.6024453125,-20.41699609375,-17.96046875,5.89828125,-13.20842578125,-22.144203125,-19.32396484375,-11.34009375,-19.48708984375,-17.7370546875,-18.53134375,-14.0449375,-13.22528515625,-15.57953125,-7.44753125,-9.95328515625,-14.101390625
