"Fp1","Fpz","Fp2","F7","F3","Fz","F4","F8","FC5","FC1","FC2","FC6","T7","C3","Cz","C4","T8","CP5","CP1","CP2","CP6","P7","P3","Pz","P4","P8","POz","O1","Oz","O2"
-3.40735546875,-3.07751171875,-3.06048828125,-1.62581640625,-3.36547265625,-9.5750703125,-12.1536171875,-7.12139453125,1.03736328125,-9.11319140625,-9.747046875,-9.40821875,-1.4601484375,-2.97532421875,-13.101640625,-6.79025,-5.80212890625,0.42341796875,-8.82965234375,-9.566984375,-9.83249609375,1.1643671875,-5.2405234375,-17.410546875,-11.40216015625,-9.0239140625,-16.49737109375,-2.46839453125,-5.1573203125,-3.46608203125
-4.64735546875,-3.78651171875,-5.09748828125,-3.82281640625,-4.24747265625,-10.8460703125,-14.6696171875,-11.53939453125,-0.02963671875,-8.86819140625,-10.471046875,-12.10921875,-0.7831484375,-2.35132421875,-11.844640625,-7.49925,-7.98112890625,1.78441796875,-7.36865234375,-8.666984375,-9.79749609375,1.4233671875,-3.8315234375,-15.728546875,-9.76016015625,-8.7399140625,-14.60737109375,-1.13539453125,-3.6743203125,-3.65008203125
-5.51835546875,-4.42451171875,-6.53148828125,-5.26881640625,-4.70447265625,-11.8900703125,-16.5326171875,-14.73639453125,-0.890636718750001,-9.02319140625,-11.240046875,-14.32221875,-0.4561484375,-2.24232421875,-11.222640625,-8.37625,-9.52812890625,2.45941796875,-6.67265234375,-8.126984375,-9.85649609375,1.3523671875,-3.1785234375,-14.625546875,-8.66116015625,-8.2749140625,-13.65737109375,-0.90239453125,-3.1243203125,-3.80308203125
-5.96335546875,-4.73651171875,-7.08448828125,-5.85781640625,-4.59647265625,-12.3760703125,-17.2946171875,-16.13639453125,-1.28763671875,-9.22119140625,-11.606046875,-15.50821875,-0.296148437499999,-2.40932421875,-10.953640625,-8.92325,-9.93312890625,2.52641796875,-6.47665234375,-7.584984375,-9.51549609375,1.0063671875,-3.0055234375,-13.701546875,-7.67016015625,-7.0759140625,-13.11837109375,-1.30139453125,-3.0563203125,-3.42308203125
-5.93835546875,-4.35951171875,-6.53748828125,-5.59981640625,-3.82847265625,-11.8700703125,-16.5176171875,-15.32039453125,-0.92563671875,-8.85319140625,-10.951046875,-15.10821875,0.0818515624999998,-2.32332421875,-10.422640625,-8.41325,-8.77412890625,2.34841796875,-6.16465234375,-6.442984375,-8.10449609375,0.6313671875,-2.6965234375,-12.252546875,-6.07916015625,-4.5309140625,-12.01937109375,-1.34939453125,-2.5683203125,-1.87108203125
-5.41535546875,-3.03751171875,-4.85148828125,-4.57581640625,-2.39547265625,-10.0570703125,-14.0106171875,-12.25539453125,0.31936328125,-7.44019140625,-8.864046875,-12.90121875,1.0188515625,-1.47332421875,-9.045640625,-6.31725,-6.06912890625,2.37041796875,-5.13365234375,-4.229984375,-5.20949609375,0.5363671875,-1.6685234375,-9.737546875,-3.38716015625,-0.4229140625,-9.57537109375,-0.16739453125,-0.8823203125,1.18291796875
-4.50835546875,-0.88651171875,-2.33748828125,-3.01881640625,-0.53447265625,-7.0500703125,-10.0906171875,-7.52339453125,2.18136328125,-5.02319140625,-5.499046875,-9.28121875,2.5528515625,0.27767578125,-6.694640625,-2.71725,-2.47712890625,2.84441796875,-3.22465234375,-1.009984375,-1.07849609375,0.8733671875,0.2034765625,-6.238546875,0.23783984375,4.6860859375,-5.78137109375,2.36260546875,2.0476796875,5.32291796875
-3.58535546875,1.50148828125,0.30451171875,-1.39681640625,1.18152734375,-3.5300703125,-5.6406171875,-2.31439453125,3.95436328125,-2.26719140625,-1.641046875,-5.24221875,4.3358515625,2.52467578125,-3.877640625,1.57275,0.86087109375,3.64741796875,-0.89865234375,2.483015625,3.29350390625,1.4793671875,2.4294765625,-2.580546875,3.87283984375,9.4660859375,-1.58137109375,5.38960546875,5.3526796875,9.32591796875
-3.16535546875,3.28648828125,2.21351171875,-0.32281640625,2.00452734375,-0.5240703125,-1.8236171875,1.95160546875,4.77936328125,-0.15619140625,1.616953125,-1.97721875,5.8128515625,4.49767578125,-1.511640625,5.32675,2.86287109375,4.35041796875,0.98334765625,5.148015625,6.55750390625,1.9693671875,4.1584765625,0.0254531250000003,6.25483984375,12.3470859375,1.57062890625,7.54660546875,7.6896796875,11.66291796875
-3.61035546875,3.83148828125,2.79451171875,-0.25481640625,1.41052734375,1.1039296875,0.4503828125,4.23960546875,4.15436328125,0.56280859375,3.413953125,-0.31121875,6.5638515625,5.48167578125,-0.381640625,7.50975,3.10887109375,4.49741796875,1.67534765625,6.096015625,7.68350390625,2.0103671875,4.6944765625,0.647453125000001,6.47683984375,12.3050859375,2.50562890625,7.79160546875,8.0436796875,11.31491796875
-4.83735546875,3.07848828125,2.03351171875,-1.20681640625,-0.53547265625,1.1169296875,0.9513828125,4.34160546875,2.30036328125,-0.18519140625,3.536953125,-0.33021875,6.5318515625,5.20367578125,-0.672640625,7.76775,2.04187109375,3.91941796875,0.99634765625,5.148015625,6.49150390625,1.5683671875,3.9244765625,-0.833546875,4.52583984375,9.4300859375,0.99762890625,6.04860546875,6.3456796875,8.37691796875
-6.32535546875,1.57348828125,0.47551171875,-2.73581640625,-3.13847265625,-0.0200703124999997,0.1453828125,2.85360546875,0.0923632812499999,-1.78619140625,2.438953125,-1.44021875,5.9988515625,3.95367578125,-1.882640625,6.51775,0.60587109375,2.85641796875,-0.58565234375,2.904015625,3.70050390625,0.9343671875,2.3684765625,-3.656546875,1.29283984375,4.8860859375,-2.12637109375,3.24460546875,3.4826796875,4.04091796875
-7.42935546875,0.10648828125,-1.11448828125,-4.19481640625,-5.40947265625,-1.4750703125,-1.1696171875,0.75060546875,-1.40663671875,-3.32419140625,0.901953125,-2.79521875,5.3848515625,2.38867578125,-3.145640625,4.62775,-0.40412890625,1.83141796875,-2.25065234375,0.395015625,0.49250390625,0.5433671875,0.8674765625,-6.592546875,-1.91916015625,0.3010859375,-5.43537109375,0.74460546875,0.7446796875,-0.0400820312500001
-7.75535546875,-0.75151171875,-2.15248828125,-5.08481640625,-6.56847265625,-2.5360703125,-2.3426171875,-1.14339453125,-1.49363671875,-4.11219140625,-0.429046875,-3.78221875,5.0368515625,1.17367578125,-3.750640625,2.91075,-0.78612890625,1.37641796875,-3.28765234375,-1.461984375,-2.09849609375,0.7213671875,0.1164765625,-8.561546875,-4.05516015625,-3.0289140625,-7.63637109375,-0.40639453125,-0.8893203125,-2.57708203125
-7.35235546875,-0.93551171875,-2.48648828125,-5.26981640625,-6.40747265625,-2.9540703125,-3.1586171875,-2.45739453125,-0.14763671875,-4.03719140625,-1.341046875,-4.28321875,5.1228515625,0.65967578125,-3.509640625,1.76775,-0.91212890625,1.74641796875,-3.45865234375,-2.276984375,-3.63049609375,1.4973671875,0.3264765625,-9.102546875,-4.77016015625,-4.6729140625,-8.16337109375,-0.00239453125,-1.2173203125,-3.19608203125
-6.62235546875,-0.81151171875,-2.37448828125,-4.95781640625,-5.33347265625,-2.9690703125,-3.8066171875,-3.26739453125,2.01636328125,-3.52519140625,-2.023046875,-4.58121875,5.6328515625,0.76767578125,-2.793640625,1.12675,-1.37912890625,2.77941796875,-3.04865234375,-2.277984375,-4.31249609375,2.5723671875,1.1554765625,-8.470546875,-4.45416015625,-5.0809140625,-7.35237109375,1.31660546875,-0.7923203125,-2.46008203125
-6.01935546875,-0.84551171875,-2.22148828125,-4.48881640625,-4.06047265625,-3.0290703125,-4.5916171875,-3.83339453125,4.10136328125,-3.18919140625,-2.783046875,-5.03021875,6.4198515625,1.13467578125,-2.229640625,0.66275,-2.56412890625,3.97141796875,-2.62565234375,-2.049984375,-4.69249609375,3.4623671875,1.9454765625,-7.357546875,-3.87016015625,-5.1529140625,-6.13237109375,2.51160546875,-0.5023203125,-1.41908203125
-5.73735546875,-1.22951171875,-2.22448828125,-4.05981640625,-3.14447265625,-3.3890703125,-5.5656171875,-4.26239453125,5.43836328125,-3.35719140625,-3.703046875,-5.68321875,7.2838515625,1.41867578125,-2.235640625,0.15875,-4.32912890625,4.75141796875,-2.63265234375,-2.086984375,-5.20649609375,3.7623671875,2.1254765625,-6.435546875,-3.64316015625,-5.6449140625,-5.43437109375,2.78460546875,-1.0093203125,-0.98308203125
-5.55435546875,-1.68651171875,-2.14548828125,-3.55281640625,-2.64347265625,-3.8310703125,-6.3346171875,-4.32139453125,5.94436328125,-3.79819140625,-4.446046875,-6.12821875,8.0608515625,1.56967578125,-2.684640625,-0.23825,-5.99312890625,4.83341796875,-3.07665234375,-2.444984375,-5.83249609375,3.3993671875,1.5754765625,-5.967546875,-3.90116015625,-6.7549140625,-5.67337109375,2.02960546875,-2.3563203125,-1.45708203125
-4.92535546875,-1.57551171875,-1.41648828125,-2.61181640625,-2.12547265625,-3.7140703125,-6.1726171875,-3.52139453125,6.09036328125,-3.80019140625,-4.344046875,-5.64321875,8.6948515625,1.88367578125,-2.914640625,-0.0262500000000003,-6.60412890625,4.38441796875,-3.50165234375,-2.697984375,-6.09249609375,2.6933671875,0.7044765625,-5.728546875,-4.25216015625,-8.0789140625,-6.57337109375,0.85860546875,-3.9643203125,-2.45808203125
-3.31135546875,-0.25251171875,0.47251171875,-0.91481640625,-1.02547265625,-2.3320703125,-4.4186171875,-1.42839453125,6.49436328125,-2.58419140625,-2.741046875,-3.60921875,9.2218515625,2.78967578125,-2.094640625,1.34275,-5.39412890625,3.90641796875,-3.27265234375,-2.237984375,-5.36649609375,2.1543671875,0.1974765625,-5.225546875,-4.08116015625,-8.9149140625,-7.42537109375,0.17860546875,-5.0183203125,-3.24508203125
-0.55935546875,2.48848828125,3.57251171875,1.51718359375,0.92652734375,0.6189296875,-0.9126171875,1.99260546875,7.42736328125,0.18280859375,0.585953125,0.0437812500000003,9.6768515625,4.50167578125,0.247359375,4.05275,-2.20612890625,3.88141796875,-1.99365234375,-0.710984375,-3.35049609375,2.1563671875,0.5894765625,-4.085546875,-2.99116015625,-8.7059140625,-7.56537109375,0.60960546875,-4.9793203125,-3.20808203125
2.87664453125,6.15948828125,7.30151171875,4.18518359375,3.46252734375,4.7699296875,3.7823828125,6.21160546875,8.60936328125,4.10480859375,5.170953125,4.63478125,9.9878515625,6.78867578125,3.871359375,7.67175,2.32987109375,4.45941796875,0.20834765625,1.679015625,-0.35849609375,2.6883671875,1.9334765625,-2.333546875,-1.09716015625,-7.3469140625,-6.78537109375,2.08260546875,-3.9093203125,-2.23808203125
6.00764453125,9.67948828125,10.60851171875,6.24118359375,5.86752734375,9.1309296875,8.4963828125,10.21860546875,9.38136328125,8.13980859375,9.921953125,8.86878125,9.9458515625,8.99767578125,7.814359375,11.21275,6.94687109375,5.34841796875,2.68634765625,4.167015625,2.71850390625,3.3313671875,3.7484765625,-0.431546875,0.96383984375,-5.2269140625,-5.41937109375,3.83760546875,-2.4563203125,-0.77808203125
7.66664453125,11.79848828125,12.36351171875,6.80518359375,7.28752734375,12.4329296875,11.8533828125,12.83260546875,9.11036328125,11.02180859375,13.471953125,11.30678125,9.2908515625,10.32767578125,10.767359375,13.47875,10.16487109375,5.97141796875,4.55234765625,5.744015625,4.75650390625,3.4603671875,5.2304765625,0.935453125,2.31883984375,-3.0289140625,-4.14237109375,4.81260546875,-1.5133203125,0.44591796875
7.00664453125,11.62648828125,11.81851171875,5.36318359375,7.11952734375,13.6209296875,12.7853828125,13.14260546875,7.58436328125,11.80080859375,14.691953125,10.95178125,7.8938515625,10.19267578125,11.631359375,13.54975,10.85687109375,5.76941796875,5.07834765625,5.615015625,4.89850390625,2.5733671875,5.6244765625,1.198453125,2.28083984375,-1.4349140625,-3.59237109375,4.19760546875,-1.7563203125,0.81091796875
3.91664453125,9.04048828125,8.96751171875,2.05018359375,5.30052734375,12.3019296875,10.9553828125,10.90960546875,5.16936328125,10.25180859375,13.146953125,7.70378125,5.9208515625,8.50067578125,10.019359375,11.17975,8.72887109375,4.49141796875,4.03234765625,3.591015625,2.93750390625,0.5963671875,4.5774765625,0.195453125,0.69083984375,-0.8799140625,-4.04337109375,1.87760546875,-3.2993203125,0.12091796875
-0.86535546875,4.74548828125,4.59051171875,-2.33081640625,2.36452734375,8.9169296875,6.8873828125,6.70160546875,2.63036328125,6.96780859375,9.278953125,2.44078125,3.8318515625,5.70467578125,6.440359375,6.92875,4.51187109375,2.31741796875,1.77234765625,0.205015625,-0.59949609375,-2.0506328125,2.2924765625,-1.745546875,-2.00616015625,-1.4429140625,-5.29937109375,-1.50439453125,-5.6393203125,-1.33308203125
-6.01835546875,-0.00151171875000011,-0.05748828125,-6.59181640625,-0.78447265625,4.5489296875,1.7503828125,1.67760546875,0.72736328125,3.08380859375,4.240953125,-3.33421875,2.1658515625,2.61867578125,2.079359375,1.94675,-0.28912890625,-0.23758203125,-0.94165234375,-3.527984375,-4.71449609375,-4.6656328125,-0.5695234375,-3.976546875,-4.97116015625,-2.9069140625,-6.84737109375,-4.89139453125,-7.9493203125,-2.98408203125
-10.13135546875,-3.87051171875,-3.75148828125,-9.60681640625,-3.23047265625,0.4899296875,-3.0856171875,-2.86739453125,-0.15763671875,-0.18519140625,-0.549046875,-8.10521875,1.2598515625,0.10067578125,-1.704640625,-2.47925,-3.97612890625,-2.56858203125,-3.29365234375,-6.536984375,-8.36949609375,-6.6036328125,-3.1845234375,-5.834546875,-7.33816015625,-4.8919140625,-8.14537109375,-7.30939453125,-9.4953203125,-4.31308203125
-12.18935546875,-5.91851171875,-5.70248828125,-10.69581640625,-4.35647265625,-2.2030703125,-6.4816171875,-5.92939453125,-0.08963671875,-1.97519140625,-3.882046875,-10.87321875,1.1018515625,-1.24332421875,-3.864640625,-5.34525,-5.32012890625,-4.18558203125,-4.69665234375,-8.073984375,-10.82249609375,-7.5036328125,-4.8535234375,-6.876546875,-8.50616015625,-6.9749140625,-8.82037109375,-8.21439453125,-9.9043203125,-5.04808203125
-11.85935546875,-5.82451171875,-5.70948828125,-9.79881640625,-3.99447265625,-2.9750703125,-7.8086171875,-7.04139453125,0.61136328125,-1.97319140625,-5.081046875,-11.38721875,1.4348515625,-1.20432421875,-3.952640625,-6.15725,-3.98612890625,-4.81758203125,-4.91265234375,-7.866984375,-11.72149609375,-7.3036328125,-5.1645234375,-6.926546875,-8.22916015625,-8.7119140625,-8.70637109375,-7.52639453125,-9.1593203125,-5.13208203125
-9.53735546875,-3.90751171875,-4.09448828125,-7.44381640625,-2.42547265625,-1.8610703125,-7.0496171875,-6.31839453125,1.60136328125,-0.41319140625,-4.108046875,-10.03321875,1.9858515625,0.0456757812500004,-2.147640625,-4.95125,-0.54712890625,-4.40058203125,-4.01465234375,-6.073984375,-11.03049609375,-6.1186328125,-4.0385234375,-6.008546875,-6.55216015625,-9.6399140625,-7.76637109375,-5.45839453125,-7.4153203125,-4.56408203125
-6.16735546875,-0.95551171875,-1.52948828125,-4.53481640625,-0.27647265625,0.5579296875,-4.7556171875,-4.35339453125,2.61736328125,2.06880859375,-1.508046875,-7.55621875,2.6158515625,2.04767578125,0.862359375,-2.22625,3.84787109375,-3.05558203125,-2.30465234375,-3.175984375,-8.95049609375,-4.1396328125,-1.7175234375,-4.292546875,-3.74316015625,-9.3489140625,-6.05937109375,-2.35539453125,-4.8553203125,-3.30508203125
-2.88035546875,2.05648828125,1.18951171875,-2.01081640625,1.70652734375,3.3569296875,-1.8666171875,-1.98839453125,3.46136328125,4.63180859375,1.783953125,-4.77621875,3.3098515625,4.19667578125,4.100359375,1.18475,7.93387109375,-1.04758203125,-0.24465234375,0.127015625,-5.91349609375,-1.6146328125,1.2894765625,-2.107546875,-0.29316015625,-7.6529140625,-3.77737109375,1.36660546875,-1.6833203125,-1.33808203125
-0.56635546875,4.27948828125,3.35151171875,-0.50381640625,2.94652734375,5.5799296875,0.5933828125,-0.0343945312499996,3.96936328125,6.47080859375,4.713953125,-2.37821875,4.0748515625,5.89067578125,6.561359375,4.28975,10.70787109375,1.24341796875,1.61334765625,3.015015625,-2.59349609375,1.1323671875,4.2924765625,0.0314531250000005,3.09383984375,-4.7499140625,-1.31837109375,5.17360546875,1.7736796875,1.18591796875
0.39464453125,5.23148828125,4.47951171875,-0.17681640625,3.24052734375,6.5589296875,1.8403828125,0.94960546875,4.01436328125,7.02780859375,6.420953125,-0.82021875,4.8458515625,6.67667578125,7.475359375,6.17375,11.61687109375,3.37941796875,2.71534765625,4.696015625,0.17650390625,3.6713671875,6.5694765625,1.495453125,5.58783984375,-1.2399140625,0.73662890625,8.39960546875,4.9916796875,3.86391796875
0.12264453125,4.88148828125,4.37651171875,-0.81681640625,2.77652734375,6.0919296875,1.5413828125,0.74360546875,3.55836328125,6.12280859375,6.468953125,-0.32021875,5.4768515625,6.35367578125,6.514359375,6.23875,10.60687109375,4.94541796875,2.64134765625,4.588015625,1.59450390625,5.4833671875,7.5284765625,1.707453125,6.43983984375,2.0340859375,1.75162890625,10.33160546875,7.3046796875,6.07991796875
-0.98035546875,3.53748828125,3.12051171875,-2.04581640625,1.96652734375,4.4169296875,-0.1326171875,-0.54939453125,2.73036328125,3.95880859375,4.921953125,-0.89521875,5.8038515625,5.00767578125,3.854359375,4.36375,8.06987109375,5.63241796875,1.23434765625,2.491015625,1.13450390625,6.0673671875,6.8614765625,0.361453125000001,5.21383984375,4.2330859375,1.22562890625,10.38260546875,8.0646796875,7.14591796875
-2.48535546875,1.64548828125,1.02451171875,-3.50381640625,1.21052734375,2.0379296875,-2.6376171875,-2.58339453125,1.81936328125,1.00780859375,2.238953125,-2.40121875,5.7278515625,2.95367578125,0.0873593750000001,0.90475,4.69487109375,5.32041796875,-1.32865234375,-1.334984375,-1.30049609375,5.1183671875,4.6184765625,-2.462546875,1.93483984375,4.7320859375,-1.04237109375,8.30060546875,6.8626796875,6.48091796875
-4.09935546875,-0.38851171875,-1.46948828125,-4.93881640625,0.70952734375,-0.5010703125,-5.2856171875,-4.88739453125,1.13536328125,-2.16419140625,-0.938046875,-4.55521875,5.2418515625,0.60667578125,-3.994640625,-3.43325,1.24287109375,4.09341796875,-4.57865234375,-6.223984375,-5.34349609375,2.7013671875,1.1964765625,-6.304546875,-2.91116015625,3.2440859375,-4.85537109375,4.30660546875,3.6986796875,3.79791796875
-5.67135546875,-2.26551171875,-3.91348828125,-6.18581640625,0.42452734375,-2.7720703125,-7.4776171875,-6.97939453125,0.81436328125,-5.05019140625,-3.983046875,-6.93521875,4.4168515625,-1.64832421875,-7.638640625,-7.81125,-1.69312890625,2.20041796875,-7.88265234375,-11.259984375,-10.24649609375,-0.6776328125,-2.7665234375,-10.459546875,-8.47616015625,-0.0989140624999996,-9.59937109375,-0.87239453125,-0.9243203125,-0.70508203125
-7.06435546875,-3.72651171875,-5.90948828125,-7.07981640625,0.20852734375,-4.4810703125,-8.8086171875,-8.41739453125,0.77236328125,-7.24419140625,-6.384046875,-8.97021875,3.3898515625,-3.50632421875,-10.272640625,-11.40425,-3.78312890625,-0.0135820312499999,-10.58765234375,-15.451984375,-14.98749609375,-4.1636328125,-6.5115234375,-14.128546875,-13.69816015625,-4.6879140625,-14.30737109375,-6.11339453125,-6.0133203125,-6.22008203125
-8.02135546875,-4.47751171875,-7.09148828125,-7.36481640625,0.0115273437500001,-5.3930703125,-9.0456171875,-8.80139453125,0.85736328125,-8.43219140625,-7.754046875,-9.97121875,2.3758515625,-4.71432421875,-11.537640625,-13.50225,-4.88412890625,-2.15458203125,-12.13165234375,-17.889984375,-18.43449609375,-6.7896328125,-9.2965234375,-16.564546875,-17.46916015625,-9.4639140625,-17.84337109375,-10.14639453125,-10.2673203125,-11.41208203125
-8.18035546875,-4.21951171875,-7.16448828125,-6.75081640625,-0.0534726562499999,-5.3260703125,-8.1046171875,-7.82339453125,1.00536328125,-8.41519140625,-7.866046875,-9.30521875,1.6398515625,-5.08032421875,-11.309640625,-13.62925,-4.90312890625,-3.83858203125,-12.16965234375,-17.946984375,-19.60549609375,-7.7956328125,-10.5455234375,-17.244546875,-18.89916015625,-13.1449140625,-19.23337109375,-11.93539453125,-12.4513203125,-14.81208203125
-7.33035546875,-2.86351171875,-6.10248828125,-5.16781640625,0.12552734375,-4.3200703125,-6.1406171875,-5.44939453125,1.18836328125,-7.27219140625,-6.777046875,-6.72421875,1.3658515625,-4.59032421875,-9.785640625,-11.74325,-3.76312890625,-4.80658203125,-10.72965234375,-15.546984375,-18.03149609375,-6.9476328125,-10.0715234375,-16.079546875,-17.64916015625,-14.6779140625,-18.06437109375,-11.09239453125,-11.8993203125,-15.42808203125
-5.73835546875,-0.79851171875,-4.36148828125,-3.02781640625,0.39552734375,-2.8340703125,-3.6896171875,-2.11539453125,1.21136328125,-5.54119140625,-4.971046875,-2.68121875,1.4868515625,-3.59932421875,-7.575640625,-8.42525,-1.53112890625,-5.08358203125,-8.36365234375,-11.380984375,-14.08049609375,-4.7186328125,-8.2715234375,-13.582546875,-14.19216015625,-13.7149140625,-14.76737109375,-8.14239453125,-8.9073203125,-13.27408203125
-4.25635546875,1.04748828125,-2.86248828125,-1.23381640625,0.23852734375,-1.7530703125,-1.6556171875,1.27160546875,0.61236328125,-4.21619140625,-3.336046875,1.64678125,1.5978515625,-2.87132421875,-5.653640625,-4.84225,1.44587109375,-5.07558203125,-6.10865234375,-6.851984375,-8.98349609375,-2.1906328125,-6.1365234375,-10.825546875,-9.79016015625,-10.8449140625,-10.57437109375,-4.43139453125,-4.7443203125,-9.45208203125
-4.04035546875,1.50548828125,-2.64448828125,-0.85081640625,-1.02647265625,-2.0570703125,-1.0376171875,3.61260546875,-1.14663671875,-4.41419140625,-2.881046875,4.76178125,1.0638515625,-3.34932421875,-5.065640625,-2.38025,4.50787109375,-5.45658203125,-5.18665234375,-3.640984375,-4.43749609375,-0.6826328125,-4.9535234375,-9.097546875,-6.07416015625,-7.3669140625,-7.08837109375,-1.64339453125,-1.1863203125,-5.69408203125
-5.97035546875,-0.26651171875,-4.34848828125,-2.58481640625,-3.84147265625,-4.3210703125,-2.4596171875,4.08360546875,-4.28963671875,-6.84019140625,-4.257046875,5.53578125,-0.6941484375,-5.69532421875,-6.483640625,-2.05825,6.86587109375,-6.86358203125,-6.48165234375,-3.019984375,-1.90449609375,-1.2326328125,-5.7635234375,-9.355546875,-4.37216015625,-4.6839140625,-5.62637109375,-1.10339453125,0.2426796875,-3.55108203125
-10.09935546875,-4.25651171875,-7.82848828125,-6.36481640625,-8.03647265625,-8.3180703125,-5.7686171875,2.55960546875,-8.38163671875,-11.32719140625,-7.360046875,3.80978125,-3.8611484375,-9.84032421875,-9.821640625,-4.01925,7.94887109375,-9.49958203125,-10.05065234375,-5.246984375,-1.94549609375,-4.1416328125,-8.8125234375,-11.721546875,-5.10416015625,-3.6179140625,-6.62737109375,-3.18939453125,-1.0193203125,-3.66208203125
-15.47035546875,-9.45551171875,-12.11448828125,-11.26881640625,-12.69947265625,-12.9890703125,-9.9486171875,-0.23239453125,-12.31463671875,-16.75519140625,-11.267046875,0.54178125,-8.0191484375,-14.83232421875,-14.147640625,-7.38925,7.75387109375,-12.90258203125,-14.91865234375,-9.364984375,-3.95349609375,-8.7726328125,-13.3045234375,-15.314546875,-7.56316015625,-4.0349140625,-9.40937109375,-7.10239453125,-4.2773203125,-5.46508203125
-20.45135546875,-14.24751171875,-15.77948828125,-15.85381640625,-16.45847265625,-16.8510703125,-13.4766171875,-2.98239453125,-14.71063671875,-21.43919140625,-14.606046875,-2.62321875,-12.2011484375,-19.13432421875,-17.983640625,-10.62425,6.91987109375,-16.03158203125,-19.36165234375,-13.568984375,-6.47049609375,-13.7116328125,-17.6305234375,-18.538546875,-10.22716015625,-4.9859140625,-12.40837109375,-11.14239453125,-7.8373203125,-7.50008203125
-23.47335546875,-17.14451171875,-17.58048828125,-18.76381640625,-18.08547265625,-18.6770703125,-15.0126171875,-4.40639453125,-14.59063671875,-23.83719140625,-16.198046875,-4.16821875,-15.2231484375,-21.25132421875,-19.908640625,-12.22125,6.37487109375,-17.71458203125,-21.59265234375,-15.991984375,-7.93649609375,-17.2856328125,-20.0305234375,-19.753546875,-11.46516015625,-5.2679140625,-13.84337109375,-13.39139453125,-9.7453203125,-8.13008203125
-23.77135546875,-17.47251171875,-17.02648828125,-19.30981640625,-17.11847265625,-18.1030703125,-14.0756171875,-3.92539453125,-11.91563671875,-23.21519140625,-15.622046875,-3.47821875,-16.1701484375,-20.40632421875,-19.186640625,-11.44425,6.71287109375,-17.23058203125,-20.54665234375,-15.526984375,-7.47849609375,-18.2296328125,-19.3785234375,-18.008546875,-10.28516015625,-4.0809140625,-12.50737109375,-12.54039453125,-8.6613203125,-6.33008203125
-21.66435546875,-15.63551171875,-14.57048828125,-17.69481640625,-14.10147265625,-15.7780703125,-11.3156171875,-1.98839453125,-7.64963671875,-19.92919140625,-13.405046875,-1.15121875,-14.7711484375,-16.87632421875,-16.085640625,-8.68525,7.72687109375,-14.66658203125,-16.35065234375,-12.286984375,-5.30749609375,-16.1776328125,-15.6655234375,-13.465546875,-6.78316015625,-1.4329140625,-8.30537109375,-8.44839453125,-4.4473203125,-2.13808203125
-18.25935546875,-12.79851171875,-11.31748828125,-14.78281640625,-10.28047265625,-12.9750703125,-8.1966171875,0.13660546875,-3.26463671875,-15.16719140625,-10.709046875,1.31678125,-11.4851484375,-11.80832421875,-11.701640625,-5.24625,8.41787109375,-10.82158203125,-10.22065234375,-7.458984375,-2.53649609375,-11.7066328125,-9.9285234375,-7.296546875,-2.03316015625,1.9090859375,-2.24437109375,-2.14939453125,1.8236796875,3.42391796875
-14.76235546875,-10.21451171875,-8.44448828125,-11.58581640625,-6.93647265625,-10.8790703125,-6.2536171875,0.99360546875,-0.000636718750000043,-10.33019140625,-8.703046875,2.29578125,-7.2711484375,-6.62432421875,-7.395640625,-2.66925,7.51787109375,-6.70358203125,-3.84365234375,-2.665984375,-0.53649609375,-5.9556328125,-3.6775234375,-1.105546875,2.46983984375,4.8530859375,4.09362890625,4.69860546875,8.4296796875,8.88891796875
-11.86535546875,-8.58051171875,-6.68248828125,-8.80681640625,-4.78647265625,-10.0020703125,-6.3496171875,-0.36339453125,1.69036328125,-6.39619140625,-7.976046875,0.83278125,-3.1451484375,-2.38032421875,-4.169640625,-1.99125,4.19987109375,-2.99858203125,1.37834765625,0.785015625,-0.21149609375,-0.0806328125,1.8094765625,3.791453125,5.52483984375,6.5400859375,9.29662890625,10.57560546875,13.7936796875,13.00691796875
-9.50935546875,-7.78351171875,-6.07248828125,-6.61481640625,-3.72947265625,-9.9980703125,-8.3016171875,-3.94339453125,2.23736328125,-3.61519140625,-8.295046875,-2.91121875,0.2388515625,0.58467578125,-2.305640625,-3.30525,-1.41712890625,0.17541796875,4.82834765625,2.402015625,-1.58849609375,5.1633671875,5.9244765625,6.824453125,6.69383984375,6.7150859375,12.66962890625,14.67360546875,17.0636796875,15.19291796875
-7.10835546875,-7.12851171875,-6.06648828125,-4.73481640625,-3.03147265625,-9.9490703125,-11.0326171875,-8.82739453125,2.58536328125,-1.62719140625,-8.826046875,-7.76421875,2.7928515625,2.54867578125,-1.421640625,-5.81025,-8.26212890625,3.09641796875,6.70634765625,2.543015625,-3.89449609375,9.5133671875,8.7444765625,8.196453125,6.33983984375,5.7460859375,14.33262890625,17.00460546875,18.2576796875,15.57791796875
-4.06135546875,-5.85351171875,-5.89048828125,-2.75481640625,-1.81247265625,-8.9170703125,-13.1536171875,-13.59439453125,3.60836328125,0.13780859375,-8.645046875,-12.12621875,4.8818515625,4.02767578125,-0.842640625,-8.27125,-14.78612890625,6.05441796875,7.65634765625,2.051015625,-6.02749609375,13.0143671875,10.6934765625,8.536453125,5.28183984375,4.3540859375,14.90062890625,18.09960546875,17.9796796875,14.73691796875
-0.23035546875,-3.61051171875,-4.99248828125,-0.48281640625,0.43352734375,-6.4750703125,-13.6296171875,-16.94939453125,5.63336328125,2.04480859375,-7.233046875,-14.67721875,6.9548515625,5.37467578125,-0.0176406249999999,-9.60525,-19.63012890625,9.01741796875,8.30034765625,1.753015625,-7.11349609375,15.7343671875,12.1374765625,8.456453125,4.32683984375,3.2490859375,15.02662890625,18.54960546875,16.9846796875,13.33591796875
3.89764453125,-0.64051171875,-3.30048828125,1.87818359375,3.56652734375,-2.9150703125,-12.1856171875,-18.20339453125,8.32536328125,4.08580859375,-4.689046875,-14.87021875,9.1798515625,6.62067578125,1.245359375,-9.30025,-22.08012890625,11.56441796875,8.94134765625,2.114015625,-6.83349609375,17.5683671875,13.1614765625,8.294453125,3.95983984375,2.9070859375,15.09462890625,18.68860546875,15.8626796875,11.92491796875
7.45664453125,2.40548828125,-1.17348828125,3.85018359375,6.92252734375,0.9589296875,-9.2746171875,-17.39539453125,10.94036328125,5.98480859375,-1.602046875,-12.98121875,11.2798515625,7.58667578125,2.811359375,-7.48425,-22.08812890625,13.11441796875,9.56834765625,3.168015625,-5.41249609375,18.2543671875,13.6274765625,8.122453125,4.28883984375,3.5250859375,15.18462890625,18.53560546875,14.9596796875,10.91291796875
9.65864453125,4.82648828125,0.85451171875,4.99418359375,9.68652734375,4.2519296875,-5.7436171875,-15.10539453125,12.74936328125,7.42980859375,1.284953125,-9.81521875,12.6458515625,8.09067578125,4.402359375,-4.74025,-20.00712890625,13.25241796875,10.03534765625,4.650015625,-3.39249609375,17.5173671875,13.3664765625,7.911453125,5.15883984375,5.0620859375,15.20662890625,17.93260546875,14.4166796875,10.57291796875
10.13764453125,6.16148828125,2.31651171875,5.13618359375,11.25452734375,6.3329296875,-2.4706171875,-12.15739453125,13.31936328125,8.23380859375,3.361953125,-6.33721875,12.6238515625,8.08367578125,5.738359375,-1.83125,-16.35312890625,11.94441796875,10.21434765625,6.153015625,-1.40749609375,15.2383671875,12.3314765625,7.646453125,6.26383984375,7.2240859375,15.02462890625,16.69560546875,14.1826796875,10.95891796875
9.01164453125,6.27048828125,2.90151171875,4.38418359375,11.38952734375,6.9499296875,-0.1476171875,-9.38239453125,12.54836328125,8.33480859375,4.298953125,-3.40121875,10.8478515625,7.61967578125,6.578359375,0.51175,-11.78012890625,9.52541796875,10.02534765625,7.229015625,-0.0504960937499996,11.5263671875,10.5934765625,7.327453125,7.20683984375,9.4390859375,14.47162890625,14.67360546875,13.9776796875,11.76191796875
6.72664453125,5.26248828125,2.45951171875,2.99718359375,10.18052734375,6.1619296875,0.8043828125,-7.42839453125,10.54136328125,7.71680859375,4.021953125,-1.59721875,7.4678515625,6.75267578125,6.700359375,1.72775,-7.13912890625,6.50641796875,9.38034765625,7.453015625,0.21450390625,6.7263671875,8.2574765625,6.878453125,7.53383984375,10.9130859375,13.33162890625,11.74060546875,13.2926796875,12.30191796875
3.84864453125,3.38648828125,0.99351171875,1.24718359375,7.90552734375,4.2349296875,0.2743828125,-6.62639453125,7.52436328125,6.36480859375,2.647953125,-1.16521875,3.1748515625,5.47367578125,5.932359375,1.53775,-3.36912890625,3.35541796875,8.14534765625,6.515015625,-0.85149609375,1.3593671875,5.4214765625,6.112453125,6.83483984375,10.8570859375,11.35562890625,7.81660546875,11.5356796875,11.73991796875
0.91964453125,0.98648828125,-1.31448828125,-0.63781640625,4.92452734375,1.5769296875,-1.5156171875,-6.91139453125,3.85736328125,4.32980859375,0.440953125,-1.95821875,-1.0191484375,3.75267578125,4.237359375,0.0287499999999998,-1.16312890625,0.37141796875,6.20634765625,4.349015625,-3.14649609375,-3.9466328125,2.2094765625,4.802453125,4.92083984375,8.8390859375,8.40462890625,2.96960546875,8.3256796875,9.47591796875
-1.60235546875,-1.49751171875,-4.06948828125,-2.46281640625,1.64452734375,-1.2890703125,-4.0336171875,-7.84839453125,0.10536328125,1.83580859375,-2.177046875,-3.46521875,-4.1581484375,1.63967578125,1.811359375,-2.32325,-0.60212890625,-2.29358203125,3.59834765625,1.237015625,-6.15949609375,-8.5396328125,-1.1445234375,2.849453125,1.98983984375,5.0780859375,4.62762890625,-2.40239453125,3.7946796875,5.52391796875
-3.36635546875,-3.54451171875,-6.66348828125,-4.00981640625,-1.44847265625,-3.7540703125,-6.5136171875,-8.73339453125,-2.97963671875,-0.65519140625,-4.623046875,-4.92121875,-5.6741484375,-0.64932421875,-0.878640625,-4.71525,-1.05812890625,-4.52458203125,0.63834765625,-2.157984375,-9.01749609375,-11.8236328125,-4.2325234375,0.448453125,-1.30716015625,0.5320859375,0.58962890625,-7.46139453125,-1.2503203125,0.68791796875
-4.13735546875,-4.64351171875,-8.36448828125,-5.01481640625,-3.79147265625,-5.1980703125,-8.1066171875,-8.76639453125,-4.63863671875,-2.51019140625,-6.217046875,-5.48921875,-5.5321484375,-2.74032421875,-3.171640625,-6.20825,-1.44112890625,-6.15858203125,-2.08165234375,-4.914984375,-10.69949609375,-13.3816328125,-6.5255234375,-1.873546875,-4.00916015625,-3.3549140625,-2.82137109375,-11.06739453125,-5.5123203125,-3.65108203125
-3.84135546875,-4.44751171875,-8.54248828125,-5.25281640625,-4.86947265625,-5.1660703125,-8.1076171875,-7.30739453125,-4.43863671875,-3.12919140625,-6.359046875,-4.51821875,-4.1551484375,-4.20832421875,-4.396640625,-5.99425,-0.70912890625,-7.03458203125,-3.87465234375,-6.130984375,-10.37349609375,-13.1366328125,-7.5605234375,-3.426546875,-5.18016015625,-5.1739140625,-4.72037109375,-12.22439453125,-7.7183203125,-6.08708203125
-2.64035546875,-2.94451171875,-6.95848828125,-4.70381640625,-4.44247265625,-3.5780703125,-6.2446171875,-4.15339453125,-2.58963671875,-2.21719140625,-4.781046875,-1.80221875,-2.2331484375,-4.76132421875,-4.124640625,-3.71825,1.63087109375,-7.14558203125,-4.27365234375,-5.277984375,-7.76149609375,-11.4716328125,-7.1875234375,-3.674546875,-4.30716015625,-4.1419140625,-4.67237109375,-10.63139453125,-7.2503203125,-5.84408203125
-0.96835546875,-0.55951171875,-3.96048828125,-3.68281640625,-2.74647265625,-0.8650703125,-2.8676171875,0.28860546875,-0.000636718750000043,0.0138085937500003,-1.742046875,2.27678125,-0.4961484375,-4.40132421875,-2.381640625,0.31275,5.25887109375,-6.73658203125,-3.28665234375,-2.474984375,-3.32749609375,-9.1506328125,-5.7025234375,-2.533546875,-1.58016015625,-0.4689140625,-2.97637109375,-6.96139453125,-4.5003203125,-3.18408203125
0.56664453125,1.91348828125,-0.40648828125,-2.77481640625,-0.46747265625,2.1179296875,1.0983828125,5.07560546875,2.03636328125,2.84380859375,1.968953125,6.81778125,0.4918515625,-3.47432421875,0.298359375,5.15075,9.16587109375,-6.23158203125,-1.45465234375,1.489015625,1.82150390625,-7.0326328125,-3.7815234375,-0.468546874999999,2.12983984375,4.6930859375,-0.59937109375,-2.64839453125,-0.7293203125,0.69191796875
1.38464453125,3.59448828125,2.65751171875,-2.58781640625,1.51352734375,4.4009296875,4.4723828125,9.06860546875,2.40636328125,5.27980859375,5.291953125,10.70778125,0.4668515625,-2.55032421875,3.046359375,9.52875,12.08887109375,-6.03158203125,0.37934765625,5.427015625,6.31250390625,-5.7146328125,-2.1955234375,1.708453125,5.59883984375,9.7080859375,1.24762890625,0.72860546875,2.5026796875,4.16191796875
1.15364453125,3.87448828125,4.38651171875,-3.46181640625,2.48852734375,5.2789296875,6.2853828125,11.36160546875,0.69736328125,6.45580859375,7.314953125,13.02778125,-0.5021484375,-2.17032421875,4.989359375,12.33575,13.03987109375,-6.31358203125,1.44534765625,8.208015625,9.00750390625,-5.3136328125,-1.4985234375,3.203453125,7.74683984375,13.0860859375,1.66362890625,2.11360546875,4.0056796875,5.86491796875
-0.10035546875,2.68548828125,4.44051171875,-5.31081640625,2.18752734375,4.5839296875,6.1713828125,11.62460546875,-2.58163671875,5.99980859375,7.636953125,13.38778125,-2.0841484375,-2.58332421875,5.609359375,13.05675,11.70687109375,-6.95458203125,1.39934765625,9.198015625,9.42650390625,-5.4856328125,-1.7995234375,3.610453125,8.09083984375,14.0380859375,0.47362890625,1.35560546875,3.4106796875,5.23391796875
-2.02135546875,0.52048828125,3.10451171875,-7.63781640625,0.84852734375,2.7189296875,4.5093828125,10.21060546875,-6.17963671875,4.20180859375,6.497953125,12.06478125,-3.8191484375,-3.62332421875,4.955359375,11.94875,8.58387109375,-7.59658203125,0.45634765625,8.503015625,7.91850390625,-5.6226328125,-2.7335234375,3.075453125,6.93283984375,12.7470859375,-1.69137109375,-0.81439453125,1.2536796875,2.68491796875
-4.07935546875,-1.80451171875,1.17851171875,-9.73581640625,-0.91847265625,0.4759296875,2.2343828125,7.98560546875,-8.64663671875,1.88980859375,4.630953125,9.88278125,-5.2421484375,-4.78332421875,3.593359375,9.90275,4.80287109375,-7.78858203125,-0.73765234375,6.890015625,5.51350390625,-5.1276328125,-3.6115234375,2.208453125,5.21083984375,10.2860859375,-3.66837109375,-3.15039453125,-1.2933203125,-0.57808203125
-5.78335546875,-3.49551171875,-0.35648828125,-10.96781640625,-2.40847265625,-1.3070703125,0.4073828125,5.92960546875,-8.98163671875,0.0688085937500005,2.924953125,7.86578125,-5.9921484375,-5.45632421875,2.321359375,8.02675,1.72187109375,-7.15958203125,-1.43365234375,5.435015625,3.49750390625,-3.6456328125,-3.7095234375,1.782453125,4.07883984375,8.1760859375,-4.25837109375,-4.38839453125,-2.9063203125,-3.04608203125
-6.85335546875,-4.09651171875,-0.77048828125,-11.02181640625,-3.10147265625,-2.0700703125,-0.2616171875,4.70260546875,-7.06763671875,-0.51319140625,2.052953125,6.78778125,-5.8821484375,-5.21132421875,1.787359375,7.15775,0.42487109375,-5.58358203125,-1.11865234375,5.041015625,2.87350390625,-1.2006328125,-2.5805234375,2.387453125,4.39583984375,7.7640859375,-2.72837109375,-3.69839453125,-2.6133203125,-3.50108203125
-7.27635546875,-3.63151171875,0.10351171875,-10.02581640625,-2.83047265625,-1.7240703125,0.2893828125,4.38860546875,-3.64463671875,0.31880859375,2.218953125,6.84078125,-4.9241484375,-3.99432421875,2.206359375,7.51875,1.30987109375,-3.24058203125,0.26434765625,6.045015625,3.94350390625,1.8423671875,-0.2445234375,4.169453125,6.35583984375,9.6280859375,0.89362890625,-0.95039453125,-0.1553203125,-1.49908203125
-7.24835546875,-2.54451171875,1.80851171875,-8.46581640625,-1.78947265625,-0.6190703125,1.5003828125,4.52660546875,0.10036328125,2.12380859375,3.108953125,7.56578125,-3.3021484375,-2.15132421875,3.298359375,8.68875,3.92587109375,-0.55958203125,2.32134765625,8.097015625,6.20950390625,4.9533671875,2.8204765625,6.791453125,9.41583984375,13.2970859375,5.84462890625,3.27560546875,3.9486796875,2.44591796875
-7.02935546875,-1.47551171875,3.50051171875,-6.97381640625,-0.40147265625,0.6429296875,2.4973828125,4.38060546875,3.03236328125,4.07080859375,4.076953125,8.11078125,-1.3181484375,-0.27632421875,4.470359375,9.85875,7.13087109375,1.95341796875,4.39334765625,10.352015625,8.63750390625,7.6553671875,5.8844765625,9.592453125,12.54683984375,17.4360859375,10.93162890625,7.91660546875,8.6246796875,7.08191796875
-6.79435546875,-0.95251171875,4.35851171875,-6.05381640625,0.88552734375,1.5019296875,2.5503828125,3.33860546875,4.44536328125,5.35380859375,4.501953125,7.68878125,0.703851562500001,1.06367578125,5.158359375,10.28375,9.54987109375,3.90941796875,5.86034765625,11.906015625,10.16650390625,9.6953671875,8.2644765625,11.904453125,14.71983984375,20.4580859375,15.00362890625,11.83060546875,12.6846796875,10.96091796875
-6.50635546875,-1.12051171875,4.02051171875,-5.84081640625,1.82452734375,1.7119296875,1.4793828125,1.28960546875,4.22636328125,5.58480859375,4.136953125,6.03578125,2.5208515625,1.60567578125,5.165359375,9.68375,10.22087109375,5.17041796875,6.44634765625,12.258015625,10.22450390625,11.0773671875,9.5934765625,13.366453125,15.37383984375,21.2800859375,17.36962890625,14.20960546875,15.2926796875,13.06791796875
-5.88435546875,-1.64751171875,2.79451171875,-6.00581640625,2.48352734375,1.4879296875,-0.1936171875,-1.21839453125,2.84436328125,4.99180859375,3.284953125,3.61378125,4.0268515625,1.51967578125,4.808359375,8.41175,9.07887109375,5.85441796875,6.35534765625,11.563015625,8.98650390625,11.9873671875,9.9434765625,14.075453125,14.65683984375,19.8420859375,18.00262890625,14.83460546875,16.2456796875,13.21491796875
-4.56335546875,-1.88151171875,1.50351171875,-5.91381640625,3.15652734375,1.4069296875,-1.4666171875,-3.18039453125,1.13736328125,4.27280859375,2.662953125,1.41978125,5.1908515625,1.30867578125,4.765359375,7.26475,6.95487109375,6.22841796875,6.16034765625,10.516015625,7.22550390625,12.6253671875,9.7344765625,14.481453125,13.27683984375,17.0690859375,17.42062890625,14.05560546875,15.9386796875,12.00891796875
-2.38535546875,-1.21051171875,1.02451171875,-5.01081640625,4.11352734375,2.0869296875,-1.3666171875,-3.63339453125,-0.05363671875,4.21380859375,3.032953125,0.49078125,5.9198515625,1.53067578125,5.675359375,7.03575,5.04787109375,6.53341796875,6.48134765625,9.941015625,5.85250390625,13.0553671875,9.4844765625,15.085453125,12.08483984375,14.3240859375,16.36662890625,12.54160546875,15.0576796875,10.42791796875
0.36764453125,0.56848828125,1.81551171875,-3.17881640625,5.38252734375,3.8279296875,0.5413828125,-2.16239453125,-0.23263671875,5.25980859375,4.792953125,1.37678125,5.9858515625,2.48367578125,7.748359375,8.08075,4.20987109375,6.84241796875,7.63434765625,10.342015625,5.43550390625,13.1423671875,9.5414765625,16.133453125,11.62883984375,12.6670859375,15.44162890625,10.96160546875,14.2026796875,9.29191796875
3.00864453125,3.09148828125,3.71351171875,-0.82381640625,6.71752734375,6.4419296875,3.9323828125,0.89860546875,0.60636328125,7.29280859375,7.745953125,3.87678125,5.1158515625,4.03167578125,10.594359375,10.15275,4.52187109375,6.99341796875,9.44434765625,11.653015625,5.95250390625,12.6183671875,9.9224765625,17.469453125,11.91183984375,12.3680859375,14.88762890625,9.72660546875,13.6366796875,8.90891796875
4.75864453125,5.59848828125,6.08351171875,1.36218359375,7.77452734375,9.3389296875,7.8773828125,4.64060546875,2.06436328125,9.69980859375,11.174953125,7.15478125,3.1848515625,5.65267578125,13.375359375,12.54475,5.38887109375,6.63841796875,11.31134765625,13.305015625,6.90050390625,11.2153671875,10.3214765625,18.620453125,12.47983984375,12.9230859375,14.57662890625,8.90460546875,13.2556796875,9.04691796875
5.16064453125,7.32948828125,8.14251171875,2.79618359375,8.32352734375,11.7889296875,11.2473828125,7.99560546875,3.56536328125,11.67980859375,14.137953125,10.13178125,0.3678515625,6.67667578125,15.167359375,14.43875,6.02287109375,5.38041796875,12.48434765625,14.524015625,7.62450390625,8.8013671875,10.2504765625,19.035453125,12.72483984375,13.4840859375,14.16662890625,8.30160546875,12.7406796875,9.19491796875
4.32164453125,7.87448828125,9.28451171875,3.29118359375,8.35352734375,13.1799296875,13.1353828125,10.12060546875,4.58436328125,12.58180859375,15.822953125,11.90978125,-2.8601484375,6.58767578125,15.342359375,15.20975,5.94087109375,2.96841796875,12.37634765625,14.676015625,7.65450390625,5.4943671875,9.2504765625,18.341453125,12.21683984375,13.3920859375,13.31862890625,7.64160546875,11.7876796875,8.89191796875
2.83664453125,7.28848828125,9.25251171875,3.09418359375,8.02252734375,13.1819296875,13.1053828125,10.61260546875,4.83036328125,12.11780859375,15.775953125,12.01978125,-5.8741484375,5.23067578125,13.765359375,14.57475,5.19287109375,-0.51658203125,10.78034765625,13.495015625,6.85050390625,1.6953671875,7.1054765625,16.486453125,10.86683984375,12.4920859375,11.85462890625,6.72860546875,10.2776796875,7.95391796875
1.45664453125,5.93748828125,8.13851171875,2.67418359375,7.52252734375,11.7779296875,11.2073828125,9.49160546875,4.30036328125,10.36680859375,13.937953125,10.43578125,-8.0771484375,2.83767578125,10.766359375,12.57175,4.20187109375,-4.57958203125,7.90734765625,11.107015625,5.34850390625,-1.9596328125,3.9564765625,13.708453125,8.89383984375,11.0970859375,9.80062890625,5.51660546875,8.3236796875,6.52091796875
0.67864453125,4.23348828125,6.23151171875,2.40218359375,6.94252734375,9.1829296875,7.8343828125,7.04260546875,3.20336328125,7.63280859375,10.547953125,7.45378125,-9.0531484375,-0.11932421875,6.927359375,9.46375,3.36287109375,-8.42458203125,4.26334765625,7.907015625,3.41550390625,-4.7656328125,0.2864765625,10.401453125,6.64483984375,9.7300859375,7.34862890625,4.09360546875,6.2076796875,4.94091796875
0.51564453125,2.43048828125,3.84251171875,2.34918359375,6.21752734375,5.7299296875,3.5293828125,3.65660546875,1.78636328125,4.26780859375,6.016953125,3.53878125,-8.6371484375,-3.13832421875,2.827359375,5.62275,2.70787109375,-11.22458203125,0.44934765625,4.372015625,1.31650390625,-6.1586328125,-3.2365234375,6.961453125,4.42483984375,8.8250859375,4.77862890625,2.62460546875,4.2556796875,3.59391796875
0.54364453125,0.56048828125,1.20451171875,2.29018359375,5.16252734375,1.7719296875,-1.1496171875,-0.24839453125,0.20636328125,0.55980859375,0.831953125,-0.78621875,-6.9381484375,-5.84932421875,-1.123640625,1.46975,1.88287109375,-12.42258203125,-3.01865234375,0.905015625,-0.74349609375,-5.8986328125,-5.9755234375,3.695453125,2.39383984375,8.5240859375,2.38762890625,1.29360546875,2.7086796875,2.71791796875
0.16964453125,-1.49551171875,-1.50748828125,1.90518359375,3.57352734375,-2.3710703125,-5.7066171875,-4.23339453125,-1.46363671875,-3.27219140625,-4.502046875,-5.03421875,-4.3141484375,-8.05632421875,-4.725640625,-2.57525,0.44487109375,-11.89858203125,-5.80565234375,-2.240984375,-2.64249609375,-4.1466328125,-7.5325234375,0.792453125000001,0.54983984375,8.6150859375,0.40862890625,0.24160546875,1.6186796875,2.26491796875
-1.06535546875,-3.87651171875,-4.14148828125,0.96618359375,1.31752734375,-6.4450703125,-9.7746171875,-7.88139453125,-3.15063671875,-7.03619140625,-9.518046875,-8.83021875,-1.3181484375,-9.69632421875,-7.932640625,-6.14425,-1.79512890625,-9.96158203125,-7.79365234375,-4.981984375,-4.35949609375,-1.4216328125,-7.8725234375,-1.668546875,-1.22516015625,8.5890859375,-1.06837109375,-0.50639453125,0.7986796875,1.86091796875
-3.28935546875,-6.60451171875,-6.55748828125,-0.56281640625,-1.60847265625,-10.2600703125,-13.1536171875,-10.88139453125,-4.72363671875,-10.51119140625,-13.831046875,-11.95921875,1.4308515625,-10.76632421875,-10.748640625,-8.99125,-4.63012890625,-7.20358203125,-9.04465234375,-7.334984375,-5.97549609375,1.5573671875,-7.3055234375,-3.698546875,-3.07516015625,7.8440859375,-2.14537109375,-1.07439453125,-0.1133203125,0.93491796875
-6.22435546875,-9.48151171875,-8.60348828125,-2.50981640625,-4.99147265625,-13.6290703125,-15.7676171875,-13.06639453125,-5.99563671875,-13.41619140625,-17.142046875,-14.31321875,3.4238515625,-11.26232421875,-13.098640625,-11.00325,-7.55412890625,-4.27258203125,-9.69565234375,-9.297984375,-7.56449609375,4.1133671875,-6.3275234375,-5.326546875,-5.02816015625,6.0110859375,-3.03337109375,-1.66739453125,-1.4463203125,-0.95408203125
-9.22435546875,-12.04851171875,-10.05248828125,-4.48781640625,-8.32847265625,-16.2560703125,-17.5276171875,-14.34739453125,-6.74063671875,-15.40219140625,-19.207046875,-15.77321875,4.4588515625,-11.14132421875,-14.745640625,-12.12625,-9.94512890625,-1.66358203125,-9.82465234375,-10.708984375,-9.03849609375,5.8683671875,-5.3505234375,-6.486546875,-6.86716015625,3.2540859375,-3.87637109375,-2.39339453125,-3.2183203125,-3.74708203125
-11.41935546875,-13.65151171875,-10.58348828125,-5.93181640625,-10.84847265625,-17.6860703125,-18.2366171875,-14.62939453125,-6.72263671875,-16.10319140625,-19.805046875,-16.14921875,4.7088515625,-10.32632421875,-15.297640625,-12.27325,-11.27212890625,0.38441796875,-9.36265234375,-11.220984375,-10.05749609375,6.8443671875,-4.5045234375,-6.958546875,-8.12516015625,0.3060859375,-4.59737109375,-3.13139453125,-5.0193203125,-6.76608203125
-12.00935546875,-13.67151171875,-9.90148828125,-6.28681640625,-11.75447265625,-17.4490703125,-17.6536171875,-13.83839453125,-5.76963671875,-15.26619140625,-18.791046875,-15.25921875,4.6128515625,-8.76932421875,-14.377640625,-11.31525,-11.29212890625,1.84441796875,-8.14765234375,-10.451984375,-10.13549609375,7.3313671875,-3.6355234375,-6.452546875,-8.28516015625,-1.8519140625,-4.91937109375,-3.55739453125,-6.1793203125,-9.01308203125
-10.62335546875,-11.83151171875,-7.95648828125,-5.28781640625,-10.58947265625,-15.3420703125,-15.6896171875,-12.03639453125,-3.88163671875,-12.89919140625,-16.224046875,-13.12721875,4.5918515625,-6.54832421875,-11.866640625,-9.19625,-10.17512890625,2.76341796875,-6.07865234375,-8.246984375,-8.91249609375,7.6163671875,-2.5045234375,-4.802546875,-7.07716015625,-2.5069140625,-4.56237109375,-3.35139453125,-6.1513203125,-9.68708203125
-7.53435546875,-8.43351171875,-5.07348828125,-3.16181640625,-7.53047265625,-11.6550703125,-12.5786171875,-9.50039453125,-1.32463671875,-9.37119140625,-12.476046875,-10.12121875,4.7888515625,-3.92532421875,-8.084640625,-6.08025,-8.44812890625,3.16941796875,-3.27065234375,-4.862984375,-6.40149609375,7.7633671875,-1.0155234375,-2.146546875,-4.69416015625,-1.5649140625,-3.46037109375,-2.42139453125,-4.8443203125,-8.59508203125
-3.59735546875,-4.31951171875,-1.90948828125,-0.59381640625,-3.40147265625,-7.1680703125,-8.8646171875,-6.67739453125,1.37236328125,-5.35919140625,-8.215046875,-6.87921875,4.9818515625,-1.31032421875,-3.740640625,-2.40925,-6.73212890625,3.07741796875,-0.0856523437500001,-0.945984375,-3.06149609375,7.6083671875,0.6784765625,1.044453125,-1.75216015625,0.4510859375,-1.85037109375,-1.00639453125,-2.6963203125,-6.20108203125
0.0666445312499997,-0.57051171875,0.75951171875,1.53418359375,0.61752734375,-2.9160703125,-5.2486171875,-4.05239453125,3.53136328125,-1.64919140625,-4.230046875,-4.07721875,4.7168515625,0.86167578125,0.303359375,1.17575,-5.40212890625,2.55641796875,2.97834765625,2.687015625,0.35950390625,6.9233671875,2.2554765625,4.129453125,0.97283984375,2.7250859375,-0.16537109375,0.40660546875,-0.4783203125,-3.34708203125
2.47364453125,1.89248828125,2.32151171875,2.48818359375,3.44352734375,0.1719296875,-2.3686171875,-2.01139453125,4.55036328125,1.10780859375,-1.190046875,-2.18421875,3.5978515625,2.27167578125,3.346359375,4.02375,-4.40112890625,1.76241796875,5.46434765625,5.363015625,3.09150390625,5.6253671875,3.4034765625,6.527453125,2.87183984375,4.5420859375,1.16862890625,1.29560546875,1.0556796875,-0.87008203125
3.09264453125,2.61548828125,2.56051171875,1.96518359375,4.46452734375,1.5789296875,-0.6336171875,-0.75139453125,4.17236328125,2.58980859375,0.539953125,-1.34921875,1.5538515625,2.80667578125,5.055359375,5.67875,-3.34612890625,0.91941796875,7.11134765625,6.761015625,4.59250390625,3.9043671875,3.9744765625,7.908453125,3.71283984375,5.5330859375,1.91462890625,1.33560546875,1.4786796875,0.68691796875
1.96564453125,1.69448828125,1.71751171875,0.20218359375,3.68552734375,1.3399296875,-0.1466171875,-0.27239453125,2.66236328125,2.86480859375,0.960953125,-1.45121875,-1.0741484375,2.57167578125,5.485359375,6.02075,-1.89512890625,0.24541796875,7.90334765625,6.954015625,4.66550390625,2.1933671875,4.0324765625,8.234453125,3.62183984375,5.6510859375,2.07562890625,0.54260546875,0.8326796875,1.14991796875
-0.36335546875,-0.32551171875,0.34251171875,-2.12981640625,1.61652734375,-0.0500703124999999,-0.7306171875,-0.45239453125,0.71636328125,2.30580859375,0.358953125,-2.23621875,-3.6701484375,1.82367578125,4.948359375,5.25775,-0.13412890625,-0.11758203125,8.00634765625,6.265015625,3.42550390625,0.9933671875,3.7684765625,7.673453125,2.89883984375,4.9890859375,1.81262890625,-0.74239453125,-0.4783203125,0.61991796875
-3.06735546875,-2.66951171875,-0.98648828125,-4.21081640625,-0.97447265625,-1.8750703125,-2.0216171875,-1.16339453125,-0.88963671875,1.40780859375,-0.852046875,-3.45121875,-5.6091484375,0.88267578125,3.822359375,3.79175,1.32487109375,-0.13958203125,7.64634765625,5.058015625,1.19150390625,0.6513671875,3.3754765625,6.476453125,1.81083984375,3.6020859375,1.29262890625,-2.03339453125,-1.9513203125,-0.66208203125
-5.29335546875,-4.59151171875,-1.88048828125,-5.35281640625,-3.29547265625,-3.4730703125,-3.5826171875,-2.32139453125,-1.65563671875,0.596808593750001,-2.272046875,-4.90321875,-6.4671484375,0.04867578125,2.435359375,2.05875,1.66387109375,0.13141796875,7.01434765625,3.614015625,-1.61749609375,1.2333671875,2.9694765625,4.902453125,0.51283984375,1.4980859375,0.61062890625,-2.91739453125,-3.2093203125,-2.39108203125
-6.37035546875,-5.57051171875,-2.17748828125,-5.18081640625,-4.68147265625,-4.3970703125,-4.9786171875,-3.83939453125,-1.48963671875,0.12980859375,-3.586046875,-6.42621875,-6.0751484375,-0.44332421875,1.063359375,0.42675,0.36287109375,0.65941796875,6.25834765625,2.138015625,-4.52749609375,2.5673671875,2.6224765625,3.244453125,-0.87716015625,-1.2079140625,-0.15737109375,-3.15239453125,-4.0473203125,-4.17608203125
-5.94235546875,-5.40251171875,-1.85748828125,-3.66081640625,-4.70347265625,-4.4640703125,-5.8486171875,-5.55139453125,-0.56463671875,0.0858085937500004,-4.562046875,-7.81521875,-4.4671484375,-0.44232421875,-0.0396406249999997,-0.82625,-2.43612890625,1.48941796875,5.54034765625,0.845015625,-7.02149609375,4.3863671875,2.4484765625,1.850453125,-2.14516015625,-4.1279140625,-0.83937109375,-2.65039453125,-4.3353203125,-5.51908203125
-4.03335546875,-4.18051171875,-0.97148828125,-1.05181640625,-3.27247265625,-3.7270703125,-5.9776171875,-7.19839453125,0.89136328125,0.42480859375,-5.028046875,-8.80821875,-1.8241484375,0.0916757812500002,-0.655640625,-1.51525,-5.96112890625,2.71541796875,5.04734765625,0.00301562499999997,-8.60149609375,6.4243671875,2.6274765625,1.074453125,-2.95916015625,-6.6149140625,-1.12337109375,-1.42639453125,-3.9493203125,-5.89508203125
-1.02335546875,-2.21151171875,0.37451171875,2.19518359375,-0.68547265625,-2.3990703125,-5.3386171875,-8.47739453125,2.71136328125,1.03480859375,-4.882046875,-9.15121875,1.5138515625,1.05867578125,-0.686640625,-1.56125,-9.14412890625,4.35541796875,4.93534765625,-0.139984375,-8.91449609375,8.4483671875,3.3244765625,1.126453125,-2.98516015625,-7.9799140625,-0.67737109375,0.37760546875,-2.8183203125,-4.97408203125
2.45464453125,0.0914882812499999,2.01251171875,5.54918359375,2.44452734375,-0.7690703125,-4.0766171875,-9.10939453125,4.75336328125,1.77780859375,-4.125046875,-8.68821875,5.0338515625,2.20867578125,-0.216640625,-1.01825,-11.06412890625,6.24641796875,5.22334765625,0.506015625,-7.90449609375,10.2403671875,4.5464765625,1.926453125,-2.11216015625,-7.8259140625,0.63262890625,2.44060546875,-1.0683203125,-2.85108203125
5.68164453125,2.31948828125,3.70151171875,8.50618359375,5.38852734375,0.8789296875,-2.4516171875,-8.93239453125,6.79836328125,2.50980859375,-2.905046875,-7.45821875,8.0878515625,3.20767578125,0.497359375,-0.0832500000000003,-11.32312890625,8.03041796875,5.71534765625,1.746015625,-5.88949609375,11.5893671875,6.0374765625,3.050453125,-0.59916015625,-6.3169140625,2.55762890625,4.26060546875,0.8806796875,-0.15808203125
8.05764453125,4.15448828125,5.15251171875,10.66818359375,7.54652734375,2.3169296875,-0.7736171875,-7.99439453125,8.48736328125,3.11580859375,-1.497046875,-5.71321875,10.0628515625,3.75567578125,1.123359375,0.93175,-10.20712890625,9.27741796875,6.04834765625,3.105015625,-3.51149609375,12.3213671875,7.2984765625,3.866453125,0.95183984375,-4.1839140625,4.48362890625,5.27660546875,2.3906796875,2.08691796875
9.28964453125,5.43948828125,6.10751171875,11.81518359375,8.66252734375,3.4129296875,0.6843828125,-6.58539453125,9.40436328125,3.55580859375,-0.207046875,-3.86421875,10.6308515625,3.72367578125,1.410359375,1.70875,-8.57012890625,9.67141796875,5.86134765625,4.008015625,-1.50149609375,12.3583671875,7.7964765625,3.815453125,1.87283984375,-2.4249140625,5.69362890625,5.09660546875,2.8756796875,2.91891796875
9.47964453125,6.19348828125,6.45951171875,11.95018359375,8.90952734375,4.1699296875,1.7973828125,-5.11839453125,9.27836328125,3.88980859375,0.770953125,-2.30421875,9.9448515625,3.22767578125,1.327359375,2.07775,-7.41712890625,9.17441796875,5.01534765625,4.073015625,-0.35649609375,11.7943671875,7.2534765625,2.725453125,1.78183984375,-1.7909140625,5.75862890625,3.74560546875,2.1606796875,1.96191796875
9.02564453125,6.54948828125,6.31551171875,11.26118359375,8.76652734375,4.7079296875,2.6333828125,-3.93039453125,8.16736328125,4.25380859375,1.443953125,-1.23521875,8.5988515625,2.56967578125,1.080359375,2.11275,-7.39912890625,8.04241796875,3.70834765625,3.327015625,-0.11549609375,10.9123671875,5.8414765625,0.935453125,0.81883984375,-2.3839140625,4.80962890625,1.73960546875,0.6616796875,-0.28808203125
8.35364453125,6.64048828125,5.91651171875,9.98318359375,8.73152734375,5.1619296875,3.3553828125,-3.16039453125,6.47036328125,4.76180859375,1.960953125,-0.59521875,7.3158515625,2.06367578125,0.963359375,2.06775,-8.48912890625,6.68241796875,2.36934765625,2.170015625,-0.40649609375,10.0563671875,4.1034765625,-0.876546874999999,-0.44616015625,-3.6299140625,3.46362890625,-0.10539453125,-0.8013203125,-2.69108203125
7.64164453125,6.50248828125,5.45851171875,8.24418359375,9.04152734375,5.5609296875,4.0633828125,-2.76439453125,4.76236328125,5.40880859375,2.469953125,-0.14521875,6.5528515625,1.84967578125,1.152359375,2.19175,-9.99712890625,5.43241796875,1.40734765625,1.133015625,-0.71549609375,9.4433671875,2.6644765625,-2.055546875,-1.35116015625,-4.6479140625,2.46562890625,-1.06339453125,-1.4583203125,-4.08008203125
6.76264453125,6.07448828125,5.01351171875,6.07518359375,9.57152734375,5.8009296875,4.7093828125,-2.58939453125,3.57136328125,6.04580859375,3.002953125,0.37478125,6.2718515625,1.83167578125,1.590359375,2.58675,-10.89012890625,4.43441796875,1.00134765625,0.614015625,-0.67549609375,9.0293671875,1.9144765625,-2.286546875,-1.49816015625,-4.7319140625,2.27662890625,-0.85439453125,-1.0093203125,-3.85208203125
5.45664453125,5.27448828125,4.56151171875,3.54818359375,9.94852734375,5.7349296875,5.1533828125,-2.43739453125,3.19036328125,6.43680859375,3.468953125,1.10678125,6.0358515625,1.75867578125,2.044359375,3.19875,-10.26212890625,3.65441796875,1.04534765625,0.738015625,-0.21049609375,8.5553671875,1.8604765625,-1.690546875,-0.90916015625,-3.6729140625,2.87162890625,0.23260546875,0.2516796875,-2.19408203125
3.55264453125,4.06848828125,4.06151171875,0.88318359375,9.73752734375,5.2469296875,5.2563828125,-2.15339453125,3.53336328125,6.34980859375,3.705953125,1.99178125,5.3108515625,1.37167578125,2.233359375,3.88575,-7.81112890625,2.97641796875,1.25334765625,1.353015625,0.49050390625,7.7023671875,2.1714765625,-0.708546875,0.0348398437499999,-1.8129140625,3.80062890625,1.47460546875,1.6306796875,0.0919179687499999
1.07164453125,2.45648828125,3.42451171875,-1.63581640625,8.58452734375,4.2499296875,4.8913828125,-1.73939453125,4.11236328125,5.59380859375,3.526953125,2.74678125,3.7728515625,0.50767578125,1.918359375,4.46075,-4.07312890625,2.26341796875,1.30434765625,2.096015625,1.08550390625,6.2683671875,2.3404765625,0.100453125,0.79083984375,0.130085937500001,4.43462890625,2.02960546875,2.3746796875,1.98991796875
-1.82135546875,0.43148828125,2.47851171875,-3.82881640625,6.30552734375,2.6559296875,3.9223828125,-1.41339453125,4.20836328125,4.04880859375,2.754953125,2.93078125,1.4738515625,-0.86732421875,0.949359375,4.70375,-0.24812890625,1.37841796875,0.97034765625,2.511015625,1.20850390625,4.2593671875,1.9074765625,0.270453125,0.87983984375,1.3620859375,4.25962890625,1.30260546875,2.0096796875,2.69091796875
-4.88135546875,-2.00651171875,1.02651171875,-5.70181640625,2.95952734375,0.4199296875,2.2473828125,-1.49939453125,3.22436328125,1.72180859375,1.300953125,2.15478125,-1.1831484375,-2.63232421875,-0.695640625,4.40075,2.38187109375,0.21941796875,0.19734765625,2.224015625,0.60650390625,1.8913671875,0.6624765625,-0.399546875,0.0938398437500001,1.3550859375,3.11462890625,-0.76939453125,0.5406796875,1.91291796875
-7.81835546875,-4.73951171875,-1.01148828125,-7.33481640625,-1.11147265625,-2.3460703125,-0.0786171874999999,-2.21539453125,1.01736328125,-1.16819140625,-0.754046875,0.33578125,-3.6071484375,-4.51832421875,-2.840640625,3.45175,3.08087109375,-1.21658203125,-0.87265234375,1.114015625,-0.72749609375,-0.4836328125,-1.2415234375,-1.754546875,-1.40616015625,0.0910859375000004,1.28462890625,-3.66039453125,-1.5533203125,0.00391796874999989
-10.32335546875,-7.45151171875,-3.46648828125,-8.71481640625,-5.31647265625,-5.3280703125,-2.7776171875,-3.50139453125,-2.03163671875,-4.18419140625,-3.127046875,-2.15521875,-5.2471484375,-6.16632421875,-5.114640625,1.94475,1.95287109375,-2.78558203125,-1.96765234375,-0.610984375,-2.53049609375,-2.5266328125,-3.3465234375,-3.345546875,-3.15216015625,-1.9149140625,-0.61737109375,-6.48339453125,-3.5453203125,-2.22808203125
-12.13935546875,-9.70351171875,-5.93348828125,-9.65181640625,-8.95947265625,-8.0860703125,-5.4056171875,-5.00839453125,-5.21563671875,-6.80019140625,-5.441046875,-4.60421875,-5.8031484375,-7.26232421875,-7.065640625,0.14275,-0.23712890625,-4.22758203125,-2.81465234375,-2.507984375,-4.36749609375,-4.0246328125,-5.1055234375,-4.638546875,-4.60416015625,-3.8559140625,-1.93237109375,-8.40239453125,-4.7873203125,-3.89108203125
-13.16935546875,-11.14351171875,-7.93248828125,-9.89581640625,-11.45447265625,-10.2490703125,-7.5446171875,-6.25239453125,-7.84863671875,-8.62819140625,-7.399046875,-6.29121875,-5.3271484375,-7.69332421875,-8.357640625,-1.63925,-2.54012890625,-5.26158203125,-3.28265234375,-4.110984375,-5.84249609375,-4.9466328125,-6.1355234375,-5.292546875,-5.42416015625,-5.0409140625,-2.27237109375,-8.99639453125,-4.9993203125,-4.43008203125
-13.58635546875,-11.74951171875,-9.16948828125,-9.39081640625,-12.57347265625,-11.6950703125,-9.0106171875,-6.86539453125,-9.56363671875,-9.63819140625,-8.949046875,-6.88521875,-4.1961484375,-7.64232421875,-8.965640625,-3.19625,-4.32112890625,-5.73458203125,-3.47165234375,-5.180984375,-6.81549609375,-5.4146328125,-6.4015234375,-5.369546875,-5.66816015625,-5.2519140625,-1.73737109375,-8.44239453125,-4.3903203125,-3.90108203125
-13.83635546875,-11.88651171875,-9.73848828125,-8.46781640625,-12.57947265625,-12.6370703125,-9.9466171875,-6.80439453125,-10.44563671875,-10.19519140625,-10.289046875,-6.62521875,-2.9661484375,-7.56732421875,-9.226640625,-4.52825,-5.53112890625,-5.73358203125,-3.70965234375,-5.843984375,-7.47049609375,-5.6436328125,-6.2455234375,-5.334546875,-5.77316015625,-4.8469140625,-0.90437109375,-7.40139453125,-3.5703203125,-2.95608203125
-14.45335546875,-12.11351171875,-10.07548828125,-7.77981640625,-12.12947265625,-13.4810703125,-10.7066171875,-6.35639453125,-10.90663671875,-10.87119140625,-11.714046875,-6.14121875,-2.1611484375,-8.00332421875,-9.677640625,-5.77225,-6.59612890625,-5.56558203125,-4.40365234375,-6.499984375,-8.18249609375,-5.8446328125,-6.2115234375,-5.821546875,-6.30016015625,-4.5129140625,-0.56137109375,-6.66739453125,-3.2393203125,-2.47908203125
-15.72235546875,-12.81951171875,-10.64248828125,-7.91581640625,-11.91547265625,-14.5390703125,-11.5636171875,-5.89839453125,-11.34163671875,-12.08319140625,-13.355046875,-6.00421875,-2.0681484375,-9.27332421875,-10.730640625,-7.01425,-7.99312890625,-5.56558203125,-5.79565234375,-7.525984375,-9.21449609375,-6.0956328125,-6.7375234375,-7.263546875,-7.56516015625,-4.7929140625,-1.27737109375,-6.72739453125,-3.7803203125,-3.04908203125
-17.42035546875,-13.92551171875,-11.55248828125,-8.96781640625,-12.27147265625,-15.7640703125,-12.4596171875,-5.58339453125,-11.80363671875,-13.79719140625,-15.017046875,-6.34121875,-2.6371484375,-11.26132421875,-12.398640625,-8.12825,-9.76512890625,-5.84758203125,-7.77365234375,-8.976984375,-10.47849609375,-6.2636328125,-7.8845234375,-9.605546875,-9.39216015625,-5.7109140625,-3.07237109375,-7.49239453125,-5.0063203125,-4.55008203125
-18.85835546875,-14.88451171875,-12.47048828125,-10.38481640625,-13.03647265625,-16.7500703125,-13.0186171875,-5.24339453125,-11.94463671875,-15.51419140625,-16.247046875,-6.79321875,-3.5331484375,-13.42632421875,-14.273640625,-8.83525,-11.35512890625,-6.21558203125,-9.89265234375,-10.511984375,-11.55249609375,-6.0636328125,-9.3205234375,-12.318546875,-11.18516015625,-6.7799140625,-5.39737109375,-8.38639453125,-6.2613203125,-6.21208203125
-19.24735546875,-15.00751171875,-12.86948828125,-11.25881640625,-13.74947265625,-17.0130703125,-12.8276171875,-4.56939453125,-11.27563671875,-16.56919140625,-16.615046875,-6.85321875,-4.3231484375,-15.07832421875,-15.795640625,-8.96825,-11.90112890625,-6.32258203125,-11.63965234375,-11.637984375,-11.96949609375,-5.2786328125,-10.5575234375,-14.699546875,-12.28916015625,-7.3599140625,-7.46237109375,-8.73339453125,-6.8383203125,-7.08308203125
-18.16235546875,-13.90551171875,-12.40948828125,-10.82881640625,-13.99447265625,-16.3280703125,-11.7676171875,-3.40039453125,-9.53563671875,-16.53719140625,-16.009046875,-6.27721875,-4.6781484375,-15.74732421875,-16.587640625,-8.69225,-10.79512890625,-5.92958203125,-12.72665234375,-12.038984375,-11.54649609375,-3.9546328125,-11.2685234375,-16.238546875,-12.37516015625,-7.0939140625,-8.64737109375,-8.18539453125,-6.3913203125,-6.57608203125
-15.79035546875,-11.73651171875,-11.14848828125,-8.87681640625,-13.65447265625,-14.9000703125,-10.1446171875,-1.87439453125,-6.90963671875,-15.47519140625,-14.725046875,-5.26821875,-4.4631484375,-15.38532421875,-16.635640625,-8.47425,-8.14412890625,-5.07058203125,-13.21265234375,-11.766984375,-10.49649609375,-2.4276328125,-11.4275234375,-16.805546875,-11.58916015625,-6.0949140625,-8.76437109375,-6.88339453125,-5.0653203125,-4.74608203125
-12.85035546875,-9.14151171875,-9.48948828125,-5.81681640625,-12.92447265625,-13.2640703125,-8.5396171875,-0.37639453125,-4.00863671875,-13.85219140625,-13.292046875,-4.33721875,-3.7271484375,-14.32132421875,-16.219640625,-8.79525,-4.83712890625,-4.00158203125,-13.36865234375,-11.167984375,-9.29549609375,-1.1406328125,-11.2185234375,-16.581546875,-10.39616015625,-4.8139140625,-8.02337109375,-5.30939453125,-3.3143203125,-2.16808203125
-10.25435546875,-6.91251171875,-7.95348828125,-2.49381640625,-12.15347265625,-12.0200703125,-7.5156171875,0.64560546875,-1.64563671875,-12.27519140625,-12.200046875,-3.98021875,-2.6301484375,-13.00832421875,-15.696640625,-9.84025,-2.15312890625,-3.01458203125,-13.42965234375,-10.639984375,-8.40249609375,-0.3876328125,-10.8245234375,-15.853546875,-9.27216015625,-3.7439140625,-6.82937109375,-3.97039453125,-1.5953203125,0.41991796875
-8.70335546875,-5.61751171875,-6.92248828125,0.20118359375,-11.60047265625,-11.5500703125,-7.3296171875,0.89360546875,-0.49063671875,-11.17019140625,-11.672046875,-4.39121875,-1.3521484375,-11.77132421875,-15.294640625,-11.37925,-1.12612890625,-2.26558203125,-13.42365234375,-10.402984375,-8.04249609375,-0.1536328125,-10.2925234375,-14.827546875,-8.44516015625,-3.1519140625,-5.54637109375,-3.13339453125,-0.1533203125,2.47491796875
-8.39335546875,-5.36451171875,-6.45348828125,1.71318359375,-11.26247265625,-11.8260703125,-7.8026171875,0.38060546875,-0.73863671875,-10.60319140625,-11.603046875,-5.34721875,-0.0131484374999999,-10.67832421875,-15.006640625,-12.87625,-2.01512890625,-1.69858203125,-13.15965234375,-10.383984375,-8.12249609375,-0.1286328125,-9.5185234375,-13.554546875,-7.82016015625,-2.9639140625,-4.35337109375,-2.73139453125,1.0246796875,3.83391796875
-8.94035546875,-5.78151171875,-6.25748828125,2.02918359375,-10.84847265625,-12.4140703125,-8.4026171875,-0.55739453125,-1.97163671875,-10.28319140625,-11.628046875,-6.29221875,1.3698515625,-9.56432421875,-14.620640625,-13.73025,-4.18812890625,-1.09258203125,-12.36265234375,-10.264984375,-8.29349609375,0.1103671875,-8.3475234375,-11.962546875,-7.07416015625,-2.8269140625,-3.23337109375,-2.44739453125,2.1156796875,4.68791796875
-9.56735546875,-6.19651171875,-5.84248828125,1.63918359375,-9.91847265625,-12.6640703125,-8.5006171875,-1.39939453125,-3.30363671875,-9.71919140625,-11.271046875,-6.57321875,2.8478515625,-8.16632421875,-13.838640625,-13.50725,-6.47112890625,-0.15858203125,-10.82665234375,-9.636984375,-8.11349609375,0.8783671875,-6.6715234375,-9.943546875,-5.86216015625,-2.3069140625,-2.04537109375,-1.89339453125,3.3036796875,5.40591796875
-9.42535546875,-5.92751171875,-4.73948828125,1.28218359375,-8.09947265625,-11.9810703125,-7.6606171875,-1.65239453125,-3.76563671875,-8.44419140625,-10.121046875,-5.72221875,4.4558515625,-6.25732421875,-12.420640625,-12.06925,-7.72712890625,1.34441796875,-8.50565234375,-8.177984375,-7.21949609375,2.2433671875,-4.4745234375,-7.429546875,-4.00516015625,-1.1159140625,-0.62637109375,-0.78139453125,4.6596796875,6.31391796875
-7.94535546875,-4.56451171875,-2.72548828125,1.62718359375,-5.29347265625,-10.0740703125,-5.8136171875,-1.05239453125,-2.73663671875,-6.23219140625,-8.001046875,-3.67121875,6.1238515625,-3.75932421875,-10.287640625,-9.59125,-7.36012890625,3.52141796875,-5.53565234375,-5.801984375,-5.47749609375,4.0213671875,-1.8435234375,-4.463546875,-1.59616015625,0.7020859375,1.10562890625,0.96360546875,6.0916796875,7.52091796875
-5.08935546875,-2.17151171875,0.0205117187500001,2.97618359375,-1.82147265625,-7.1010703125,-3.2986171875,0.31160546875,-0.28363671875,-3.23719140625,-5.096046875,-0.81921875,7.6108515625,-0.82432421875,-7.589640625,-6.52625,-5.54112890625,6.23841796875,-2.23165234375,-2.753984375,-3.06549609375,5.8363671875,1.0144765625,-1.262546875,0.98483984375,2.7140859375,3.06862890625,3.13160546875,7.3416796875,8.81991796875
-1.43335546875,0.69148828125,2.86351171875,5.08518359375,1.54552734375,-3.6910703125,-0.7696171875,1.94760546875,2.76536328125,-0.0191914062499996,-1.992046875,2.05478125,8.4998515625,2.11767578125,-4.739640625,-3.54425,-3.11612890625,9.04041796875,0.90534765625,0.377015625,-0.48149609375,7.1773671875,3.7044765625,1.723453125,3.14983984375,4.2030859375,4.94562890625,5.20360546875,7.9906796875,9.70391796875
1.98464453125,3.13248828125,4.86851171875,7.21318359375,3.78052734375,-0.7830703125,0.9873828125,3.08760546875,5.08536328125,2.59280859375,0.460953125,4.02778125,8.2958515625,4.41567578125,-2.362640625,-1.42225,-1.23912890625,11.16041796875,3.24234765625,2.777015625,1.56850390625,7.4803671875,5.6254765625,3.858453125,4.25783984375,4.4200859375,6.20262890625,6.42560546875,7.5486796875,9.51291796875
4.05364453125,4.26348828125,5.16851171875,8.42718359375,4.01052734375,0.7099296875,1.3313828125,3.00160546875,5.42736328125,3.79380859375,1.448953125,4.37078125,6.6458515625,5.37667578125,-1.112640625,-0.82125,-0.88912890625,11.72341796875,4.17734765625,3.689015625,2.41650390625,6.3073671875,6.1324765625,4.511453125,3.85183984375,2.9160859375,6.27662890625,6.07460546875,5.6676796875,7.72891796875
4.05964453125,3.58648828125,3.42951171875,8.06618359375,1.98152734375,0.3149296875,0.0513828125,1.40960546875,3.26136328125,3.16580859375,0.578953125,2.87978125,3.5828515625,4.57867578125,-1.378640625,-1.98025,-2.43612890625,10.14541796875,3.41234765625,2.770015625,1.77050390625,3.6163671875,4.8594765625,3.395453125,1.91483984375,-0.1609140625,4.90462890625,3.86760546875,2.4446796875,4.33491796875
2.04164453125,1.29248828125,0.12951171875,6.10218359375,-1.69547265625,-1.7170703125,-2.4286171875,-1.24339453125,-0.86263671875,0.94580859375,-1.841046875,0.0837812500000004,-0.3351484375,2.16567578125,-3.005640625,-4.46925,-5.42412890625,6.54641796875,1.21934765625,0.369015625,-0.00149609374999971,-0.0516328124999998,2.0634765625,0.848453125000001,-0.95216015625,-3.9449140625,2.43062890625,0.30260546875,-1.3783203125,0.0529179687499999
-1.17735546875,-1.74051171875,-3.53548828125,3.19118359375,-5.70947265625,-4.4470703125,-5.0996171875,-3.84339453125,-5.50163671875,-1.97519140625,-4.812046875,-2.83121875,-4.1441484375,-1.07132421875,-5.238640625,-7.20325,-8.68412890625,1.89441796875,-1.52465234375,-2.483984375,-1.87049609375,-3.6306328125,-1.3025234375,-2.138546875,-3.60816015625,-7.0319140625,-0.16937109375,-3.35139453125,-4.5263203125,-3.74808203125
-4.30535546875,-4.29851171875,-6.14248828125,0.37418359375,-8.58547265625,-6.6200703125,-6.7136171875,-5.04939453125,-8.98063671875,-4.41219140625,-7.022046875,-4.45521875,-6.8051484375,-3.95332421875,-6.991640625,-8.81825,-10.73812890625,-2.29158203125,-3.63265234375,-4.469984375,-2.52549609375,-5.9006328125,-3.9145234375,-4.288546875,-4.77716015625,-7.9649140625,-1.65537109375,-5.52039453125,-5.6553203125,-5.54808203125
-6.16335546875,-5.40551171875,-6.69548828125,-1.43181640625,-9.34847265625,-7.2550703125,-6.3436171875,-3.92639453125,-10.18663671875,-5.45119140625,-7.461046875,-3.80521875,-7.6441484375,-5.46932421875,-7.375640625,-8.30825,-10.37112890625,-4.60358203125,-4.17465234375,-4.609984375,-1.04149609375,-6.0136328125,-4.7015234375,-4.645546875,-3.66316015625,-5.8849140625,-1.14537109375,-5.08339453125,-4.0083203125,-4.39308203125
-6.24835546875,-4.82751171875,-5.14948828125,-1.89681640625,-7.99047265625,-6.1390703125,-3.8986171875,-0.50539453125,-9.09463671875,-4.94119140625,-5.956046875,-0.88521875,-6.7011484375,-5.32032421875,-6.217640625,-5.58825,-7.17112890625,-4.43858203125,-2.99165234375,-2.813984375,2.53750390625,-3.9286328125,-3.4195234375,-3.104546875,-0.44016015625,-1.0369140625,1.34362890625,-2.00039453125,0.1106796875,-0.48708203125
-4.98335546875,-3.19151171875,-2.49948828125,-1.43681640625,-5.48247265625,-3.9730703125,-0.276617187499999,4.09060546875,-6.74463671875,-3.59119140625,-3.299046875,3.20278125,-4.7741484375,-4.09832421875,-4.222640625,-1.66225,-1.80912890625,-2.29858203125,-0.84065234375,0.00301562499999997,7.05950390625,-0.4846328125,-0.8225234375,-0.518546874999999,3.68383984375,5.1640859375,4.80462890625,2.57860546875,5.3196796875,4.73891796875
-3.47235546875,-1.64551171875,-0.30748828125,-0.94781640625,-3.30347265625,-2.0210703125,3.0093828125,8.08060546875,-4.68663671875,-2.59119140625,-0.874046875,6.74378125,-3.0981484375,-2.97132421875,-2.647640625,1.78475,4.11887109375,0.47841796875,0.97734765625,2.358015625,10.74350390625,2.9563671875,1.7114765625,1.712453125,6.96983984375,10.6390859375,7.68562890625,6.83060546875,9.7116796875,9.17991796875
-2.87835546875,-1.24651171875,0.10051171875,-1.26981640625,-2.70147265625,-1.4240703125,4.5683828125,9.84960546875,-4.18763671875,-2.95119140625,0.0409531249999999,8.24478125,-2.7551484375,-3.04032421875,-2.618640625,3.19375,8.68187109375,2.40641796875,1.30734765625,2.961015625,12.05350390625,5.1143671875,2.8644765625,2.336453125,7.95483984375,13.5110859375,8.64262890625,9.10360546875,11.6816796875,11.00691796875
-3.80135546875,-2.43951171875,-1.70348828125,-2.72281640625,-4.10947265625,-2.6170703125,3.7973828125,8.69860546875,-5.65963671875,-4.96419140625,-1.099046875,7.13278125,-4.1511484375,-4.75832421875,-4.514640625,1.89675,10.40587109375,2.53641796875,-0.27665234375,1.362015625,10.45450390625,5.3013671875,1.9954765625,0.838453125000001,6.14783984375,12.9180859375,7.17062890625,8.62960546875,10.6106796875,9.49991796875
-6.01035546875,-4.88951171875,-5.09348828125,-4.98281640625,-7.02747265625,-5.1550703125,1.1053828125,5.09760546875,-8.60563671875,-8.07819140625,-3.885046875,3.93978125,-6.8391484375,-7.72632421875,-7.763640625,-1.59025,8.88687109375,0.77641796875,-3.29365234375,-1.871984375,6.63550390625,3.6023671875,-0.6575234375,-2.375546875,2.21883984375,9.3560859375,3.78462890625,5.73760546875,7.0356796875,5.31991796875
-8.63635546875,-7.72651171875,-8.75248828125,-7.29581640625,-10.35347265625,-8.0270703125,-2.3576171875,0.36860546875,-12.02163671875,-11.21819140625,-7.208046875,-0.0682187499999998,-9.7781484375,-10.93832421875,-11.133640625,-5.86525,4.92987109375,-2.22858203125,-6.66365234375,-5.496984375,2.11650390625,0.7123671875,-4.1905234375,-6.233546875,-2.35016015625,4.3910859375,-0.30637109375,1.56860546875,2.3136796875,0.12491796875
-10.63935546875,-9.99051171875,-11.29548828125,-8.85781640625,-12.92847265625,-10.1680703125,-5.2536171875,-3.93939453125,-14.90063671875,-13.30719140625,-9.805046875,-3.50321875,-11.8631484375,-13.28432421875,-13.319640625,-9.31925,0.15387109375,-5.48258203125,-9.22365234375,-8.192984375,-1.48349609375,-2.4026328125,-7.4975234375,-9.489546875,-5.95716015625,-0.0589140624999995,-3.78837109375,-2.47139453125,-1.9963203125,-4.22308203125
-11.28535546875,-11.02551171875,-11.82848828125,-9.17081640625,-13.99447265625,-10.8900703125,-6.5876171875,-6.64439453125,-16.56363671875,-13.70719140625,-10.784046875,-5.38021875,-12.4391484375,-14.03032421875,-13.488640625,-10.82125,-3.68712890625,-8.04258203125,-10.18165234375,-9.099984375,-3.11049609375,-4.8386328125,-9.6965234375,-11.215546875,-7.52216015625,-2.5049140625,-5.76937109375,-5.24639453125,-4.7093203125,-6.43008203125
-10.41435546875,-10.68051171875,-10.26748828125,-8.26281640625,-13.40647265625,-10.0770703125,-6.0126171875,-7.27139453125,-16.77063671875,-12.39419140625,-9.910046875,-5.38021875,-11.5501484375,-13.05332421875,-11.555640625,-10.09125,-5.37912890625,-9.28058203125,-9.32865234375,-8.074984375,-2.59149609375,-6.0196328125,-10.3865234375,-11.071546875,-6.82116015625,-2.4009140625,-6.02437109375,-6.20739453125,-5.3553203125,-6.17808203125
-8.43335546875,-9.27451171875,-7.31148828125,-6.68181640625,-11.58547265625,-8.1240703125,-3.8446171875,-6.07639453125,-15.67863671875,-9.87119140625,-7.580046875,-3.83021875,-9.8191484375,-10.79632421875,-8.115640625,-7.66725,-4.61312890625,-9.00958203125,-6.98765234375,-5.612984375,-0.52349609375,-5.8336328125,-9.6685234375,-9.328546875,-4.42016015625,-0.1849140625,-4.91637109375,-5.45439453125,-4.1893203125,-4.05108203125
-6.07335546875,-7.39851171875,-4.06648828125,-5.22081640625,-9.25847265625,-5.6840703125,-0.8196171875,-3.78439453125,-13.69063671875,-6.87819140625,-4.545046875,-1.45721875,-8.0891484375,-8.01232421875,-4.103640625,-4.52525,-1.94612890625,-7.45058203125,-3.78765234375,-2.526984375,2.14150390625,-4.6196328125,-7.9895234375,-6.631546875,-1.28716015625,3.0740859375,-3.08437109375,-3.55839453125,-1.9393203125,-1.09508203125
-4.05135546875,-5.63851171875,-1.51048828125,-4.51381640625,-7.12247265625,-3.3580703125,2.2763828125,-1.22339453125,-11.28663671875,-4.08019140625,-1.559046875,0.96978125,-7.0191484375,-5.43532421875,-0.373640625,-1.60025,1.54887109375,-5.11658203125,-0.39965234375,0.442015625,4.56850390625,-2.9806328125,-5.8855234375,-3.683546875,1.66583984375,6.2170859375,-1.09737109375,-1.27939453125,0.5546796875,1.70591796875
-2.80635546875,-4.34751171875,-0.10948828125,-4.73181640625,-5.57047265625,-1.4760703125,4.8973828125,0.96760546875,-8.92463671875,-1.84519140625,0.887953125,2.94778125,-6.8591484375,-3.52432421875,2.597359375,0.55375,4.71987109375,-2.62858203125,2.64734765625,2.869015625,6.33250390625,-1.5176328125,-3.7795234375,-0.981546874999999,3.89683984375,8.4390859375,0.73962890625,0.71360546875,2.6486796875,3.77091796875
-2.39535546875,-3.54851171875,0.24651171875,-5.56581640625,-4.60347265625,-0.0510703124999998,6.8303828125,2.44060546875,-7.01263671875,-0.21719140625,2.651953125,4.35078125,-7.4451484375,-2.36232421875,4.751359375,1.82375,6.65787109375,-0.54558203125,5.03334765625,4.656015625,7.41750390625,-0.5956328125,-1.8915234375,1.243453125,5.28283984375,9.4470859375,2.37462890625,2.00260546875,4.0206796875,4.97391796875
-2.55835546875,-3.02151171875,0.0185117187500001,-6.45481640625,-3.93647265625,1.1029296875,8.1253828125,3.11260546875,-5.87663671875,0.967808593750001,3.843953125,5.31978125,-8.3651484375,-1.73332421875,6.298359375,2.38275,6.89087109375,0.77641796875,6.63034765625,5.877015625,7.99750390625,-0.2346328125,-0.2875234375,2.939453125,5.95783984375,9.3700859375,3.85262890625,2.47160546875,4.6426796875,5.46291796875
-2.90335546875,-2.50251171875,-0.29548828125,-6.90981640625,-3.23347265625,2.1899296875,8.9363828125,3.08760546875,-5.64763671875,1.89880859375,4.664953125,6.04278125,-9.1741484375,-1.31532421875,7.486359375,2.47575,5.46987109375,1.26241796875,7.44634765625,6.600015625,8.20750390625,-0.1756328125,1.0224765625,4.101453125,6.10083984375,8.5250859375,5.15262890625,2.24660546875,4.6466796875,5.42691796875
-3.12335546875,-1.88651171875,-0.41148828125,-6.77081640625,-2.35147265625,3.2749296875,9.3713828125,2.56560546875,-6.18063671875,2.65080859375,5.249953125,6.55478125,-9.5781484375,-0.86832421875,8.441359375,2.26975,2.96587109375,1.09341796875,7.57334765625,6.808015625,8.03050390625,-0.0736328124999999,1.9934765625,4.693453125,5.80983984375,7.2320859375,6.12362890625,1.57460546875,4.1816796875,4.96191796875
-3.14435546875,-1.28051171875,-0.33648828125,-6.25481640625,-1.45247265625,4.2279296875,9.4253828125,1.74760546875,-7.09863671875,3.17680859375,5.625953125,6.70978125,-9.5201484375,-0.33032421875,9.120359375,1.81875,0.30987109375,0.58541796875,7.15834765625,6.436015625,7.37050390625,0.2793671875,2.5344765625,4.673453125,5.11083984375,5.7330859375,6.56262890625,0.69560546875,3.3326796875,4.07391796875
-3.09235546875,-0.90651171875,-0.25748828125,-5.77481640625,-0.87547265625,4.8299296875,9.0463828125,0.81160546875,-7.94463671875,3.39680859375,5.774953125,6.31978125,-9.1221484375,0.22867578125,9.399359375,1.12575,-1.53612890625,0.0604179687499999,6.39034765625,5.482015625,6.20750390625,0.8663671875,2.5694765625,4.086453125,4.06083984375,4.2200859375,6.36862890625,-0.20739453125,2.1556796875,2.80891796875
-3.13335546875,-0.90551171875,-0.31148828125,-5.65681640625,-0.84647265625,4.9679296875,8.2773828125,-0.0643945312499996,-8.32563671875,3.32780859375,5.733953125,5.38178125,-8.5431484375,0.72767578125,9.225359375,0.25475,-1.97212890625,-0.23658203125,5.49734765625,4.103015625,4.71650390625,1.5053671875,2.1484765625,3.123453125,2.83583984375,2.8820859375,5.65762890625,-0.97739453125,0.7726796875,1.34291796875
-3.30135546875,-1.20751171875,-0.44048828125,-5.93581640625,-1.24347265625,4.7729296875,7.3593828125,-0.67639453125,-8.03063671875,3.13080859375,5.660953125,4.18878125,-7.8661484375,1.15867578125,8.702359375,-0.60925,-1.01112890625,-0.15858203125,4.72134765625,2.619015625,3.25150390625,1.9963671875,1.4874765625,2.106453125,1.72483984375,1.8830859375,4.73162890625,-1.46939453125,-0.5863203125,-0.0380820312500001
-3.43835546875,-1.53251171875,-0.42048828125,-6.36281640625,-1.60947265625,4.5829296875,6.6793828125,-0.84539453125,-7.07163671875,3.05480859375,5.792953125,3.24478125,-7.1021484375,1.59467578125,8.075359375,-1.19925,0.78487109375,0.34241796875,4.26434765625,1.409015625,2.20150390625,2.2363671875,0.8984765625,1.371453125,1.01783984375,1.2950859375,3.93462890625,-1.57439453125,-1.6693203125,-1.07408203125
-3.26335546875,-1.52451171875,0.00151171875000005,-6.54481640625,-1.40747265625,4.7619296875,6.6123828125,-0.47439453125,-5.67263671875,3.32680859375,6.344953125,3.02178125,-6.2661484375,2.13767578125,7.620359375,-1.27925,2.66587109375,1.21741796875,4.24534765625,0.779015625,1.82550390625,2.2543671875,0.6604765625,1.156453125,0.89583984375,1.0530859375,3.50762890625,-1.27339453125,-2.3203203125,-1.64308203125
-2.50335546875,-0.91951171875,0.97151171875,-6.11481640625,-0.32447265625,5.5269296875,7.3513828125,0.42160546875,-4.17563671875,4.05680859375,7.405953125,3.75278125,-5.4201484375,2.85867578125,7.536359375,-0.73925,4.12887109375,2.32241796875,4.69034765625,0.873015625,2.18550390625,2.1983671875,0.9124765625,1.550453125,1.37383984375,1.0300859375,3.53862890625,-0.63239453125,-2.5183203125,-1.75308203125
-1.04335546875,0.32448828125,2.46651171875,-4.86981640625,1.54552734375,6.8649296875,8.8263828125,1.74160546875,-2.90663671875,5.20180859375,8.884953125,5.33178125,-4.6361484375,3.75267578125,7.902359375,0.35375,5.11987109375,3.44841796875,5.53934765625,1.657015625,3.17250390625,2.2743671875,1.6304765625,2.509453125,2.33183984375,1.1400859375,4.01262890625,0.25960546875,-2.3043203125,-1.44308203125
0.97964453125,2.01148828125,4.28751171875,-2.85881640625,3.74852734375,8.5469296875,10.7093828125,3.29060546875,-2.07563671875,6.58380859375,10.515953125,7.35478125,-3.9531484375,4.73267578125,8.653359375,1.76575,5.89487109375,4.35241796875,6.64934765625,2.926015625,4.54950390625,2.6413671875,2.6614765625,3.888453125,3.54883984375,1.3630859375,4.84762890625,1.33860546875,-1.6953203125,-0.72908203125
3.18664453125,3.78548828125,6.09451171875,-0.38281640625,5.69352734375,10.2079296875,12.5113828125,4.77160546875,-1.70463671875,7.94380859375,11.936953125,9.23978125,-3.3741484375,5.65167578125,9.603359375,3.12975,6.67287109375,4.82741796875,7.80334765625,4.332015625,5.97450390625,3.3093671875,3.7734765625,5.456453125,4.73083984375,1.6470859375,5.88462890625,2.55360546875,-0.7043203125,0.32991796875
5.11264453125,5.27448828125,7.54751171875,2.13318359375,6.95152734375,11.4879296875,13.7513828125,5.84460546875,-1.60963671875,9.03380859375,12.814953125,10.41778125,-2.8991484375,6.37267578125,10.494359375,4.04375,7.36787109375,4.77841796875,8.75034765625,5.481015625,7.03450390625,4.1093671875,4.7184765625,6.924453125,5.54383984375,1.7840859375,6.85062890625,3.79660546875,0.5786796875,1.51591796875
6.43864453125,6.24748828125,8.47751171875,4.33518359375,7.46452734375,12.1919296875,14.1533828125,6.25760546875,-1.43363671875,9.71780859375,12.993953125,10.53278125,-2.5321484375,6.83767578125,11.093359375,4.23075,7.60587109375,4.29641796875,9.30034765625,6.069015625,7.36050390625,4.7773671875,5.3114765625,8.032453125,5.71283984375,1.4250859375,7.40162890625,4.87260546875,1.9236796875,2.44091796875
7.12464453125,6.68348828125,8.94851171875,6.06718359375,7.51552734375,12.3619296875,13.7443828125,5.96260546875,-0.81363671875,10.01680859375,12.552953125,9.57078125,-2.2631484375,7.10967578125,11.293359375,3.65975,6.96387109375,3.65241796875,9.41334765625,6.033015625,6.77650390625,5.0983671875,5.4894765625,8.647453125,5.14983984375,0.2760859375,7.25362890625,5.54460546875,3.0116796875,2.67291796875
7.37564453125,6.73248828125,9.16651171875,7.33418359375,7.49452734375,12.2119296875,12.8023828125,5.11460546875,0.37336328125,10.07380859375,11.756953125,7.84478125,-2.0631484375,7.32567578125,11.151359375,2.56375,5.25087109375,3.18741796875,9.22034765625,5.574015625,5.40650390625,5.0033671875,5.3294765625,8.821453125,4.04283984375,-1.6519140625,6.32762890625,5.63660546875,3.5626796875,1.95691796875
7.48164453125,6.61048828125,9.32351171875,8.20018359375,7.64452734375,11.9849296875,11.7023828125,3.99360546875,1.88036328125,10.05480859375,10.927953125,5.86178125,-1.8981484375,7.62067578125,10.867359375,1.34875,2.66487109375,3.16041796875,8.95834765625,5.068015625,3.68650390625,4.5743671875,5.0054765625,8.774453125,2.82283984375,-3.8999140625,4.82862890625,5.12160546875,3.4876796875,0.40791796875
7.68664453125,6.50048828125,9.53451171875,8.73618359375,7.97052734375,11.8439296875,10.7723828125,2.91960546875,3.22336328125,10.07080859375,10.332953125,4.15578125,-1.7351484375,8.05767578125,10.705359375,0.45175,-0.21612890625,3.63641796875,8.87034765625,4.901015625,2.24150390625,3.9813671875,4.7304765625,8.801453125,2.02383984375,-5.6759140625,3.18962890625,4.16760546875,2.9476796875,-1.45808203125
8.13264453125,6.51548828125,9.85751171875,9.04418359375,8.31852734375,11.8349296875,10.1993828125,2.17460546875,3.98036328125,10.15680859375,10.110953125,3.12678125,-1.5151484375,8.60667578125,10.897359375,0.19475,-2.60312890625,4.46641796875,9.09934765625,5.290015625,1.67150390625,3.4163671875,4.6784765625,9.151453125,2.05883984375,-6.1919140625,1.90062890625,3.07760546875,2.2896796875,-2.91608203125
8.84664453125,6.70348828125,10.30651171875,9.26518359375,8.49952734375,11.8969296875,9.9993828125,1.92160546875,4.03436328125,10.27980859375,10.248953125,2.92578125,-1.1331484375,9.16567578125,11.526359375,0.65875,-3.73812890625,5.34741796875,9.62134765625,6.188015625,2.30250390625,3.0313671875,4.9204765625,9.924453125,3.03183984375,-5.0839140625,1.29462890625,2.17760546875,1.8706796875,-3.37308203125
9.74864453125,7.04248828125,10.84351171875,9.54618359375,8.39052734375,11.9089296875,10.0393828125,2.16260546875,3.60036328125,10.35980859375,10.594953125,3.42078125,-0.485148437499999,9.60367578125,12.461359375,1.64275,-3.16912890625,5.95641796875,10.24634765625,7.305015625,4.02450390625,2.8993671875,5.3834765625,11.020453125,4.67583984375,-2.6269140625,1.41362890625,1.68860546875,1.8886796875,-2.66308203125
10.67764453125,7.44648828125,11.37751171875,9.97818359375,7.98352734375,11.7609296875,10.1263828125,2.76860546875,3.07636328125,10.29880859375,10.922953125,4.28578125,0.4488515625,9.81867578125,13.404359375,2.75375,-0.93412890625,6.09141796875,10.70234765625,8.255015625,6.32850390625,3.0133671875,5.9014765625,12.181453125,6.46583984375,0.368085937500001,2.02362890625,1.66260546875,2.3066796875,-1.12708203125
11.44464453125,7.78748828125,11.79751171875,10.54918359375,7.37952734375,11.4149296875,10.1053828125,3.56060546875,2.84636328125,10.01080859375,11.025953125,5.15578125,1.5428515625,9.78367578125,14.015359375,3.59775,2.39487109375,5.77341796875,10.76034765625,8.729015625,8.52350390625,3.2843671875,6.2944765625,13.087453125,7.84983984375,2.9240859375,2.75462890625,1.99260546875,2.8946796875,0.54291796875
11.89064453125,7.93048828125,11.98051171875,11.13118359375,6.72852734375,10.8949296875,9.9113828125,4.37160546875,3.09736328125,9.44080859375,10.798953125,5.77778125,2.5498515625,9.54867578125,14.049359375,3.95775,5.88487109375,5.21241796875,10.31734765625,8.609015625,10.02150390625,3.5403671875,6.4544765625,13.465453125,8.46683984375,4.3280859375,3.27962890625,2.45960546875,3.3336796875,1.61691796875
11.95364453125,7.79448828125,11.80651171875,11.51718359375,6.14752734375,10.2299296875,9.5573828125,5.08860546875,3.75836328125,8.57380859375,10.255953125,6.08378125,3.2118515625,9.20967578125,13.425359375,3.86575,8.59387109375,4.66441796875,9.40934765625,7.961015625,10.55650390625,3.5223671875,6.3614765625,13.156453125,8.24083984375,4.3950859375,3.41862890625,2.78060546875,3.3456796875,1.63791796875
11.72364453125,7.39748828125,11.21751171875,11.56418359375,5.70552734375,9.4349296875,9.1193828125,5.70460546875,4.58736328125,7.44880859375,9.502953125,6.17278125,3.3898515625,8.86367578125,12.225359375,3.54075,9.97587109375,4.28041796875,8.16434765625,6.948015625,10.23850390625,2.9763671875,6.0614765625,12.156453125,7.35983984375,3.4730859375,3.17062890625,2.70160546875,2.8096796875,0.60691796875
11.47364453125,6.88448828125,10.29751171875,11.32618359375,5.46552734375,8.5569296875,8.7233828125,6.35760546875,5.36036328125,6.18380859375,8.684953125,6.26278125,3.1458515625,8.59467578125,10.656359375,3.26875,10.08687109375,4.07441796875,6.75134765625,5.753015625,9.44950390625,1.8133671875,5.6374765625,10.608453125,6.14783984375,2.1920859375,2.66962890625,2.09560546875,1.8206796875,-1.03708203125
11.57664453125,6.48748828125,9.29051171875,11.08618359375,5.52752734375,7.7099296875,8.5063828125,7.26760546875,5.99836328125,4.96880859375,7.921953125,6.58278125,2.7018515625,8.46067578125,8.973359375,3.24475,9.45287109375,3.95641796875,5.32934765625,4.507015625,8.62150390625,0.2163671875,5.1584765625,8.748453125,4.91983984375,1.1010859375,2.08562890625,1.02060546875,0.6286796875,-2.68608203125
12.33064453125,6.40548828125,8.48151171875,11.19918359375,5.97452734375,7.0299296875,8.5313828125,8.54960546875,6.53736328125,3.99180859375,7.241953125,7.23878125,2.3138515625,8.45167578125,7.363359375,3.45175,8.68887109375,3.79641796875,3.97634765625,3.237015625,7.99950390625,-1.4176328125,4.6134765625,6.786453125,3.82883984375,0.3480859375,1.49862890625,-0.35139453125,-0.5513203125,-3.93708203125
13.77464453125,6.66348828125,8.01851171875,11.86218359375,6.77652734375,6.5649296875,8.6983828125,10.04460546875,6.99936328125,3.31480859375,6.531953125,8.10878125,2.1128515625,8.43067578125,5.857359375,3.62475,8.12987109375,3.45841796875,2.63734765625,1.854015625,7.52350390625,-2.7006328125,3.8654765625,4.796453125,2.79283984375,-0.3809140625,0.81462890625,-1.89139453125,-1.7353203125,-4.83608203125
15.66064453125,7.08548828125,7.82351171875,12.98318359375,7.73852734375,6.2399296875,8.7703828125,11.33960546875,7.32936328125,2.83080859375,5.595953125,8.89978125,2.0418515625,8.14567578125,4.347359375,3.39875,7.75187109375,2.86041796875,1.17534765625,0.242015625,6.92950390625,-3.4666328125,2.7304765625,2.727453125,1.59083984375,-1.5949140625,-0.17537109375,-3.57839453125,-3.1513203125,-5.77808203125
17.60664453125,7.43348828125,7.68051171875,14.24918359375,8.58552734375,5.9319296875,8.5353828125,12.01660546875,7.44336328125,2.36880859375,4.340953125,9.36578125,1.9168515625,7.38167578125,2.739359375,2.59375,7.38487109375,2.04941796875,-0.47865234375,-1.565984375,6.03450390625,-3.8106328125,1.1664765625,0.582453125000001,0.10783984375,-3.5429140625,-1.55537109375,-5.39239453125,-4.9673203125,-7.08708203125
19.35564453125,7.62548828125,7.42351171875,15.32318359375,9.13352734375,5.6279296875,8.0203828125,11.98460546875,7.35736328125,1.89880859375,2.977953125,9.53578125,1.5908515625,6.16767578125,1.160359375,1.45175,7.02587109375,1.25141796875,-2.13865234375,-3.230984375,5.01550390625,-3.9516328125,-0.5575234375,-1.377546875,-1.42316015625,-5.8739140625,-3.06037109375,-7.10539453125,-6.9663203125,-8.59908203125
20.92864453125,7.85248828125,7.10951171875,16.06318359375,9.43952734375,5.5139296875,7.5843828125,11.63160546875,7.27336328125,1.65380859375,2.042953125,9.76578125,1.1128515625,4.88167578125,0.0143593750000002,0.62975,6.96487109375,0.80141796875,-3.34265234375,-4.150984375,4.43350390625,-4.0436328125,-1.8665234375,-2.594546875,-2.43016015625,-7.7089140625,-4.06437109375,-8.22739453125,-8.4833203125,-9.62808203125
22.56864453125,8.47848828125,7.00951171875,16.58018359375,9.77952734375,5.9079296875,7.7743828125,11.67660546875,7.51436328125,2.02980859375,2.170953125,10.52878125,0.7558515625,4.10767578125,-0.187640625,0.87775,7.60187109375,0.96541796875,-3.55965234375,-3.757984375,4.94150390625,-4.0796328125,-2.1305234375,-2.472546875,-2.30516015625,-8.1309140625,-3.89737109375,-8.21839453125,-8.7453203125,-9.38408203125
24.47164453125,9.75548828125,7.38151171875,17.08618359375,10.43052734375,7.0289296875,9.0003828125,12.74960546875,8.28636328125,3.28580859375,3.697953125,12.06878125,0.8648515625,4.30267578125,0.818359375,2.57375,9.09587109375,1.72741796875,-2.54965234375,-1.904984375,6.82850390625,-3.9506328125,-1.0425234375,-0.782546875,-0.83916015625,-6.7729140625,-2.29737109375,-6.85039453125,-7.4023203125,-7.57708203125
26.50564453125,11.57448828125,8.20851171875,17.63118359375,11.40152734375,8.7679296875,11.2173828125,14.95060546875,9.42036328125,5.26880859375,6.382953125,14.16978125,1.6038515625,5.47567578125,2.776359375,5.41275,11.14487109375,2.70441796875,-0.62965234375,0.909015625,9.73350390625,-3.5996328125,1.1174765625,2.064453125,1.52783984375,-4.0979140625,0.31162890625,-4.47139453125,-4.8713203125,-4.74608203125
28.15464453125,13.42848828125,9.12151171875,17.99218359375,12.34252734375,10.6559296875,13.8553828125,17.71160546875,10.34636328125,7.37680859375,9.441953125,16.20378125,2.7898515625,7.11867578125,4.939359375,8.47975,13.09487109375,3.29841796875,1.37934765625,3.682015625,12.74350390625,-3.1186328125,3.5334765625,5.102453125,3.85583984375,-1.1899140625,2.93862890625,-1.92539453125,-2.2043203125,-2.04108203125
28.75864453125,14.64248828125,9.63151171875,17.81518359375,12.72652734375,12.0959296875,16.0863828125,20.06660546875,10.41536328125,8.83680859375,11.914953125,17.43778125,3.9608515625,8.44267578125,6.424359375,10.68475,14.33987109375,3.02841796875,2.53834765625,5.377015625,14.82950390625,-2.7196328125,5.2234765625,7.243453125,5.16683984375,0.8270859375,4.51562890625,-0.16739453125,-0.5563203125,-0.59908203125
27.91464453125,14.74048828125,9.46251171875,16.91618359375,12.18752734375,12.6959296875,17.2323828125,21.15360546875,9.33836328125,9.10980859375,13.133953125,17.39478125,4.6458515625,8.77467578125,6.670359375,11.30775,14.66687109375,1.81541796875,2.27234765625,5.419015625,15.33950390625,-2.6246328125,5.5134765625,7.777453125,4.95483984375,1.3380859375,4.43062890625,0.19960546875,-0.5833203125,-0.92108203125
25.76264453125,13.71148828125,8.71051171875,15.46418359375,10.76252734375,12.4559296875,17.0633828125,20.60760546875,7.39036328125,8.16580859375,13.003953125,16.04278125,4.6278515625,7.87567578125,5.696359375,10.30575,14.25987109375,0.0254179687499998,0.64034765625,3.930015625,14.24850390625,-2.9766328125,4.3284765625,6.650453125,3.39683984375,0.4550859375,2.78762890625,-0.83139453125,-2.1603203125,-2.65208203125
22.95764453125,12.00648828125,7.73551171875,13.92118359375,8.88552734375,11.7009296875,15.8333828125,18.66760546875,5.25036328125,6.47280859375,11.954953125,13.76078125,4.0208515625,6.00567578125,4.026359375,8.24475,13.44187109375,-1.74858203125,-1.73365234375,1.581015625,12.07650390625,-3.7996328125,2.1514765625,4.411453125,1.20083984375,-1.1629140625,0.27662890625,-2.74139453125,-4.5303203125,-4.85608203125
20.37864453125,10.29748828125,6.94451171875,12.80118359375,7.17652734375,10.8589296875,14.0963828125,16.00560546875,3.63536328125,4.74680859375,10.641953125,11.15778125,3.1388515625,3.77067578125,2.364359375,5.95875,12.43087109375,-2.96858203125,-3.99065234375,-0.780984375,9.59450390625,-4.9846328125,-0.2475234375,1.903453125,-0.78016015625,-2.7179140625,-2.21337109375,-4.78339453125,-6.7503203125,-6.54108203125
18.70964453125,9.13648828125,6.58951171875,12.40518359375,6.15152734375,10.2299296875,12.4233828125,13.40760546875,2.96736328125,3.59880859375,9.585953125,8.85178125,2.2678515625,1.83867578125,1.248359375,4.14875,11.30987109375,-3.35558203125,-5.41065234375,-2.507984375,7.48750390625,-6.2716328125,-2.1435234375,-0.0855468749999995,-1.93616015625,-3.6609140625,-3.99237109375,-6.30439453125,-8.1243203125,-7.11808203125
18.13264453125,8.71348828125,6.65651171875,12.65818359375,5.98852734375,9.8529296875,11.1603828125,11.43760546875,3.21036328125,3.28480859375,8.959953125,7.25978125,1.5078515625,0.68467578125,0.846359375,3.12075,10.11187109375,-2.94158203125,-5.67565234375,-3.355984375,6.12350390625,-7.3006328125,-3.1145234375,-1.091546875,-2.11216015625,-3.8959140625,-4.78737109375,-6.97439453125,-8.4533203125,-6.58908203125
18.27064453125,8.82148828125,6.85851171875,13.12618359375,6.45352734375,9.5139296875,10.3083828125,10.21960546875,3.93136328125,3.64380859375,8.580953125,6.45878125,0.8008515625,0.43467578125,0.954359375,2.73375,8.84287109375,-1.99458203125,-4.93265234375,-3.463984375,5.48250390625,-7.7416328125,-3.1375234375,-1.073546875,-1.58516015625,-3.7449140625,-4.73137109375,-6.83339453125,-7.9963203125,-5.41708203125
18.43564453125,9.01848828125,6.75751171875,13.23518359375,7.03852734375,8.8909296875,9.6083828125,9.46260546875,4.55636328125,4.25380859375,8.076953125,6.18378125,0.1018515625,0.89967578125,1.171359375,2.57275,7.46287109375,-0.88858203125,-3.65365234375,-3.180984375,5.24750390625,-7.4616328125,-2.4955234375,-0.333546875,-0.86616015625,-3.7059140625,-4.16937109375,-6.17739453125,-7.2163203125,-4.21408203125
18.02664453125,8.89148828125,6.00951171875,12.58518359375,7.24852734375,7.7849296875,8.7623828125,8.70060546875,4.69836328125,4.70180859375,7.141953125,5.97878125,-0.4491484375,1.73767578125,1.174359375,2.23075,5.90887109375,0.05141796875,-2.36065234375,-2.820984375,5.02450390625,-6.6086328125,-1.5735234375,0.705453125000001,-0.40116015625,-4.1369140625,-3.41237109375,-5.32939453125,-6.4623203125,-3.39008203125
16.86264453125,8.27548828125,4.57551171875,11.18818359375,6.86252734375,6.2809296875,7.6393828125,7.58960546875,4.34136328125,4.81980859375,5.721953125,5.43678125,-0.530148437499999,2.65967578125,0.904359375,1.55375,4.16787109375,0.64441796875,-1.37865234375,-2.509984375,4.54950390625,-5.5516328125,-0.6535234375,1.736453125,-0.35616015625,-5.0309140625,-2.57837109375,-4.46439453125,-5.7923203125,-2.96108203125
15.22264453125,7.31048828125,2.76151171875,9.46618359375,6.01552734375,4.7239296875,6.3363828125,6.07060546875,3.77036328125,4.72180859375,4.037953125,4.36778125,0.1488515625,3.53167578125,0.578359375,0.70175,2.29587109375,0.86141796875,-0.74265234375,-2.179984375,3.80750390625,-4.7226328125,0.1544765625,2.672453125,-0.59116015625,-6.0339140625,-1.62237109375,-3.58839453125,-5.0453203125,-2.63208203125
13.62264453125,6.30048828125,1.05651171875,8.01018359375,5.04552734375,3.5239296875,5.0563828125,4.33160546875,3.34436328125,4.63280859375,2.432953125,2.83578125,1.5698515625,4.32067578125,0.512359375,-0.0162500000000003,0.34187109375,0.77241796875,-0.29465234375,-1.717984375,2.96750390625,-4.4226328125,0.8344765625,3.559453125,-0.84816015625,-6.7119140625,-0.51437109375,-2.68139453125,-4.1063203125,-2.08708203125
12.46664453125,5.48848828125,-0.12348828125,7.26018359375,4.25352734375,2.9119296875,3.9413828125,2.64260546875,3.26936328125,4.65580859375,1.149953125,1.07178125,3.3008515625,4.96867578125,0.882359375,-0.39625,-1.74412890625,0.46841796875,0.11634765625,-1.149984375,2.21350390625,-4.7036328125,1.3434765625,4.395453125,-1.00416015625,-6.8959140625,0.57862890625,-1.85039453125,-3.1333203125,-1.30308203125
11.81364453125,4.88748828125,-0.65848828125,7.25718359375,3.70552734375,2.8089296875,2.9553828125,1.16960546875,3.47536328125,4.64380859375,0.187953125,-0.67721875,4.6488515625,5.30967578125,1.581359375,-0.51725,-4.09012890625,0.0104179687499997,0.47334765625,-0.718984375,1.57050390625,-5.3816328125,1.5404765625,4.993453125,-1.20916015625,-6.8729140625,1.26362890625,-1.36939453125,-2.5713203125,-0.66408203125
11.36664453125,4.28548828125,-0.78348828125,7.61318359375,3.19252734375,2.8769296875,1.9123828125,-0.11439453125,3.63736328125,4.28680859375,-0.652046875,-2.26821875,4.9818515625,5.10967578125,2.243359375,-0.71825,-6.72912890625,-0.61058203125,0.58634765625,-0.789984375,0.86550390625,-6.1736328125,1.2424765625,5.026453125,-1.79816015625,-7.2669140625,1.09862890625,-1.54839453125,-2.9063203125,-0.76608203125
10.68964453125,3.42548828125,-0.92348828125,7.73718359375,2.40852734375,2.7449296875,0.6523828125,-1.35339453125,3.34036328125,3.34980859375,-1.570046875,-3.65921875,4.0258515625,4.21167578125,2.450359375,-1.37625,-9.38412890625,-1.43958203125,0.22934765625,-1.605984375,-0.12849609375,-6.8536328125,0.3514765625,4.227453125,-3.02516015625,-8.6319140625,-0.13537109375,-2.53839453125,-4.3413203125,-2.02208203125
9.55364453125,2.26048828125,-1.37348828125,7.22818359375,1.21852734375,2.2899296875,-0.7306171875,-2.57639453125,2.35436328125,1.91980859375,-2.546046875,-4.80721875,2.0008515625,2.71567578125,2.014359375,-2.59425,-11.38612890625,-2.45958203125,-0.63265234375,-3.046984375,-1.42749609375,-7.3266328125,-0.9955234375,2.649453125,-4.79616015625,-11.0009140625,-2.21437109375,-4.17739453125,-6.5793203125,-4.30608203125
8.13764453125,1.08148828125,-2.05248828125,6.14318359375,-0.14147265625,1.7829296875,-1.7956171875,-3.53039453125,0.82336328125,0.47880859375,-3.244046875,-5.54321875,-0.4631484375,1.05667578125,1.172359375,-4.02025,-11.90112890625,-3.48658203125,-1.71065234375,-4.563984375,-2.67249609375,-7.5886328125,-2.3815234375,0.789453125000001,-6.58116015625,-13.7179140625,-4.46037109375,-5.97639453125,-8.8673203125,-6.91008203125
6.94364453125,0.40348828125,-2.54148828125,4.93018359375,-1.13747265625,1.7529296875,-1.9376171875,-3.74639453125,-0.82863671875,-0.27919140625,-3.156046875,-5.57121875,-2.6091484375,-0.11032421875,0.521359375,-4.97225,-10.38512890625,-4.18658203125,-2.45665234375,-5.398984375,-3.22949609375,-7.6536328125,-3.2415234375,-0.563546874999999,-7.62416015625,-15.6989140625,-6.00937109375,-7.28539453125,-10.3223203125,-8.84808203125
6.44564453125,0.64948828125,-2.38348828125,4.07118359375,-1.25947265625,2.6369296875,-0.7516171875,-2.84039453125,-2.19863671875,0.18680859375,-1.911046875,-4.62721875,-3.9041484375,-0.20532421875,0.709359375,-4.80325,-6.98012890625,-4.25058203125,-2.34865234375,-4.973984375,-2.54949609375,-7.5356328125,-3.1465234375,-0.709546874999999,-7.32516015625,-15.9849140625,-6.23337109375,-7.58639453125,-10.3633203125,-9.35308203125
6.75664453125,1.85248828125,-1.41248828125,3.73818359375,-0.35547265625,4.4599296875,1.6563828125,-0.81239453125,-3.14663671875,1.93680859375,0.450953125,-2.69921875,-4.2761484375,0.95467578125,2.061359375,-3.30525,-2.54712890625,-3.61458203125,-1.20165234375,-3.218984375,-0.53749609375,-7.2966328125,-2.0655234375,0.550453125000001,-5.58316015625,-14.2439140625,-5.08037109375,-6.76839453125,-9.0083203125,-8.24508203125
7.56864453125,3.59848828125,0.14551171875,3.72718359375,1.24852734375,6.7769296875,4.6583828125,1.86560546875,-3.76263671875,4.47380859375,3.423953125,-0.14421875,-4.0721484375,3.01367578125,4.379359375,-0.84925,1.68987109375,-2.56858203125,0.69434765625,-0.619984375,2.31050390625,-7.0636328125,-0.4355234375,2.763453125,-2.88016015625,-10.9309140625,-3.12737109375,-5.20439453125,-6.8723203125,-5.98208203125
8.39364453125,5.27148828125,1.81651171875,3.68718359375,2.94252734375,8.8979296875,7.4003828125,4.45960546875,-4.12663671875,6.99780859375,6.259953125,2.41478125,-3.7851484375,5.22467578125,7.069359375,1.81175,4.66587109375,-1.65058203125,2.72834765625,2.038015625,5.12550390625,-6.9766328125,1.0524765625,5.048453125,-0.0471601562499999,-7.0499140625,-1.26637109375,-3.55939453125,-4.8423203125,-3.41508203125
8.91264453125,6.42048828125,3.17151171875,3.44018359375,4.18652734375,10.2659296875,9.2453828125,6.33960546875,-4.10163671875,8.83780859375,8.336953125,4.38178125,-3.7201484375,6.84067578125,9.494359375,3.95175,5.89687109375,-1.37958203125,4.31334765625,4.097015625,7.09450390625,-7.0876328125,1.8164765625,6.590453125,2.15283984375,-3.6789140625,-0.20437109375,-2.42239453125,-3.6203203125,-1.36408203125
9.17664453125,6.99248828125,4.06951171875,3.16918359375,4.79152734375,10.7309296875,10.0743828125,7.29460546875,-3.36763671875,9.78080859375,9.450953125,5.48778125,-3.8321484375,7.49667578125,11.321359375,5.22975,5.60787109375,-1.96458203125,5.21134765625,5.338015625,7.85750390625,-7.2876328125,1.7034765625,7.071453125,3.37383984375,-1.5079140625,-0.0873710937499999,-1.98439453125,-3.3853203125,-0.24208203125
9.49464453125,7.25648828125,4.67051171875,3.28618359375,4.90552734375,10.5529296875,10.2333828125,7.55760546875,-1.71563671875,10.06480859375,9.822953125,5.85378125,-3.8541484375,7.33567578125,12.600359375,5.76075,4.50887109375,-3.19158203125,5.59734765625,5.988015625,7.60050390625,-7.3646328125,1.0234765625,6.757453125,3.75983984375,-0.6559140625,-0.50237109375,-1.99839453125,-3.7913203125,0.0459179687499999
10.08464453125,7.48348828125,5.17751171875,4.06118359375,4.74152734375,10.1039296875,10.1533828125,7.49260546875,0.59836328125,10.04980859375,9.833953125,5.75078125,-3.5881484375,6.79567578125,13.524359375,5.87075,3.31887109375,-4.58558203125,5.81234765625,6.415015625,6.81450390625,-7.2036328125,0.2804765625,6.187453125,3.70683984375,-0.8159140625,-0.87237109375,-2.07039453125,-4.3163203125,-0.12408203125
10.75664453125,7.64648828125,5.51751171875,5.27618359375,4.26752734375,9.5059296875,9.9163828125,7.18660546875,2.71136328125,9.83280859375,9.684953125,5.26078125,-3.1351484375,6.23067578125,14.101359375,5.74675,2.30587109375,-5.75058203125,6.01634765625,6.740015625,5.91050390625,-6.9816328125,-0.2155234375,5.708453125,3.50583984375,-1.5939140625,-0.93937109375,-2.06839453125,-4.7223203125,-0.48408203125
10.92164453125,7.38148828125,5.27151171875,6.23918359375,3.14652734375,8.4969296875,9.1363828125,6.29360546875,3.42836328125,9.11380859375,9.259953125,4.13378125,-2.8881484375,5.67767578125,14.027359375,5.27275,1.16187109375,-6.61658203125,6.02434765625,6.709015625,4.98450390625,-7.1706328125,-0.5545234375,5.246453125,3.16383984375,-2.7749140625,-0.97637109375,-2.29339453125,-5.2633203125,-1.11908203125
9.95064453125,6.25548828125,3.94751171875,6.18918359375,0.98552734375,6.6599296875,7.2603828125,4.30360546875,1.81336328125,7.44780859375,8.273953125,1.98978125,-3.2901484375,4.92167578125,12.897359375,4.16975,-0.68812890625,-7.40258203125,5.47934765625,5.899015625,3.87150390625,-8.2766328125,-1.0855234375,4.439453125,2.48083984375,-4.3519140625,-1.54637109375,-3.26539453125,-6.4653203125,-2.35108203125
7.63064453125,4.11348828125,1.38751171875,4.82018359375,-2.31047265625,3.8099296875,4.0633828125,1.01760546875,-2.24463671875,4.64880859375,6.576953125,-1.29821875,-4.5211484375,3.76967578125,10.588359375,2.29875,-3.58112890625,-8.35458203125,4.18434765625,4.114015625,2.40650390625,-10.4766328125,-2.0825234375,3.024453125,1.31183984375,-6.3519140625,-3.01237109375,-5.26639453125,-8.6463203125,-4.38708203125
4.38764453125,1.26948828125,-2.00448828125,2.52618359375,-6.36147265625,0.2429296875,-0.0626171874999999,-3.16839453125,-7.86363671875,1.05780859375,4.362953125,-5.36521875,-6.3391484375,2.28967578125,7.485359375,-0.11625,-7.28912890625,-9.50658203125,2.34334765625,1.634015625,0.64150390625,-13.4256328125,-3.4775234375,1.121453125,-0.23316015625,-8.6539140625,-5.18137109375,-8.02339453125,-11.5733203125,-7.02008203125
4.38764453125,1.26948828125,-2.00448828125,2.52618359375,-6.36147265625,0.2429296875,-0.0626171874999999,-3.16839453125,-7.86363671875,1.05780859375,4.362953125,-5.36521875,-6.3391484375,2.28967578125,7.485359375,-0.11625,-7.28912890625,-9.50658203125,2.34334765625,1.634015625,0.64150390625,-13.4256328125,-3.4775234375,1.121453125,-0.23316015625,-8.6539140625,-5.18137109375,-8.02339453125,-11.5733203125,-7.02008203125
