"Fp1","Fpz","Fp2","F7","F3","Fz","F4","F8","FC5","FC1","FC2","FC6","T7","C3","Cz","C4","T8","CP5","CP1","CP2","CP6","P7","P3","Pz","P4","P8","POz","O1","Oz","O2"
-7.21654296875,-7.07344140625,-4.49263671875,-17.053828125,-6.5244375,3.03374609375,-1.2104765625,18.22236328125,-8.40761328125,2.5579296875,2.189078125,-6.280375,-2.8175546875,-7.4201953125,3.5746171875,-4.96859765625,-7.501921875,-2.8620625,-4.4116953125,-4.5036796875,-15.08546875,-13.16772265625,-3.341546875,-3.01680859375,-10.29691015625,-8.48626953125,-9.449515625,0.969507812500001,-9.77554296875,-11.01591796875
-5.40054296875,-5.03944140625,-3.79563671875,-18.133828125,-3.7604375,4.14874609375,-1.5784765625,8.45636328125,-9.02261328125,4.0909296875,2.958078125,-8.558375,-2.9485546875,-7.1231953125,5.3596171875,-3.70659765625,-11.158921875,-3.7820625,-3.6816953125,-3.0276796875,-15.86246875,-10.20972265625,-1.704546875,-1.16080859375,-8.09791015625,-8.86826953125,-7.697515625,4.7305078125,-8.01254296875,-10.43091796875
-5.25254296875,-4.14044140625,-4.08563671875,-19.043828125,-2.2314375,4.51574609375,-1.2814765625,1.67336328125,-9.42061328125,4.9449296875,3.952078125,-9.267375,-4.0315546875,-6.2001953125,7.1046171875,-1.69359765625,-12.788921875,-4.4520625,-2.1906953125,-0.8036796875,-15.03046875,-8.51472265625,-0.125546875000001,0.85419140625,-5.39991015625,-7.68126953125,-5.623515625,6.9865078125,-6.64554296875,-9.40491796875
-6.76854296875,-4.39744140625,-5.25163671875,-19.698828125,-2.0604375,4.04174609375,-0.2864765625,-1.47563671875,-9.58261328125,5.0109296875,5.081078125,-8.256375,-5.8405546875,-4.5581953125,8.7586171875,1.08840234375,-12.009921875,-4.5090625,0.1823046875,2.1613203125,-12.38146875,-7.90472265625,1.534453125,3.18019140625,-2.07791015625,-4.66426953125,-3.047515625,7.9765078125,-5.32354296875,-7.66591796875
-9.47154296875,-5.65344140625,-6.98063671875,-20.212828125,-3.1624375,2.68474609375,1.0825234375,-1.28663671875,-9.71461328125,4.2159296875,5.972078125,-6.072375,-7.9155546875,-2.4611953125,10.0656171875,4.19640234375,-9.143921875,-3.7440625,3.1523046875,5.4073203125,-8.33546875,-7.89572265625,3.294453125,5.75919140625,1.66608984375,-0.17326953125,-0.0445156249999994,8.3405078125,-3.65954296875,-5.17791796875
-12.71954296875,-7.74944140625,-8.99563671875,-20.973828125,-5.3724375,0.41874609375,2.2655234375,1.04236328125,-10.23461328125,2.4969296875,6.108078125,-3.648375,-9.8795546875,-0.518195312500001,10.6076171875,6.87240234375,-5.132921875,-2.3230625,6.0703046875,8.1593203125,-3.81646875,-8.08872265625,4.932453125,8.21519140625,5.27808984375,4.88473046875,2.963484375,8.6115078125,-1.61554296875,-2.31291796875
-15.93054296875,-10.48644140625,-11.10463671875,-22.484828125,-8.4114375,-2.60625390625,2.7865234375,3.87836328125,-11.52161328125,-0.0430703125000007,5.207078125,-1.700375,-11.5825546875,0.6058046875,10.0916171875,8.44540234375,-1.119921875,-0.742062500000001,8.2403046875,9.7243203125,0.155531250000001,-8.36872265625,6.083453125,10.03419140625,8.09608984375,9.41673046875,5.372484375,8.9245078125,0.416457031249999,0.27908203125
-18.75054296875,-13.60344140625,-13.17763671875,-25.094828125,-11.8464375,-5.98825390625,2.4975234375,5.82036328125,-13.67161328125,-3.0240703125,3.435078125,-0.422375000000001,-13.1245546875,0.4678046875,8.5806171875,8.62240234375,1.989078125,0.341937499999999,9.2123046875,9.7823203125,2.81853125,-8.92772265625,6.389453125,10.77119140625,9.61108984375,12.50373046875,6.618484375,8.9905078125,1.79145703125,1.93208203125
-21.08454296875,-16.81344140625,-15.11463671875,-28.759828125,-15.1324375,-9.19025390625,1.5985234375,6.25536328125,-16.42161328125,-5.8440703125,1.308078125,0.309625,-14.7545546875,-0.9831953125,6.5046171875,7.48840234375,3.782078125,0.322937499999999,8.8883046875,8.4573203125,3.83153125,-10.09372265625,5.617453125,10.20419140625,9.60808984375,13.64173046875,6.350484375,8.3565078125,1.93445703125,2.23208203125
-22.91454296875,-19.77544140625,-16.74963671875,-32.855828125,-17.6914375,-11.66825390625,0.5065234375,5.54136328125,-19.19161328125,-7.8030703125,-0.524921875,0.627624999999999,-16.5825546875,-3.3271953125,4.5546171875,5.44440234375,4.398078125,-1.0560625,7.5493046875,6.2693203125,3.34653125,-12.01672265625,3.820453125,8.47319140625,8.28908984375,12.88873046875,4.621484375,6.8265078125,0.72745703125,1.25908203125
-24.11854296875,-22.04244140625,-17.77563671875,-36.266828125,-19.0354375,-12.98325390625,-0.3464765625,4.69136328125,-21.26961328125,-8.2790703125,-1.486921875,0.582624999999999,-18.3245546875,-5.7441953125,3.4946171875,3.13540234375,4.375078125,-3.4850625,5.7923046875,4.0183203125,1.97953125,-14.42172265625,1.440453125,6.13119140625,6.29308984375,10.85373046875,1.979484375,4.7245078125,-1.32154296875,-0.37491796875
-24.53854296875,-23.20644140625,-17.91363671875,-37.882828125,-19.0314375,-12.99925390625,-0.7504765625,4.67236328125,-22.16361328125,-7.0450703125,-1.318921875,0.217624999999999,-19.3705546875,-7.3851953125,3.7946171875,1.25640234375,4.258078125,-6.2390625,4.2593046875,2.4743203125,0.522531250000001,-16.74272265625,-0.871546875,3.90219140625,4.42308984375,8.34873046875,-0.770515624999999,2.6955078125,-3.38054296875,-1.87491796875
-24.24954296875,-23.19044140625,-17.21663671875,-37.240828125,-18.1164375,-12.09225390625,-0.8584765625,5.72236328125,-21.91561328125,-4.5600703125,-0.280921875,-0.378375000000001,-19.1625546875,-7.8431953125,5.2676171875,0.24540234375,4.204078125,-8.6020625,3.2573046875,1.9663203125,-0.501468749999999,-18.51172265625,-2.643546875,2.26219140625,3.17408984375,5.88873046875,-3.020515625,1.1855078125,-4.86754296875,-2.81491796875
-23.64654296875,-22.34444140625,-16.15063671875,-34.770828125,-17.1724375,-11.07625390625,-1.0904765625,7.19336328125,-21.05661328125,-1.9080703125,0.929078125,-1.064375,-17.5265546875,-7.3441953125,7.0576171875,0.11640234375,3.938078125,-10.1630625,2.6363046875,2.2453203125,-1.07546875,-19.58872265625,-3.786546875,1.23119140625,2.50108984375,3.46273046875,-4.613515625,0.176507812500001,-5.79254296875,-3.40791796875
-23.20054296875,-21.21744140625,-15.34163671875,-31.442828125,-17.0514375,-10.78925390625,-1.8584765625,8.03236328125,-20.21261328125,-0.313070312500001,1.553078125,-1.690375,-14.6975546875,-6.4811953125,8.0856171875,0.57240234375,3.072078125,-10.7770625,2.0393046875,2.7313203125,-1.52646875,-20.01272265625,-4.459546875,0.56019140625,2.01908984375,0.78573046875,-5.696515625,-0.631492187499999,-6.56854296875,-4.25191796875
-23.16954296875,-20.29644140625,-15.25563671875,-28.202828125,-18.1654375,-11.71925390625,-3.3634765625,7.49636328125,-19.75061328125,-0.593070312500001,1.123078125,-2.234375,-11.2025546875,-5.8341953125,7.5886171875,1.17240234375,1.453078125,-10.4250625,1.2163046875,2.8783203125,-2.20846875,-19.76472265625,-4.834546875,0.00819140625000014,1.34508984375,-2.31626953125,-6.457515625,-1.4504921875,-7.60754296875,-5.85491796875
-23.52854296875,-19.93644140625,-16.06763671875,-25.603828125,-20.3944375,-13.89625390625,-5.5614765625,5.58136328125,-19.73261328125,-2.8850703125,-0.455921875,-2.930375,-7.7515546875,-5.7611953125,5.3766171875,1.42340234375,-0.774921875,-9.2250625,0.1373046875,2.3573203125,-3.30746875,-18.72672265625,-5.008546875,-0.56980859375,0.27808984375,-5.73126953125,-7.022515625,-2.2544921875,-9.05254296875,-8.31391796875
-24.05154296875,-20.32944140625,-17.65563671875,-23.749828125,-23.2054375,-16.93925390625,-8.1684765625,2.94436328125,-20.02561328125,-6.6440703125,-2.922921875,-4.136375,-5.0865546875,-6.3411953125,1.8636171875,0.91440234375,-3.311921875,-7.4730625,-1.0426953125,1.1413203125,-4.75746875,-16.80772265625,-5.005546875,-1.23680859375,-1.15391015625,-9.06326953125,-7.458515625,-2.8194921875,-10.70854296875,-11.24391796875
-24.37354296875,-21.34144140625,-19.54763671875,-22.411828125,-25.7724375,-20.08925390625,-10.6414765625,0.457363281250001,-20.34861328125,-10.7890703125,-5.658921875,-5.931375,-3.7075546875,-7.3491953125,-2.0173828125,-0.43059765625,-5.804921875,-5.5400625,-2.0036953125,-0.4356796875,-6.21446875,-14.04472265625,-4.743546875,-1.92380859375,-2.66391015625,-11.71726953125,-7.728515625,-2.8144921875,-12.09654296875,-13.87691796875
-24.06754296875,-22.43944140625,-20.95863671875,-21.250828125,-27.1654375,-22.36225390625,-12.2734765625,-1.31663671875,-20.32361328125,-14.0260703125,-7.789921875,-7.890375,-3.6685546875,-8.3411953125,-5.0813828125,-2.22159765625,-7.913921875,-3.7390625,-2.3576953125,-1.7566796875,-7.19046875,-10.67072265625,-4.083546875,-2.42680859375,-3.79191015625,-13.08726953125,-7.685515625,-1.9644921875,-12.66754296875,-15.39391796875
-22.83954296875,-22.93744140625,-21.10363671875,-20.067828125,-26.7174375,-22.95525390625,-12.4964765625,-2.43063671875,-19.65361328125,-15.3500703125,-8.559921875,-9.348375,-4.6635546875,-8.9281953125,-6.3923828125,-3.83959765625,-9.393921875,-2.3300625,-1.9146953125,-2.2566796875,-7.36346875,-7.20572265625,-3.029546875,-2.57080859375,-4.17691015625,-12.88226953125,-7.229515625,-0.312492187499999,-12.16354296875,-15.36991796875
-20.70454296875,-22.40844140625,-19.61563671875,-18.925828125,-24.3804375,-21.64725390625,-11.1904765625,-3.42863671875,-18.32761328125,-14.4730703125,-7.726921875,-9.874375,-6.2815546875,-9.0411953125,-5.7103828125,-4.81759765625,-10.137921875,-1.5750625,-0.8896953125,-1.7646796875,-6.79946875,-4.42172265625,-1.898546875,-2.39180859375,-3.79691015625,-11.32126953125,-6.466515625,1.6565078125,-10.82354296875,-14.01591796875
-17.96954296875,-20.87044140625,-16.72563671875,-18.047828125,-20.7754375,-18.87425390625,-8.7514765625,-4.86663671875,-16.62661328125,-11.8760703125,-5.644921875,-9.464375,-8.1705546875,-8.9191953125,-3.5383828125,-5.01259765625,-10.104921875,-1.6660625,0.2023046875,-0.5376796875,-5.83846875,-3.05072265625,-1.197546875,-2.07880859375,-2.88991015625,-8.95526953125,-5.628515625,3.2625078125,-9.18354296875,-11.95091796875
-15.07854296875,-18.67944140625,-13.12463671875,-17.604828125,-16.9144375,-15.45225390625,-5.9484765625,-6.84663671875,-14.95761328125,-8.5070703125,-3.031921875,-8.423375,-10.0535546875,-8.8911953125,-0.7843828125,-4.52959765625,-9.244921875,-2.5900625,0.8813046875,0.9783203125,-4.78846875,-3.44772265625,-1.334546875,-1.77080859375,-1.70891015625,-6.31226953125,-4.875515625,4.0425078125,-7.67354296875,-9.74591796875
-12.49854296875,-16.36544140625,-9.69163671875,-17.621828125,-13.8224375,-12.27525390625,-3.6964765625,-8.87563671875,-13.71461328125,-5.4080703125,-0.687921875,-7.213375,-11.7415546875,-9.1901953125,1.6226171875,-3.63059765625,-7.578921875,-4.1610625,0.9193046875,2.3503203125,-3.78846875,-5.49772265625,-2.455546875,-1.49680859375,-0.41191015625,-3.74326953125,-4.232515625,3.9525078125,-6.43154296875,-7.67291796875
-10.65054296875,-14.46844140625,-7.21363671875,-18.008828125,-12.1994375,-10.08425390625,-2.8074765625,-10.09263671875,-13.18361328125,-3.3840703125,0.710078125,-6.374375,-13.1375546875,-9.8831953125,3.0166171875,-2.66459765625,-5.324921875,-6.1510625,0.3573046875,3.2503203125,-2.87546875,-8.75472265625,-4.448546875,-1.25980859375,0.87508984375,-1.48326953125,-3.686515625,3.2515078125,-5.39154296875,-5.76891796875
-9.75454296875,-13.30544140625,-6.09563671875,-18.601828125,-12.1454375,-9.20825390625,-3.6704765625,-9.70763671875,-13.38261328125,-2.7250703125,0.851078125,-6.300375,-14.1555546875,-10.7951953125,3.2196171875,-1.90359765625,-2.866921875,-8.3190625,-0.5286953125,3.5723203125,-2.03146875,-12.56972265625,-6.946546875,-1.04880859375,2.04808984375,0.31573046875,-3.201515625,2.3275078125,-4.43054296875,-3.96491796875
-9.67054296875,-12.76544140625,-6.18463671875,-19.203828125,-13.0914375,-9.40225390625,-6.0354765625,-7.50063671875,-13.95261328125,-3.0990703125,-0.0589218749999995,-6.965375,-14.6365546875,-11.4901953125,2.6046171875,-1.36859765625,-0.589921874999999,-10.3070625,-1.2736953125,3.5233203125,-1.15746875,-16.13472265625,-9.330546875,-0.76780859375,3.09908984375,1.66773046875,-2.643515625,1.5835078125,-3.42254296875,-2.16391796875
-9.97554296875,-12.44244140625,-6.94663671875,-19.715828125,-14.1324375,-10.03025390625,-9.1544765625,-4.12663671875,-14.36061328125,-3.8150703125,-1.467921875,-7.966375,-14.4495546875,-11.4951953125,1.8296171875,-0.89759765625,1.183078125,-11.6860625,-1.4406953125,3.4733203125,-0.159468749999998,-18.63472265625,-10.922546875,-0.28680859375,4.07408984375,2.71073046875,-1.844515625,1.3075078125,-2.34354296875,-0.36691796875
-10.29554296875,-12.05744140625,-7.89963671875,-20.278828125,-14.6194375,-10.55425390625,-12.2394765625,-0.964636718749999,-14.35961328125,-4.3480703125,-2.923921875,-8.924375,-13.6975546875,-10.6701953125,1.3256171875,-0.46559765625,2.134078125,-12.1950625,-0.9276953125,3.5843203125,0.848531250000002,-19.52472265625,-11.335546875,0.34019140625,4.86408984375,3.49773046875,-0.827515624999999,1.5405078125,-1.38454296875,1.17608203125
-10.54254296875,-11.73544140625,-8.89763671875,-21.221828125,-14.5204375,-10.87325390625,-14.8904765625,0.54036328125,-14.26561328125,-4.6640703125,-4.368921875,-9.838375,-12.7345546875,-9.3741953125,0.9966171875,-0.37559765625,1.975078125,-11.8760625,-0.0806953124999996,3.6033203125,1.49053125,-18.70072265625,-10.659546875,0.78919140625,5.11908984375,3.86773046875,0.0984843750000004,2.1265078125,-0.87954296875,2.00308203125
-10.85154296875,-11.82544140625,-10.01263671875,-22.773828125,-14.3004375,-11.22025390625,-17.1644765625,-0.39063671875,-14.73361328125,-5.1040703125,-6.017921875,-11.011375,-11.9185546875,-8.2431953125,0.3756171875,-1.09159765625,0.651078125000001,-10.9790625,0.5373046875,3.0303203125,1.31153125,-16.42172265625,-9.328546875,0.65019140625,4.43208984375,3.56073046875,0.518484375,2.9305078125,-1.03454296875,1.73008203125
-11.35954296875,-12.54344140625,-11.28263671875,-24.810828125,-14.5044375,-11.84025390625,-19.3424765625,-3.56863671875,-16.23561328125,-6.0440703125,-8.065921875,-12.707375,-11.4025546875,-7.8491953125,-1.0163828125,-2.94859765625,-1.527921875,-9.8010625,0.4153046875,1.4203203125,0.00753125000000132,-13.17272265625,-7.912546875,-0.35180859375,2.54808984375,2.40073046875,0.116484375000001,3.9185078125,-1.77554296875,0.27708203125
-12.10954296875,-13.82344140625,-12.62563671875,-26.887828125,-15.4414375,-12.78925390625,-21.6224765625,-8.07463671875,-18.72161328125,-7.6710703125,-10.536921875,-14.905375,-11.1895546875,-8.5561953125,-3.4363828125,-6.02759765625,-4.001921875,-8.7100625,-0.8206953125,-1.4496796875,-2.53546875,-9.64372265625,-7.033546875,-2.35080859375,-0.60691015625,0.34773046875,-1.312515625,4.9665078125,-2.91754296875,-2.16791796875
-13.04354296875,-15.39444140625,-13.93563671875,-28.512828125,-17.0564375,-13.89225390625,-23.8544765625,-12.76463671875,-21.65161328125,-9.9050703125,-13.249921875,-17.280375,-11.2755546875,-10.5191953125,-6.8283828125,-10.15259765625,-6.195921875,-8.1930625,-3.4146953125,-5.5456796875,-6.26046875,-6.69972265625,-7.325546875,-5.39680859375,-4.96691015625,-2.51326953125,-3.911515625,5.6545078125,-4.41254296875,-5.31891796875
-13.96554296875,-16.86944140625,-15.14263671875,-29.384828125,-18.9164375,-14.72725390625,-25.4464765625,-16.70063671875,-24.27061328125,-12.3670703125,-15.782921875,-19.283375,-11.6425546875,-13.6621953125,-10.7583828125,-14.86759765625,-7.675921875,-8.7310625,-7.3546953125,-10.5026796875,-10.85746875,-5.18172265625,-9.228546875,-9.38080859375,-10.24091015625,-5.91126953125,-7.660515625,5.3735078125,-6.37854296875,-8.86591796875
-14.52954296875,-17.81444140625,-16.18963671875,-29.470828125,-20.3294375,-14.70225390625,-25.5364765625,-19.38263671875,-25.93361328125,-14.4410703125,-17.505921875,-20.324375,-12.1745546875,-17.6431953125,-14.4663828125,-19.44459765625,-8.240921875,-10.5690625,-12.2396953125,-15.6116796875,-15.71046875,-5.62772265625,-12.770546875,-13.92680859375,-15.83091015625,-9.37126953125,-12.249515625,3.6275078125,-8.95354296875,-12.47891796875
-14.37054296875,-17.90444140625,-17.04663671875,-28.934828125,-20.6224375,-13.33525390625,-23.4494765625,-20.76163671875,-26.34561328125,-15.5160703125,-17.827921875,-20.026375,-12.7065546875,-21.9221953125,-17.1373828125,-23.08159765625,-8.025921875,-13.6170625,-17.3616953125,-20.0186796875,-20.04446875,-8.13272265625,-17.527546875,-18.46380859375,-20.96191015625,-12.38826953125,-17.126515625,0.275507812500001,-12.16954296875,-15.87091796875
-13.33154296875,-17.08244140625,-17.71163671875,-27.991828125,-19.4414375,-10.56525390625,-19.1574765625,-21.01263671875,-25.61061328125,-15.2660703125,-16.527921875,-18.412375,-13.1185546875,-25.8791953125,-18.2553828125,-25.16859765625,-7.491921875,-17.4860625,-21.9416953125,-23.0216796875,-23.17346875,-12.31772265625,-22.754546875,-22.40280859375,-24.91991015625,-14.64126953125,-21.667515625,-4.3644921875,-15.86454296875,-18.84791796875
-11.56554296875,-15.54144140625,-18.15363671875,-26.771828125,-16.8734375,-6.81225390625,-13.4384765625,-20.22763671875,-24.05061328125,-13.7440703125,-13.861921875,-15.888375,-13.3175546875,-28.8611953125,-17.7353828125,-25.40059765625,-7.169921875,-21.5230625,-25.2856953125,-24.1996796875,-24.63446875,-17.33172265625,-27.495546875,-25.21980859375,-27.17291015625,-16.00926953125,-25.259515625,-9.4954921875,-19.56854296875,-21.21291796875
-9.50754296875,-13.60144140625,-18.26663671875,-25.311828125,-13.4164375,-2.80925390625,-7.6704765625,-18.29863671875,-22.02161328125,-11.3060703125,-10.449921875,-13.106375,-13.1465546875,-30.2471953125,-15.8613828125,-23.77259765625,-7.336921875,-24.9020625,-26.8636953125,-23.4236796875,-24.20346875,-21.99472265625,-30.731546875,-26.46580859375,-27.39391015625,-16.47326953125,-27.336515625,-13.9634921875,-22.50854296875,-22.69491796875
-7.80054296875,-11.69944140625,-18.00663671875,-23.756828125,-9.9344375,0.55474609375,-3.4414765625,-15.19463671875,-19.90961328125,-8.5470703125,-7.132921875,-10.846375,-12.4525546875,-29.6971953125,-13.2103828125,-20.63359765625,-7.947921875,-26.9110625,-26.4646953125,-20.9056796875,-21.99246875,-25.21772265625,-31.704546875,-25.91580859375,-25.58091015625,-16.14226953125,-27.550515625,-16.6934921875,-23.94254296875,-23.08791796875
-7.14454296875,-10.40744140625,-17.56963671875,-22.515828125,-7.5054375,2.36674609375,-2.0624765625,-11.34563671875,-18.19361328125,-6.2330703125,-4.838921875,-9.874375,-11.2705546875,-27.4151953125,-10.5843828125,-16.74559765625,-8.826921875,-27.2770625,-24.3566953125,-17.2646796875,-18.53946875,-26.48972265625,-30.257546875,-23.76980859375,-22.20691015625,-15.34526953125,-26.002515625,-17.2164921875,-23.61254296875,-22.49491796875
-7.97754296875,-10.25044140625,-17.33963671875,-22.125828125,-7.0414375,1.96674609375,-4.0694765625,-7.72063671875,-17.33561328125,-5.0630703125,-4.284921875,-10.605375,-9.8465546875,-24.1121953125,-8.7673828125,-13.10459765625,-9.836921875,-26.2300625,-21.2136953125,-13.3786796875,-14.67346875,-26.02872265625,-26.894546875,-20.62180859375,-18.11791015625,-14.53426953125,-23.230515625,-15.8614921875,-21.88954296875,-21.32191796875
-10.17254296875,-11.38144140625,-17.65363671875,-22.902828125,-8.8204375,-0.70225390625,-8.9474765625,-5.43963671875,-17.54361328125,-5.3630703125,-5.649921875,-12.801375,-8.4815546875,-20.6671953125,-8.1973828125,-10.55759765625,-10.897921875,-24.2610625,-17.8086953125,-10.0436796875,-11.17046875,-24.49972265625,-22.507546875,-17.18180859375,-14.18491015625,-14.00526953125,-19.924515625,-13.4854921875,-19.49154296875,-19.98391796875
-13.09354296875,-13.49644140625,-18.67563671875,-24.733828125,-12.3604375,-5.04925390625,-15.3444765625,-5.23163671875,-18.69761328125,-7.0080703125,-8.530921875,-15.707375,-7.4145546875,-17.8601953125,-8.8843828125,-9.57659765625,-11.982921875,-21.9030625,-14.8066953125,-7.7906796875,-8.56246875,-22.64972265625,-18.102546875,-14.07880859375,-11.05791015625,-13.75926953125,-16.724515625,-11.0544921875,-17.12254296875,-18.69191796875
-16.02854296875,-16.10444140625,-20.46863671875,-27.184828125,-16.7364375,-10.16325390625,-21.6994765625,-7.12663671875,-20.51361328125,-9.6660703125,-12.271921875,-18.564375,-6.8625546875,-16.3351953125,-10.6383828125,-10.33759765625,-13.162921875,-19.7070625,-12.7996953125,-6.9716796875,-7.20046875,-21.10472265625,-14.666546875,-11.89480859375,-9.19691015625,-13.67926953125,-14.238515625,-9.3574921875,-15.32654296875,-17.52191796875
-18.55554296875,-18.79844140625,-23.00663671875,-29.744828125,-21.0094375,-15.20025390625,-26.8204765625,-10.51963671875,-22.69961328125,-13.0250703125,-16.284921875,-20.973375,-7.0235546875,-16.5901953125,-13.2803828125,-12.81759765625,-14.568921875,-18.2350625,-12.3126953125,-7.8416796875,-7.33846875,-20.25372265625,-13.024546875,-11.18280859375,-8.94591015625,-13.73626953125,-13.064515625,-8.8364921875,-14.45954296875,-16.58691796875
-20.55854296875,-21.28444140625,-26.01563671875,-31.982828125,-24.4514375,-19.49925390625,-30.1134765625,-14.46863671875,-24.93761328125,-16.7890703125,-20.095921875,-22.786375,-7.9325546875,-18.8301953125,-16.5783828125,-16.72459765625,-16.215921875,-17.9140625,-13.6346953125,-10.4286796875,-9.03546875,-20.16272265625,-13.581546875,-12.28480859375,-10.42891015625,-13.97226953125,-13.608515625,-9.4814921875,-14.63954296875,-16.06491796875
-22.02954296875,-23.28944140625,-28.90363671875,-33.627828125,-26.6244375,-22.59925390625,-31.5354765625,-18.08063671875,-26.83861328125,-20.5790703125,-23.282921875,-23.875375,-9.3615546875,-22.8191953125,-20.1273828125,-21.41159765625,-17.889921875,-18.9140625,-16.6366953125,-14.3726796875,-12.01446875,-20.61872265625,-16.175546875,-15.12880859375,-13.41791015625,-14.39526953125,-15.887515625,-10.9014921875,-15.76254296875,-16.13191796875
-22.93054296875,-24.61644140625,-30.97763671875,-34.615828125,-27.4474375,-24.30925390625,-31.4934765625,-20.83263671875,-28.06261328125,-23.9380703125,-25.536921875,-24.168375,-10.9295546875,-27.9471953125,-23.4003828125,-26.01859765625,-19.276921875,-21.1700625,-20.8206953125,-18.9736796875,-15.71846875,-21.35272265625,-20.219546875,-19.25680859375,-17.37991015625,-14.97426953125,-19.542515625,-12.6084921875,-17.63054296875,-16.92891796875
-23.15654296875,-25.20644140625,-31.78063671875,-35.019828125,-27.1934375,-24.76125390625,-30.6604765625,-22.67963671875,-28.47061328125,-26.4260703125,-26.758921875,-23.815375,-12.2845546875,-33.3911953125,-25.8833828125,-29.70459765625,-20.173921875,-24.4460625,-25.4706953125,-23.3776796875,-19.47546875,-22.21772265625,-24.962546875,-23.96280859375,-21.62391015625,-15.70426953125,-23.946515625,-14.2494921875,-20.01854296875,-18.47091796875
-22.51754296875,-25.03744140625,-31.21563671875,-34.868828125,-26.2884375,-24.24525390625,-29.6694765625,-23.91663671875,-28.12361328125,-27.6370703125,-26.991921875,-23.161375,-13.1775546875,-38.2181953125,-27.1283828125,-31.75459765625,-20.551921875,-28.2640625,-29.7376953125,-26.7076796875,-22.59246875,-23.11672265625,-29.615546875,-28.37580859375,-25.36291015625,-16.57326953125,-28.263515625,-15.5834921875,-22.55754296875,-20.47691796875
-20.83854296875,-24.04644140625,-29.50163671875,-34.065828125,-25.0954375,-23.01925390625,-28.8524765625,-24.93063671875,-27.19561328125,-27.2660703125,-26.300921875,-22.533375,-13.4675546875,-41.5061953125,-26.7923828125,-31.66159765625,-20.498921875,-31.8670625,-32.7366953125,-28.2116796875,-24.46646875,-23.87072265625,-33.406546875,-31.57180859375,-27.80391015625,-17.49126953125,-31.536515625,-16.3844921875,-24.68154296875,-22.35191796875
-18.25654296875,-22.29044140625,-27.15363671875,-32.570828125,-23.8924375,-21.34725390625,-28.2254765625,-25.97963671875,-25.96561328125,-25.3350703125,-24.828921875,-22.110375,-13.1885546875,-42.6151953125,-24.8553828125,-29.34259765625,-20.163921875,-34.4220625,-33.8226953125,-27.5506796875,-24.78946875,-24.25472265625,-35.752546875,-32.86880859375,-28.41291015625,-18.33026953125,-33.009515625,-16.5314921875,-25.85554296875,-23.48591796875
-15.46654296875,-20.19844140625,-24.94663671875,-30.660828125,-23.0084375,-19.68125390625,-27.6794765625,-27.01863671875,-24.83761328125,-22.4100703125,-22.948921875,-21.952375,-12.5985546875,-41.4691953125,-21.8363828125,-25.32859765625,-19.704921875,-35.3540625,-32.8756953125,-25.0246796875,-23.70046875,-24.14072265625,-36.432546875,-32.13180859375,-27.17091015625,-18.99826953125,-32.460515625,-16.1384921875,-25.88554296875,-23.61791796875
-13.56154296875,-18.52444140625,-23.68563671875,-28.937828125,-22.8194375,-18.64225390625,-27.1544765625,-27.63763671875,-24.20161328125,-19.5060703125,-21.209921875,-21.981375,-12.0255546875,-38.5611953125,-18.7043828125,-20.63459765625,-19.145921875,-34.4740625,-30.3016953125,-21.4496796875,-21.64446875,-23.50672265625,-35.538546875,-29.76880859375,-24.50891015625,-19.34026953125,-30.213515625,-15.4784921875,-24.93354296875,-22.83991796875
-13.49754296875,-17.94744140625,-23.80863671875,-28.046828125,-23.5614375,-18.73325390625,-26.6804765625,-27.20863671875,-24.18561328125,-17.6580703125,-20.087921875,-21.907375,-11.6275546875,-34.6771953125,-16.4533828125,-16.31659765625,-18.282921875,-31.8970625,-26.7596953125,-17.7356796875,-19.04546875,-22.32072265625,-33.263546875,-26.41780859375,-20.98091015625,-19.00326953125,-26.826515625,-14.7154921875,-23.23554296875,-21.29291796875
-15.58554296875,-18.71344140625,-25.15563671875,-28.350828125,-25.1824375,-20.08625390625,-26.3574765625,-25.30163671875,-24.59261328125,-17.4880703125,-19.793921875,-21.294375,-11.3445546875,-30.6251953125,-15.7163828125,-13.10559765625,-16.836921875,-27.9750625,-22.9196953125,-14.5416796875,-16.14246875,-20.52172265625,-29.816546875,-22.68780859375,-17.02991015625,-17.52826953125,-22.836515625,-13.7554921875,-20.92054296875,-18.96491796875
-19.33254296875,-20.57844140625,-27.07363671875,-29.749828125,-27.3504375,-22.41925390625,-26.3144765625,-22.08163671875,-25.07861328125,-19.0180703125,-20.280921875,-19.825375,-11.0595546875,-27.0951953125,-16.5973828125,-11.31359765625,-14.764921875,-23.3250625,-19.3876953125,-12.2136796875,-13.10746875,-18.13672265625,-25.518546875,-19.10380859375,-13.01291015625,-14.70326953125,-18.722515625,-12.3794921875,-18.09954296875,-15.84791796875
-23.62654296875,-22.93944140625,-28.72163671875,-31.682828125,-29.5354375,-25.10325390625,-26.6154765625,-18.30363671875,-25.33861328125,-21.6720703125,-21.286921875,-17.528375,-10.7475546875,-24.5361953125,-18.6643828125,-10.88259765625,-12.393921875,-18.7440625,-16.6186953125,-10.8296796875,-10.17946875,-15.32772265625,-20.852546875,-16.08580859375,-9.26191015625,-10.80926953125,-14.907515625,-10.4344921875,-15.01854296875,-12.17491796875
-27.11354296875,-25.00844140625,-29.39663671875,-33.299828125,-31.0904375,-27.27025390625,-27.1764765625,-14.86563671875,-25.14961328125,-24.4600703125,-22.347921875,-14.798375,-10.4725546875,-23.0271953125,-21.0553828125,-11.45059765625,-10.250921875,-14.9550625,-14.7896953125,-10.2316796875,-7.63546875,-12.31872265625,-16.332546875,-13.84080859375,-6.04191015625,-6.54426953125,-11.666515625,-7.9254921875,-12.02454296875,-8.45491796875
-28.70454296875,-26.08644140625,-28.82763671875,-33.838828125,-31.4404375,-28.11925390625,-27.8074765625,-12.31063671875,-24.39661328125,-26.3590703125,-22.942921875,-12.320375,-10.3645546875,-22.3351953125,-22.8073828125,-12.52959765625,-8.797921875,-12.3950625,-13.7936953125,-10.1526796875,-5.73146875,-9.36972265625,-12.405546875,-12.35980859375,-3.52891015625,-2.75426953125,-9.087515625,-5.0704921875,-9.45454296875,-5.29791796875
-28.02354296875,-25.88744140625,-27.32963671875,-33.021828125,-30.3784375,-27.31925390625,-28.3444765625,-10.68963671875,-23.16961328125,-26.8000703125,-22.786921875,-10.921375,-10.6505546875,-22.1861953125,-23.3373828125,-13.77359765625,-8.286921875,-11.2280625,-13.4516953125,-10.4266796875,-4.68546875,-6.88372265625,-9.474546875,-11.56580859375,-1.88791015625,-0.19326953125,-7.175515625,-2.3484921875,-7.56754296875,-3.19591796875
-25.51654296875,-24.62544140625,-25.59563671875,-31.154828125,-28.1774375,-25.17525390625,-28.6624765625,-9.77163671875,-21.75861328125,-25.8700703125,-21.948921875,-11.211375,-11.5605546875,-22.4391953125,-22.6813828125,-15.05359765625,-8.667921875,-11.3920625,-13.6636953125,-11.0336796875,-4.60946875,-5.40472265625,-7.876546875,-11.41080859375,-1.26191015625,0.72873046875,-5.935515625,-0.388492187499999,-6.47154296875,-2.32091796875
-22.12154296875,-22.75744140625,-24.22163671875,-28.864828125,-25.4014375,-22.35425390625,-28.5554765625,-9.30863671875,-20.47961328125,-24.0730703125,-20.664921875,-13.120375,-13.0865546875,-23.0121953125,-21.2833828125,-16.25959765625,-9.527921875,-12.5760625,-14.3406953125,-11.8936796875,-5.33246875,-5.36772265625,-7.709546875,-11.77580859375,-1.58691015625,0.15173046875,-5.294515625,0.349507812500001,-6.02654296875,-2.39491796875
-18.80554296875,-20.69144140625,-23.36063671875,-26.744828125,-22.6114375,-19.49825390625,-27.7424765625,-9.20963671875,-19.54061328125,-21.9470703125,-19.120921875,-15.778375,-14.8515546875,-23.7451953125,-19.6353828125,-17.12459765625,-10.208921875,-14.2800625,-15.3056953125,-12.7006796875,-6.38146875,-6.83772265625,-8.730546875,-12.39980859375,-2.49891015625,-1.30726953125,-5.063515625,-0.187492187499999,-5.90554296875,-2.82891796875
-16.28954296875,-18.75844140625,-22.80363671875,-25.201828125,-20.2374375,-17.08125390625,-26.1224765625,-9.60563671875,-19.09861328125,-19.8970703125,-17.495921875,-17.983375,-16.3265546875,-24.4731953125,-18.1393828125,-17.37159765625,-10.171921875,-16.0990625,-16.3976953125,-13.0856796875,-7.24446875,-9.52072265625,-10.523546875,-13.05580859375,-3.54991015625,-2.98726953125,-5.117515625,-1.7614921875,-5.89554296875,-3.16091796875
-14.96054296875,-17.30044140625,-22.28763671875,-24.420828125,-18.5664375,-15.46025390625,-24.0264765625,-10.78563671875,-19.35961328125,-18.2200703125,-16.108921875,-18.863375,-17.1835546875,-25.1711953125,-17.1413828125,-16.96059765625,-9.327921875,-17.9640625,-17.6186953125,-12.9226796875,-7.69746875,-12.95572265625,-12.757546875,-13.76780859375,-4.51791015625,-4.62326953125,-5.581515625,-4.1234921875,-6.16954296875,-3.42191796875
-14.80454296875,-16.59644140625,-21.67463671875,-24.314828125,-17.6954375,-14.83725390625,-22.1514765625,-12.95163671875,-20.45661328125,-17.1070703125,-15.369921875,-18.189375,-17.4345546875,-25.9201953125,-16.8993828125,-16.11759765625,-8.021921875,-20.0350625,-19.0636953125,-12.4006796875,-7.83846875,-16.63972265625,-15.214546875,-14.75980859375,-5.45791015625,-6.35226953125,-6.725515625,-7.0934921875,-7.16454296875,-4.07291796875
-15.40554296875,-16.67244140625,-20.95563671875,-24.533828125,-17.4724375,-15.13425390625,-21.1984765625,-15.92563671875,-22.21161328125,-16.5770703125,-15.522921875,-16.275375,-17.3015546875,-26.7031953125,-17.4563828125,-15.12959765625,-6.718921875,-22.3470625,-20.6906953125,-11.8286796875,-7.85446875,-20.04372265625,-17.625546875,-16.17780859375,-6.49291015625,-8.40126953125,-8.648515625,-10.4234921875,-9.18054296875,-5.56591796875
-16.15454296875,-17.28944140625,-20.23663671875,-24.666828125,-17.5794375,-16.00325390625,-21.5044765625,-19.02463671875,-24.12161328125,-16.4760703125,-16.506921875,-13.752375,-17.0315546875,-27.3211953125,-18.6123828125,-14.19259765625,-5.732921875,-24.5890625,-22.2346953125,-11.4606796875,-7.86446875,-22.67072265625,-19.591546875,-17.91280859375,-7.67091015625,-10.81926953125,-11.110515625,-13.6924921875,-12.07654296875,-7.97891796875
-16.56554296875,-18.09044140625,-19.71063671875,-24.512828125,-17.6994375,-16.94425390625,-22.8474765625,-21.25463671875,-25.57861328125,-16.5460703125,-17.964921875,-11.357375,-16.7785546875,-27.4711953125,-20.0033828125,-13.39259765625,-5.133921875,-26.1960625,-23.3166953125,-11.4266796875,-7.89546875,-24.17972265625,-20.693546875,-19.62880859375,-8.94591015625,-13.43026953125,-13.602515625,-16.3614921875,-15.27454296875,-10.93691796875
-16.38254296875,-18.64544140625,-19.45363671875,-24.104828125,-17.5364375,-17.36425390625,-24.4344765625,-21.73663671875,-26.06761328125,-16.4240703125,-19.279921875,-9.661375,-16.4845546875,-26.8371953125,-21.1323828125,-12.65359765625,-4.789921875,-26.5580625,-23.5546953125,-11.6666796875,-7.88046875,-24.41472265625,-20.589546875,-20.85080859375,-10.15491015625,-15.85626953125,-15.488515625,-17.9114921875,-17.93954296875,-13.72991796875
-15.45354296875,-18.40744140625,-19.17663671875,-23.512828125,-16.7434375,-16.61125390625,-25.1354765625,-20.15863671875,-25.21661328125,-15.6440703125,-19.647921875,-8.801375,-15.8375546875,-25.1541953125,-21.4023828125,-11.70559765625,-4.486921875,-25.2370625,-22.6366953125,-11.8736796875,-7.66546875,-23.37572265625,-19.091546875,-21.05180859375,-10.98591015625,-17.56326953125,-16.147515625,-17.9904921875,-19.26254296875,-15.55391796875
-13.67354296875,-16.84844140625,-18.26563671875,-22.696828125,-15.0094375,-14.20625390625,-23.9824765625,-16.99063671875,-22.83961328125,-13.8250703125,-18.377921875,-8.508375,-14.4585546875,-22.3621953125,-20.3493828125,-10.25159765625,-4.150921875,-22.2000625,-20.4856953125,-11.6576796875,-7.15346875,-21.27972265625,-16.303546875,-19.89780859375,-11.13891015625,-18.09626953125,-15.234515625,-16.6344921875,-18.83854296875,-15.88091796875
-11.12154296875,-13.82944140625,-16.16763671875,-21.569828125,-12.3224375,-10.23825390625,-20.7084765625,-13.29763671875,-19.07161328125,-10.9860703125,-15.348921875,-8.436375,-12.2375546875,-18.7911953125,-17.9793828125,-8.32159765625,-4.006921875,-18.0030625,-17.4486953125,-10.8736796875,-6.54046875,-18.67472265625,-12.774546875,-17.54980859375,-10.63191015625,-17.42026953125,-12.971515625,-14.4284921875,-16.97254296875,-14.81091796875
-8.16854296875,-9.80644140625,-12.78363671875,-20.086828125,-9.1074375,-5.48925390625,-15.9414765625,-10.23063671875,-14.40461328125,-7.6380703125,-11.213921875,-8.474375,-9.4605546875,-15.1241953125,-14.8683828125,-6.41059765625,-4.439921875,-13.6380625,-14.2596953125,-9.7806796875,-6.31946875,-16.33672265625,-9.392546875,-14.68980859375,-9.89291015625,-16.03626953125,-10.139515625,-12.3364921875,-14.58054296875,-13.05191796875
-5.32554296875,-5.61144140625,-8.53063671875,-18.236828125,-6.0324375,-1.07725390625,-10.8874765625,-8.51363671875,-9.54261328125,-4.5040703125,-7.098921875,-8.756375,-6.6065546875,-12.0601953125,-11.8363828125,-5.21959765625,-5.613921875,-10.0810625,-11.6736953125,-8.8406796875,-6.96546875,-14.91472265625,-6.985546875,-12.16980859375,-9.48891015625,-14.70126953125,-7.684515625,-11.2304921875,-12.68054296875,-11.48891796875
-2.93854296875,-2.04344140625,-4.13163671875,-16.016828125,-3.6704375,2.07174609375,-6.7794765625,-8.24163671875,-5.22661328125,-2.1300703125,-4.077921875,-9.457375,-4.0515546875,-9.9801953125,-9.5283828125,-5.25059765625,-7.259921875,-7.8700625,-10.1226953125,-8.4106796875,-8.60146875,-14.61972265625,-5.970546875,-10.60480859375,-9.76891015625,-14.03126953125,-6.264515625,-11.5054921875,-11.89054296875,-10.72191796875
-1.01554296875,0.394558593750002,-0.351636718749999,-13.494828125,-2.2914375,3.55374609375,-4.3894765625,-9.03263671875,-2.12061328125,-0.698070312500001,-2.776921875,-10.563375,-1.9505546875,-8.8741953125,-8.2053828125,-6.55959765625,-8.844921875,-7.0300625,-9.6376953125,-8.5956796875,-10.92246875,-15.23372265625,-6.283546875,-10.21980859375,-10.72891015625,-14.31126953125,-6.087515625,-13.0414921875,-12.28354296875,-10.90291796875
0.717457031249999,1.60955859375,2.28536328125,-10.843828125,-1.7964375,3.54674609375,-3.7854765625,-10.31463671875,-0.66461328125,-0.0230703125000007,-3.192921875,-11.700375,-0.2715546875,-8.4241953125,-7.7363828125,-8.69959765625,-9.887921875,-7.1930625,-9.9316953125,-9.2386796875,-13.31646875,-16.29472265625,-7.492546875,-10.86780859375,-12.04891015625,-15.45926953125,-6.953515625,-15.3634921875,-13.50654296875,-11.82491796875
2.61645703125,1.95355859375,3.72636328125,-8.257828125,-1.7454375,2.72574609375,-4.3454765625,-11.57863671875,-0.836613281249999,0.362929687499999,-4.681921875,-12.125375,1.1624453125,-8.0961953125,-7.6533828125,-10.78859765625,-10.123921875,-7.7170625,-10.4496953125,-9.9226796875,-15.02046875,-17.24172265625,-8.875546875,-12.05880859375,-13.16691015625,-17.03926953125,-8.313515625,-17.7404921875,-14.90354296875,-13.00791796875
4.83045703125,2.07755859375,4.39436328125,-5.862828125,-1.5554375,1.96974609375,-5.1024765625,-12.56263671875,-2.06661328125,1.0119296875,-6.215921875,-11.020375,2.5544453125,-7.3181953125,-7.3383828125,-11.79459765625,-9.536921875,-7.8400625,-10.4986953125,-10.0936796875,-15.36146875,-17.54672265625,-9.572546875,-13.07480859375,-13.43791015625,-18.38126953125,-9.410515625,-19.2954921875,-15.69654296875,-13.83791796875
7.06645703125,2.51955859375,4.83236328125,-3.776828125,-0.8864375,1.87474609375,-5.3134765625,-13.34763671875,-3.52061328125,2.2109296875,-6.939921875,-8.085375,3.8994453125,-5.8111953125,-6.4063828125,-11.06559765625,-8.387921875,-7.0140625,-9.5736953125,-9.3816796875,-14.10646875,-16.92472265625,-8.942546875,-13.29380859375,-12.48791015625,-18.90526953125,-9.621515625,-19.2944921875,-15.31754296875,-13.82191796875
8.64045703125,3.31255859375,5.27436328125,-2.205828125,0.0755625000000002,2.38574609375,-4.8894765625,-14.20063671875,-4.54961328125,3.7339296875,-6.642921875,-3.989375,4.8474453125,-3.8121953125,-5.0003828125,-8.76059765625,-7.172921875,-5.2130625,-7.6706953125,-7.8936796875,-11.67146875,-15.49072265625,-6.891546875,-12.51280859375,-10.48491015625,-18.42626953125,-8.748515625,-17.4594921875,-13.69254296875,-12.83591796875
8.89845703125,4.01555859375,5.53536328125,-1.391828125,0.746562500000001,2.90874609375,-4.3714765625,-15.20463671875,-4.90061328125,4.9829296875,-5.771921875,-0.245375000000001,4.8964453125,-1.9121953125,-3.6673828125,-5.76859765625,-6.369921875,-2.9030625,-5.2506953125,-6.1426796875,-8.93046875,-13.66272265625,-3.861546875,-10.94280859375,-8.03091015625,-17.14326953125,-7.001515625,-14.0514921875,-11.20954296875,-11.10191796875
7.65645703125,4.08855859375,5.25036328125,-1.446828125,0.576562500000001,2.77674609375,-4.5244765625,-15.99363671875,-4.61861328125,5.4059296875,-5.010921875,1.510625,3.7604453125,-0.6181953125,-2.9243828125,-3.19859765625,-6.119921875,-0.711062500000001,-2.8956953125,-4.6876796875,-6.73346875,-11.89472265625,-0.509546875000001,-8.94780859375,-5.76491015625,-15.38726953125,-4.723515625,-9.6884921875,-8.41454296875,-8.97991796875
5.29745703125,3.23055859375,4.17436328125,-2.278828125,-0.633437499999999,1.61374609375,-5.8584765625,-15.93063671875,-3.89061328125,4.7999296875,-4.871921875,0.325625,1.5564453125,-0.0831953125,-2.9473828125,-1.86859765625,-6.171921875,0.8719375,-1.0166953125,-3.8606796875,-5.55346875,-10.51172265625,2.586453125,-6.84380859375,-4.06891015625,-13.41426953125,-2.208515625,-5.1494921875,-5.78254296875,-6.83391796875
2.48045703125,1.46455859375,2.31636328125,-3.680828125,-2.6904375,-0.57025390625,-8.3664765625,-14.64163671875,-2.94961328125,3.3349296875,-5.517921875,-3.605375,-1.2915546875,-0.1551953125,-3.5603828125,-2.07759765625,-6.116921875,1.6019375,0.2103046875,-3.7206796875,-5.42746875,-9.67872265625,5.033453125,-4.89380859375,-3.03591015625,-11.38226953125,0.270484375000001,-1.2244921875,-3.66954296875,-5.00891796875
-0.17754296875,-0.889441406249999,-0.0126367187500005,-5.395828125,-5.1424375,-3.42425390625,-11.4974765625,-12.43663671875,-1.99761328125,1.4299296875,-6.742921875,-8.973375,-4.2225546875,-0.5541953125,-4.3853828125,-3.60959765625,-5.664921875,1.5029375,0.8103046875,-4.1186796875,-6.07546875,-9.40072265625,6.659453125,-3.31580859375,-2.55091015625,-9.36826953125,2.424484375,1.4765078125,-2.28754296875,-3.77391796875
-2.27154296875,-3.29044140625,-2.25563671875,-7.143828125,-7.4344375,-6.34225390625,-14.3744765625,-10.21863671875,-1.14461328125,-0.411070312500001,-8.054921875,-13.883375,-6.6725546875,-1.0191953125,-5.0143828125,-5.89059765625,-4.799921875,0.838937499999999,0.9363046875,-4.7736796875,-7.06846875,-9.52172265625,7.490453125,-2.24880859375,-2.39591015625,-7.38426953125,3.998484375,2.7025078125,-1.66154296875,-3.20491796875
-3.66454296875,-5.19744140625,-3.83763671875,-8.693828125,-9.1194375,-8.69225390625,-16.1854765625,-8.99563671875,-0.49561328125,-1.8150703125,-8.918921875,-16.692375,-8.2465546875,-1.4531953125,-5.2313828125,-8.30159765625,-3.818921875,-0.0640625000000004,0.7083046875,-5.4416796875,-8.09846875,-9.85572265625,7.619453125,-1.79380859375,-2.43691015625,-5.50926953125,4.760484375,2.5425078125,-1.69154296875,-3.19791796875
-4.50354296875,-6.35944140625,-4.44463671875,-9.958828125,-10.0614375,-10.09625390625,-16.5194765625,-9.35963671875,-0.31261328125,-2.7210703125,-9.060921875,-16.707375,-8.9015546875,-2.0311953125,-5.1743828125,-10.48059765625,-3.267921875,-1.0780625,0.0343046875000004,-6.1086796875,-9.18946875,-10.38772265625,7.008453125,-2.12580859375,-2.80991015625,-4.03426953125,4.448484375,1.2475078125,-2.28954296875,-3.62191796875
-5.09254296875,-6.87844140625,-4.11463671875,-10.963828125,-10.3984375,-10.51425390625,-15.4134765625,-11.20463671875,-1.00061328125,-3.3150703125,-8.537921875,-14.342375,-8.9425546875,-3.0811953125,-5.2123828125,-12.35259765625,-3.668921875,-2.3470625,-1.3176953125,-6.9666796875,-10.61946875,-11.26872265625,5.509453125,-3.43080859375,-3.83891015625,-3.39326953125,2.868484375,-0.863492187499999,-3.37154296875,-4.35691796875
-5.66154296875,-6.97344140625,-3.07463671875,-11.678828125,-10.2974375,-10.05825390625,-13.1604765625,-13.79663671875,-2.79861328125,-3.7390703125,-7.531921875,-10.717375,-8.7585546875,-4.7701953125,-5.5593828125,-13.88359765625,-5.127921875,-4.0650625,-3.3896953125,-8.1376796875,-12.56046875,-12.55772265625,3.113453125,-5.66380859375,-5.66991015625,-3.82626953125,0.136484375000001,-3.3194921875,-4.68854296875,-5.17191796875
-6.22854296875,-6.76744140625,-1.62263671875,-11.926828125,-9.7854375,-8.85825390625,-10.1664765625,-16.15863671875,-5.48361328125,-3.9040703125,-6.199921875,-7.169375,-8.5845546875,-6.9021953125,-6.0443828125,-14.94259765625,-7.184921875,-6.2560625,-5.8206953125,-9.4786796875,-14.82146875,-14.01972265625,0.117453124999999,-8.41580859375,-8.00991015625,-5.12326953125,-3.218515625,-5.5354921875,-5.81854296875,-5.68991796875
-6.69754296875,-6.36144140625,-0.201636718750001,-11.537828125,-8.8744375,-7.16625390625,-6.9894765625,-17.60063671875,-8.39561328125,-3.6320703125,-4.758921875,-4.931375,-8.4785546875,-9.0451953125,-6.2973828125,-15.44259765625,-9.045921875,-8.7700625,-8.0056953125,-10.6736796875,-16.93546875,-15.21172265625,-3.005546875,-11.10480859375,-10.23191015625,-6.71326953125,-6.476515625,-7.0624921875,-6.42354296875,-5.58591796875
-7.01454296875,-5.97344140625,0.55336328125,-10.530828125,-7.7854375,-5.49225390625,-4.3434765625,-18.03363671875,-10.75361328125,-2.9230703125,-3.602921875,-4.821375,-8.4015546875,-10.8171953125,-6.1073828125,-15.51759765625,-9.992921875,-11.3870625,-9.4456953125,-11.4536796875,-18.41346875,-15.71972265625,-5.829546875,-13.24580859375,-11.69391015625,-7.95826953125,-9.035515625,-7.8104921875,-6.48954296875,-4.81191796875
-7.18554296875,-5.88244140625,0.0573632812499998,-9.120828125,-6.9664375,-4.46725390625,-2.8854765625,-17.87963671875,-12.00761328125,-2.0440703125,-3.183921875,-6.855375,-8.2315546875,-12.0351953125,-5.5773828125,-15.44259765625,-9.654921875,-13.8330625,-9.9456953125,-11.6716796875,-18.89446875,-15.30172265625,-8.042546875,-14.53080859375,-11.94791015625,-8.37926953125,-10.501515625,-7.9454921875,-6.23154296875,-3.56291796875
-7.27254296875,-6.27144140625,-1.85663671875,-7.618828125,-6.9274375,-4.56025390625,-2.9424765625,-17.69363671875,-12.07861328125,-1.4410703125,-3.781921875,-10.142375,-7.7915546875,-12.7591953125,-5.0623828125,-15.43759765625,-8.098921875,-15.7830625,-9.6146953125,-11.2876796875,-18.20246875,-13.92472265625,-9.416546875,-14.79580859375,-10.83291015625,-7.79026953125,-10.650515625,-7.6384921875,-5.82254296875,-2.08391796875
-7.46654296875,-7.22644140625,-4.81463671875,-6.419828125,-8.0944375,-5.94625390625,-4.4394765625,-17.78163671875,-11.43461328125,-1.6250703125,-5.437921875,-13.376375,-7.0005546875,-13.3011953125,-5.0473828125,-15.61759765625,-5.828921875,-17.0050625,-8.8366953125,-10.4246796875,-16.45646875,-11.81272265625,-9.866546875,-14.05880859375,-8.56891015625,-6.41426953125,-9.476515625,-6.9664921875,-5.27354296875,-0.57591796875
-8.14354296875,-8.80944140625,-8.08363671875,-5.998828125,-10.6814375,-8.53825390625,-7.0074765625,-18.01463671875,-10.89861328125,-3.0340703125,-8.012921875,-15.578375,-5.9995546875,-14.1501953125,-5.9753828125,-16.02659765625,-3.630921875,-17.5000625,-8.1426953125,-9.3686796875,-14.08346875,-9.38472265625,-9.509546875,-12.56380859375,-5.72991015625,-4.82826953125,-7.240515625,-5.9614921875,-4.50054296875,0.82108203125
-9.63854296875,-10.95944140625,-10.82863671875,-6.726828125,-14.5114375,-11.94025390625,-10.0754765625,-17.90563671875,-11.17561328125,-5.7670703125,-11.133921875,-16.374375,-5.0375546875,-15.6781953125,-7.9453828125,-16.53459765625,-2.188921875,-17.4110625,-7.9156953125,-8.3626796875,-11.58346875,-7.00072265625,-8.524546875,-10.62380859375,-2.94491015625,-3.60126953125,-4.331515625,-4.6074921875,-3.36454296875,2.10208203125
-11.90654296875,-13.29444140625,-12.32563671875,-8.583828125,-18.8894375,-15.41125390625,-12.9194765625,-16.96063671875,-12.42561328125,-9.3940703125,-14.112921875,-15.725375,-4.2495546875,-17.8311953125,-10.4993828125,-16.70259765625,-1.737921875,-16.8020625,-8.1226953125,-7.3606796875,-9.21046875,-4.71672265625,-6.969546875,-8.39580859375,-0.52691015625,-2.87326953125,-1.047515625,-2.8044921875,-1.69254296875,3.45108203125
-14.43354296875,-15.18944140625,-12.21963671875,-11.081828125,-22.8124375,-18.08325390625,-14.8514765625,-15.09463671875,-14.20861328125,-13.1020703125,-16.141921875,-13.655375,-3.6615546875,-20.1491953125,-12.8203828125,-15.94259765625,-2.053921875,-15.6380625,-8.3976953125,-6.1016796875,-6.93446875,-2.37272265625,-4.849546875,-5.93280859375,1.55508984375,-2.33326953125,2.392484375,-0.494492187499999,0.55045703125,5.06908203125
-16.53654296875,-16.16144140625,-10.75763671875,-13.510828125,-25.4314375,-19.42025390625,-15.5254765625,-12.75463671875,-15.81861328125,-16.1330703125,-16.741921875,-10.355375,-3.3685546875,-22.0811953125,-14.2623828125,-13.96459765625,-2.743921875,-13.9990625,-8.4366953125,-4.4856796875,-4.70946875,0.0282773437500019,-2.394546875,-3.45980859375,3.35408984375,-1.60326953125,5.617484375,2.0775078125,3.00745703125,6.86408203125
-17.71054296875,-16.15644140625,-8.74363671875,-15.232828125,-26.3944375,-19.47125390625,-15.1214765625,-10.62263671875,-16.64561328125,-18.1030703125,-16.055921875,-6.440375,-3.5855546875,-23.2581953125,-14.7163828125,-11.05559765625,-3.479921875,-12.1850625,-8.2446953125,-2.7876796875,-2.67746875,2.09227734375,-0.167546875000001,-1.49280859375,4.69708984375,-0.59326953125,8.011484375,4.3265078125,4.93545703125,8.36508203125
-17.76754296875,-15.48144140625,-7.16663671875,-15.831828125,-25.8444375,-18.70525390625,-14.1974765625,-9.16363671875,-16.36061328125,-18.9770703125,-14.678921875,-2.940375,-4.4355546875,-23.4951953125,-14.5103828125,-7.91959765625,-3.998921875,-10.5770625,-8.0246953125,-1.5036796875,-1.08746875,3.18527734375,1.186453125,-0.59480859375,5.28808984375,0.46873046875,8.960484375,5.5925078125,5.56945703125,8.98608203125
-16.80454296875,-14.55244140625,-6.74463671875,-15.177828125,-24.2144375,-17.63225390625,-13.3284765625,-8.43063671875,-15.01261328125,-18.8710703125,-13.254921875,-0.939375000000001,-5.7645546875,-22.7121953125,-14.0763828125,-5.27859765625,-4.066921875,-9.4450625,-7.9276953125,-1.0216796875,-0.121468749999999,2.78427734375,1.293453125,-1.03280859375,4.94208984375,1.21173046875,8.157484375,5.4665078125,4.52645703125,8.34508203125
-15.12254296875,-13.70844140625,-7.64863671875,-13.469828125,-22.0294375,-16.55425390625,-12.7654765625,-8.19063671875,-13.02861328125,-17.9260703125,-12.143921875,-1.031375,-7.1855546875,-20.9181953125,-13.6893828125,-3.51959765625,-3.546921875,-8.8680625,-7.9316953125,-1.4266796875,0.190531250000001,0.781277343750002,0.226453124999999,-2.62880859375,3.72708984375,1.29773046875,5.749484375,3.9195078125,1.95645703125,6.39008203125
-13.08254296875,-13.05944140625,-9.39263671875,-11.183828125,-19.6844375,-15.43925390625,-12.2544765625,-8.14563671875,-10.98361328125,-16.2270703125,-11.260921875,-2.869375,-8.2245546875,-18.1931953125,-13.3443828125,-2.51659765625,-2.463921875,-8.7050625,-7.8276953125,-2.4346796875,-0.0104687499999985,-2.36272265625,-1.498546875,-4.78880859375,1.99708984375,0.59273046875,2.329484375,1.3105078125,-1.52354296875,3.40908203125
-10.90554296875,-12.35544140625,-10.93663671875,-8.864828125,-17.2554375,-13.91225390625,-11.1084765625,-8.07563671875,-9.20461328125,-13.7640703125,-10.106921875,-5.114375,-8.4155546875,-14.6141953125,-12.7323828125,-1.65059765625,-0.951921875,-8.5470625,-7.2446953125,-3.4216796875,-0.382468749999999,-5.66372265625,-3.043546875,-6.62780859375,0.36708984375,-0.67726953125,-1.143515625,-1.6804921875,-4.99754296875,0.0150820312500004
-8.62954296875,-11.08344140625,-11.08863671875,-6.953828125,-14.5124375,-11.45525390625,-8.5874765625,-7.91963671875,-7.57261328125,-10.5030703125,-8.040921875,-5.999375,-7.4335546875,-10.2751953125,-11.4113828125,-0.14559765625,0.800078125000001,-7.8270625,-5.8116953125,-3.6526796875,-0.482468749999999,-7.97972265625,-3.562546875,-7.26880859375,-0.47291015625,-1.97426953125,-3.626515625,-4.2804921875,-7.56354296875,-3.00891796875
-6.27454296875,-8.86144140625,-9.16163671875,-5.743828125,-11.2124375,-7.81725390625,-4.3844765625,-7.77263671875,-5.76961328125,-6.5890703125,-4.747921875,-4.243375,-5.3235546875,-5.4691953125,-9.1543828125,2.40740234375,2.527078125,-6.1520625,-3.4466953125,-2.6696796875,0.00853125000000077,-8.60372265625,-2.637546875,-6.27180859375,-0.11691015625,-2.74326953125,-4.436515625,-5.9784921875,-8.72354296875,-5.02391796875
-4.02254296875,-5.78844140625,-5.39663671875,-5.367828125,-7.3904375,-3.28025390625,1.1075234375,-7.73263671875,-3.65261328125,-2.4460703125,-0.512921875,0.298624999999999,-2.5945546875,-0.763195312500001,-6.1653828125,5.73640234375,3.929078125,-3.5830625,-0.5036953125,-0.5576796875,1.14053125,-7.60772265625,-0.495546875,-3.85980859375,1.34608984375,-2.66326953125,-3.540515625,-6.7124921875,-8.53154296875,-5.75591796875
-2.16254296875,-2.40944140625,-0.84063671875,-5.722828125,-3.3784375,1.46574609375,6.9345234375,-7.64363671875,-1.37361328125,1.3829296875,3.921078125,6.631625,0.0264453124999999,3.1908046875,-2.9653828125,9.06240234375,4.867078125,-0.581062500000001,2.4273046875,2.1563203125,2.79253125,-5.65872265625,2.201453125,-0.71880859375,3.47508984375,-1.63426953125,-1.425515625,-6.6874921875,-7.38354296875,-5.25091796875
-0.93654296875,0.593558593750004,3.17536328125,-6.459828125,0.3705625,5.66674609375,11.9275234375,-7.03863671875,0.763386718749999,4.4779296875,7.715078125,13.031625,1.9714453125,5.9538046875,-0.1103828125,11.52240234375,5.483078125,2.2689375,4.8613046875,4.7943203125,4.79553125,-3.52372265625,4.755453125,2.39519140625,5.76508984375,0.30373046875,1.240484375,-6.0864921875,-5.69854296875,-3.73591796875
-0.474542968750001,2.64855859375,5.56936328125,-7.134828125,3.4055625,8.72374609375,15.0235234375,-5.48263671875,2.47138671875,6.6149296875,10.184078125,17.545625,3.0024453125,7.3838046875,1.9446171875,12.46840234375,6.068078125,4.4589375,6.5393046875,6.7223203125,6.88753125,-1.73672265625,6.672453125,4.88719140625,7.76608984375,2.90573046875,3.812484375,-5.0234921875,-3.83954296875,-1.63191796875
-0.759542968750001,3.45955859375,5.89336328125,-7.387828125,5.3685625,10.29674609375,15.5535234375,-3.02563671875,3.60238671875,7.7379296875,10.934078125,18.588625,3.1544453125,7.5648046875,2.9066171875,11.61440234375,6.818078125,5.6619375,7.3743046875,7.4763203125,8.64053125,-0.539722656249998,7.699453125,6.38119140625,9.10208984375,5.63573046875,5.751484375,-3.6464921875,-2.16854296875,0.44908203125
-1.50454296875,3.19655859375,4.57636328125,-6.950828125,6.1875625,10.45774609375,13.5465234375,-0.27063671875,4.28438671875,8.0249296875,10.062078125,15.684625,2.6944453125,6.8188046875,2.8326171875,9.22240234375,7.774078125,5.8599375,7.4603046875,7.0023203125,9.65853125,0.0802773437500015,7.886453125,6.84219140625,9.61408984375,7.87473046875,6.797484375,-2.1324921875,-0.92454296875,1.97608203125
-2.04754296875,2.59855859375,2.85736328125,-5.565828125,6.2555625,9.82474609375,9.8715234375,2.06836328125,4.96838671875,7.9799296875,8.305078125,9.972625,2.0884453125,5.7398046875,2.2986171875,6.22040234375,8.936078125,5.4299375,7.1453046875,5.8493203125,9.90853125,0.327277343750001,7.619453125,6.68019140625,9.56908984375,9.30573046875,7.152484375,-0.558492187499999,-0.0175429687499999,2.88208203125
-1.57754296875,2.67255859375,2.21036328125,-3.079828125,6.3115625,9.36074609375,5.9605234375,3.69436328125,6.18938671875,8.2859296875,6.808078125,3.855625,1.8214453125,5.0108046875,2.2346171875,3.89940234375,10.311078125,4.9509375,6.8993046875,4.9783203125,9.78953125,0.427277343750001,7.418453125,6.56819140625,9.55508984375,10.05473046875,7.363484375,1.0745078125,0.92545703125,3.59108203125
0.37445703125,4.08555859375,3.52636328125,0.307171874999998,7.0155625,9.86574609375,3.1855234375,4.85636328125,8.14338671875,9.4179296875,6.534078125,-0.139375000000001,2.1034453125,5.0048046875,3.3856171875,3.25840234375,11.820078125,4.8039375,7.0023046875,5.1903203125,9.80153125,0.434277343750001,7.566453125,6.99619140625,10.06908984375,10.45473046875,7.892484375,2.6585078125,2.21345703125,4.62508203125
3.60245703125,6.77255859375,6.65736328125,3.922171875,8.5905625,11.59274609375,2.3275234375,6.01936328125,10.47938671875,11.3709296875,7.776078125,-0.520375,2.7814453125,5.5718046875,5.8526171875,4.48540234375,13.268078125,4.9609375,7.3633046875,6.6563203125,10.17253125,0.221277343750002,7.913453125,7.95919140625,11.16408984375,10.72873046875,8.800484375,3.9085078125,3.80345703125,6.19408203125
7.32745703125,10.05655859375,10.60736328125,6.840171875,10.7775625,14.22974609375,3.3945234375,7.40336328125,12.49238671875,13.7159296875,10.104078125,2.696625,3.5354453125,6.1918046875,9.0676171875,6.95140234375,14.438078125,5.1169375,7.6503046875,8.8753203125,10.74653125,-0.321722656249998,8.043453125,9.02619140625,12.45208984375,10.86373046875,9.760484375,4.5245078125,5.33545703125,8.10408203125
10.58045703125,13.05155859375,14.07436328125,8.266171875,13.0335625,17.10374609375,5.7375234375,8.74336328125,13.53438671875,15.8469296875,12.625078125,8.163625,4.1194453125,6.3038046875,12.0766171875,9.55240234375,15.153078125,4.9409375,7.5273046875,10.9513203125,11.08953125,-1.15972265625,7.540453125,9.59819140625,13.31408984375,10.63773046875,10.280484375,4.3555078125,6.32945703125,9.88508203125
12.58845703125,15.00655859375,15.96336328125,7.878171875,14.7795625,19.41774609375,8.3305234375,9.39436328125,13.32038671875,17.2119296875,14.319078125,13.712625,4.4404453125,5.5538046875,13.9156171875,11.12940234375,15.255078125,4.2029375,6.7803046875,11.9423203125,10.67253125,-2.17772265625,6.159453125,9.13419140625,13.13608984375,9.70373046875,9.892484375,3.4175078125,6.36445703125,10.96408203125
13.06845703125,15.58155859375,15.78536328125,6.065171875,15.6685625,20.52474609375,10.1615234375,8.74436328125,12.05838671875,17.5289296875,14.432078125,17.097625,4.5634453125,3.9298046875,13.9886171875,10.87440234375,14.625078125,2.8399375,5.3893046875,11.2473203125,9.13853125,-3.27772265625,3.930453125,7.38019140625,11.55508984375,7.79073046875,8.375484375,1.8855078125,5.26945703125,10.90508203125
12.40245703125,15.04255859375,13.89336328125,3.935171875,15.7885625,20.25074609375,10.6375234375,6.61436328125,10.38138671875,16.9329296875,12.826078125,16.892625,4.7294453125,1.8248046875,12.3686171875,8.67940234375,13.310078125,1.0529375,3.6063046875,8.9263203125,6.56653125,-4.33072265625,1.251453125,4.59619140625,8.72008984375,4.98873046875,5.992484375,0.1655078125,3.33845703125,9.72408203125
11.49645703125,14.16855859375,11.36636328125,2.930171875,15.5865625,18.95874609375,9.7485234375,3.35936328125,9.06138671875,15.8949296875,10.036078125,13.093625,5.2514453125,-0.1081953125,9.7716171875,5.17240234375,11.527078125,-0.735062500000001,1.8913046875,5.6923203125,3.49053125,-5.13672265625,-1.198546875,1.53719140625,5.28508984375,1.80173046875,3.483484375,-1.1384921875,1.32145703125,7.96608203125
11.29745703125,13.78155859375,9.43736328125,4.106171875,15.4795625,17.22974609375,7.8515234375,-0.34763671875,8.60138671875,14.8509296875,6.876078125,7.005625,6.2554453125,-1.3291953125,7.0956171875,1.31540234375,9.444078125,-2.1250625,0.6143046875,2.4633203125,0.556531250000001,-5.52372265625,-2.815546875,-0.95980859375,2.02108984375,-1.16726953125,1.663484375,-1.4984921875,0.0474570312499996,6.39108203125
12.28545703125,14.23655859375,8.84136328125,7.559171875,15.5005625,15.43374609375,5.3155234375,-3.79263671875,9.02038671875,13.8799296875,3.925078125,0.473624999999999,7.5374453125,-1.7031953125,4.9056171875,-2.14659765625,6.990078125,-2.9710625,-0.1896953125,-0.1736796875,-1.86446875,-5.45072265625,-3.386546875,-2.45080859375,-0.64291015625,-3.59726953125,0.948484375000001,-0.760492187499999,-0.02554296875,5.51808203125
14.35245703125,15.35455859375,9.57636328125,12.460171875,15.3525625,13.63174609375,2.3625234375,-6.35563671875,10.03738671875,12.7399296875,1.339078125,-4.934375,8.7744453125,-1.4221953125,3.2716171875,-4.93259765625,3.966078125,-3.2790625,-0.7296953125,-2.1266796875,-3.73346875,-4.92372265625,-3.060546875,-2.99680859375,-2.69591015625,-5.49426953125,1.245484375,0.873507812500001,1.07545703125,5.47108203125
17.03545703125,16.71955859375,11.11636328125,17.582171875,14.7525625,11.76574609375,-0.8514765625,-7.63263671875,11.43238671875,11.1789296875,-0.986921875,-8.374375,9.8624453125,-0.7051953125,1.9626171875,-7.12659765625,0.360078125,-2.9570625,-1.1666953125,-3.6066796875,-5.13846875,-3.85572265625,-2.064546875,-2.91980859375,-4.27991015625,-6.91926953125,2.200484375,3.0915078125,3.03645703125,6.13208203125
19.75045703125,17.93055859375,12.74636328125,21.852171875,13.6505625,9.77974609375,-4.1314765625,-7.62163671875,13.15538671875,9.1289296875,-3.252921875,-9.783375,10.9744453125,0.3438046875,0.6506171875,-9.00859765625,-3.500921875,-1.7760625,-1.4886953125,-4.9096796875,-6.12946875,-2.12172265625,-0.550546875,-2.56380859375,-5.46991015625,-7.78426953125,3.426484375,5.6035078125,5.43345703125,7.32408203125
21.85645703125,18.61455859375,13.76536328125,24.619171875,12.1635625,7.57374609375,-7.2634765625,-6.78063671875,15.11838671875,6.6559296875,-5.705921875,-9.707375,12.2974453125,1.6168046875,-0.9873828125,-10.94659765625,-7.074921875,0.386937499999999,-1.6566953125,-6.3226796875,-6.73046875,0.215277343750001,1.333453125,-2.21680859375,-6.25891015625,-7.88126953125,4.573484375,8.1005078125,7.79345703125,8.84708203125
22.68945703125,18.41355859375,13.64736328125,25.675171875,10.4145625,4.98374609375,-10.0934765625,-5.80163671875,16.96538671875,3.8579296875,-8.575921875,-8.994375,13.8054453125,2.8758046875,-3.1693828125,-13.26459765625,-9.808921875,3.3289375,-1.7246953125,-8.0396796875,-6.96246875,2.81427734375,3.361453125,-2.06780859375,-6.60691015625,-6.98026953125,5.373484375,10.2385078125,9.68245703125,10.51908203125
21.71645703125,17.07255859375,12.18336328125,25.136171875,8.4465625,1.87974609375,-12.6164765625,-5.24263671875,18.06438671875,0.8209296875,-11.956921875,-8.491375,15.2384453125,3.7558046875,-5.8783828125,-16.06759765625,-11.280921875,6.5139375,-1.8376953125,-10.0476796875,-6.82246875,5.15227734375,5.255453125,-2.14180859375,-6.47291015625,-4.92826953125,5.729484375,11.7275078125,10.84745703125,12.22808203125
18.70845703125,14.52455859375,9.51236328125,23.283171875,6.1955625,-1.77225390625,-15.0274765625,-5.32963671875,17.70738671875,-2.3970703125,-15.766921875,-8.898375,16.2264453125,3.8328046875,-8.8933828125,-19.20359765625,-11.318921875,9.1849375,-2.2036953125,-12.1516796875,-6.31946875,6.67427734375,6.683453125,-2.36480859375,-5.89691015625,-1.79326953125,5.690484375,12.3725078125,11.26245703125,13.88308203125
13.88445703125,10.92955859375,6.02936328125,20.454171875,3.5325625,-5.90925390625,-17.6504765625,-6.00963671875,15.44938671875,-5.7690703125,-19.813921875,-10.675375,16.4104453125,2.7408046875,-11.9383828125,-22.36559765625,-10.049921875,10.5419375,-3.0666953125,-14.1306796875,-5.55846875,6.91627734375,7.261453125,-2.71880859375,-5.10091015625,1.97973046875,5.313484375,12.0435078125,11.02445703125,15.29608203125
7.99745703125,6.73955859375,2.31336328125,17.086171875,0.4545625,-10.28625390625,-20.6774765625,-7.07463671875,11.47638671875,-9.1790703125,-23.773921875,-13.793375,15.6114453125,0.406804687499999,-14.7493828125,-25.11959765625,-7.782921875,10.0599375,-4.5676953125,-15.7916796875,-4.68546875,5.69427734375,6.704453125,-3.24680859375,-4.40491015625,5.65373046875,4.655484375,10.7605078125,10.32645703125,16.21108203125
2.25945703125,2.74555859375,-0.925636718750001,13.778171875,-2.7154375,-14.35225390625,-23.8654765625,-8.26963671875,6.74338671875,-12.2690703125,-27.086921875,-17.459375,13.9804453125,-2.7231953125,-16.9873828125,-26.86259765625,-4.809921875,7.8119375,-6.5256953125,-16.8746796875,-3.70246875,3.31627734375,5.083453125,-3.87280859375,-3.95591015625,8.53373046875,3.912484375,8.8635078125,9.52045703125,16.49108203125
-2.03754296875,-0.135441406249999,-3.04463671875,11.140171875,-5.3684375,-17.34625390625,-26.4994765625,-9.40463671875,2.62138671875,-14.4990703125,-29.040921875,-20.255375,11.9144453125,-5.7721953125,-18.2643828125,-26.94059765625,-1.385921875,4.4959375,-8.4276953125,-17.0396796875,-2.42946875,0.506277343750002,2.888453125,-4.32180859375,-3.60191015625,10.24373046875,3.449484375,6.9625078125,9.02945703125,16.21808203125
-4.04454296875,-1.31944140625,-3.74863671875,9.508171875,-6.9484375,-18.66625390625,-27.7194765625,-10.42763671875,0.208386718749999,-15.4540703125,-29.088921875,-20.785375,9.7794453125,-7.8541953125,-18.3333828125,-24.97359765625,2.096078125,1.0659375,-9.7086953125,-16.0626796875,-0.711468749999999,-1.98072265625,0.780453125,-4.30080859375,-3.07191015625,10.73173046875,3.575484375,5.5565078125,9.04445703125,15.55608203125
-3.62054296875,-0.819441406249998,-3.15863671875,8.854171875,-7.2254375,-18.14025390625,-26.8924765625,-11.35363671875,-0.13061328125,-15.0550703125,-27.099921875,-18.329375,7.7704453125,-8.4521953125,-17.2073828125,-21.07359765625,5.055078125,-1.6690625,-10.0166953125,-13.9916796875,1.39653125,-3.71372265625,-0.685546875,-3.67680859375,-2.18091015625,10.17173046875,4.333484375,4.6915078125,9.34245703125,14.61408203125
-1.18254296875,0.956558593750003,-1.51263671875,9.029171875,-6.2444375,-15.93625390625,-23.7864765625,-12.03463671875,1.33238671875,-13.4400703125,-23.279921875,-13.031375,6.0784453125,-7.4391953125,-15.0013828125,-15.71659765625,6.993078125,-3.1550625,-9.1936953125,-11.0346796875,3.70353125,-4.59472265625,-1.106546875,-2.42880859375,-0.81591015625,8.94973046875,5.556484375,4.0335078125,9.49545703125,13.48608203125
2.58045703125,3.56055859375,1.09736328125,10.028171875,-4.1524375,-12.33425390625,-18.5954765625,-12.01363671875,4.07738671875,-10.7500703125,-17.972921875,-5.701375,5.0714453125,-4.9111953125,-11.7613828125,-9.48259765625,7.860078125,-3.0470625,-7.1556953125,-7.3806796875,6.07453125,-4.64572265625,-0.184546875,-0.51580859375,1.16308984375,7.65073046875,7.057484375,3.2245078125,9.23245703125,12.35708203125
6.80345703125,6.58755859375,4.61436328125,11.927171875,-1.1754375,-7.70125390625,-11.9354765625,-10.66063671875,7.57638671875,-7.1190703125,-11.649921875,2.410625,5.1614453125,-1.1381953125,-7.5493828125,-2.96659765625,8.107078125,-1.2560625,-3.9516953125,-3.2216796875,8.45253125,-3.91772265625,2.162453125,2.04219140625,3.83408984375,6.86973046875,8.657484375,2.1395078125,8.58145703125,11.44208203125
10.48045703125,9.56155859375,8.71636328125,14.587171875,2.2825625,-2.59625390625,-4.7744765625,-7.54863671875,11.31838671875,-2.8390703125,-4.998921875,9.836625,6.4694453125,3.3868046875,-2.6753828125,3.19940234375,8.405078125,1.9189375,0.0843046875000002,1.1163203125,10.77953125,-2.54572265625,5.630453125,5.00219140625,7.04308984375,6.97873046875,10.118484375,0.910507812500001,7.76345703125,10.86708203125
12.71545703125,11.98055859375,12.74336328125,17.495171875,5.6835625,2.29574609375,1.8395234375,-2.83963671875,14.81538671875,1.5869296875,1.175078125,15.301625,8.6964453125,8.0038046875,2.2606171875,8.44140234375,9.306078125,5.8299375,4.3343046875,5.1783203125,13.00153125,-0.766722656249998,9.559453125,7.90919140625,10.40508984375,8.06273046875,11.181484375,-0.141492187499999,7.07245703125,10.68008203125
13.10345703125,13.52955859375,15.93236328125,19.902171875,8.5205625,6.40174609375,7.1095234375,2.57536328125,17.65238671875,5.5549296875,6.211078125,18.177625,11.2684453125,12.0428046875,6.5626171875,12.43340234375,11.003078125,9.6979375,8.0903046875,8.5483203125,15.13853125,1.13227734375,13.155453125,10.29919140625,13.46808984375,10.00273046875,11.694484375,-0.649492187499999,6.81045703125,10.94108203125
11.89745703125,14.15855859375,17.68036328125,21.115171875,10.4345625,9.39074609375,10.6405234375,7.33436328125,19.48638671875,8.4889296875,9.739078125,18.595625,13.5614453125,14.9238046875,9.6056171875,15.11240234375,13.232078125,12.8069375,10.6993046875,10.9283203125,17.22753125,2.83327734375,15.688453125,11.82319140625,15.81908984375,12.49473046875,11.614484375,-0.446492187499999,7.12745703125,11.67008203125
9.82245703125,13.95655859375,17.69236328125,20.792171875,11.2255625,11.13474609375,12.3775234375,10.22936328125,20.06038671875,9.9579296875,11.640078125,17.149625,15.0464453125,16.2158046875,10.9326171875,16.51440234375,15.364078125,14.6289375,11.6533046875,12.1113203125,19.17153125,4.02227734375,16.644453125,12.24819140625,17.09708984375,15.03873046875,10.897484375,0.2385078125,7.84645703125,12.69008203125
7.75245703125,13.09155859375,16.11736328125,19.149171875,10.9405625,11.71574609375,12.5235234375,10.83236328125,19.36138671875,9.8579296875,12.030078125,14.587625,15.4664453125,15.7988046875,10.4226171875,16.72440234375,16.727078125,14.9949375,10.7753046875,12.0403203125,20.75653125,4.55227734375,15.909453125,11.53819140625,17.10408984375,17.10073046875,9.532484375,0.908507812500001,8.53145703125,13.64908203125
6.45045703125,11.88755859375,13.62436328125,16.931171875,9.9765625,11.48174609375,11.5235234375,9.66436328125,17.79038671875,8.5709296875,11.313078125,11.726625,14.9814453125,14.0458046875,8.4646171875,15.99240234375,16.975078125,14.2249375,8.4473046875,10.9613203125,21.83653125,4.63927734375,13.938453125,9.99719140625,16.00708984375,18.39673046875,7.715484375,1.1925078125,8.81445703125,14.27208203125
6.34345703125,10.79855859375,11.19736328125,15.050171875,8.9655625,10.93374609375,9.9625234375,7.73736328125,16.02938671875,6.8389296875,10.077078125,9.378625,14.0704453125,11.7288046875,5.8766171875,14.76340234375,16.189078125,12.9639375,5.5353046875,9.3943203125,22.42353125,4.77327734375,11.602453125,8.23119140625,14.33408984375,18.97373046875,5.900484375,1.1005078125,8.64845703125,14.54408203125
7.36145703125,10.17755859375,9.65936328125,14.094171875,8.4145625,10.40774609375,8.3285234375,5.82236328125,14.63738671875,5.3509296875,8.783078125,8.112625,13.1924453125,9.6138046875,3.5026171875,13.47440234375,14.661078125,11.7699375,2.9873046875,7.8613203125,22.56653125,5.36327734375,9.763453125,6.85219140625,12.68008984375,18.99773046875,4.581484375,0.945507812500001,8.27045703125,14.62208203125
9.01445703125,10.10155859375,9.30236328125,14.079171875,8.4415625,9.90174609375,6.8475234375,4.03836328125,13.78838671875,4.4279296875,7.566078125,8.061625,12.5334453125,8.1268046875,1.8696171875,12.37840234375,12.664078125,10.8469375,1.4323046875,6.6573203125,22.25553125,6.46527734375,8.913453125,6.21919140625,11.43008984375,18.55273046875,4.078484375,1.1285078125,8.02845703125,14.66908203125
10.71245703125,10.46555859375,9.92136328125,14.603171875,8.8265625,9.24274609375,5.5295234375,1.99836328125,13.38338671875,4.0499296875,6.359078125,8.996625,12.0404453125,7.3528046875,1.1486171875,11.56640234375,10.413078125,10.1449375,1.1023046875,5.8873203125,21.50753125,7.88027734375,9.145453125,6.45319140625,10.75008984375,17.67073046875,4.519484375,2.0135078125,8.26845703125,14.81508203125
12.06445703125,11.12655859375,11.06736328125,15.172171875,9.2605625,8.37374609375,4.3385234375,-0.67063671875,13.32538671875,4.0639296875,5.141078125,10.506625,11.6084453125,7.2098046875,1.2936171875,11.05440234375,8.122078125,9.6119375,1.9373046875,5.5963203125,20.48853125,9.40527734375,10.291453125,7.52519140625,10.69208984375,16.46773046875,5.892484375,3.8435078125,9.22145703125,15.17208203125
12.91845703125,11.90055859375,12.22736328125,15.409171875,9.5055625,7.42774609375,3.3095234375,-3.87463671875,13.60138671875,4.3029296875,4.009078125,12.042625,11.1664453125,7.5318046875,2.1096171875,10.75640234375,5.995078125,9.2739375,3.6403046875,5.7853203125,19.45853125,10.93727734375,11.991453125,9.25019140625,11.20008984375,15.14273046875,8.004484375,6.6065078125,10.84845703125,15.76408203125
13.24845703125,12.51255859375,12.93936328125,15.136171875,9.4585625,6.63874609375,2.5835234375,-6.94563671875,14.18338671875,4.6279296875,3.121078125,12.937625,10.6954453125,8.1018046875,3.3006171875,10.47040234375,4.219078125,9.1789375,5.7253046875,6.3743203125,18.63453125,12.41227734375,13.751453125,11.26419140625,12.08808984375,13.90173046875,10.446484375,9.9665078125,12.78445703125,16.46208203125
13.10945703125,12.72755859375,12.94736328125,14.406171875,9.2045625,6.28274609375,2.4005234375,-8.96963671875,14.94238671875,4.9889296875,2.662078125,12.621625,10.2694453125,8.7498046875,4.6186171875,10.03940234375,3.005078125,9.3869375,7.7063046875,7.2773203125,18.15553125,13.75127734375,15.132453125,13.17219140625,13.14108984375,12.93973046875,12.745484375,13.3765078125,14.53145703125,17.06708203125
12.64645703125,12.53255859375,12.32736328125,13.458171875,9.0025625,6.61674609375,3.0105234375,-9.35263671875,15.60238671875,5.4659296875,2.824078125,10.930625,10.0684453125,9.4398046875,5.9916171875,9.52140234375,2.555078125,9.9739375,9.2893046875,8.4683203125,18.07053125,14.84427734375,15.927453125,14.73419140625,14.22108984375,12.40773046875,14.558484375,16.2575078125,15.70045703125,17.41708203125
11.99745703125,12.10155859375,11.41236328125,12.564171875,9.1135625,7.73174609375,4.4675234375,-8.22363671875,15.73838671875,6.1569296875,3.663078125,8.213625,10.2254453125,10.1908046875,7.4356171875,9.11540234375,2.866078125,10.9319375,10.3653046875,9.8713203125,18.26053125,15.52827734375,16.144453125,15.85419140625,15.20208984375,12.28673046875,15.679484375,18.0765078125,16.07645703125,17.39108203125
11.19145703125,11.61355859375,10.59136328125,11.884171875,9.6455625,9.41774609375,6.4975234375,-6.30963671875,14.92038671875,7.0459296875,4.980078125,5.174625,10.6574453125,10.9528046875,8.8736171875,8.94340234375,3.606078125,12.0669375,10.8793046875,11.2293203125,18.41053125,15.64427734375,15.868453125,16.46419140625,15.86508984375,12.31873046875,15.953484375,18.4195078125,15.56645703125,16.87608203125
10.23445703125,11.19655859375,10.19936328125,11.485171875,10.5935625,11.29474609375,8.5755234375,-4.36863671875,13.09238671875,8.0499296875,6.443078125,2.637625,11.1064453125,11.6618046875,10.1426171875,8.99940234375,4.323078125,13.1159375,10.8293046875,12.2143203125,18.22953125,15.25827734375,15.258453125,16.53619140625,15.99908984375,12.21273046875,15.346484375,17.2385078125,14.27345703125,15.88908203125
9.32645703125,11.01255859375,10.51636328125,11.422171875,11.9945625,13.07074609375,10.1935234375,-2.70063671875,10.87538671875,9.1599296875,7.834078125,1.333625,11.3544453125,12.3848046875,11.1436171875,9.27240234375,4.803078125,13.9769375,10.3803046875,12.6923203125,17.74153125,14.82327734375,14.608453125,16.22319140625,15.61308984375,11.93373046875,14.088484375,15.0585078125,12.60545703125,14.70908203125
8.91245703125,11.25355859375,11.66936328125,11.718171875,13.9255625,14.61774609375,11.0495234375,-1.16063671875,9.38538671875,10.4249296875,9.104078125,1.689625,11.3454453125,13.3188046875,11.8766171875,9.81040234375,5.185078125,14.7659375,9.8513046875,12.8033203125,17.27253125,14.99327734375,14.271453125,15.82519140625,14.94308984375,11.72273046875,12.619484375,12.8135078125,11.14245703125,13.75908203125
9.45445703125,11.98255859375,13.46036328125,12.293171875,16.3135625,15.82974609375,11.1065234375,0.448363281250001,9.59138671875,11.7749296875,10.208078125,3.661625,11.1454453125,14.5968046875,12.3166171875,10.60540234375,5.737078125,15.6309375,9.5293046875,12.7563203125,17.13653125,16.17327734375,14.434453125,15.58819140625,14.21808984375,11.78973046875,11.335484375,11.3105078125,10.28645703125,13.27708203125
11.15245703125,13.09055859375,15.37936328125,13.024171875,18.8665625,16.56774609375,10.6005234375,2.09736328125,11.77338671875,12.9729296875,11.029078125,6.770625,10.8954453125,16.1958046875,12.3926171875,11.56140234375,6.610078125,16.6199375,9.5853046875,12.6643203125,17.37153125,18.21527734375,15.038453125,15.58419140625,13.51208984375,12.08473046875,10.432484375,10.8055078125,10.05145703125,13.12208203125
13.84545703125,14.43255859375,16.86736328125,13.871171875,21.2235625,16.81374609375,9.9975234375,3.58936328125,15.43738671875,13.8189296875,11.517078125,10.314625,10.8064453125,18.0448046875,12.1676171875,12.60840234375,7.774078125,17.7129375,10.1533046875,12.6063203125,17.78653125,20.51527734375,15.934453125,15.82419140625,12.84808984375,12.36273046875,9.997484375,10.9925078125,10.18945703125,12.92808203125
17.07945703125,15.92755859375,17.60936328125,14.878171875,23.1385625,16.77974609375,9.8395234375,4.76936328125,19.62438671875,14.3369296875,11.828078125,13.524625,11.0834453125,20.1168046875,11.9536171875,13.79140234375,9.063078125,18.8739375,11.3773046875,12.7403203125,18.14153125,22.33227734375,17.047453125,16.35919140625,12.32708984375,12.37473046875,10.126484375,11.3135078125,10.44045703125,12.38108203125
20.24345703125,17.46955859375,17.63336328125,16.033171875,24.4685625,16.78274609375,10.4735234375,5.62636328125,23.29238671875,14.7259296875,12.241078125,15.634625,11.7414453125,22.3488046875,12.1696171875,15.17540234375,10.204078125,19.9859375,13.2803046875,13.2633203125,18.25353125,23.13027734375,18.359453125,17.23519140625,12.09908984375,11.96373046875,10.889484375,11.3035078125,10.68345703125,11.38108203125
22.76145703125,18.84355859375,17.24036328125,17.222171875,25.0915625,17.00874609375,11.8715234375,6.25636328125,25.67338671875,15.1589296875,12.970078125,16.044625,12.5504453125,24.5378046875,13.0856171875,16.70040234375,10.900078125,20.8189375,15.6313046875,14.2843203125,18.04053125,22.82427734375,19.827453125,18.40419140625,12.26108984375,11.11073046875,12.251484375,10.8615078125,10.98345703125,10.09208203125
24.27345703125,19.80355859375,16.85936328125,18.340171875,24.9025625,17.41974609375,13.6555234375,6.78036328125,26.49938671875,15.6479296875,14.054078125,14.637625,13.2154453125,26.3688046875,14.6656171875,18.17340234375,10.999078125,21.1379375,17.9833046875,15.7503203125,17.57653125,21.86127734375,21.359453125,19.74719140625,12.84008984375,10.00973046875,14.091484375,10.3415078125,11.58745703125,8.93608203125
24.65145703125,20.17555859375,16.81336328125,19.367171875,23.8555625,17.77374609375,15.2845234375,7.25536328125,25.96938671875,15.9959296875,15.301078125,11.960625,13.5594453125,27.5098046875,16.5386171875,19.30240234375,10.571078125,20.8339375,19.8003046875,17.3883203125,17.04753125,20.99927734375,22.776453125,21.07619140625,13.77508984375,9.03273046875,16.212484375,10.3155078125,12.76245703125,8.43608203125
23.85945703125,19.85055859375,17.05636328125,20.327171875,21.9965625,17.67174609375,16.2685234375,7.63636328125,24.46938671875,15.8339296875,16.285078125,9.024625,13.5394453125,27.6658046875,18.0396171875,19.71240234375,9.800078125,19.9219375,20.5613046875,18.6703203125,16.57253125,20.83427734375,23.734453125,22.06519140625,14.83308984375,8.52473046875,18.250484375,11.1285078125,14.51545703125,8.91408203125
21.88545703125,18.76955859375,17.16336328125,21.209171875,19.5165625,16.73274609375,16.3875234375,7.83936328125,22.33238671875,14.7909296875,16.505078125,6.858625,13.1774453125,26.6818046875,18.4436171875,19.05840234375,8.860078125,18.5269375,19.9053046875,18.9603203125,16.10453125,21.48427734375,23.783453125,22.28019140625,15.61008984375,8.62673046875,19.686484375,12.6385078125,16.49345703125,10.30408203125
18.92345703125,17.06855859375,16.66736328125,21.987171875,16.8685625,14.90074609375,15.8665234375,7.83536328125,19.84738671875,12.7929296875,15.748078125,6.158625,12.5924453125,24.7208046875,17.3776171875,17.30040234375,7.943078125,16.9479375,17.8683046875,17.8963203125,15.57153125,22.68127734375,22.659453125,21.43619140625,15.77008984375,9.34373046875,20.097484375,14.3885078125,18.22245703125,12.28108203125
15.52845703125,15.15855859375,15.43236328125,22.613171875,14.7075625,12.59174609375,15.3025234375,7.66236328125,17.35638671875,10.1979296875,14.324078125,7.099625,12.0354453125,22.3138046875,15.0926171875,14.88840234375,7.312078125,15.6519375,14.9783046875,15.6883203125,15.06353125,24.05327734375,20.544453125,19.65819140625,15.27808984375,10.68373046875,19.413484375,15.9445078125,19.41945703125,14.49808203125
12.47545703125,13.51455859375,13.69036328125,22.933171875,13.5525625,10.44274609375,15.3035234375,7.35236328125,15.17838671875,7.5819296875,12.875078125,9.288625,11.7584453125,20.0938046875,12.2916171875,12.58440234375,7.218078125,15.0299375,12.0063046875,12.9983203125,14.78953125,25.27427734375,17.977453125,17.40219140625,14.35108984375,12.61673046875,17.895484375,17.0115078125,20.03545703125,16.64108203125
10.38845703125,12.35355859375,11.82136328125,22.664171875,13.4105625,8.87074609375,16.0795234375,6.95736328125,13.45838671875,5.3519296875,11.937078125,11.915625,11.8224453125,18.4368046875,9.6886171875,11.07440234375,7.746078125,15.1219375,9.5823046875,10.5393203125,14.89353125,26.05427734375,15.550453125,15.16819140625,13.23708984375,14.94573046875,15.907484375,17.3975078125,20.08645703125,18.35708203125
9.52845703125,11.59555859375,10.19236328125,21.594171875,13.8055625,7.90774609375,17.3605234375,6.71436328125,12.19638671875,3.6139296875,11.716078125,14.221625,12.1264453125,17.3998046875,7.7336171875,10.76040234375,8.848078125,15.6619375,8.0483046875,8.8073203125,15.42453125,26.20427734375,13.739453125,13.34219140625,12.13408984375,17.36673046875,13.837484375,17.0665078125,19.63545703125,19.33808203125
9.85345703125,11.13055859375,9.16636328125,19.875171875,14.1755625,7.40374609375,18.6765234375,7.14536328125,11.46538671875,2.3479296875,12.189078125,15.998625,12.6084453125,16.9678046875,6.6406171875,11.80340234375,10.494078125,16.3969375,7.5933046875,8.0783203125,16.44753125,25.77627734375,12.918453125,12.24819140625,11.29208984375,19.68573046875,12.159484375,16.2805078125,18.92445703125,19.53108203125
11.13145703125,11.01355859375,9.03436328125,18.055171875,14.2415625,7.25374609375,19.7055234375,8.83936328125,11.47738671875,1.5889296875,13.245078125,17.627625,13.3184453125,17.2068046875,6.4546171875,14.13040234375,12.697078125,17.2869375,8.3253046875,8.4173203125,18.00553125,25.04327734375,13.314453125,12.12719140625,10.98208984375,21.84373046875,11.365484375,15.4985078125,18.34845703125,19.16708203125
12.97245703125,11.35455859375,9.82136328125,16.799171875,14.0465625,7.41774609375,20.4175234375,12.03536328125,12.38638671875,1.4039296875,14.662078125,19.594625,14.2764453125,18.1438046875,7.0036171875,17.32140234375,15.345078125,18.3769375,10.1143046875,9.5753203125,19.89053125,24.27127734375,14.810453125,12.96319140625,11.25708984375,23.69673046875,11.671484375,15.0065078125,18.18945703125,18.53008203125
14.86945703125,12.12655859375,11.19736328125,16.522171875,13.7815625,7.86174609375,21.0145234375,16.35536328125,14.02438671875,1.7909296875,16.084078125,21.972625,15.3394453125,19.5588046875,7.8996171875,20.59540234375,18.059078125,19.5849375,12.4753046875,10.9773203125,21.52253125,23.56627734375,16.862453125,14.38219140625,11.79108984375,24.83373046875,12.814484375,14.6535078125,18.37145703125,17.73108203125
16.35145703125,13.12955859375,12.62336328125,17.212171875,13.6065625,8.55674609375,21.7665234375,20.91536328125,15.86938671875,2.6399296875,17.127078125,24.328625,16.2504453125,20.9648046875,8.7066171875,23.05640234375,20.263078125,20.6429375,14.6773046875,11.9333203125,22.12753125,22.91127734375,18.663453125,15.79519140625,11.99508984375,24.67673046875,14.145484375,13.9705078125,18.50045703125,16.68108203125
17.11445703125,14.04755859375,13.57536328125,18.452171875,13.5445625,9.44274609375,22.7965234375,24.66736328125,17.25538671875,3.7399296875,17.513078125,25.995625,16.7554453125,21.7478046875,9.1036171875,23.98340234375,21.340078125,21.1769375,15.9903046875,11.8873203125,21.04753125,22.24227734375,19.424453125,16.59919140625,11.27708984375,22.72073046875,14.876484375,12.4745078125,18.02545703125,15.13908203125
17.06645703125,14.54055859375,13.70936328125,19.639171875,13.4755625,10.37174609375,23.9575234375,26.76036328125,17.69438671875,4.7899296875,17.122078125,26.396625,16.6744453125,21.3828046875,8.9396171875,22.99240234375,20.795078125,20.8259375,15.9063046875,10.5653203125,17.96653125,21.43527734375,18.583453125,16.31119140625,9.22908984375,18.70873046875,14.309484375,9.8935078125,16.41645703125,12.74108203125
16.35145703125,14.43255859375,13.01336328125,20.365171875,13.3045625,11.18174609375,24.9525234375,26.86636328125,17.19838671875,5.5449296875,16.058078125,25.292625,16.0084453125,19.7278046875,8.2756171875,20.15640234375,18.458078125,19.4479375,14.3553046875,8.0803203125,13.09453125,20.35327734375,16.025453125,14.73519140625,5.82108984375,12.82573046875,12.103484375,6.3185078125,13.39645703125,9.19308203125
15.39145703125,13.93955859375,11.93136328125,20.763171875,13.2275625,11.93074609375,25.6285234375,25.39036328125,16.38838671875,6.0509296875,14.777078125,22.940625,15.0724453125,17.2678046875,7.4906171875,16.12840234375,14.701078125,17.3739375,11.8823046875,5.0663203125,7.30253125,19.01227734375,12.293453125,12.19119140625,1.62008984375,5.88773046875,8.559484375,2.2975078125,9.23945703125,4.64708203125
14.76445703125,13.65855859375,11.23836328125,21.502171875,13.7505625,12.97474609375,26.1705234375,23.35236328125,16.20238671875,6.7079296875,14.030078125,20.057625,14.4454453125,15.0198046875,7.2306171875,12.07040234375,10.414078125,15.4089375,9.5463046875,2.5843203125,1.99553125,17.71827734375,8.516453125,9.54019140625,-2.24391015625,-0.71426953125,4.655484375,-1.2624921875,4.83545703125,-0.0879179687500002
14.90145703125,14.17855859375,11.60336328125,23.333171875,15.3505625,14.68474609375,26.9735234375,21.86736328125,17.32938671875,7.9989296875,14.499078125,17.553625,14.6484453125,14.0458046875,8.0596171875,9.22740234375,6.599078125,14.4509375,8.4233046875,1.6693203125,-1.41546875,16.94727734375,5.930453125,7.81019140625,-4.51191015625,-5.50626953125,1.614484375,-3.4834921875,1.30245703125,-3.83591796875
15.82845703125,15.66255859375,13.17536328125,26.567171875,18.0735625,17.07774609375,28.3595234375,21.52236328125,19.82338671875,10.1289296875,16.389078125,16.216625,15.8094453125,14.9158046875,10.0956171875,8.41040234375,3.919078125,14.9949375,9.0683046875,2.8123203125,-2.11846875,17.10027734375,5.300453125,7.67019140625,-4.39391015625,-7.55326953125,0.308484375,-3.9364921875,-0.59054296875,-5.63191796875
17.24145703125,17.82055859375,15.58036328125,30.884171875,21.4775625,19.76574609375,30.4095234375,22.10436328125,23.23038671875,12.9109296875,19.362078125,16.538625,17.6404453125,17.5598046875,12.9736171875,9.78040234375,2.547078125,16.9639375,11.3583046875,5.8003203125,-0.165468749999999,18.37027734375,6.685453125,9.19519140625,-1.83591015625,-6.73426953125,0.962484375,-2.7604921875,-0.69554296875,-5.10991796875
18.79245703125,20.18155859375,18.23136328125,35.496171875,24.9105625,22.21274609375,32.9535234375,22.85936328125,26.97538671875,15.9179296875,22.785078125,18.634625,19.6734453125,21.4718046875,16.1056171875,12.95440234375,2.346078125,19.8849375,14.7423046875,9.9463203125,3.70953125,20.73427734375,9.593453125,11.98519140625,2.60208984375,-3.58626953125,3.236484375,-0.460492187499999,0.653457031249999,-2.51891796875
20.25045703125,22.29255859375,20.57336328125,39.419171875,27.7665625,23.94674609375,35.6015234375,23.08036328125,30.55038671875,18.6379296875,25.981078125,22.103625,21.4384453125,25.9258046875,18.9206171875,17.19340234375,3.068078125,23.1269375,18.5113046875,14.3953203125,8.42553125,23.90727734375,13.247453125,15.35419140625,7.99708984375,1.00573046875,6.441484375,2.3315078125,2.93345703125,1.46308203125
21.42845703125,23.71255859375,22.12336328125,41.739171875,29.5775625,24.62574609375,37.8015234375,22.66836328125,33.43438671875,20.5619296875,28.350078125,25.969625,22.5264453125,30.0958046875,20.9686171875,21.55940234375,4.428078125,26.0619375,21.9513046875,18.3363203125,12.91553125,27.32727734375,16.809453125,18.50319140625,13.29908984375,6.10073046875,9.758484375,5.0535078125,5.67245703125,5.98608203125
22.08345703125,24.04655859375,22.50736328125,41.878171875,30.0625625,24.10574609375,39.0095234375,22.30736328125,35.03538671875,21.3169296875,29.513078125,28.990625,22.6534453125,33.2008046875,22.0116171875,25.15940234375,6.179078125,28.2189375,24.4793046875,21.1983203125,16.46553125,30.32627734375,19.630453125,20.76719140625,17.61908984375,10.97873046875,12.517484375,7.4145078125,8.63045703125,10.32508203125
21.93045703125,23.10655859375,21.59936328125,39.786171875,29.2015625,22.56174609375,38.9345234375,23.05536328125,34.85238671875,20.8339296875,29.447078125,30.235625,21.7484453125,34.7148046875,22.1206171875,27.43040234375,8.191078125,29.4079375,25.7933046875,22.7993203125,18.91953125,32.42727734375,21.438453125,21.87019140625,20.49508984375,15.32973046875,14.450484375,9.5225078125,11.84945703125,14.10108203125
20.70945703125,20.99355859375,19.58636328125,35.916171875,27.2195625,20.42674609375,37.6435234375,25.50636328125,32.70738671875,19.3629296875,28.413078125,29.461625,19.9114453125,34.4568046875,21.5756171875,28.20840234375,10.390078125,29.6609375,25.8663046875,23.2833203125,20.52153125,33.48127734375,22.291453125,21.93419140625,21.88508984375,19.14173046875,15.672484375,11.6875078125,15.40945703125,17.19508203125
18.28945703125,18.01355859375,16.85936328125,31.024171875,24.4625625,18.14774609375,35.4395234375,29.13336328125,28.87438671875,17.3049296875,26.695078125,27.029625,17.2574453125,32.5418046875,20.6086171875,27.54540234375,12.591078125,29.0359375,24.7963046875,22.8593203125,21.50253125,33.56927734375,22.350453125,21.23119140625,21.91608984375,22.35473046875,16.391484375,14.0145078125,19.05745703125,19.45108203125
14.82145703125,14.59055859375,13.85936328125,26.004171875,21.3205625,15.98174609375,32.6645234375,32.40436328125,24.07938671875,15.0599296875,24.428078125,23.593625,13.9014453125,29.3478046875,19.2806171875,25.57440234375,14.455078125,27.5619375,22.7313046875,21.6363203125,21.83453125,32.89227734375,21.734453125,19.99619140625,20.71308984375,24.67473046875,16.691484375,16.1705078125,22.13945703125,20.56408203125
10.86145703125,11.27055859375,10.99936328125,21.756171875,18.2335625,14.00774609375,29.5525234375,33.63636328125,19.34138671875,12.9829296875,21.679078125,19.885625,10.1054453125,25.5278046875,17.6066171875,22.55640234375,15.627078125,25.3809375,19.9693046875,19.7013203125,21.33653125,31.77527734375,20.596453125,18.44419140625,18.46308984375,25.69573046875,16.575484375,17.5415078125,23.92845703125,20.27708203125
7.22945703125,8.59855859375,8.57836328125,18.946171875,15.6315625,12.17574609375,26.1725234375,31.91136328125,15.58438671875,11.3339296875,18.576078125,16.553625,6.3164453125,21.8648046875,15.6866171875,18.92840234375,15.863078125,22.8179375,16.9573046875,17.2263203125,19.90053125,30.59427734375,19.133453125,16.79319140625,15.49808984375,25.11373046875,16.057484375,17.5395078125,23.99745703125,18.59308203125
4.59545703125,6.82255859375,6.64336328125,17.658171875,13.7285625,10.29174609375,22.4445234375,27.48536328125,13.19238671875,10.1459296875,15.279078125,13.975625,2.9494453125,18.9368046875,13.6686171875,15.16840234375,15.011078125,20.1839375,14.1033046875,14.4253203125,17.55753125,29.56327734375,17.429453125,15.15019140625,12.18708984375,22.80773046875,15.096484375,15.7785078125,22.30545703125,15.73208203125
3.11245703125,5.70755859375,4.98136328125,17.275171875,12.4045625,8.07874609375,18.3215234375,21.62536328125,11.88638671875,9.2029296875,11.935078125,12.157625,0.139445312499999,16.8838046875,11.6646171875,11.65340234375,13.018078125,17.5839375,11.5923046875,11.5053203125,14.46253125,28.57027734375,15.345453125,13.41719140625,8.80608984375,18.89273046875,13.538484375,12.1695078125,19.08945703125,12.00708203125
2.40445703125,4.73055859375,3.33536328125,16.786171875,11.3465625,5.43174609375,14.0395234375,16.05936328125,11.03338671875,8.2409296875,8.769078125,10.890625,-2.2275546875,15.5088046875,9.8206171875,8.70140234375,10.079078125,14.9639375,9.4623046875,8.7413203125,10.95653125,27.30227734375,12.669453125,11.44919140625,5.59208984375,13.86273046875,11.265484375,7.0385078125,14.80245703125,7.81808203125
1.85245703125,3.45555859375,1.65736328125,15.349171875,10.2745625,2.61374609375,10.2105234375,12.25036328125,10.10438671875,7.1719296875,6.160078125,9.992625,-4.3205546875,14.5458046875,8.3886171875,6.65640234375,6.735078125,12.3049375,7.7553046875,6.5213203125,7.58453125,25.49627734375,9.380453125,9.26519140625,2.84608984375,8.62573046875,8.386484375,1.1315078125,10.06845703125,3.70208203125
0.922457031250001,1.75655859375,0.135363281249999,12.731171875,9.0375625,0.13974609375,7.5815234375,10.76036328125,8.86338671875,6.0759296875,4.504078125,9.367625,-6.2335546875,13.7938046875,7.5976171875,5.79040234375,3.699078125,9.7009375,6.5243046875,5.1873203125,4.93553125,23.08327734375,5.721453125,7.06819140625,0.85708984375,4.24073046875,5.237484375,-4.5944921875,5.52545703125,0.23608203125
-0.583542968749999,-0.190441406249999,-0.94263671875,9.441171875,7.6105625,-1.54025390625,6.6475234375,11.05236328125,7.31438671875,5.0489296875,3.983078125,8.951625,-7.9625546875,13.1278046875,7.4766171875,6.12840234375,1.570078125,7.3329375,5.7463046875,4.8393203125,3.42353125,20.22027734375,2.116453125,5.13219140625,-0.22591015625,1.52673046875,2.265484375,-9.2354921875,1.71845703125,-2.10391796875
-2.39754296875,-1.95744140625,-1.31663671875,6.528171875,6.1105625,-2.21225390625,7.4065234375,11.87136328125,5.62338671875,4.1489296875,4.514078125,8.681625,-9.3735546875,12.5398046875,7.8516171875,7.43840234375,0.674078125,5.4689375,5.3553046875,5.3363203125,3.22253125,17.32627734375,-0.892546875000001,3.75619140625,-0.37391015625,0.84873046875,-0.0345156249999996,-12.0474921875,-0.85054296875,-2.97491796875
-3.90554296875,-3.02544140625,-0.870636718749999,5.041171875,4.7805625,-1.92325390625,9.3175234375,11.94236328125,4.04038671875,3.4249296875,5.825078125,8.488625,-10.2435546875,12.1458046875,8.4726171875,9.32940234375,1.037078125,4.4299375,5.3253046875,6.4193203125,4.26253125,15.00627734375,-2.749546875,3.21819140625,0.38608984375,2.07773046875,-1.194515625,-12.5304921875,-1.70954296875,-2.20091796875
-4.55654296875,-3.12044140625,0.18836328125,5.381171875,3.8005625,-1.02725390625,11.4015234375,10.58336328125,2.74338671875,2.8529296875,7.439078125,8.189625,-10.4765546875,12.0228046875,9.0116171875,11.24440234375,2.323078125,4.3499375,5.5743046875,7.6903203125,6.12253125,13.74127734375,-3.174546875,3.56719140625,1.84808984375,4.55473046875,-1.029515625,-10.6844921875,-0.676542968750001,0.0260820312499996
-4.28554296875,-2.52144140625,1.26936328125,6.997171875,3.0635625,-0.184253906249999,12.4895234375,7.97836328125,1.68838671875,2.2289296875,8.628078125,7.434625,-10.3295546875,11.9758046875,8.9736171875,12.41940234375,3.806078125,4.8999375,5.7943046875,8.5203203125,7.95553125,13.50827734375,-2.447546875,4.39919140625,3.44808984375,7.14373046875,0.0964843750000006,-7.2454921875,1.82145703125,2.95508203125
-3.53754296875,-1.91744140625,1.67036328125,8.732171875,2.2405625,-0.12225390625,11.6725234375,5.02336328125,0.69738671875,1.2229296875,8.592078125,5.932625,-10.3295546875,11.5838046875,7.8066171875,12.08040234375,4.597078125,5.3299375,5.4903046875,8.1873203125,8.73453125,13.72927734375,-1.360546875,4.96419140625,4.36908984375,8.60573046875,1.367484375,-3.5194921875,4.79745703125,5.46308203125
-2.89154296875,-1.89144140625,1.04736328125,9.547171875,1.0945625,-1.21025390625,8.7375234375,2.78636328125,-0.291613281249999,-0.382070312500001,6.872078125,3.781625,-10.8995546875,10.5008046875,5.2256171875,9.84840234375,4.071078125,4.8779375,4.2773046875,6.2773203125,7.75853125,13.58827734375,-0.804546875,4.60219140625,3.95408984375,8.20073046875,1.964484375,-0.841492187499999,7.17745703125,6.58908203125
-2.67454296875,-2.52544140625,-0.377636718750001,9.021171875,-0.3084375,-3.26425390625,4.2885234375,1.83736328125,-1.11061328125,-2.5280703125,3.617078125,1.511625,-12.0675546875,8.6848046875,1.4466171875,6.00540234375,2.132078125,3.1749375,2.1223046875,2.9543203125,5.01753125,12.42227734375,-1.352546875,3.09819140625,2.05008984375,6.02473046875,1.464484375,-0.0644921874999995,8.27445703125,5.95908203125
-2.82754296875,-3.42844140625,-1.99363671875,7.395171875,-1.6534375,-5.70025390625,-0.5494765625,1.97136328125,-1.51161328125,-4.9090703125,-0.481921875,-0.254375,-13.4685546875,6.3948046875,-2.8533828125,1.37940234375,-0.833921875,0.393937499999999,-0.6336953125,-1.1006796875,1.14453125,9.94127734375,-3.075546875,0.73719140625,-0.96691015625,2.86973046875,-0.0585156249999996,-1.3534921875,7.95745703125,3.84608203125
-2.95354296875,-3.96044140625,-3.07863671875,5.410171875,-2.4954375,-7.76825390625,-4.5464765625,2.56936328125,-1.30361328125,-7.0000703125,-4.404921875,-1.173375,-14.4585546875,4.1248046875,-6.6763828125,-2.92559765625,-4.131921875,-2.7800625,-3.3276953125,-4.8986796875,-2.83846875,6.39227734375,-5.493546875,-1.79580859375,-4.31991015625,-0.16126953125,-2.083515625,-4.1604921875,6.63445703125,1.00308203125
-2.38954296875,-3.37844140625,-2.89863671875,4.194171875,-2.2654375,-8.62225390625,-6.6524765625,3.26736328125,-0.317613281249999,-8.0200703125,-6.956921875,-1.228375,-14.2145546875,2.6028046875,-8.8293828125,-5.76659765625,-6.897921875,-5.2560625,-5.0036953125,-7.3356796875,-5.80046875,2.62927734375,-7.593546875,-3.52180859375,-6.95891015625,-2.05026953125,-3.700515625,-7.2974921875,5.15245703125,-1.54091796875
-0.374542968749999,-0.973441406249998,-0.777636718749999,5.063171875,-0.329437499999999,-7.40725390625,-6.1634765625,4.29036328125,1.64738671875,-7.0370703125,-7.006921875,-0.561375000000001,-11.9485546875,2.6598046875,-8.1983828125,-6.22859765625,-8.314921875,-5.8640625,-4.6286953125,-7.4326796875,-6.85446875,-0.103722656249998,-8.122546875,-3.43280859375,-7.85191015625,-2.23326953125,-3.851515625,-9.2894921875,4.50445703125,-2.82391796875
3.59345703125,3.60955859375,3.65236328125,9.028171875,3.7365625,-3.58225390625,-2.8814765625,6.21936328125,4.70638671875,-3.3720703125,-3.917921875,0.685624999999999,-7.3355546875,4.8478046875,-4.2403828125,-3.98559765625,-7.961921875,-3.9080625,-1.5886953125,-4.7576796875,-5.77346875,-0.771722656249999,-6.194546875,-0.98880859375,-6.47791015625,-0.96726953125,-1.844515625,-9.0334921875,5.32545703125,-2.41391796875
9.42545703125,10.08455859375,10.15236328125,16.218171875,9.8155625,2.72274609375,2.7985234375,9.45136328125,8.73038671875,2.9439296875,2.083078125,2.417625,-0.876554687500001,9.0738046875,2.6036171875,0.47640234375,-6.071921875,0.405937499999999,3.8653046875,0.2693203125,-3.19146875,0.857277343750001,-1.852546875,3.47019140625,-3.20691015625,0.62573046875,2.188484375,-6.3734921875,7.51445703125,-0.69691796875
16.38345703125,17.54855859375,17.80036328125,25.605171875,17.1685625,10.63774609375,9.9545234375,13.75636328125,13.33938671875,11.0229296875,9.914078125,4.600625,6.1804453125,14.5568046875,10.9596171875,6.02740234375,-3.434921875,6.0139375,10.6053046875,6.4503203125,-0.324468749999999,4.10027734375,3.869453125,8.78519140625,0.80108984375,1.04473046875,7.269484375,-2.1384921875,10.32045703125,1.31908203125
23.31145703125,24.78355859375,25.21436328125,35.230171875,24.5985625,18.78574609375,17.3505234375,18.15536328125,17.97038671875,19.3419296875,17.987078125,7.193625,12.3224453125,20.1148046875,18.9796171875,11.34940234375,-1.030921875,11.4589375,17.0353046875,12.2363203125,1.60253125,7.73027734375,9.369453125,13.43419140625,4.11808984375,-0.79326953125,11.958484375,2.3165078125,12.77645703125,2.54608203125
28.93945703125,30.55055859375,30.92436328125,42.831171875,30.7315625,25.62474609375,23.7005234375,21.24736328125,21.93538671875,26.1739296875,24.653078125,10.029625,16.3214453125,24.5268046875,24.9066171875,15.33640234375,0.347078125,15.4229375,21.6143046875,16.1953203125,1.84453125,10.53727734375,13.088453125,16.07719140625,5.59508984375,-4.95526953125,14.856484375,5.7055078125,14.10645703125,2.31408203125
32.21045703125,33.84855859375,33.80136328125,46.626171875,34.3655625,29.83174609375,27.9605234375,21.93936328125,24.54938671875,30.0939296875,28.622078125,12.779625,17.6404453125,26.8968046875,27.5746171875,17.35440234375,0.361078125000001,17.1479375,23.3363046875,17.4213203125,0.354531250000001,11.82027734375,14.069453125,15.98119140625,4.76308984375,-10.36326953125,15.061484375,7.2715078125,13.94445703125,0.60908203125
32.60545703125,34.18955859375,33.46536328125,45.992171875,34.8735625,30.74574609375,29.6215234375,20.20336328125,25.42038671875,30.4909296875,29.348078125,15.101625,16.5974453125,26.9698046875,26.7826171875,17.39240234375,-0.708921875,16.6949375,22.0993046875,15.8513203125,-2.19846875,11.67227734375,12.333453125,13.30219140625,2.02708984375,-15.13726953125,12.533484375,7.0315078125,12.43445703125,-1.92291796875
30.29545703125,31.78355859375,30.42636328125,41.663171875,32.4435625,28.62174609375,28.8105234375,17.25536328125,24.67838671875,27.7849296875,27.190078125,16.762625,14.1894453125,25.2018046875,23.3396171875,16.02040234375,-2.039921875,14.8859375,18.7423046875,12.3113203125,-4.68346875,10.90727734375,8.868453125,9.05219140625,-1.46291015625,-17.31026953125,8.154484375,5.6945078125,10.16845703125,-4.22891796875
25.94945703125,27.36555859375,25.74636328125,35.265171875,27.9085625,24.43274609375,26.0985234375,14.86136328125,22.83838671875,23.1079296875,23.124078125,17.536625,11.5314453125,22.4038046875,18.5936171875,14.00040234375,-2.695921875,12.8189375,14.5713046875,8.0993203125,-6.04546875,10.54027734375,5.088453125,4.61419140625,-4.36591015625,-15.74526953125,3.316484375,4.2185078125,7.88245703125,-5.36791796875
20.33245703125,21.80255859375,20.47236328125,28.509171875,22.2945625,19.33774609375,22.1995234375,14.22836328125,20.38638671875,17.6619296875,18.199078125,17.087625,9.2644453125,19.1888046875,13.7156171875,11.82040234375,-2.171921875,11.2319375,10.6603046875,4.3153203125,-5.85446875,11.14927734375,2.093453125,1.05519140625,-5.83491015625,-10.73126953125,-0.751515625,3.2805078125,6.08645703125,-5.00691796875
14.08445703125,15.86255859375,15.31636328125,22.609171875,16.5055625,14.30174609375,17.8365234375,15.34736328125,17.53538671875,12.2879296875,13.213078125,15.170625,7.3974453125,15.7518046875,9.3106171875,9.56240234375,-0.606921874999999,10.2599375,7.4733046875,1.4873203125,-4.42946875,12.64927734375,0.284453125,-1.22180859375,-5.79491015625,-3.81026953125,-3.387515625,3.0925078125,4.94845703125,-3.48691796875
7.82745703125,10.27955859375,10.73636328125,18.176171875,11.3055625,10.05074609375,13.7755234375,17.22636328125,14.34238671875,7.4649296875,8.756078125,12.018625,5.6784453125,12.1078046875,5.5586171875,7.18540234375,1.450078125,9.6819375,5.0373046875,-0.3346796875,-2.47946875,14.56227734375,-0.478546875,-2.31980859375,-4.70091015625,3.05573046875,-4.444515625,3.5905078125,4.48745703125,-1.44991796875
2.27745703125,5.79155859375,7.11336328125,15.354171875,7.3545625,7.10874609375,10.7555234375,18.72336328125,10.94538671875,3.5189296875,5.320078125,8.418625,4.0214453125,8.4428046875,2.5446171875,4.84240234375,3.420078125,9.2869375,3.2653046875,-1.3046796875,-0.662468749999999,16.40527734375,-0.524546875000001,-2.53180859375,-3.14491015625,8.33573046875,-4.097515625,4.6625078125,4.72845703125,0.56008203125
-1.84554296875,2.94655859375,4.74636328125,13.963171875,5.1155625,5.69574609375,9.2475234375,19.27736328125,7.64738671875,0.720929687499999,3.228078125,5.328625,2.6114453125,5.1998046875,0.3996171875,2.89040234375,4.907078125,8.9849375,2.1123046875,-1.6436796875,0.617531250000001,17.85527734375,-0.178546875000001,-2.16680859375,-1.64691015625,11.28573046875,-2.763515625,6.1245078125,5.62645703125,2.21808203125
-4.03754296875,1.91055859375,3.76036328125,13.640171875,4.7405625,5.66674609375,9.2695234375,19.11536328125,4.86638671875,-0.7110703125,2.520078125,3.425625,1.7554453125,2.9688046875,-0.722382812499999,1.72340234375,5.771078125,8.7559375,1.5683046875,-1.5746796875,1.21053125,18.72127734375,0.300453125,-1.48880859375,-0.57791015625,11.89673046875,-1.042515625,7.6145078125,6.93245703125,3.36008203125
-4.11254296875,2.51155859375,4.12436328125,14.049171875,6.0995625,6.66474609375,10.4585234375,18.90236328125,3.07238671875,-0.609070312500001,3.011078125,2.991625,1.7204453125,2.3138046875,-0.6713828125,1.62440234375,6.141078125,8.6319375,1.6863046875,-1.2146796875,1.21453125,18.93427734375,0.786453125,-0.62180859375,-0.0759101562500004,10.66773046875,0.477484375,8.6185078125,8.21545703125,3.92508203125
-2.21854296875,4.39655859375,5.70736328125,15.004171875,8.8815625,8.34174609375,12.3005234375,19.13036328125,2.66438671875,1.0889296875,4.402078125,4.018625,2.5834453125,3.5618046875,0.6346171875,2.66740234375,6.287078125,8.6829375,2.5623046875,-0.5216796875,0.884531250000001,18.53027734375,1.288453125,0.48019140625,-0.0349101562500004,8.30173046875,1.414484375,8.6155078125,8.97645703125,3.89208203125
1.18045703125,7.10955859375,8.26536328125,16.429171875,12.6185625,10.41374609375,14.3355234375,19.70336328125,3.79338671875,4.1939296875,6.317078125,6.300625,4.0844453125,6.5758046875,3.0696171875,4.60540234375,6.366078125,8.9289375,4.2033046875,0.5823203125,0.416531250000001,17.58327734375,1.822453125,1.87819140625,-0.27291015625,5.32873046875,1.637484375,7.2285078125,8.72645703125,3.14108203125
5.41045703125,10.12955859375,11.41936328125,18.290171875,16.7235625,12.63774609375,16.2785234375,20.05836328125,6.27138671875,8.2049296875,8.353078125,9.455625,5.6624453125,10.7238046875,6.2356171875,6.89840234375,6.284078125,9.2979375,6.4213046875,2.0753203125,-0.193468749999999,16.19227734375,2.331453125,3.52119140625,-0.70391015625,1.91373046875,1.228484375,4.4205078125,7.13545703125,1.45008203125
9.86445703125,13.06055859375,14.75136328125,20.611171875,20.6545625,14.88674609375,18.0945234375,19.73636328125,9.68738671875,12.4929296875,10.267078125,12.984625,6.7874453125,15.1658046875,9.6546171875,9.00540234375,5.859078125,9.7719375,8.9463046875,3.8743203125,-1.04946875,14.59227734375,2.785453125,5.30319140625,-1.28091015625,-1.98826953125,0.528484375000001,0.713507812500001,4.30845703125,-1.26491796875
14.22445703125,15.79855859375,17.94636328125,23.487171875,24.0895625,17.21774609375,19.9445234375,18.88136328125,13.58838671875,16.5529296875,12.141078125,16.340625,7.3204453125,19.2358046875,13.0276171875,10.68340234375,5.100078125,10.5219375,11.5983046875,5.9483203125,-2.13146875,13.19327734375,3.315453125,7.20819140625,-1.85091015625,-6.30626953125,0.108484375000001,-2.8434921875,0.96045703125,-4.67591796875
18.40245703125,18.45655859375,20.80236328125,26.951171875,26.9185625,19.74074609375,21.9595234375,18.25036328125,17.52938671875,20.0839296875,14.269078125,18.915625,7.5704453125,22.5728046875,16.2566171875,12.01340234375,4.291078125,11.8019375,14.2843046875,8.2583203125,-3.24746875,12.38727734375,4.123453125,9.25119140625,-2.16591015625,-10.71126953125,0.503484375000001,-5.1104921875,-1.83854296875,-8.07991796875
22.27445703125,21.08555859375,23.16436328125,30.790171875,29.0965625,22.37874609375,24.0265234375,18.74036328125,21.03838671875,22.8739296875,16.829078125,20.111625,8.0064453125,25.0018046875,19.2606171875,13.16440234375,3.821078125,13.6579375,16.8283046875,10.6143203125,-4.14146875,12.25527734375,5.262453125,11.29019140625,-2.04891015625,-14.68326953125,1.857484375,-5.4514921875,-3.18354296875,-10.69791796875
25.50045703125,23.49155859375,24.88636328125,34.464171875,30.5435625,24.74774609375,25.7505234375,20.75536328125,23.62738671875,24.7019296875,19.619078125,19.595625,8.9184453125,26.3868046875,21.8036171875,14.17640234375,3.935078125,15.7439375,18.8743046875,12.6233203125,-4.59846875,12.45727734375,6.493453125,12.94719140625,-1.48691015625,-17.58626953125,3.787484375,-4.0464921875,-2.76854296875,-11.95791796875
27.46845703125,25.14855859375,25.74436328125,37.081171875,31.0445625,26.15174609375,26.5735234375,23.68936328125,24.78438671875,25.2309296875,21.928078125,17.442625,10.1544453125,26.5008046875,23.3766171875,14.79740234375,4.491078125,17.2799375,19.8463046875,13.7153203125,-4.57846875,12.29827734375,7.244453125,13.61919140625,-0.70191015625,-18.80326953125,5.479484375,-1.8884921875,-1.10054296875,-11.70491796875
27.25045703125,25.05955859375,25.19736328125,37.352171875,30.0625625,25.51674609375,25.8375234375,25.79936328125,23.80938671875,23.8379296875,22.458078125,13.855625,10.9144453125,24.8148046875,23.0406171875,14.27540234375,4.719078125,17.0329375,18.8453046875,13.0523203125,-4.47546875,10.74827734375,6.516453125,12.40319140625,-0.34391015625,-18.08026953125,5.749484375,-0.6724921875,0.41745703125,-10.44791796875
23.63645703125,21.74155859375,22.21836328125,33.729171875,26.6395625,21.41174609375,22.8385234375,24.74036328125,19.70338671875,19.5329296875,19.459078125,8.679625,9.7814453125,20.3958046875,19.4266171875,11.32340234375,3.243078125,13.4369375,14.6323046875,9.4723203125,-5.29246875,6.51727734375,2.905453125,8.07819140625,-1.59891015625,-15.90926953125,3.137484375,-2.5254921875,-0.30054296875,-9.45091796875
15.59045703125,13.77555859375,15.68536328125,25.015171875,19.7825625,12.57774609375,17.0605234375,18.68836328125,11.53438671875,11.3579296875,11.420078125,1.386625,5.3044453125,12.2918046875,11.2746171875,4.63140234375,-1.333921875,5.1739375,6.0963046875,1.8933203125,-8.27146875,-1.49372265625,-4.872546875,-0.46080859375,-5.76091015625,-13.39426953125,-3.604515625,-9.2404921875,-5.20954296875,-10.24691796875
3.09045703125,0.898558593750003,5.31636328125,11.275171875,9.2975625,-1.09925390625,8.6025234375,7.46536328125,-0.737613281249999,-0.786070312500001,-1.839921875,-8.274375,-2.9815546875,0.3658046875,-1.5733828125,-6.13759765625,-9.455921875,-7.8690625,-6.8596953125,-9.8196796875,-13.98846875,-13.40472265625,-17.020546875,-13.32380859375,-13.29991015625,-11.50626953125,-14.641515625,-21.1464921875,-14.88454296875,-13.63591796875
-12.28454296875,-15.22044140625,-7.62163671875,-5.635828125,-3.5984375,-17.91325390625,-1.5384765625,-7.06763671875,-15.66061328125,-15.5250703125,-18.490921875,-19.581375,-13.8665546875,-14.0851953125,-17.4863828125,-19.63959765625,-19.983921875,-23.9940625,-22.6826953125,-24.2286796875,-21.65346875,-27.83272265625,-32.026546875,-28.99580859375,-23.15291015625,-10.35626953125,-28.462515625,-36.4334921875,-27.76754296875,-18.94391796875
-12.28454296875,-15.22044140625,-7.62163671875,-5.635828125,-3.5984375,-17.91325390625,-1.5384765625,-7.06763671875,-15.66061328125,-15.5250703125,-18.490921875,-19.581375,-13.8665546875,-14.0851953125,-17.4863828125,-19.63959765625,-19.983921875,-23.9940625,-22.6826953125,-24.2286796875,-21.65346875,-27.83272265625,-32.026546875,-28.99580859375,-23.15291015625,-10.35626953125,-28.462515625,-36.4334921875,-27.76754296875,-18.94391796875
