"Fp1","Fpz","Fp2","F7","F3","Fz","F4","F8","FC5","FC1","FC2","FC6","T7","C3","Cz","C4","T8","CP5","CP1","CP2","CP6","P7","P3","Pz","P4","P8","POz","O1","Oz","O2"
0.42776171875,16.02769140625,4.0389296875,-3.35030078125,1.659765625,0.564152343750001,-0.1629453125,13.08422265625,3.4971171875,2.9367578125,4.6440234375,6.6411484375,4.770921875,3.4821015625,3.30075,7.6478984375,3.269625,8.37426953125,7.86241796875,8.3941953125,8.10585546875,10.3691796875,9.83584375,11.179859375,10.63094921875,8.2823046875,15.220546875,17.42516796875,9.35580078125,10.92115234375
0.71976171875,12.06969140625,2.1049296875,-5.43830078125,-1.873234375,-2.93184765625,-3.6299453125,5.11722265625,0.907117187499999,-1.7922421875,0.3370234375,5.8911484375,2.073921875,-0.4078984375,0.39775,4.7748984375,0.121625,5.95826953125,4.46341796875,4.5981953125,2.71785546875,8.9621796875,6.44484375,7.269859375,7.00794921875,5.8113046875,11.640546875,14.68016796875,7.04780078125,7.71715234375
-0.26323828125,8.90569140625,0.6299296875,-6.79930078125,-5.058234375,-6.10384765625,-6.7859453125,1.00222265625,-1.4128828125,-5.7202421875,-3.7019765625,5.3491484375,-0.270078125,-3.5268984375,-2.36525,0.6958984375,-1.505375,3.77826953125,1.42941796875,1.1621953125,-1.08514453125,7.0881796875,3.37584375,3.777859375,3.88194921875,4.1803046875,8.379546875,11.78616796875,4.65580078125,5.27115234375
-2.48023828125,6.70469140625,-0.4090703125,-7.28630078125,-7.657234375,-8.83584765625,-9.6229453125,0.63422265625,-3.2108828125,-8.6622421875,-7.3269765625,4.7201484375,-2.043078125,-5.6388984375,-4.90625,-4.3841015625,-1.724375,2.00526953125,-1.06858203125,-1.7958046875,-3.26914453125,4.9041796875,0.78584375,0.848859375,1.29094921875,3.4293046875,5.543546875,8.93316796875,2.31280078125,3.67115234375
-5.39723828125,5.45269140625,-1.1430703125,-6.97530078125,-9.398234375,-10.95684765625,-12.0099453125,2.56822265625,-4.2368828125,-10.5532421875,-10.2429765625,3.5781484375,-3.060078125,-6.6638984375,-7.07325,-9.5931015625,-1.116375,0.75826953125,-2.90458203125,-4.1568046875,-4.19814453125,2.7361796875,-1.22915625,-1.455140625,-0.82805078125,3.3443046875,3.138546875,6.37916796875,0.17980078125,2.75015234375
-8.24723828125,4.98769140625,-1.7180703125,-6.15430078125,-10.075234375,-12.24584765625,-13.6799453125,4.83022265625,-4.4038828125,-11.4292421875,-12.0349765625,1.6201484375,-3.257078125,-6.7198984375,-8.66525,-13.6931015625,-0.339375,0.00326953125000012,-4.06958203125,-5.8048046875,-4.35614453125,0.8591796875,-2.71415625,-3.194140625,-2.57705078125,3.5483046875,1.015546875,4.24416796875,-1.71619921875,2.12015234375
-10.37423828125,5.05569140625,-2.2430703125,-5.26830078125,-9.680234375,-12.55484765625,-14.4349453125,5.92822265625,-3.9188828125,-11.4522421875,-12.4059765625,-1.0618515625,-2.758078125,-6.1358984375,-9.54025,-15.6391015625,0.210625,-0.47673046875,-4.72258203125,-6.6908046875,-4.11214453125,-0.6428203125,-3.87215625,-4.555140625,-4.04405078125,3.6353046875,-1.082453125,2.42916796875,-3.53419921875,1.31015234375
-11.42923828125,5.37569140625,-2.7380703125,-4.76630078125,-8.477234375,-11.93184765625,-14.2869453125,5.52722265625,-3.2458828125,-10.9022421875,-11.3869765625,-3.8618515625,-1.870078125,-5.3828984375,-9.69325,-15.0531015625,0.498625,-1.00373046875,-5.15358203125,-6.8878046875,-3.61914453125,-1.8648203125,-4.99715625,-5.784140625,-5.25005078125,3.3173046875,-3.367453125,0.71316796875,-5.49519921875,-0.00484765624999994
-11.35423828125,5.72969140625,-3.0860703125,-4.89930078125,-6.926234375,-10.60184765625,-13.3639453125,4.39922265625,-2.8948828125,-10.0792421875,-9.3129765625,-5.8288515625,-0.979078125,-4.9138984375,-9.24725,-12.3371015625,0.712625,-1.84373046875,-5.65258203125,-6.5718046875,-2.85714453125,-2.9468203125,-6.32215625,-7.064140625,-6.13005078125,2.5283046875,-5.826453125,-1.04583203125,-7.65219921875,-1.80784765625
-10.30923828125,6.03669140625,-3.0410703125,-5.57730078125,-5.480234375,-8.82084765625,-11.6939453125,3.72222265625,-3.1738828125,-9.1712421875,-6.6199765625,-6.0948515625,-0.402078125,-4.9738984375,-8.34325,-8.4131015625,1.049625,-3.06373046875,-6.34558203125,-5.9378046875,-1.76014453125,-3.9258203125,-7.86915625,-8.398140625,-6.55205078125,1.4583046875,-8.151453125,-2.77083203125,-9.75819921875,-3.72484765625
-8.60723828125,6.36469140625,-2.3420703125,-6.36130078125,-4.381234375,-6.75884765625,-9.1799453125,4.22722265625,-4.0518828125,-8.1862421875,-3.6549765625,-4.3538515625,-0.254078125,-5.4898984375,-7.07225,-4.3041015625,1.565625,-4.48273046875,-7.12558203125,-5.1428046875,-0.37514453125,-4.6798203125,-9.40415625,-9.594140625,-6.41205078125,0.4443046875,-9.859453125,-4.18683203125,-11.31919921875,-5.20984765625
-6.58823828125,6.88369140625,-0.9100703125,-6.62130078125,-3.598234375,-4.52584765625,-5.8439453125,5.75422265625,-5.1688828125,-7.0332421875,-0.6799765625,-1.1288515625,-0.412078125,-6.1428984375,-5.50525,-0.8401015625,2.121625,-5.74373046875,-7.72358203125,-4.3198046875,1.01685546875,-4.9808203125,-10.55415625,-10.389140625,-5.77005078125,-0.2246953125,-10.529453125,-4.97483203125,-11.86219921875,-5.84084765625
-4.51623828125,7.75169140625,0.9769296875,-5.82630078125,-2.943234375,-2.31184765625,-2.1579453125,7.42222265625,-6.0198828125,-5.6772421875,1.9740234375,2.3331484375,-0.600078125,-6.5598984375,-3.81625,1.4188984375,2.450625,-6.47173046875,-7.90358203125,-3.6468046875,1.90185546875,-4.6418203125,-11.01515625,-10.630140625,-4.94205078125,-0.4936953125,-10.034453125,-4.97083203125,-11.22519921875,-5.53284765625
-2.61823828125,8.98269140625,2.6859296875,-3.84430078125,-2.283234375,-0.486847656249999,0.8510546875,8.18522265625,-6.2268828125,-4.2752421875,3.7820234375,4.5741484375,-0.575078125,-6.5238984375,-2.36225,2.0858984375,2.319625,-6.43273046875,-7.61158203125,-3.3848046875,1.73185546875,-3.6668203125,-10.71015625,-10.381140625,-4.42805078125,-0.5806953125,-8.616453125,-4.26783203125,-9.68119921875,-4.55984765625
-1.21523828125,10.34869140625,3.4599296875,-1.09330078125,-1.674234375,0.463152343750001,1.9490546875,7.39222265625,-5.7508828125,-3.1672421875,4.1180234375,4.6551484375,-0.309078125,-6.0678984375,-1.62125,0.9058984375,1.682625,-5.63873046875,-7.00458203125,-3.7948046875,0.22085546875,-2.2878203125,-9.80215625,-9.869140625,-4.67605078125,-0.8206953125,-6.744453125,-3.13683203125,-7.77419921875,-3.38184765625
-0.72623828125,11.37769140625,2.7749296875,1.59969921875,-1.344234375,0.170152343750001,0.3700546875,5.09522265625,-4.8938828125,-2.7422421875,2.5650234375,2.7041484375,-0.0320781250000001,-5.4168984375,-1.97625,-2.1271015625,0.698625,-4.32373046875,-6.34158203125,-4.9678046875,-2.43114453125,-0.8668203125,-8.56915625,-9.327140625,-5.82005078125,-1.4306953125,-4.863453125,-1.83683203125,-6.00219921875,-2.39284765625
-1.45623828125,11.50069140625,0.6229296875,3.40769921875,-1.547234375,-1.37684765625,-3.6159453125,1.98822265625,-4.0988828125,-3.2312421875,-0.7549765625,-0.1368515625,-0.107078125,-4.8448984375,-3.48725,-6.5711015625,-0.369375,-2.85673046875,-5.85058203125,-6.7098046875,-5.58114453125,0.2741796875,-7.26315625,-8.852140625,-7.56405078125,-2.3626953125,-3.205453125,-0.49083203125,-4.58619921875,-1.75684765625
-3.38823828125,10.32569140625,-2.4510703125,3.90469921875,-2.375234375,-3.74384765625,-8.6919453125,-0.94077734375,-3.6928828125,-4.5732421875,-5.0729765625,-2.4078515625,-0.783078125,-4.5378984375,-5.80325,-11.4961015625,-1.285375,-1.60373046875,-5.62358203125,-8.5728046875,-8.40314453125,0.9681796875,-6.03715625,-8.390140625,-9.31505078125,-3.3486953125,-1.785453125,0.86116796875,-3.49519921875,-1.42884765625
-6.12223828125,7.87369140625,-5.5650703125,3.23469921875,-3.665234375,-6.16884765625,-13.0529453125,-2.82577734375,-3.7568828125,-6.3912421875,-9.1719765625,-3.1838515625,-1.983078125,-4.5118984375,-8.25525,-15.6691015625,-1.892375,-0.81373046875,-5.59758203125,-10.0198046875,-10.20614453125,1.2031796875,-4.95315625,-7.826140625,-10.46105078125,-4.0756953125,-0.544453125,2.08616796875,-2.64719921875,-1.28584765625
-8.91723828125,4.67869140625,-7.8370703125,1.99769921875,-5.006234375,-7.81584765625,-15.1529453125,-3.16777734375,-4.1228828125,-8.0922421875,-11.8009765625,-2.4938515625,-3.254078125,-4.6138984375,-10.07325,-17.9021015625,-2.127375,-0.52773046875,-5.59058203125,-10.6018046875,-10.62014453125,1.0591796875,-4.03015625,-7.073140625,-10.60305078125,-4.3496953125,0.528546875,2.89216796875,-2.06419921875,-1.23384765625
-10.81623828125,1.65769140625,-8.6870703125,0.92669921875,-5.885234375,-8.06984765625,-14.2469453125,-1.87977734375,-4.4668828125,-9.0712421875,-12.1059765625,-1.0668515625,-3.953078125,-4.6008984375,-10.64025,-17.3991015625,-2.026375,-0.56073046875,-5.36658203125,-10.0778046875,-9.62214453125,0.6551796875,-3.26415625,-6.112140625,-9.64705078125,-4.1296953125,1.391546875,2.97016796875,-1.84119921875,-1.21184765625
-10.96623828125,-0.199308593750001,-7.9950703125,0.54869921875,-5.917234375,-6.76184765625,-10.5939453125,0.75322265625,-4.4568828125,-8.9402421875,-9.9349765625,0.2721484375,-3.596078125,-4.2638984375,-9.69825,-14.0461015625,-1.728375,-0.59473046875,-4.74358203125,-8.4628046875,-7.45514453125,0.1301796875,-2.62715625,-4.984140625,-7.77005078125,-3.4876953125,2.029546875,2.25716796875,-1.99819921875,-1.14484765625
-9.12023828125,-0.221308593750001,-6.0900703125,0.94969921875,-5.039234375,-4.26684765625,-5.3279453125,4.09622265625,-3.9188828125,-7.7142421875,-5.9179765625,1.1041484375,-2.183078125,-3.5488984375,-7.46725,-8.5611015625,-1.410375,-0.34773046875,-3.68458203125,-6.0498046875,-4.54514453125,-0.3808203125,-2.08115625,-3.764140625,-5.32905078125,-2.5476953125,2.498546875,1.05716796875,-2.36419921875,-0.92784765625
-5.93623828125,1.63869140625,-3.6000703125,1.78869921875,-3.574234375,-1.40484765625,-0.0919453125,7.26422265625,-2.9178828125,-5.8382421875,-1.2979765625,1.5261484375,-0.237078125,-2.5908984375,-4.60225,-2.3981015625,-1.193375,0.26426953125,-2.35158203125,-3.3688046875,-1.44814453125,-0.7738203125,-1.60015625,-2.568140625,-2.77705078125,-1.4846953125,2.889546875,-0.0878320312500001,-2.63819921875,-0.47784765625
-2.70323828125,4.73369140625,-1.2470703125,2.54469921875,-2.116234375,0.824152343750001,3.5200546875,9.35822265625,-1.7148828125,-4.0362421875,2.4810234375,1.8961484375,1.470921875,-1.6738984375,-1.99325,2.6498984375,-1.090375,1.10326953125,-1.06458203125,-1.0688046875,1.20185546875,-0.9998203125,-1.20115625,-1.563140625,-0.58505078125,-0.5476953125,3.222546875,-0.69783203125,-2.55919921875,0.20415234375
-0.67023828125,7.94569140625,0.3729296875,2.84269921875,-1.276234375,1.61815234375,4.5250546875,9.74422265625,-0.6228828125,-3.0132421875,4.2830234375,2.4181484375,2.346921875,-1.1108984375,-0.45125,5.0768984375,-1.031375,1.90026953125,-0.19558203125,0.2691953125,2.80185546875,-1.0508203125,-0.95715625,-0.947140625,0.82994921875,-0.0326953125,3.388546875,-0.61583203125,-2.10219921875,0.99615234375
-0.486238281249999,10.09069140625,0.9319296875,2.62669921875,-1.433234375,0.66115234375,2.8100546875,8.22222265625,0.1161171875,-3.1912421875,3.6580234375,2.8691484375,2.240921875,-1.1218984375,-0.43625,4.2158984375,-0.945375,2.40426953125,-0.0225820312500002,0.3111953125,2.93485546875,-0.9438203125,-0.96315625,-0.908140625,1.18094921875,-0.1976953125,3.161546875,-0.10583203125,-1.54819921875,1.67715234375
-2.05623828125,10.34869140625,0.3849296875,2.09369921875,-2.612234375,-1.82484765625,-1.0519453125,5.08522265625,0.3741171875,-4.5992421875,0.8760234375,2.6821484375,1.405921875,-1.7688984375,-1.95225,0.3918984375,-0.828375,2.45926953125,-0.65058203125,-0.9698046875,1.49285546875,-0.7148203125,-1.31215625,-1.582140625,0.36294921875,-1.1486953125,2.289546875,0.28016796875,-1.37419921875,1.98715234375
-4.73323828125,8.53469140625,-1.1230703125,1.48669921875,-4.527234375,-5.27084765625,-6.2289453125,1.07422265625,0.129117187499999,-6.9402421875,-3.3449765625,1.3211484375,0.249921875,-2.9688984375,-4.65525,-5.3791015625,-0.765375,2.00926953125,-2.01758203125,-3.3508046875,-1.30114453125,-0.4198203125,-2.07215625,-3.024140625,-1.53405078125,-2.7976953125,0.622546875,-0.000832031249999865,-2.02019921875,1.71515234375
-7.60823828125,5.15469140625,-3.3480703125,0.93969921875,-6.711234375,-8.99284765625,-11.9149453125,-2.77977734375,-0.5538828125,-9.7282421875,-8.1559765625,-1.2938515625,-0.934078125,-4.5298984375,-8.01625,-11.8301015625,-0.890375,1.08126953125,-3.92958203125,-6.4428046875,-4.94714453125,-0.1128203125,-3.25515625,-5.173140625,-4.22405078125,-4.8706953125,-1.752453125,-1.15883203125,-3.61219921875,0.79515234375
-9.84823828125,1.24769140625,-5.9350703125,0.45669921875,-8.643234375,-12.30384765625,-17.2949453125,-5.45077734375,-1.5128828125,-12.3842421875,-12.6889765625,-4.6298515625,-2.045078125,-6.1588984375,-11.40525,-17.6991015625,-1.277375,-0.19073046875,-6.06258203125,-9.6928046875,-8.71314453125,0.1951796875,-4.74815625,-7.759140625,-7.20505078125,-6.9426953125,-4.453453125,-2.89283203125,-5.81319921875,-0.62684765625
-10.94323828125,-1.93330859375,-8.3470703125,0.0046992187499999,-9.851234375,-14.54284765625,-21.3939453125,-6.25777734375,-2.5128828125,-14.3002421875,-16.0309765625,-7.7478515625,-3.041078125,-7.4868984375,-14.10525,-21.7761015625,-1.830375,-1.54273046875,-7.95958203125,-12.3718046875,-11.71014453125,0.5501796875,-6.25815625,-10.259140625,-9.79005078125,-8.4886953125,-6.866453125,-4.49683203125,-7.89919921875,-2.20684765625
-10.75023828125,-3.31330859375,-9.8940703125,-0.36330078125,-10.026234375,-15.13684765625,-23.1039453125,-5.10477734375,-3.2768828125,-14.9452421875,-17.2759765625,-9.7458515625,-3.750078125,-8.1378984375,-15.40325,-23.0001015625,-2.285375,-2.59273046875,-9.10258203125,-13.6948046875,-13.07814453125,1.0491796875,-7.35115625,-11.978140625,-11.25905078125,-8.9936953125,-8.344453125,-5.19983203125,-9.07319921875,-3.50184765625
-9.34223828125,-2.35830859375,-9.9290703125,-0.46930078125,-9.118234375,-13.77984765625,-21.4799453125,-2.52877734375,-3.5488828125,-14.0242421875,-15.7599765625,-10.1828515625,-3.838078125,-7.8738984375,-14.79625,-20.6921015625,-2.366375,-2.95073046875,-9.08158203125,-13.0798046875,-12.27114453125,1.8111796875,-7.61415625,-12.299140625,-11.08905078125,-8.1466953125,-8.467453125,-4.52983203125,-8.83519921875,-4.13884765625
-6.91023828125,0.74069140625,-8.1470703125,-0.11030078125,-7.365234375,-10.61884765625,-16.2109453125,0.475222656250001,-3.2008828125,-11.6342421875,-11.3829765625,-9.2398515625,-3.006078125,-6.7128984375,-12.24325,-14.8411015625,-1.984375,-2.38973046875,-7.78558203125,-10.4218046875,-9.29714453125,2.9271796875,-6.84315625,-10.967140625,-9.18805078125,-6.0246953125,-7.222453125,-2.51183203125,-7.20719921875,-3.95684765625
-3.84823828125,5.09069140625,-4.8420703125,0.74869921875,-5.251234375,-6.35984765625,-8.0809453125,2.80222265625,-2.3398828125,-8.3452421875,-4.8819765625,-7.5518515625,-1.290078125,-4.9768984375,-8.33025,-6.3651015625,-1.309375,-1.01073046875,-5.53158203125,-6.2768046875,-4.82414453125,4.3911796875,-5.19915625,-8.288140625,-6.01905078125,-3.1506953125,-5.055453125,0.35216796875,-4.72219921875,-3.08184765625
-0.869238281249999,9.35369140625,-0.9600703125,1.82369921875,-3.426234375,-2.23184765625,0.8500546875,3.68222265625,-1.3658828125,-5.1532421875,2.0800234375,-5.8468515625,0.779921875,-3.2708984375,-4.26425,2.7628984375,-0.640375,0.68326953125,-3.08758203125,-1.8548046875,-0.08614453125,6.0021796875,-3.25715625,-5.161140625,-2.58205078125,-0.3736953125,-2.790453125,3.22916796875,-2.23319921875,-1.93284765625
1.11776171875,12.13269140625,2.1529296875,2.56969921875,-2.599234375,0.29315234375,7.6330546875,3.02322265625,-0.8728828125,-3.2562421875,7.2170234375,-4.6158515625,2.339921875,-2.3558984375,-1.58325,9.7368984375,-0.195375,1.88226953125,-1.49658203125,1.2341953125,3.42885546875,7.3241796875,-1.89315625,-2.861140625,-0.18305078125,1.4033046875,-1.407453125,5.18216796875,-0.64419921875,-1.10584765625
1.32976171875,12.45169140625,3.2919296875,2.43169921875,-3.316234375,0.0381523437500002,9.5040546875,1.45222265625,-1.3998828125,-3.6272421875,8.4130234375,-3.9758515625,2.624921875,-2.8818984375,-1.57725,11.7688984375,0.017625,1.78526953125,-1.70358203125,1.5351953125,4.45385546875,7.8061796875,-1.96315625,-2.569140625,0.01094921875,1.5693046875,-1.702453125,5.46016796875,-0.60019921875,-1.15884765625
-0.55623828125,10.16469140625,2.0019296875,1.16969921875,-5.664234375,-3.25484765625,5.2680546875,-0.0107773437499992,-3.1348828125,-6.5052421875,4.7870234375,-3.7368515625,1.412921875,-5.0348984375,-4.61125,7.4498984375,0.142625,0.00126953125000012,-4.07158203125,-1.5438046875,2.46785546875,7.0441796875,-3.86515625,-4.798140625,-2.49205078125,0.0623046875,-3.904453125,3.79716796875,-2.23019921875,-2.35584765625
-4.22623828125,6.08769140625,-1.1280703125,-0.95630078125,-9.068234375,-8.60084765625,-3.8449453125,-0.513777343749999,-5.7458828125,-11.1292421875,-2.6249765625,-3.5798515625,-0.817078125,-8.3258984375,-9.78725,-2.2221015625,0.294625,-3.18873046875,-8.09158203125,-7.3088046875,-2.03614453125,5.0151796875,-7.26615625,-9.050140625,-7.19405078125,-2.5776953125,-7.503453125,0.54316796875,-5.07019921875,-4.51884765625
-8.75523828125,1.68869140625,-4.7620703125,-3.26230078125,-12.455234375,-14.14584765625,-14.5899453125,0.16322265625,-8.4608828125,-15.9842421875,-11.2109765625,-3.2448515625,-3.156078125,-11.7408984375,-15.29625,-14.0421015625,0.433625,-6.92273046875,-12.55758203125,-14.0038046875,-7.71314453125,2.1131796875,-11.20715625,-13.998140625,-12.77605078125,-5.4416953125,-11.420453125,-3.49083203125,-8.27019921875,-7.08284765625
-12.89323828125,-1.56130859375,-7.5560703125,-4.95730078125,-14.757234375,-18.09184765625,-23.3289453125,1.51322265625,-10.4068828125,-19.5272421875,-18.0879765625,-2.6868515625,-4.789078125,-14.2358984375,-19.34325,-24.1401015625,0.388625,-10.15373046875,-16.14658203125,-19.6558046875,-12.94214453125,-1.0368203125,-14.56015625,-18.127140625,-17.70105078125,-7.6486953125,-14.493453125,-7.35683203125,-10.96919921875,-9.33784765625
-15.56723828125,-2.83230859375,-8.8520703125,-5.52130078125,-15.442234375,-19.58784765625,-27.8039453125,2.62122265625,-11.0248828125,-20.9112421875,-21.5029765625,-2.1408515625,-5.430078125,-15.2218984375,-21.02425,-29.8321015625,-0.027375,-12.11273046875,-18.01358203125,-22.9688046875,-16.46814453125,-3.8338203125,-16.52015625,-20.418140625,-20.87605078125,-8.7146953125,-15.966453125,-10.26983203125,-12.60119921875,-10.71184765625
-16.31223828125,-2.23230859375,-8.8560703125,-4.92230078125,-14.726234375,-18.98384765625,-27.8869453125,2.68522265625,-10.2928828125,-20.2782421875,-21.4159765625,-2.0098515625,-5.369078125,-14.7558984375,-20.58925,-30.5541015625,-0.898375,-12.56273046875,-18.05458203125,-23.7208046875,-17.79514453125,-5.8558203125,-16.84015625,-20.665140625,-21.97705078125,-8.6666953125,-15.714453125,-11.75583203125,-12.99919921875,-10.94384765625
-15.33923828125,-0.61330859375,-8.2790703125,-3.55830078125,-13.322234375,-17.34784765625,-24.9619453125,1.41722265625,-8.6548828125,-18.4742421875,-19.0219765625,-2.6108515625,-5.165078125,-13.3648984375,-19.01625,-27.4671015625,-2.166375,-11.75673046875,-16.74658203125,-22.5028046875,-17.15514453125,-6.8928203125,-15.77415625,-19.329140625,-21.32505078125,-7.8826953125,-14.149453125,-11.68083203125,-12.31019921875,-10.11084765625
-13.23423828125,0.965691406249999,-7.7630703125,-1.99930078125,-11.977234375,-15.67384765625,-20.6519453125,-0.893777343749999,-6.7198828125,-16.4602421875,-15.7359765625,-3.9738515625,-5.194078125,-11.6998984375,-17.26825,-22.3151015625,-3.644375,-10.21073046875,-14.77058203125,-20.1368046875,-15.16914453125,-6.9208203125,-13.83315625,-17.122140625,-19.49805078125,-6.7876953125,-11.908453125,-10.23583203125,-10.84819921875,-8.52384765625
-10.61823828125,1.80369140625,-7.4980703125,-0.70730078125,-11.073234375,-14.34284765625,-15.8969453125,-3.66177734375,-4.9878828125,-14.8242421875,-12.4009765625,-5.8118515625,-5.393078125,-10.2298984375,-15.78425,-16.4281015625,-5.019375,-8.44673046875,-12.67558203125,-17.2108046875,-12.45914453125,-6.0898203125,-11.54315625,-14.625140625,-16.97605078125,-5.5916953125,-9.544453125,-7.85283203125,-8.95119921875,-6.56784765625
-7.99223828125,1.81469140625,-7.2400703125,0.0756992187500001,-10.564234375,-13.13784765625,-10.9489453125,-6.33577734375,-3.7418828125,-13.6502421875,-9.1869765625,-7.6408515625,-5.325078125,-9.1308984375,-14.44525,-10.4741015625,-5.890375,-6.84073046875,-10.74658203125,-13.9868046875,-9.44514453125,-4.7198203125,-9.29815625,-12.133140625,-14.03905078125,-4.2526953125,-7.376453125,-5.09083203125,-6.90419921875,-4.57584765625
-5.74323828125,1.36669140625,-6.6490703125,0.30369921875,-10.215234375,-11.72084765625,-6.0269453125,-8.52177734375,-3.0918828125,-12.7592421875,-6.0939765625,-8.9718515625,-4.554078125,-8.3808984375,-12.96625,-4.9041015625,-5.876375,-5.61273046875,-9.10058203125,-10.6648046875,-6.41514453125,-3.2628203125,-7.36515625,-9.773140625,-10.90805078125,-2.6646953125,-5.542453125,-2.52383203125,-4.96219921875,-2.80084765625
-4.17323828125,0.89669140625,-5.6920703125,0.03569921875,-9.914234375,-10.13684765625,-1.9469453125,-9.84577734375,-3.0408828125,-12.0452421875,-3.5229765625,-9.4698515625,-3.034078125,-7.9268984375,-11.35525,-0.5371015625,-4.798375,-4.88973046875,-7.84658203125,-7.6858046875,-3.72014453125,-2.2038203125,-5.95615625,-7.725140625,-7.97105078125,-0.9176953125,-4.175453125,-0.67983203125,-3.44819921875,-1.48084765625
-3.53123828125,0.59669140625,-4.7820703125,-0.61630078125,-9.785234375,-8.93884765625,-0.0949453125000002,-9.82577734375,-3.5078828125,-11.6322421875,-2.3729765625,-9.0048515625,-1.235078125,-7.7708984375,-10.05425,1.3648984375,-2.816375,-4.74773046875,-7.15358203125,-5.7688046875,-1.84814453125,-1.9188203125,-5.23815625,-6.318140625,-5.81605078125,0.5973046875,-3.503453125,0.0111679687500001,-2.78619921875,-0.89884765625
-3.99923828125,0.366691406249999,-4.5310703125,-1.47430078125,-10.024234375,-8.81184765625,-1.6809453125,-8.04377734375,-4.3078828125,-11.7262421875,-3.5089765625,-7.6198515625,0.118921875,-7.9058984375,-9.65925,-0.2731015625,-0.399375,-5.16373046875,-7.12658203125,-5.5738046875,-1.26614453125,-2.5108203125,-5.25515625,-5.893140625,-5.01105078125,1.3553046875,-3.773453125,-0.66083203125,-3.36619921875,-1.30884765625
-5.55323828125,-0.00630859375000092,-5.3090703125,-2.27230078125,-10.618234375,-10.00184765625,-6.7539453125,-4.55977734375,-5.1638828125,-12.3212421875,-7.0139765625,-5.5178515625,0.518921875,-8.2018984375,-10.43225,-5.4651015625,1.859625,-5.94073046875,-7.63658203125,-7.2298046875,-2.13714453125,-3.7488203125,-5.81615625,-6.534140625,-5.74505078125,1.0113046875,-5.013453125,-2.52083203125,-5.26519921875,-2.73884765625
-7.74523828125,-0.630308593750001,-6.9310703125,-2.67230078125,-11.217234375,-11.99484765625,-13.7709453125,-0.17477734375,-5.7568828125,-13.0392421875,-11.8359765625,-3.0848515625,-0.010078125,-8.3718984375,-11.99725,-12.7701015625,3.483625,-6.70573046875,-8.26358203125,-10.0928046875,-4.14514453125,-5.1258203125,-6.49415625,-7.891140625,-7.62005078125,-0.3506953125,-6.856453125,-4.93883203125,-8.03619921875,-4.82084765625
-9.73123828125,-1.40730859375,-8.7140703125,-2.36530078125,-11.286234375,-13.72384765625,-20.1709453125,3.77522265625,-5.8358828125,-13.2672421875,-16.1659765625,-0.8728515625,-0.963078125,-8.0958984375,-13.45625,-19.7601015625,4.266625,-7.04373046875,-8.44658203125,-12.9468046875,-6.54114453125,-6.0858203125,-6.78715625,-9.274140625,-9.75505078125,-2.2056953125,-8.589453125,-6.99483203125,-10.77519921875,-6.83984765625
-10.67323828125,-2.07730859375,-9.8300703125,-1.25430078125,-10.413234375,-14.11184765625,-23.5899453125,6.02822265625,-5.3388828125,-12.4832421875,-18.2759765625,0.5191484375,-1.719078125,-7.1898984375,-13.82325,-24.0341015625,4.295625,-6.71273046875,-7.74158203125,-14.5108046875,-8.38114453125,-6.2808203125,-6.34815625,-9.939140625,-11.13505078125,-3.7976953125,-9.436453125,-7.87483203125,-12.48419921875,-8.00684765625
-10.20423828125,-2.32830859375,-9.6850703125,0.46069921875,-8.529234375,-12.57784765625,-22.8689453125,5.99622265625,-4.4058828125,-10.5182421875,-17.2199765625,0.6191484375,-1.925078125,-5.6988984375,-12.45825,-24.0731015625,3.824625,-5.76273046875,-6.00858203125,-13.9178046875,-8.82514453125,-5.7238203125,-5.13115625,-9.381140625,-10.98405078125,-4.4546953125,-8.899453125,-7.25683203125,-12.53219921875,-7.80284765625
-8.52423828125,-1.87630859375,-8.1240703125,2.37369921875,-5.905234375,-9.18384765625,-18.2299453125,4.02022265625,-3.2728828125,-7.5772421875,-13.0189765625,-0.7578515625,-1.636078125,-3.8488984375,-9.26625,-19.5411015625,3.126625,-4.48773046875,-3.43958203125,-10.9408046875,-7.41314453125,-4.7088203125,-3.36415625,-7.475140625,-8.99505078125,-3.8486953125,-6.942453125,-5.40983203125,-10.90219921875,-6.17384765625
-6.12923828125,-0.51530859375,-5.4130703125,4.09569921875,-2.985234375,-4.49184765625,-10.8119453125,1.18522265625,-2.1358828125,-4.0852421875,-6.4399765625,-3.3648515625,-1.164078125,-1.9208984375,-4.65525,-11.1571015625,2.402625,-3.24773046875,-0.44658203125,-5.9838046875,-4.22714453125,-3.5878203125,-1.40115625,-4.461140625,-5.38705078125,-2.1116953125,-3.963453125,-2.96483203125,-8.12919921875,-3.51784765625
-3.57423828125,1.79169140625,-2.1060703125,5.42369921875,-0.224234375,0.662152343750001,-2.1729453125,-1.15577734375,-1.1138828125,-0.5282421875,1.2700234375,-6.3988515625,-0.791078125,-0.1598984375,0.59375,-0.4901015625,1.814625,-2.30573046875,2.46041796875,0.0401953125000003,0.10185546875,-2.5748203125,0.42584375,-0.854140625,-0.84605078125,0.2323046875,-0.633453125,-0.57383203125,-5.02619921875,-0.53384765625
-1.43523828125,4.76269140625,1.0929296875,6.34869921875,1.985765625,5.31715234375,5.9370546875,-1.92777734375,-0.3158828125,2.5837578125,8.5420234375,-8.5728515625,-0.550078125,1.2351015625,5.45075,10.1598984375,1.563625,-1.78273046875,4.75341796875,5.8581953125,4.54285546875,-1.7268203125,1.85184375,2.642859375,3.60994921875,2.4673046875,2.291546875,1.30216796875,-2.38719921875,2.00815234375
-0.28823828125,7.74469140625,3.4589296875,6.95569921875,3.334765625,8.50415234375,11.6910546875,-0.69677734375,0.1261171875,4.7197578125,13.6480234375,-8.5168515625,-0.217078125,2.0811015625,8.79775,18.0448984375,1.901625,-1.70273046875,5.95541796875,10.0661953125,7.94185546875,-1.0708203125,2.65184375,5.249859375,6.86094921875,3.9443046875,4.140546875,2.39816796875,-0.76019921875,3.51915234375
-0.53323828125,9.89369140625,4.4289296875,7.32069921875,3.653765625,9.47815234375,13.5450546875,2.23722265625,0.133117187499999,5.4337578125,15.1200234375,-5.4808515625,0.522921875,2.2301015625,9.74275,20.6978984375,3.015625,-2.03673046875,5.75741796875,11.5111953125,9.36085546875,-0.7038203125,2.63984375,6.303859375,8.03294921875,4.2913046875,4.501546875,2.59216796875,-0.34519921875,3.78015234375
-2.17923828125,10.59269140625,3.8119296875,7.48469921875,3.015765625,8.06615234375,10.9090546875,5.97722265625,-0.2008828125,4.5917578125,12.4330234375,0.0681484374999999,1.818921875,1.6771015625,8.04375,17.0648984375,4.835625,-2.68873046875,4.20241796875,9.8021953125,8.45385546875,-0.7848203125,1.76884375,5.533859375,6.87594921875,3.5323046875,3.372546875,1.90016796875,-0.98419921875,2.99915234375
-4.77023828125,9.82469140625,1.9399296875,7.47669921875,1.803765625,4.92415234375,4.7000546875,9.35022265625,-0.572882812500001,2.5767578125,6.5360234375,6.4641484375,3.516921875,0.667101562500001,4.38775,8.3578984375,6.928625,-3.46473046875,1.80741796875,5.6331953125,5.68685546875,-1.3948203125,0.24884375,3.265859375,3.96294921875,2.0393046875,1.223546875,0.53416796875,-2.23419921875,1.70315234375
-7.51523828125,8.18769140625,-0.4220703125,7.34269921875,0.589765625,1.37015234375,-2.7749453125,11.35022265625,-0.5998828125,0.2167578125,-0.3399765625,11.6211484375,5.194921875,-0.3498984375,0.20575,-2.1851015625,8.618625,-4.10373046875,-0.57758203125,0.6031953125,2.17285546875,-2.4368203125,-1.46015625,0.357859375,0.49094921875,0.3613046875,-1.148453125,-1.10983203125,-3.54919921875,0.49815234375
-9.54123828125,6.52869140625,-2.4060703125,7.15569921875,-0.151234375,-1.21284765625,-8.7649453125,11.53722265625,-0.0418828125000004,-1.5852421875,-5.6559765625,14.0481484375,6.359921875,-0.9428984375,-2.97025,-10.7591015625,9.303625,-4.40773046875,-2.14558203125,-3.4988046875,-0.86114453125,-3.6488203125,-2.85115625,-2.185140625,-2.29105078125,-1.0166953125,-2.953453125,-2.61083203125,-4.50319921875,-0.17984765625
-10.26823828125,5.47369140625,-3.4210703125,6.97469921875,-0.288234375,-2.05084765625,-11.3539453125,10.11522265625,1.0291171875,-2.2792421875,-7.7709765625,13.4471484375,6.670921875,-0.9288984375,-4.22725,-14.7581015625,8.754625,-4.35673046875,-2.52058203125,-5.5228046875,-2.65214453125,-4.7188203125,-3.61515625,-3.667140625,-3.66705078125,-1.8526953125,-3.739453125,-3.72083203125,-4.94719921875,-0.20484765625
-9.71623828125,5.20269140625,-3.3580703125,6.82869921875,-0.059234375,-1.26984765625,-10.2569453125,7.65222265625,2.2531171875,-1.8802421875,-6.5809765625,10.5871484375,6.096921875,-0.4338984375,-3.60525,-13.7471015625,7.193625,-4.11273046875,-1.87658203125,-5.3688046875,-3.14114453125,-5.3938203125,-3.74115625,-3.941140625,-3.68505078125,-2.1606953125,-3.533453125,-4.41983203125,-4.97719921875,0.27115234375
-8.46623828125,5.52369140625,-2.5300703125,6.74769921875,0.165765625,0.337152343750001,-6.7149453125,4.72022265625,3.2071171875,-0.8372421875,-3.2869765625,6.7311484375,4.955921875,0.2521015625,-1.88925,-9.1991015625,5.107625,-3.87373046875,-0.73358203125,-3.8108046875,-2.78814453125,-5.5298203125,-3.41515625,-3.328140625,-2.94605078125,-2.1046953125,-2.704453125,-4.81283203125,-4.77119921875,0.95915234375
-7.22123828125,6.11369140625,-1.4370703125,6.84469921875,0.169765625,1.84315234375,-2.6449453125,1.73522265625,3.6911171875,0.2907578125,0.4170234375,3.0391484375,3.829921875,0.8841015625,-0.0752499999999996,-3.4411015625,2.963625,-3.71173046875,0.37841796875,-1.9338046875,-2.18314453125,-5.0898203125,-2.84915625,-2.335140625,-2.16705078125,-1.8526953125,-1.693453125,-4.96583203125,-4.43419921875,1.60715234375
-6.34623828125,6.69469140625,-0.5130703125,7.31269921875,0.025765625,2.67115234375,0.3500546875,-0.98377734375,3.8551171875,1.1237578125,3.1830234375,0.2241484375,3.352921875,1.3901015625,1.12375,1.4318984375,1.072625,-3.50373046875,1.16841796875,-0.5948046875,-1.72614453125,-4.1338203125,-2.15115625,-1.393140625,-1.82005078125,-1.4886953125,-0.786453125,-4.82683203125,-3.94719921875,2.10115234375
-5.80523828125,7.10169140625,0.0419296874999999,8.29869921875,-0.0172343750000001,2.74715234375,1.5410546875,-3.12877734375,4.0731171875,1.5667578125,4.4430234375,-1.5518515625,3.934921875,1.8671015625,1.49375,4.1668984375,-0.358375,-3.01273046875,1.64541796875,-0.1548046875,-1.51714453125,-2.8098203125,-1.30615625,-0.723140625,-2.01105078125,-1.0146953125,-0.0544531249999999,-4.30483203125,-3.24719921875,2.44615234375
-5.40423828125,7.27369140625,0.2659296875,9.72869921875,0.245765625,2.35615234375,1.0650546875,-4.41977734375,4.6501171875,1.7277578125,4.3490234375,-2.6218515625,5.549921875,2.4591015625,1.22875,4.4568984375,-1.116375,-2.06573046875,1.99141796875,-0.5318046875,-1.47214453125,-1.3388203125,-0.26815625,-0.372140625,-2.58505078125,-0.4226953125,0.540546875,-3.41883203125,-2.37219921875,2.66615234375
-5.00423828125,7.22069140625,0.3239296875,11.27169921875,0.811765625,1.85715234375,-0.4439453125,-4.71877734375,5.6251171875,1.7697578125,3.4420234375,-3.5738515625,7.727921875,3.2371015625,0.70275,2.7728984375,-1.018375,-0.67573046875,2.39241796875,-1.3978046875,-1.49414453125,0.0441796875,0.93884375,-0.305140625,-3.30905078125,0.2363046875,1.010546875,-2.36983203125,-1.51919921875,2.72515234375
-4.52423828125,6.99169140625,0.3789296875,12.50969921875,1.513765625,1.49415234375,-2.2289453125,-4.13277734375,6.7681171875,1.8287578125,2.3200234375,-4.8388515625,9.747921875,4.1371015625,0.26075,0.1178984375,-0.080375,0.94826953125,2.92741796875,-2.3638046875,-1.54614453125,1.1531796875,2.18484375,-0.454140625,-3.98005078125,0.8423046875,1.303546875,-1.45383203125,-0.96119921875,2.53415234375
-3.92823828125,6.64969140625,0.5279296875,13.13269921875,2.156765625,1.35615234375,-3.6559453125,-3.04977734375,7.7241171875,1.9947578125,1.4370234375,-6.3048515625,10.921921875,5.0021015625,0.12575,-2.3261015625,1.382625,2.50726953125,3.56241796875,-3.0758046875,-1.58314453125,1.9031796875,3.28684375,-0.713140625,-4.44105078125,1.2723046875,1.361546875,-0.88883203125,-0.87819921875,2.04615234375
-3.29123828125,6.27869140625,0.7869296875,13.03169921875,2.612765625,1.40115234375,-4.3719453125,-2.04277734375,8.1661171875,2.2887578125,0.984023437499999,-7.2808515625,10.827921875,5.6351015625,0.35275,-3.6831015625,2.845625,3.72526953125,4.17941796875,-3.3068046875,-1.48214453125,2.2861796875,4.07684375,-0.939140625,-4.57905078125,1.4853046875,1.183546875,-0.73083203125,-1.26419921875,1.32515234375
-2.81223828125,5.98269140625,1.0739296875,12.25169921875,2.793765625,1.46015234375,-4.4159453125,-1.64277734375,7.8931171875,2.5937578125,0.8250234375,-6.9758515625,9.436921875,5.8381015625,0.78475,-3.8041015625,3.812625,4.42026953125,4.58941796875,-3.0598046875,-1.12914453125,2.3211796875,4.42484375,-1.023140625,-4.37705078125,1.5373046875,0.814546875,-0.92283203125,-1.94719921875,0.53415234375
-2.69523828125,5.87169140625,1.1939296875,10.92869921875,2.594765625,1.23415234375,-4.2549453125,-2.09477734375,6.8831171875,2.6297578125,0.5350234375,-5.1758515625,7.136921875,5.4371015625,1.07175,-3.2941015625,4.000625,4.52726953125,4.54641796875,-2.5928046875,-0.60314453125,2.0181796875,4.23984375,-0.983140625,-3.96505078125,1.5033046875,0.304546875,-1.38083203125,-2.69319921875,-0.14484765625
-3.00923828125,5.99169140625,0.8889296875,9.26069921875,1.901765625,0.394152343750001,-4.5689453125,-3.26077734375,5.2981171875,2.0507578125,-0.3759765625,-2.5588515625,4.656921875,4.3461015625,0.79975,-3.0401015625,3.395625,4.08626953125,3.84641796875,-2.2908046875,-0.22214453125,1.4031796875,3.51184375,-0.953140625,-3.57705078125,1.3943046875,-0.300453125,-2.02583203125,-3.27719921875,-0.57984765625
-3.66023828125,6.26769140625,-0.0300703124999999,7.48769921875,0.698765625,-1.22084765625,-5.8229453125,-4.73277734375,3.4191171875,0.6377578125,-2.1349765625,-0.2988515625,2.837921875,2.6581015625,-0.27225,-3.5641015625,2.198625,3.22526953125,2.47041796875,-2.4148046875,-0.34914453125,0.5701796875,2.37184375,-1.071140625,-3.40205078125,1.1513046875,-0.923453125,-2.75883203125,-3.52819921875,-0.71884765625
-4.44923828125,6.46869140625,-1.5560703125,5.86569921875,-0.866234375,-3.46884765625,-7.9179453125,-6.04177734375,1.5531171875,-1.5402421875,-4.5429765625,0.7411484375,2.269921875,0.6441015625,-2.07725,-4.7441015625,0.720625,2.11926953125,0.64841796875,-2.9508046875,-1.10214453125,-0.3058203125,1.09084375,-1.370140625,-3.45305078125,0.7273046875,-1.435453125,-3.44883203125,-3.36519921875,-0.59784765625
-5.13323828125,6.27069140625,-3.4750703125,4.59969921875,-2.525234375,-5.96584765625,-10.2299453125,-6.80177734375,-0.0588828125000003,-4.1392421875,-7.1149765625,0.5301484375,2.984921875,-1.3498984375,-4.30125,-6.0871015625,-0.691375,0.92926953125,-1.24558203125,-3.6888046875,-2.26914453125,-1.0238203125,-0.03915625,-1.798140625,-3.59505078125,0.1603046875,-1.720453125,-3.97883203125,-2.85319921875,-0.34284765625
-5.51023828125,5.42969140625,-5.4530703125,3.77569921875,-4.020234375,-8.27784765625,-12.0219453125,-6.81577734375,-1.2838828125,-6.6852421875,-9.3769765625,-0.2868515625,4.410921875,-3.0428984375,-6.56325,-7.2311015625,-1.717375,-0.24073046875,-2.87358203125,-4.4328046875,-3.46214453125,-1.4698203125,-0.86315625,-2.308140625,-3.68205078125,-0.4306953125,-1.768453125,-4.32483203125,-2.20619921875,-0.14584765625
-5.52123828125,3.98969140625,-7.1170703125,3.35169921875,-5.170234375,-10.03584765625,-12.8189453125,-6.18177734375,-2.0818828125,-8.7062421875,-11.0009765625,-1.0048515625,5.682921875,-4.2598984375,-8.51425,-8.1271015625,-2.121375,-1.31973046875,-4.03758203125,-5.0998046875,-4.32814453125,-1.6718203125,-1.40715625,-2.894140625,-3.65705078125,-0.8976953125,-1.687453125,-4.55583203125,-1.68319921875,-0.17384765625
-5.22923828125,2.39869140625,-8.0680703125,3.23169921875,-5.812234375,-10.91284765625,-12.4439453125,-5.31377734375,-2.4298828125,-9.7752421875,-11.6889765625,-1.4068515625,6.116921875,-4.8618984375,-9.78425,-8.7671015625,-1.847375,-2.19473046875,-4.62358203125,-5.6138046875,-4.64314453125,-1.7348203125,-1.76115625,-3.509140625,-3.49805078125,-1.1206953125,-1.603453125,-4.71783203125,-1.40819921875,-0.43884765625
-4.66923828125,1.43169140625,-7.9010703125,3.38269921875,-5.722234375,-10.57684765625,-10.8339453125,-4.74777734375,-2.2458828125,-9.5222421875,-11.0319765625,-1.9248515625,5.565921875,-4.6778984375,-9.92225,-8.8331015625,-1.074375,-2.66173046875,-4.50758203125,-5.7458046875,-4.28814453125,-1.7148203125,-1.91815625,-3.956140625,-3.11805078125,-1.0336953125,-1.525453125,-4.68983203125,-1.23819921875,-0.72984765625
-3.73423828125,1.91869140625,-6.3290703125,3.86469921875,-4.654234375,-8.78684765625,-7.9679453125,-4.80677734375,-1.4098828125,-7.7212421875,-8.6209765625,-3.3248515625,4.442921875,-3.5528984375,-8.50925,-7.7281015625,-0.159375,-2.48173046875,-3.55858203125,-5.1368046875,-3.23214453125,-1.5398203125,-1.71815625,-3.910140625,-2.35505078125,-0.6256953125,-1.311453125,-4.18183203125,-0.81819921875,-0.69684765625
-2.30423828125,4.34869140625,-3.3730703125,4.71569921875,-2.508234375,-5.61584765625,-4.0459453125,-5.34077734375,0.0871171874999996,-4.4662421875,-4.4129765625,-6.0408515625,3.431921875,-1.5038984375,-5.44125,-5.0421015625,0.553625,-1.54073046875,-1.76658203125,-3.5428046875,-1.58814453125,-1.0658203125,-0.95915625,-3.100140625,-1.11505078125,0.0413046874999999,-0.789453125,-2.92983203125,0.19380078125,-0.0618476562499999
-0.47323828125,8.52069140625,0.4859296875,5.80469921875,0.454765625,-1.62384765625,0.2680546875,-5.75677734375,1.9941171875,-0.3212421875,0.923023437499999,-9.5348515625,3.087921875,1.1271015625,-1.18525,-1.0771015625,0.931625,-0.00873046874999989,0.59441796875,-1.1288046875,0.31785546875,-0.2278203125,0.38684375,-1.552140625,0.45794921875,0.8283046875,0.0575468750000001,-0.98483203125,1.83780078125,1.19015234375
1.38976171875,13.40569140625,4.3509296875,6.79669921875,3.564765625,2.20215234375,3.8900546875,-5.36577734375,3.7961171875,3.7227578125,6.0110234375,-12.1568515625,3.544921875,3.6711015625,3.19575,3.0438984375,1.095625,1.64326953125,2.91841796875,1.4261953125,1.96985546875,0.8501796875,2.02384375,0.286859375,1.93694921875,1.5373046875,0.990546875,1.15716796875,3.72480078125,2.76315234375
2.81576171875,17.39169140625,7.1839296875,7.29769921875,5.931765625,4.76315234375,5.7030546875,-3.85177734375,4.9011171875,6.5477578125,9.2240234375,-11.8438515625,4.485921875,5.3401015625,6.37675,5.7918984375,1.287625,2.81626953125,4.42741796875,3.1571953125,2.82485546875,1.8731796875,3.37684375,1.669859375,2.75894921875,1.9693046875,1.583546875,2.71716796875,5.15180078125,4.17115234375
3.46476171875,18.86269140625,8.2379296875,7.06369921875,6.829765625,5.31015234375,5.0960546875,-1.56177734375,4.8921171875,7.3427578125,9.4120234375,-7.4588515625,5.372921875,5.5601015625,7.32175,5.9728984375,1.683625,3.06426953125,4.51241796875,3.2721953125,2.57285546875,2.5271796875,3.86384375,1.904859375,2.51594921875,2.0033046875,1.467546875,3.04316796875,5.47580078125,4.97215234375
3.23776171875,16.85869140625,7.4079296875,6.13569921875,6.047765625,3.79315234375,2.3290546875,0.63322265625,3.7111171875,5.9687578125,6.5210234375,0.1191484375,5.754921875,4.2761015625,5.78575,3.3918984375,2.284625,2.33026953125,3.06041796875,1.6131953125,1.33885546875,2.6711796875,3.24184375,0.764859374999999,1.21694921875,1.6503046875,0.604546875,2.04016796875,4.54380078125,5.00115234375
2.33276171875,11.50669140625,5.2989296875,4.82669921875,4.008765625,0.91315234375,-1.4939453125,1.83022265625,1.6861171875,3.0427578125,1.7410234375,8.1201484375,5.467921875,2.0211015625,2.46875,-0.9541015625,2.897625,0.99826953125,0.59641796875,-1.1798046875,-0.31014453125,2.4311796875,1.81284375,-1.313140625,-0.64105078125,1.0693046875,-0.589453125,0.32916796875,2.90580078125,4.49315234375
1.19776171875,4.02669140625,2.9439296875,3.58769921875,1.581765625,-2.17384765625,-4.8279453125,1.58422265625,-0.5698828125,-0.3102421875,-2.9809765625,13.3531484375,4.638921875,-0.2928984375,-1.27425,-5.3071015625,3.222625,-0.28373046875,-1.91158203125,-3.9248046875,-1.61014453125,2.1481796875,0.31984375,-3.390140625,-2.25805078125,0.5073046875,-1.412453125,-0.99883203125,1.60980078125,4.00615234375
0.32276171875,-3.69730859375,1.3179296875,2.82369921875,-0.300234375,-4.32984765625,-6.3309453125,0.0262226562500008,-2.3778828125,-2.9162421875,-5.8079765625,14.0141484375,3.545921875,-1.7608984375,-4.02425,-7.9901015625,3.009625,-0.90973046875,-3.46258203125,-5.4488046875,-1.96714453125,2.1691796875,-0.42015625,-4.472140625,-2.91805078125,0.1953046875,-1.265453125,-0.98083203125,1.61080078125,4.09815234375
-0.0682382812500002,-9.79330859375,0.9189296875,2.74769921875,-1.003234375,-4.86484765625,-5.4189453125,-2.36577734375,-3.2188828125,-3.9852421875,-5.7879765625,10.5221484375,2.486921875,-1.8388984375,-4.87325,-8.1571015625,2.211625,-0.57373046875,-3.44158203125,-5.1218046875,-1.26814453125,2.6441796875,0.0708437499999999,-3.983140625,-2.35205078125,0.2243046875,-0.0274531249999999,0.63016796875,3.14980078125,4.91915234375
-0.12223828125,-13.06730859375,1.6109296875,3.35969921875,-0.381234375,-3.72084765625,-2.4869453125,-5.02277734375,-2.8808828125,-3.3282421875,-3.1579765625,4.9801484375,1.739921875,-0.5138984375,-3.70725,-6.0701015625,1.044625,0.63426953125,-1.82458203125,-3.0918046875,0.0598554687499999,3.4251796875,1.72284375,-1.996140625,-0.85705078125,0.4953046875,1.843546875,3.14916796875,5.51780078125,6.03415234375
-0.14223828125,-13.36330859375,2.7769296875,4.52569921875,1.229765625,-1.41684765625,1.2830546875,-7.30077734375,-1.4878828125,-1.3182421875,0.8890234375,-0.1618515625,1.575921875,1.7651015625,-1.12925,-2.8301015625,-0.090375,2.33126953125,0.88141796875,-0.1138046875,1.28285546875,4.1561796875,3.99184375,0.870859375,0.89494921875,0.7653046875,3.576546875,5.29316796875,7.42080078125,6.64715234375
-0.27823828125,-11.49230859375,3.6669296875,6.04869921875,3.199765625,1.19715234375,4.4180546875,-8.43577734375,0.5641171875,1.3317578125,4.7900234375,-3.2758515625,2.212921875,4.3141015625,1.88475,0.2008984375,-0.790375,4.04126953125,3.91241796875,2.8541953125,1.78785546875,4.4801796875,6.17984375,3.813859375,2.26194921875,0.7803046875,4.542546875,5.88416796875,7.72480078125,6.11415234375
-0.44923828125,-8.80230859375,3.7609296875,7.68669921875,4.858765625,3.28515234375,5.7650546875,-7.77477734375,2.7341171875,3.8767578125,7.2710234375,-3.9898515625,3.673921875,6.4961015625,4.41675,2.0198984375,-0.845375,5.38526953125,6.57741796875,5.1011953125,1.43985546875,4.2411796875,7.78184375,6.225859375,2.96994921875,0.4113046875,4.594546875,4.50916796875,6.12080078125,4.37215234375
-0.486238281249999,-6.61430859375,2.9679296875,9.11369921875,5.735765625,4.32015234375,4.9860546875,-5.28377734375,4.4981171875,5.7827578125,7.8030234375,-2.9158515625,5.647921875,7.9401015625,5.93275,2.3328984375,-0.348375,6.18626953125,8.48841796875,6.3841953125,0.62385546875,3.5571796875,8.67684375,7.899859375,3.20194921875,-0.3016953125,4.098546875,1.72916796875,3.28180078125,1.99415234375
-0.29923828125,-5.78630859375,1.5699296875,9.95269921875,5.675765625,4.22515234375,2.6540546875,-1.86777734375,5.5261171875,6.8327578125,6.6610234375,-1.1198515625,7.522921875,8.5831015625,6.36075,1.4818984375,0.359625,6.44826953125,9.59241796875,6.8771953125,-0.0651445312500001,2.7281796875,9.06684375,8.961859375,3.36894921875,-1.1866953125,3.634546875,-1.25483203125,0.43980078125,-0.14184765625
0.0477617187500003,-6.52830859375,0.00592968749999989,9.87869921875,4.830765625,3.29215234375,-0.1479453125,0.93222265625,5.7861171875,7.0847578125,4.5930234375,0.3101484375,8.629921875,8.5841015625,5.96275,0.0668984374999999,0.867625,6.29726953125,10.03941796875,6.9161953125,-0.22414453125,2.0731796875,9.26384375,9.660859375,3.79694921875,-2.0036953125,3.638546875,-3.23483203125,-1.27719921875,-1.30184765625
0.33376171875,-8.40930859375,-1.3430703125,8.79769921875,3.583765625,2.01115234375,-2.4419453125,1.76222265625,5.5291171875,6.7757578125,2.3920234375,0.5901484375,8.577921875,8.2081015625,5.13775,-1.3921015625,0.914625,5.91726953125,10.04241796875,6.7941953125,0.17785546875,1.7951796875,9.49884375,10.195859375,4.55494921875,-2.4956953125,4.188546875,-3.53383203125,-1.33119921875,-1.19084765625
0.28076171875,-10.50530859375,-2.2160703125,6.96269921875,2.456765625,0.93215234375,-3.6859453125,0.239222656250001,5.1651171875,6.2507578125,0.6800234375,-0.4168515625,7.472921875,7.7491015625,4.31275,-2.5221015625,0.507625,5.51926953125,9.81841796875,6.7091953125,0.92085546875,1.9531796875,9.85884375,10.666859375,5.52294921875,-2.4406953125,5.065546875,-2.21283203125,0.11680078125,0.00715234375000001
-0.21623828125,-11.70330859375,-2.4560703125,4.95769921875,1.971765625,0.56515234375,-3.6719453125,-2.84577734375,5.0821171875,5.8947578125,-0.0939765625,-2.0018515625,5.861921875,7.4611015625,3.89275,-2.9801015625,-0.133375,5.28826953125,9.57041796875,6.8271953125,1.78885546875,2.4681796875,10.29784375,11.111859375,6.56194921875,-1.7216953125,5.932546875,0.0371679687499999,2.38180078125,1.76015234375
-0.90923828125,-11.17330859375,-2.0050703125,3.47369921875,2.427765625,1.22315234375,-2.3129453125,-6.01877734375,5.4551171875,6.0077578125,0.351023437499999,-2.8478515625,4.412921875,7.4451015625,4.16275,-2.4181015625,-0.736375,5.29126953125,9.43641796875,7.2851953125,2.71985546875,3.1441796875,10.65984375,11.517859375,7.59894921875,-0.3956953125,6.490546875,2.21716796875,4.54180078125,3.39715234375
-1.30923828125,-8.82030859375,-0.9650703125,2.96369921875,3.697765625,2.83015234375,0.3200546875,-7.94277734375,6.0981171875,6.6257578125,2.0030234375,-1.7718515625,3.535921875,7.5571015625,5.12575,-0.681101562499999,-1.122375,5.40526953125,9.38741796875,8.0911953125,3.75885546875,3.6821796875,10.71384375,11.785859375,8.57094921875,1.2863046875,6.547546875,3.41216796875,5.75280078125,4.32415234375
-1.05323828125,-5.42830859375,0.3549296875,3.38569921875,5.194765625,4.81515234375,3.7230546875,-8.01677734375,6.4941171875,7.4237578125,4.3650234375,1.4771484375,3.178921875,7.4161015625,6.37975,1.8788984375,-1.201375,5.32526953125,9.17541796875,8.9881953125,4.87285546875,3.7401796875,10.20284375,11.722859375,9.31994921875,2.9423046875,6.001546875,3.14916796875,5.54180078125,4.21415234375
-0.18523828125,-2.33530859375,1.4899296875,4.23769921875,6.096765625,6.24515234375,6.8200546875,-6.44777734375,6.0471171875,7.8037578125,6.4740234375,5.9341484375,2.935921875,6.5631015625,7.19475,4.2788984375,-0.892375,4.70626953125,8.40841796875,9.4461953125,5.79385546875,3.0601796875,8.93984375,11.074859375,9.54194921875,4.1763046875,4.827546875,1.56416796875,3.97280078125,3.10615234375
0.87876171875,-0.792308593750001,1.9999296875,4.88569921875,5.758765625,6.25415234375,8.3050546875,-3.91177734375,4.4671171875,7.2007578125,7.2580234375,9.8791484375,2.385921875,4.7391015625,6.83075,5.2538984375,-0.125375,3.36026953125,6.75941796875,8.8701953125,6.06085546875,1.5931796875,6.90284375,9.649859375,8.89494921875,4.7063046875,3.090546875,-0.71283203125,1.61180078125,1.38415234375
1.64476171875,-1.33830859375,1.6769296875,4.95869921875,4.112765625,4.54915234375,7.3430546875,-1.22177734375,2.0411171875,5.4467578125,6.1250234375,11.6621484375,1.440921875,2.1171015625,4.97975,3.9808984375,1.043625,1.42526953125,4.21241796875,6.9531953125,5.27485546875,-0.4248203125,4.31284375,7.464859375,7.20794921875,4.4583046875,0.976546875,-2.86283203125,-0.70319921875,-0.36484765625
1.82576171875,-3.53730859375,0.6569296875,4.55069921875,1.784765625,1.69415234375,4.1640546875,0.81922265625,-0.4268828125,2.9737578125,3.4030234375,10.4121484375,0.452921875,-0.6558984375,2.02575,0.7058984375,2.316625,-0.62573046875,1.18741796875,3.9451953125,3.39485546875,-2.5388203125,1.62284375,4.829859375,4.66094921875,3.5933046875,-1.188453125,-4.23583203125,-2.19519921875,-1.58184765625
1.49676171875,-6.22930859375,-0.6590703125,4.11669921875,-0.176234375,-1.10884765625,0.0590546874999998,1.53422265625,-2.0138828125,0.6577578125,0.2370234375,6.3641484375,-0.0190781250000001,-2.7098984375,-1.09225,-3.3001015625,3.234625,-2.18473046875,-1.61658203125,0.5881953125,0.83685546875,-4.2658203125,-0.62815625,2.245859375,1.75594921875,2.4373046875,-3.037453125,-4.57883203125,-2.46219921875,-1.95184765625
1.05876171875,-8.14130859375,-1.8210703125,4.12769921875,-0.861234375,-2.65484765625,-3.2799453125,0.62822265625,-2.1698828125,-0.6352421875,-2.0599765625,0.8151484375,0.390921875,-3.4108984375,-3.38425,-6.5081015625,3.443625,-2.82173046875,-3.58358203125,-2.2928046875,-1.71314453125,-5.3128203125,-2.06715625,0.145859375,-0.92705078125,1.3423046875,-4.323453125,-4.08883203125,-1.63919921875,-1.54784765625
0.96276171875,-8.51830859375,-2.5560703125,4.73469921875,-0.00923437500000013,-2.39384765625,-4.6799453125,-1.54577734375,-1.0258828125,-0.5272421875,-2.7779765625,-4.2978515625,1.574921875,-2.7208984375,-4.34225,-8.0511015625,2.936625,-2.53273046875,-4.51258203125,-4.2488046875,-3.62014453125,-5.7078203125,-2.67815625,-1.341140625,-3.01305078125,0.5233046875,-5.060453125,-3.29383203125,-0.33719921875,-0.78784765625
1.33876171875,-7.42830859375,-2.8320703125,5.63269921875,1.870765625,-0.677847656249999,-4.0359453125,-4.01077734375,0.6631171875,0.6887578125,-2.1389765625,-7.1518515625,3.010921875,-1.2188984375,-4.14525,-8.0791015625,2.049625,-1.74173046875,-4.68058203125,-5.3708046875,-4.54214453125,-5.7468203125,-2.79515625,-2.416140625,-4.45405078125,-0.0286953125,-5.521453125,-2.80083203125,0.64380078125,-0.24184765625
1.85276171875,-5.61430859375,-2.7650703125,6.22569921875,3.826765625,1.53515234375,-2.1679453125,-5.56877734375,1.9161171875,2.2677578125,-0.9979765625,-6.8408515625,4.093921875,0.2371015625,-3.41425,-7.3661015625,1.212625,-1.04273046875,-4.59558203125,-6.0688046875,-4.48814453125,-5.7808203125,-2.88015625,-3.403140625,-5.42505078125,-0.5016953125,-6.063453125,-3.03383203125,0.69680078125,-0.35384765625
1.99176171875,-4.04630859375,-2.4940703125,6.00469921875,4.993765625,3.26415234375,-0.1859453125,-5.36077734375,2.0461171875,3.4457578125,-0.2099765625,-3.7948515625,4.478921875,0.9881015625,-2.76925,-6.6211015625,0.676625,-0.85073046875,-4.64758203125,-6.6808046875,-3.75814453125,-5.9808203125,-3.24415625,-4.479140625,-6.12405078125,-1.1066953125,-6.907453125,-4.02383203125,-0.28919921875,-1.22984765625
1.48976171875,-3.44730859375,-2.1240703125,4.87669921875,4.995765625,3.96715234375,1.1080546875,-3.24477734375,0.985117187499999,3.8107578125,-0.1549765625,0.4911484375,4.203921875,0.8681015625,-2.50625,-6.0951015625,0.405625,-1.18673046875,-4.90458203125,-7.2458046875,-2.83114453125,-6.2318203125,-3.88515625,-5.558140625,-6.62805078125,-1.9176953125,-8.007453125,-5.39283203125,-1.87719921875,-2.60584765625
0.47976171875,-4.01230859375,-1.7550703125,3.21069921875,4.007765625,3.64715234375,1.4290546875,0.13622265625,-0.7628828125,3.3867578125,-0.7109765625,4.2961484375,3.577921875,0.1971015625,-2.58525,-5.6961015625,0.215625,-1.72673046875,-5.16058203125,-7.5658046875,-2.22514453125,-6.2448203125,-4.52915625,-6.384140625,-6.90105078125,-2.8126953125,-9.091453125,-6.53483203125,-3.31119921875,-4.00684765625
-0.73023828125,-5.43930859375,-1.4960703125,1.57769921875,2.538765625,2.66115234375,0.8930546875,3.62122265625,-2.4778828125,2.4827578125,-1.5289765625,6.5091484375,2.950921875,-0.4948984375,-2.82025,-5.3451015625,-0.00737500000000002,-2.04773046875,-5.15758203125,-7.4628046875,-2.30914453125,-5.8048203125,-4.84415625,-6.728140625,-6.87505078125,-3.5336953125,-9.847453125,-6.95983203125,-3.92019921875,-4.99284765625
-1.88623828125,-7.15630859375,-1.4130703125,0.42069921875,1.136765625,1.44315234375,-0.1819453125,6.00122265625,-3.5998828125,1.4597578125,-2.3189765625,6.9431484375,2.515921875,-0.7818984375,-3.05025,-5.1491015625,-0.201375,-1.90073046875,-4.77658203125,-6.9428046875,-3.14114453125,-4.9678203125,-4.65115625,-6.534140625,-6.52905078125,-3.8396953125,-10.102453125,-6.57783203125,-3.48419921875,-5.35584765625
-2.80923828125,-8.56930859375,-1.4660703125,-0.12330078125,0.196765625,0.34415234375,-1.3719453125,6.53822265625,-3.9188828125,0.6117578125,-2.9069765625,6.0541484375,2.222921875,-0.5098984375,-3.16125,-5.2151015625,-0.220375,-1.32073046875,-4.06658203125,-6.1508046875,-4.39414453125,-4.0528203125,-4.01215625,-5.890140625,-5.87605078125,-3.6426953125,-9.876453125,-5.73583203125,-2.32319921875,-5.15284765625
-3.32323828125,-9.23230859375,-1.4920703125,-0.18930078125,-0.0772343749999997,-0.37384765625,-2.1649453125,5.28522265625,-3.5468828125,0.1567578125,-3.1129765625,4.5041484375,1.831921875,0.2281015625,-3.00425,-5.3491015625,0.00362499999999999,-0.54773046875,-3.12658203125,-5.1788046875,-5.45114453125,-3.4448203125,-3.13715625,-4.893140625,-4.91405078125,-3.0566953125,-9.296453125,-4.98883203125,-1.07419921875,-4.60984765625
-3.27423828125,-8.94130859375,-1.2790703125,-0.0193007812500001,0.343765625,-0.50184765625,-2.0679453125,3.01922265625,-2.7748828125,0.2637578125,-2.6799765625,2.9101484375,1.078921875,1.2311015625,-2.36925,-5.0191015625,0.400625,0.15626953125,-1.99058203125,-3.9388046875,-5.64314453125,-3.3598203125,-2.22515625,-3.553140625,-3.60905078125,-2.3426953125,-8.474453125,-4.75083203125,-0.31519921875,-3.96384765625
-2.64723828125,-7.83730859375,-0.7090703125,0.17169921875,1.289765625,0.0361523437500004,-0.8789453125,0.840222656250001,-1.9438828125,0.9767578125,-1.4409765625,1.7811484375,-0.120078125,2.2721015625,-1.12625,-3.7611015625,0.826625,0.63826953125,-0.65458203125,-2.2788046875,-4.57514453125,-3.7408203125,-1.39015625,-1.861140625,-1.98205078125,-1.7826953125,-7.464453125,-5.07083203125,-0.28419921875,-3.38084765625
-1.62323828125,-6.44230859375,0.0989296875000001,0.24669921875,2.358765625,1.02915234375,1.0020546875,-0.330777343749999,-1.3518828125,2.0917578125,0.3680234375,1.4771484375,-1.542078125,3.0951015625,0.54975,-1.7441015625,1.184625,0.85926953125,0.77241796875,-0.2658046875,-2.38014453125,-4.3408203125,-0.70115625,0.0448593749999997,-0.23805078125,-1.5686953125,-6.338453125,-5.66983203125,-0.84619921875,-2.95884765625
-0.56123828125,-5.50330859375,0.7929296875,0.12069921875,2.989765625,1.94115234375,2.5740546875,-0.11377734375,-1.2188828125,3.1467578125,2.0020234375,2.1141484375,-2.721078125,3.4151015625,2.11075,0.0728984375000001,1.472625,0.83626953125,1.97841796875,1.6641953125,0.24785546875,-4.9118203125,-0.26015625,1.795859375,1.20094921875,-1.7476953125,-5.249453125,-6.17083203125,-1.65519921875,-2.74684765625
0.10276171875,-5.61330859375,0.9809296875,-0.26230078125,2.715765625,2.16315234375,2.7540546875,1.24122265625,-1.6508828125,3.6247578125,2.5660234375,3.4901484375,-3.170078125,3.0221015625,2.89375,0.4998984375,1.765625,0.60826953125,2.57841796875,2.8931953125,2.34985546875,-5.3408203125,-0.17115625,2.940859375,1.87694921875,-2.1976953125,-4.404453125,-6.33183203125,-2.33419921875,-2.72684765625
0.0817617187500002,-6.82130859375,0.5139296875,-0.88830078125,1.469765625,1.44915234375,1.1800546875,3.01822265625,-2.5958828125,3.3127578125,1.6730234375,5.1141484375,-2.664078125,1.9561015625,2.57475,-0.9421015625,2.150625,0.26126953125,2.38541796875,3.0611953125,3.20285546875,-5.6348203125,-0.43215625,3.246859375,1.60794921875,-2.6566953125,-3.914453125,-6.13083203125,-2.58019921875,-2.77384765625
-0.51123828125,-8.50630859375,-0.3550703125,-1.60030078125,-0.280234375,0.191152343750001,-1.3159453125,4.37322265625,-3.7928828125,2.5087578125,-0.1319765625,6.3931484375,-1.411078125,0.5841015625,1.46575,-3.4621015625,2.647625,-0.0377304687499999,1.60641796875,2.3901953125,2.71085546875,-5.8148203125,-0.85515625,2.901859375,0.68494921875,-2.8366953125,-3.679453125,-5.68583203125,-2.21419921875,-2.67384765625
-1.13023828125,-9.65630859375,-1.0820703125,-2.09030078125,-1.718234375,-0.749847656249999,-3.0769453125,4.68822265625,-4.8048828125,1.8947578125,-1.6139765625,6.9051484375,0.0419218749999999,-0.5238984375,0.39375,-5.3811015625,3.171625,-0.0727304687499999,0.76841796875,1.6051953125,1.45585546875,-5.8048203125,-1.12015625,2.437859375,-0.23305078125,-2.5916953125,-3.416453125,-5.10683203125,-1.20719921875,-2.22784765625
-1.14223828125,-9.41430859375,-1.1720703125,-2.05330078125,-2.135234375,-0.59984765625,-2.7219453125,3.80422265625,-5.2208828125,2.0907578125,-1.6779765625,6.5841484375,1.091921875,-0.8978984375,0.17675,-5.2611015625,3.539625,0.28826953125,0.39141796875,1.4381953125,0.33585546875,-5.4698203125,-0.96215625,2.386859375,-0.51605078125,-2.0386953125,-2.869453125,-4.40983203125,0.28480078125,-1.40184765625
-0.30323828125,-7.59830859375,-0.5090703125,-1.42030078125,-1.386234375,0.739152343750001,-0.2029453125,2.06622265625,-4.9218828125,3.1787578125,-0.2229765625,5.6901484375,1.367921875,-0.4738984375,1.04475,-3.0241015625,3.560625,0.93926953125,0.60541796875,2.0601953125,0.00685546874999998,-4.7538203125,-0.39315625,2.885859375,-0.00605078125000036,-1.5326953125,-2.057453125,-3.59283203125,1.91980078125,-0.42184765625
1.06176171875,-4.89630859375,0.5419296875,-0.51330078125,-0.0452343749999997,2.50915234375,3.0090546875,0.18922265625,-4.2138828125,4.5397578125,1.6500234375,4.5931484375,0.820921875,0.300101562500001,2.41375,-0.221101562499999,3.166625,1.47626953125,0.98741796875,2.8521953125,0.46785546875,-3.8248203125,0.20384375,3.492859375,0.80194921875,-1.4736953125,-1.384453125,-2.78383203125,3.20680078125,0.28015234375
2.29376171875,-2.56030859375,1.3659296875,0.0636992187500001,0.889765625,3.51715234375,4.8380546875,-1.07677734375,-3.6888828125,5.1717578125,2.2990234375,3.5061484375,-0.342078125,0.6721015625,3.20875,0.8618984375,2.459625,1.35026953125,0.774417968749999,2.7471953125,1.07885546875,-3.0618203125,0.21884375,3.401859375,1.01694921875,-2.0636953125,-1.464453125,-2.30383203125,3.66080078125,0.28515234375
2.82276171875,-1.74630859375,1.4969296875,-0.25630078125,0.590765625,2.90015234375,3.9870546875,-1.35477734375,-3.8808828125,4.3177578125,0.6800234375,2.3291484375,-1.783078125,0.0241015625000003,2.56275,-1.2651015625,1.640625,0.17626953125,-0.64558203125,0.9541953125,1.02085546875,-2.8628203125,-0.82715625,1.949859375,-0.08605078125,-3.1556953125,-2.726453125,-2.53783203125,3.02780078125,-0.54584765625
2.48376171875,-2.84230859375,0.9129296875,-1.65630078125,-1.094234375,0.702152343750001,0.7800546875,-0.856777343749999,-4.9428828125,1.9657578125,-2.8899765625,0.7571484375,-3.109078125,-1.7318984375,0.40275,-6.1931015625,0.847625,-1.97873046875,-3.28458203125,-2.4388046875,-0.13714453125,-3.4148203125,-2.94315625,-0.907140625,-2.56105078125,-4.2976953125,-5.086453125,-3.66783203125,1.46780078125,-1.94484765625
1.61876171875,-5.26230859375,0.00392968749999989,-3.80430078125,-3.570234375,-2.18084765625,-3.1149453125,-0.162777343749999,-6.5438828125,-1.1192421875,-6.9099765625,-1.3438515625,-3.953078125,-4.0868984375,-2.50725,-11.7931015625,0.071625,-4.55773046875,-6.48958203125,-6.4498046875,-2.18714453125,-4.5798203125,-5.62115625,-4.516140625,-5.73005078125,-4.9776953125,-7.916453125,-5.50983203125,-0.49819921875,-3.37984765625
0.89576171875,-7.79530859375,-0.7300703125,-6.02430078125,-5.872234375,-4.57684765625,-5.7889453125,0.26622265625,-8.0498828125,-3.8412421875,-9.6779765625,-3.5118515625,-4.100078125,-6.2408984375,-5.05325,-15.5561015625,-0.800375,-6.78073046875,-9.30858203125,-9.7768046875,-4.49014453125,-5.9878203125,-8.10715625,-7.871140625,-8.60305078125,-4.9266953125,-10.370453125,-7.58783203125,-2.25119921875,-4.38384765625
0.87976171875,-9.27630859375,-1.0120703125,-7.65830078125,-7.201234375,-5.70584765625,-6.1809453125,0.34922265625,-8.8748828125,-5.3562421875,-10.2929765625,-4.7258515625,-3.621078125,-7.5418984375,-6.41725,-16.0841015625,-1.841375,-8.02973046875,-11.00158203125,-11.5218046875,-6.41314453125,-7.2478203125,-9.78615625,-10.133140625,-10.43205078125,-4.2806953125,-11.808453125,-9.37883203125,-3.37719921875,-4.82984765625
1.61476171875,-9.14230859375,-0.9070703125,-8.38030078125,-7.261234375,-5.46984765625,-4.4939453125,0.22422265625,-8.7708828125,-5.4092421875,-9.0069765625,-4.1218515625,-2.890078125,-7.7688984375,-6.41225,-13.6771015625,-2.986375,-8.11973046875,-11.33758203125,-11.5488046875,-7.62714453125,-8.1358203125,-10.42615625,-10.954140625,-11.00705078125,-3.4766953125,-12.052453125,-10.55483203125,-3.79219921875,-4.95784765625
2.58676171875,-7.60330859375,-0.6820703125,-8.28230078125,-6.266234375,-4.28984765625,-1.8059453125,-0.0877773437499991,-7.8868828125,-4.2882421875,-6.8019765625,-1.9148515625,-2.404078125,-7.1198984375,-5.38425,-9.8361015625,-4.035375,-7.29373046875,-10.55658203125,-10.3268046875,-8.10614453125,-8.6258203125,-10.14815625,-10.462140625,-10.57005078125,-2.9756953125,-11.333453125,-11.04883203125,-3.65819921875,-5.13484765625
3.12976171875,-5.42230859375,-0.5640703125,-7.71830078125,-4.705234375,-2.72084765625,0.6920546875,-0.707777343749999,-6.6058828125,-2.5282421875,-4.6769765625,0.3961484375,-2.506078125,-6.0048984375,-3.86225,-6.2281015625,-4.729375,-6.00373046875,-9.11158203125,-8.5188046875,-7.95814453125,-8.8078203125,-9.25415625,-9.048140625,-9.51705078125,-2.9906953125,-10.074453125,-10.97383203125,-3.22619921875,-5.56984765625
2.86676171875,-3.49630859375,-0.5870703125,-7.09230078125,-3.098234375,-1.15684765625,2.3090546875,-1.61077734375,-5.3478828125,-0.6422421875,-3.1569765625,0.9301484375,-3.188078125,-4.8268984375,-2.27825,-3.9261015625,-4.853375,-4.69373046875,-7.43258203125,-6.6508046875,-7.27714453125,-8.7868203125,-8.06615625,-7.159140625,-8.16705078125,-3.3946953125,-8.692453125,-10.53083203125,-2.74219921875,-6.18284765625
1.83076171875,-2.47630859375,-0.6270703125,-6.73330078125,-1.839234375,0.234152343750001,3.0350546875,-2.38477734375,-4.4468828125,1.0037578125,-2.2539765625,-1.1748515625,-4.112078125,-3.8678984375,-0.883249999999999,-3.2111015625,-4.324375,-3.67673046875,-5.83658203125,-5.0158046875,-6.11414453125,-8.6438203125,-6.85315625,-5.203140625,-6.72305078125,-3.8476953125,-7.510453125,-9.95383203125,-2.41719921875,-6.69684765625
0.33676171875,-2.55230859375,-0.5440703125,-6.83930078125,-1.136234375,1.43315234375,3.3700546875,-2.36877734375,-4.0988828125,2.1887578125,-1.6959765625,-4.9778515625,-4.820078125,-3.2568984375,0.19675,-3.7471015625,-3.270375,-3.11273046875,-4.51658203125,-3.7178046875,-4.53214453125,-8.4298203125,-5.81315625,-3.504140625,-5.32205078125,-4.0006953125,-6.712453125,-9.43783203125,-2.37419921875,-6.82184765625
-1.13123828125,-3.43430859375,-0.3010703125,-7.42930078125,-0.987234375,2.48115234375,3.9970546875,-1.08577734375,-4.2898828125,2.8387578125,-1.1529765625,-8.1948515625,-4.983078125,-2.9718984375,0.93275,-4.7991015625,-2.052375,-3.00273046875,-3.53658203125,-2.7098046875,-2.66014453125,-8.1248203125,-5.02515625,-2.235140625,-4.04305078125,-3.6406953125,-6.264453125,-9.00583203125,-2.54119921875,-6.35584765625
-2.00623828125,-4.48730859375,0.0439296874999999,-8.31430078125,-1.197234375,3.42315234375,5.4210546875,1.34322265625,-4.7598828125,3.0367578125,-0.3739765625,-8.6238515625,-4.571078125,-2.8548984375,1.41375,-5.4311015625,-1.179375,-3.18773046875,-2.81458203125,-1.8148046875,-0.69214453125,-7.6238203125,-4.41415625,-1.357140625,-2.87505078125,-2.7096953125,-5.886453125,-8.41983203125,-2.59519921875,-5.19984765625
-1.84223828125,-5.01230859375,0.4099296875,-9.19030078125,-1.486234375,4.26715234375,7.6580546875,4.09022265625,-5.1088828125,2.9737578125,0.7450234375,-5.5288515625,-3.839078125,-2.6818984375,1.83675,-4.7781015625,-1.093375,-3.39673046875,-2.14958203125,-0.7838046875,1.14885546875,-6.7918203125,-3.79415625,-0.654140625,-1.71705078125,-1.2936953125,-5.166453125,-7.29883203125,-2.10919921875,-3.35284765625
-0.587238281249999,-4.58430859375,0.7789296875,-9.81930078125,-1.638234375,4.93315234375,10.1280546875,5.97022265625,-5.0128828125,2.8427578125,2.0990234375,-0.0248515625000001,-3.160078125,-2.2698984375,2.42075,-2.4001015625,-1.938375,-3.37073046875,-1.33058203125,0.5691953125,2.66085546875,-5.5898203125,-2.99415625,0.121859375,-0.44805078125,0.3873046875,-3.818453125,-5.41783203125,-0.83219921875,-0.97684765625
1.33576171875,-3.30730859375,1.2049296875,-10.16730078125,-1.627234375,5.24315234375,11.8980546875,6.12022265625,-4.4068828125,2.7217578125,3.3800234375,5.6991484375,-2.836078125,-1.5868984375,3.27275,1.4658984375,-3.431375,-2.98773046875,-0.26058203125,2.2531953125,3.72685546875,-4.1608203125,-1.99015625,1.089859375,0.98094921875,1.9913046875,-1.900453125,-2.94483203125,1.07480078125,1.53915234375
3.25476171875,-1.77730859375,1.7759296875,-10.37330078125,-1.589234375,5.02515234375,12.2580546875,4.53822265625,-3.5018828125,2.5737578125,4.2500234375,9.6051484375,-2.972078125,-0.7718984375,4.34175,5.9618984375,-4.937375,-2.30473046875,0.984417968749999,4.1121953125,4.36985546875,-2.8058203125,-0.92815625,2.180859375,2.51694921875,3.1613046875,0.182546875,-0.42283203125,3.05580078125,3.62015234375
4.57776171875,-0.730308593750001,2.5509296875,-10.60530078125,-1.677234375,4.30115234375,11.2680546875,1.99222265625,-2.6428828125,2.3527578125,4.6050234375,10.6611484375,-3.470078125,-0.0438984374999998,5.48175,10.0128984375,-5.729375,-1.49273046875,2.23241796875,5.9591953125,4.80085546875,-1.8518203125,-0.0171562500000002,3.233859375,4.06694921875,3.6843046875,1.901546875,1.51816796875,4.44280078125,4.68915234375
4.99376171875,-0.61630859375,3.5019296875,-10.93030078125,-1.915234375,3.36015234375,9.8140546875,-0.601777343749999,-2.1338828125,2.1057578125,4.7020234375,9.0601484375,-4.108078125,0.436101562500001,6.57275,12.8448984375,-5.328375,-0.72573046875,3.32741796875,7.7251953125,5.36385546875,-1.4988203125,0.62184375,4.141859375,5.56094921875,3.6043046875,2.900546875,2.48916796875,4.81580078125,4.42315234375
4.51676171875,-1.38830859375,4.4739296875,-11.28230078125,-2.196234375,2.63415234375,9.0640546875,-2.77977734375,-2.1118828125,1.9487578125,4.9760234375,5.9661484375,-4.649078125,0.6241015625,7.56075,14.2888984375,-3.758375,-0.10973046875,4.19441796875,9.4531953125,6.31485546875,-1.7448203125,1.01084375,4.926859375,6.96094921875,3.1813046875,3.173546875,2.51416796875,4.20880078125,2.95115234375
3.41376171875,-2.62830859375,5.2099296875,-11.53630078125,-2.398234375,2.41815234375,9.6650546875,-4.54477734375,-2.5258828125,1.9397578125,5.6580234375,2.9781484375,-4.945078125,0.5541015625,8.39175,14.6688984375,-1.534375,0.31426953125,4.80341796875,11.1401953125,7.56085546875,-2.4048203125,1.25284375,5.669859375,8.18294921875,2.7243046875,3.017546875,1.95316796875,3.06180078125,0.84715234375
2.02576171875,-3.82430859375,5.4469296875,-11.59930078125,-2.506234375,2.65815234375,11.2470546875,-5.88277734375,-3.1888828125,1.9937578125,6.4860234375,1.4351484375,-4.995078125,0.268101562500001,8.91875,14.3718984375,0.632625,0.52926953125,5.09241796875,12.5481953125,8.59285546875,-3.2098203125,1.41984375,6.383859375,9.03794921875,2.3923046875,2.845546875,1.28716796875,1.96780078125,-1.10084765625
0.606761718750001,-4.59030859375,5.0669296875,-11.44130078125,-2.599234375,3.00515234375,12.6260546875,-6.35477734375,-3.8608828125,1.9427578125,6.8170234375,1.8101484375,-4.931078125,-0.1868984375,8.92475,13.4908984375,2.170625,0.53326953125,4.98141796875,13.2131953125,8.76385546875,-3.8968203125,1.51684375,6.962859375,9.29794921875,2.1413046875,2.993546875,0.92216796875,1.40180078125,-2.23084765625
-0.63923828125,-4.71630859375,4.2239296875,-11.02930078125,-2.696234375,3.12215234375,12.6590546875,-5.24377734375,-4.2768828125,1.7307578125,6.1330234375,3.5781484375,-4.907078125,-0.6918984375,8.30475,11.8928984375,2.823625,0.39026953125,4.46741796875,12.7281953125,7.75785546875,-4.2678203125,1.54084375,7.259859375,8.88094921875,1.8163046875,3.620546875,1.10216796875,1.55780078125,-2.25784765625
-1.36123828125,-4.11530859375,3.3329296875,-10.25830078125,-2.634234375,2.98515234375,11.1310546875,-2.16277734375,-4.1718828125,1.5617578125,4.5430234375,5.6811484375,-4.961078125,-1.0188984375,7.25275,9.6198984375,2.616625,0.27326953125,3.71841796875,11.0871953125,5.89885546875,-4.2078203125,1.55884375,7.222859375,7.99894921875,1.3393046875,4.702546875,1.89516796875,2.34980078125,-1.31884765625
-1.03023828125,-2.80030859375,2.9069296875,-8.97530078125,-2.115234375,2.90715234375,8.9460546875,2.38322265625,-3.3678828125,1.8107578125,2.8150234375,7.2671484375,-4.942078125,-0.9038984375,6.23075,7.0768984375,1.765625,0.41726953125,3.03041796875,8.7761953125,4.03985546875,-3.7098203125,1.69784375,6.937859375,7.08994921875,0.8153046875,6.054546875,3.17416796875,3.48580078125,0.17815234375
0.73376171875,-0.936308593750001,3.2879296875,-7.14330078125,-0.921234375,3.24615234375,7.4570546875,6.93322265625,-1.9078828125,2.7477578125,1.8450234375,8.1501484375,-4.591078125,-0.2208984375,5.69475,4.7838984375,0.608625,0.98626953125,2.65841796875,6.4991953125,3.07685546875,-2.9098203125,2.03984375,6.530859375,6.53994921875,0.4943046875,7.339546875,4.59216796875,4.57580078125,1.73515234375
3.75876171875,1.10569140625,4.4529296875,-4.99130078125,0.878765625,4.06815234375,7.5130546875,9.63022265625,-0.1238828125,4.2757578125,2.0190234375,8.7091484375,-3.707078125,0.8891015625,5.79175,3.0108984375,-0.479375,1.94526953125,2.65741796875,4.7781953125,3.39985546875,-2.0538203125,2.50884375,6.048859375,6.41294921875,0.6173046875,8.124546875,5.63516796875,5.21980078125,2.91115234375
7.27476171875,2.78169140625,6.0089296875,-2.99830078125,2.893765625,5.04715234375,8.9540546875,9.17722265625,1.4661171875,5.9297578125,2.9760234375,9.3691484375,-2.312078125,2.0421015625,6.29475,1.7488984375,-1.219375,3.05026953125,2.86341796875,3.7631953125,4.65485546875,-1.3958203125,2.88184375,5.430859375,6.42694921875,1.2643046875,8.036546875,5.81016796875,5.12780078125,3.41515234375
10.26076171875,3.57869140625,7.3809296875,-1.70930078125,4.570765625,5.67015234375,10.8140546875,5.65822265625,2.4001171875,7.1177578125,3.9240234375,10.0631484375,-0.679078125,2.8021015625,6.79775,1.0408984375,-1.550375,3.96926953125,3.02941796875,3.3561953125,5.99385546875,-1.0528203125,2.92684375,4.630859375,6.21794921875,2.3233046875,6.982546875,4.95016796875,4.26980078125,3.21715234375
11.91176171875,3.30569140625,8.1249296875,-1.46830078125,5.454765625,5.58915234375,12.0020546875,0.669222656250001,2.5021171875,7.4647578125,4.2490234375,10.0441484375,0.802921875,2.9391015625,7.03775,1.3288984375,-1.656375,4.46826953125,3.04541796875,3.4921953125,6.66285546875,-0.9028203125,2.62184375,3.784859375,5.70094921875,3.5913046875,5.309546875,3.43416796875,3.02780078125,2.62215234375
11.95076171875,2.26869140625,8.1589296875,-2.23930078125,5.405765625,4.87015234375,11.9640546875,-3.43977734375,1.9511171875,7.0137578125,3.9550234375,8.2861484375,1.849921875,2.5861015625,7.08075,3.3918984375,-1.849375,4.55026953125,3.04741796875,4.2991953125,6.51885546875,-0.6078203125,2.24784375,3.259859375,5.23094921875,4.9443046875,3.749546875,2.12416796875,2.13780078125,2.23215234375
10.73776171875,1.15169140625,7.7669296875,-3.59730078125,4.625765625,3.94515234375,10.9380546875,-4.82877734375,1.1841171875,6.1697578125,3.5920234375,4.3831484375,2.384921875,2.1441015625,7.22375,7.7218984375,-2.319375,4.42526953125,3.31341796875,5.9411953125,6.07085546875,0.1991796875,2.23784375,3.462859375,5.39094921875,6.4113046875,3.089546875,1.93416796875,2.34480078125,2.68815234375
9.08876171875,0.611691406249999,7.3689296875,-4.91530078125,3.517765625,3.30215234375,9.6440546875,-3.20077734375,0.6661171875,5.4067578125,3.7250234375,-0.6928515625,2.484921875,2.0051015625,7.66775,13.7338984375,-2.909375,4.34326953125,4.00341796875,8.2551953125,6.02685546875,1.6701796875,2.86784375,4.520859375,6.51294921875,8.0713046875,3.725546875,3.28416796875,3.92180078125,4.28815234375
7.84276171875,0.852691406249999,7.2159296875,-5.65530078125,2.463765625,3.13415234375,8.6600546875,0.04522265625,0.6661171875,4.9647578125,4.3730234375,-4.7598515625,2.243921875,2.2901015625,8.25275,19.5048984375,-3.129375,4.40526953125,4.95941796875,10.5461953125,6.71685546875,3.6011796875,4.01784375,6.076859375,8.31794921875,9.8583046875,5.398546875,5.81916796875,6.41680078125,6.74015234375
7.39976171875,1.51669140625,7.2549296875,-5.59430078125,1.698765625,3.23715234375,8.0070546875,2.64722265625,1.1711171875,4.7637578125,4.9170234375,-5.5948515625,1.722921875,2.8161015625,8.50675,22.5138984375,-2.458375,4.52426953125,5.76441796875,11.8251953125,7.83285546875,5.5051796875,5.22284375,7.431859375,9.98494921875,11.4453046875,7.332546875,8.59816796875,8.85880078125,9.24615234375
7.64176171875,1.97669140625,7.2539296875,-4.84330078125,1.328765625,3.23215234375,7.3370546875,2.82622265625,1.9711171875,4.5797578125,4.5880234375,-2.3068515625,1.018921875,3.2881015625,8.01775,21.0238984375,-0.727375,4.54526953125,6.04141796875,11.3971953125,8.69585546875,6.8731796875,5.97284375,7.961859375,10.65694921875,12.3513046875,8.701546875,10.62516796875,10.29280078125,10.90115234375
8.27076171875,1.83669140625,7.0639296875,-3.66030078125,1.423765625,2.94715234375,6.5140546875,0.279222656250001,2.8511171875,4.3397578125,3.1730234375,4.0261484375,0.356921875,3.5671015625,6.83775,15.2558984375,1.696625,4.42426953125,5.76741796875,9.4031953125,8.80485546875,7.4411796875,6.04684375,7.531859375,10.02894921875,12.2143046875,9.115546875,11.34516796875,10.30080078125,11.17815234375
9.18576171875,1.24669140625,6.7859296875,-2.24830078125,2.083765625,2.63815234375,5.9990546875,-3.82177734375,3.7271171875,4.2887578125,1.3620234375,10.7601484375,0.0629218749999999,3.8041015625,5.61175,7.5968984375,4.053625,4.32026953125,5.36941796875,6.9151953125,8.23885546875,7.2941796875,5.67284375,6.629859375,8.59894921875,11.0433046875,8.828546875,10.83916796875,9.18480078125,10.19115234375
10.51276171875,0.842691406249999,6.7119296875,-0.68530078125,3.390765625,2.85815234375,6.5890546875,-7.69677734375,4.6331171875,4.8737578125,0.4500234375,14.7761484375,0.393921875,4.3631015625,5.30075,1.6238984375,5.546625,4.53026953125,5.53041796875,5.4681953125,7.59985546875,6.7811796875,5.40684375,6.142859375,7.42694921875,9.2853046875,8.553546875,9.68316796875,7.78780078125,8.62615234375
12.34276171875,1.34969140625,7.0949296875,0.98069921875,5.283765625,4.04915234375,8.6940546875,-9.92277734375,5.6201171875,6.4307578125,1.5340234375,13.7861484375,1.354921875,5.5811015625,6.63975,0.4378984375,5.691625,5.30526953125,6.81141796875,6.2831953125,7.56685546875,6.3351796875,5.84184375,6.880859375,7.53694921875,7.6503046875,9.041546875,8.63016796875,7.07180078125,7.37415234375
14.48476171875,3.08769140625,7.9319296875,2.61269921875,7.461765625,6.15415234375,11.7640546875,-9.86377734375,6.6651171875,8.8827578125,4.7590234375,7.4291484375,2.650921875,7.5171015625,9.66675,5.1088984375,4.529625,6.67826953125,9.30241796875,9.6061953125,8.44785546875,6.2851796875,7.26784375,9.131859375,9.33694921875,6.7713046875,10.645546875,8.27116796875,7.63580078125,7.06215234375
16.42876171875,5.69169140625,8.9139296875,3.94469921875,9.422765625,8.54415234375,14.4050546875,-7.64577734375,7.6571171875,11.6807578125,9.1010234375,-2.2348515625,3.847921875,9.8461015625,13.60175,14.0558984375,2.608625,8.38426953125,12.50541796875,14.5241953125,10.03985546875,6.7121796875,9.49584375,12.470859375,12.37494921875,6.8853046875,13.102546875,8.76216796875,9.37780078125,7.70015234375
17.49376171875,8.18969140625,9.5579296875,4.65269921875,10.631765625,10.32115234375,15.1190546875,-4.01177734375,8.4251171875,14.0117578125,12.8290234375,-11.2948515625,4.617921875,11.9571015625,17.15175,23.6508984375,0.780625,9.93826953125,15.51341796875,19.3571953125,11.78885546875,7.4111796875,11.90184375,15.922859375,15.54494921875,7.7323046875,15.620546875,9.75216796875,11.50080078125,8.68615234375
17.14976171875,9.47269140625,9.4579296875,4.52869921875,10.751765625,10.78715234375,13.1750546875,-0.06377734375,8.7921171875,15.1557578125,14.3590234375,-15.6868515625,4.869921875,13.2071015625,19.07275,29.7878984375,-0.088375,10.83826953125,17.38541796875,22.3851953125,13.04185546875,7.9961796875,13.69984375,18.385859375,17.59494921875,8.7363046875,17.258546875,10.59216796875,12.94880078125,9.21215234375
15.39976171875,8.90069140625,8.4909296875,3.65869921875,9.809765625,9.80215234375,9.0640546875,3.20822265625,8.6791171875,14.8017578125,13.0490234375,-13.2878515625,4.714921875,13.1951015625,18.71375,29.7598984375,0.555625,10.79826953125,17.53841796875,22.5921953125,13.27585546875,8.1191796875,14.29384375,19.119859375,17.69694921875,9.3493046875,17.391546875,10.74716796875,13.01080078125,8.80015234375
12.91076171875,6.65769140625,6.9239296875,2.47469921875,8.225765625,7.86815234375,4.3370546875,5.30322265625,8.1831171875,13.1937578125,9.5650234375,-5.1698515625,4.328921875,11.9441015625,16.30275,23.6198984375,2.651625,9.89626953125,15.98441796875,20.0991953125,12.30485546875,7.6851796875,13.54484375,18.043859375,15.81294921875,9.3403046875,16.026546875,10.12016796875,11.71980078125,7.58915234375
10.66076171875,3.63169140625,5.3149296875,1.59369921875,6.660765625,5.89115234375,0.9210546875,6.15422265625,7.5731171875,11.0177578125,5.5960234375,4.8731484375,3.848921875,9.8901015625,12.83275,14.2088984375,5.452625,8.53026953125,13.28941796875,16.0531953125,10.40785546875,6.9031796875,11.80784375,15.713859375,12.67894921875,8.8343046875,13.753546875,9.06916796875,9.77780078125,6.16615234375
9.33076171875,0.908691406249999,4.2399296875,1.49869921875,5.701765625,4.69615234375,0.1370546875,5.83022265625,7.1311171875,9.0297578125,2.9230234375,12.3251484375,3.325921875,7.6501015625,9.51375,5.5508984375,7.871625,7.19326953125,10.25041796875,11.9411953125,8.21385546875,6.1291796875,9.69984375,12.947859375,9.36694921875,8.1413046875,11.361546875,8.08116796875,8.05880078125,5.10515234375
8.97776171875,-0.76430859375,3.9289296875,2.25469921875,5.536765625,4.52015234375,1.9070546875,4.41222265625,6.9701171875,7.6257578125,2.3180234375,14.2611484375,2.703921875,5.6831015625,7.06875,0.4378984375,9.100625,6.18826953125,7.44841796875,8.7001953125,6.29185546875,5.6201796875,7.73984375,10.335859375,6.65994921875,7.5023046875,9.370546875,7.41716796875,7.07980078125,4.57615234375
9.20376171875,-1.22530859375,4.0969296875,3.46469921875,5.850765625,4.85715234375,4.7050546875,2.13722265625,6.9681171875,6.6697578125,3.0700234375,10.6131484375,1.845921875,4.1011015625,5.39175,-1.0951015625,9.017625,5.49626953125,5.02341796875,6.2511953125,4.76285546875,5.4011796875,6.11584375,7.985859375,4.69094921875,6.9343046875,7.825546875,6.99616796875,6.77980078125,4.29715234375
9.53576171875,-0.77730859375,4.1289296875,4.48669921875,6.069765625,4.84215234375,6.4730546875,-0.460777343749999,6.8941171875,5.7367578125,3.5870234375,3.7961484375,0.632921875,2.7751015625,3.83975,-1.2031015625,8.041625,4.89226953125,2.83541796875,3.8551953125,3.30485546875,5.3271796875,4.76084375,5.716859375,3.11094921875,6.2923046875,6.486546875,6.58916796875,6.71880078125,3.81015234375
9.70176171875,0.12569140625,3.5409296875,4.77469921875,5.796765625,3.92715234375,5.9350546875,-2.59477734375,6.6101171875,4.5967578125,2.6630234375,-2.8918515625,-0.871078125,1.6381015625,1.93775,-2.1451015625,6.656625,4.20926953125,0.86241796875,0.9841953125,1.57685546875,5.2531796875,3.62484375,3.491859375,1.62194921875,5.4583046875,5.213546875,6.10416796875,6.48180078125,2.85615234375
9.70976171875,1.14469140625,2.3479296875,4.18469921875,5.111765625,2.32415234375,3.3490546875,-3.43377734375,6.2101171875,3.5167578125,0.3920234375,-7.0108515625,-2.326078125,0.893101562500001,-0.10225,-4.4701015625,5.092625,3.52326953125,-0.55458203125,-2.0488046875,-0.32514453125,5.1521796875,2.86184375,1.684859375,0.37494921875,4.4893046875,4.199546875,5.71116796875,5.96780078125,1.56915234375
9.77976171875,2.12469140625,1.0559296875,3.06469921875,4.512765625,0.853152343750001,0.1790546875,-2.42377734375,5.9831171875,3.1117578125,-1.9899765625,-7.9008515625,-3.213078125,0.9221015625,-1.49025,-6.9021015625,3.421625,3.12226953125,-0.85758203125,-4.2278046875,-1.82114453125,5.1001796875,2.77084375,0.916859375,-0.11605078125,3.6133046875,3.885546875,5.73916796875,5.41680078125,0.40415234375
10.15876171875,2.99769140625,0.2969296875,2.08069921875,4.556765625,0.35015234375,-2.0069453125,0.39422265625,6.2251171875,3.8807578125,-3.0989765625,-6.4318515625,-3.091078125,1.9941015625,-1.46025,-7.7291015625,1.860625,3.28226953125,0.30541796875,-4.5768046875,-2.26714453125,5.1591796875,3.53684375,1.601859375,0.56594921875,3.0803046875,4.609546875,6.41016796875,5.19680078125,-0.11984765625
10.84376171875,3.62669140625,0.4099296875,1.83669921875,5.475765625,1.11915234375,-2.4969453125,4.22122265625,7.0091171875,5.7907578125,-2.3829765625,-4.0418515625,-1.865078125,3.9941015625,0.14975,-6.3001015625,0.872625,4.04026953125,2.74341796875,-2.8698046875,-1.46514453125,5.2611796875,5.00284375,3.584859375,2.32494921875,2.9883046875,6.295546875,7.58716796875,5.52480078125,0.30915234375
11.47876171875,3.76869140625,1.2569296875,2.53969921875,7.023765625,2.80315234375,-1.6109453125,7.70522265625,8.0881171875,8.2217578125,-0.3619765625,-1.8368515625,0.0949218749999999,6.3941015625,2.76875,-3.4321015625,0.912625,5.11826953125,5.70841796875,0.2201953125,0.15785546875,5.2001796875,6.65384375,6.146859375,4.52794921875,3.2243046875,8.384546875,8.70016796875,6.28080078125,1.63415234375
11.57676171875,3.18469140625,2.3599296875,3.89469921875,8.616765625,4.68815234375,-0.1449453125,9.52422265625,8.9951171875,10.3017578125,1.8900234375,-0.2688515625,2.070921875,8.4551015625,5.43975,-0.6531015625,2.037625,6.05626953125,8.22041796875,3.5511953125,1.80885546875,4.7411796875,7.82684375,8.360859375,6.33994921875,3.5203046875,10.075546875,8.97216796875,7.02980078125,3.45215234375
10.86976171875,1.89369140625,3.2109296875,5.30069921875,9.664765625,6.16515234375,1.3320546875,9.04222265625,9.2751171875,11.3797578125,3.5180234375,0.6401484375,3.280921875,9.5711015625,7.35775,0.9218984375,3.761625,6.45426953125,9.52741796875,6.1381953125,2.80885546875,3.7981796875,8.03384375,9.545859375,7.17794921875,3.5913046875,10.708546875,7.86416796875,7.24980078125,5.16115234375
9.47176171875,0.324691406249999,3.5559296875,6.18069921875,9.877765625,7.03115234375,2.7790546875,6.64922265625,8.7221171875,11.3487578125,4.3620234375,0.9431484375,3.214921875,9.5521015625,8.24675,1.2338984375,5.329625,6.20226953125,9.44641796875,7.5891953125,2.95085546875,2.5471796875,7.22484375,9.559859375,6.97694921875,3.2863046875,10.084546875,5.46616796875,6.63480078125,6.19015234375
7.76476171875,-0.78730859375,3.5049296875,6.25669921875,9.395765625,7.49115234375,4.4670546875,3.60322265625,7.4851171875,10.6467578125,4.8780234375,0.7451484375,1.887921875,8.7031015625,8.39175,1.1038984375,6.200625,5.54126953125,8.42041796875,8.1401953125,2.56385546875,1.3841796875,5.82384375,8.792859375,6.16694921875,2.6573046875,8.541546875,2.53916796875,5.27480078125,6.22115234375
6.22776171875,-0.768308593750001,3.4279296875,5.65469921875,8.688765625,7.91515234375,6.5380546875,1.53622265625,6.0331171875,9.9697578125,5.6570234375,0.5211484375,-0.117078125,7.6731015625,8.37675,1.5198984375,6.366625,4.95126953125,7.27241796875,8.3731953125,2.30085546875,0.7541796875,4.52884375,7.909859375,5.42594921875,1.9463046875,6.766546875,0.15116796875,3.61080078125,5.32915234375
5.32876171875,0.602691406249999,3.7259296875,4.83169921875,8.309765625,8.54915234375,8.6820546875,1.83022265625,4.9961171875,9.8997578125,6.9200234375,1.2371484375,-1.862078125,7.1401015625,8.72575,2.9528984375,6.280625,4.90726953125,6.80441796875,8.8201953125,2.79385546875,0.9311796875,3.98684375,7.508859375,5.34494921875,1.4643046875,5.480546875,-0.85383203125,2.23180078125,3.96815234375
5.40876171875,2.93269140625,4.5819296875,4.33869921875,8.651765625,9.34915234375,10.1430546875,5.02322265625,4.9131171875,10.6427578125,8.3500234375,3.7871484375,-2.459078125,7.5171015625,9.64675,5.1498984375,6.451625,5.63426953125,7.43141796875,9.6841953125,4.29185546875,1.8571796875,4.49684375,7.848859375,6.14594921875,1.4123046875,5.106546875,-0.25483203125,1.60380078125,2.76615234375
6.52176171875,5.38269140625,5.8359296875,4.55469921875,9.789765625,10.04515234375,10.1270546875,10.40822265625,5.9781171875,11.9907578125,9.3460234375,8.0511484375,-1.493078125,8.8011015625,10.97875,7.4398984375,7.020625,6.98026953125,9.03041796875,10.7771953125,6.44985546875,3.1561796875,5.90184375,8.778859375,7.56794921875,1.7343046875,5.604546875,1.50016796875,1.87980078125,2.20715234375
8.36076171875,7.05869140625,7.0579296875,5.50469921875,11.469765625,10.37415234375,8.4040546875,16.09522265625,7.9351171875,13.5017578125,9.5000234375,12.4851484375,0.773921875,10.6061015625,12.33975,9.2288984375,7.611625,8.47726953125,11.04441796875,11.6941953125,8.40485546875,4.2991796875,7.67784375,9.851859375,8.98294921875,2.1063046875,6.539546875,3.56816796875,2.84680078125,2.36915234375
10.34476171875,7.37969140625,7.7679296875,6.84869921875,13.215765625,10.29815234375,5.6600546875,19.74122265625,10.1811171875,14.7457578125,8.9170234375,14.8191484375,3.546921875,12.3501015625,13.34575,10.2688984375,7.612625,9.56726953125,12.76441796875,12.0591953125,9.18685546875,4.8541796875,9.19084375,10.572859375,9.70294921875,2.0973046875,7.328546875,5.12016796875,4.02480078125,2.90115234375
11.79976171875,6.24969140625,7.6809296875,8.03769921875,14.495765625,10.03115234375,3.2040546875,19.74022265625,12.0171171875,15.4717578125,8.1370234375,13.4771484375,5.895921875,13.4801015625,13.75175,10.5698984375,6.690625,9.84326953125,13.62541796875,11.7041953125,8.26585546875,4.6661796875,9.96184375,10.617859375,9.31094921875,1.4233046875,7.530546875,5.65216796875,4.86580078125,3.22615234375
12.13276171875,4.01769140625,6.8299296875,8.53569921875,14.912765625,9.88415234375,2.2170546875,16.20222265625,12.9171171875,15.6357578125,7.7560234375,8.7131484375,7.163921875,13.6811015625,13.49975,10.1888984375,5.120625,9.20926953125,13.40641796875,10.7101953125,5.87285546875,3.8941796875,9.83584375,9.949859375,7.84594921875,0.1093046875,7.011546875,5.09516796875,4.97880078125,2.86015234375
11.08076171875,1.31669140625,5.5239296875,8.02069921875,14.346765625,10.04615234375,3.1100546875,10.97922265625,12.7051171875,15.3427578125,8.0710234375,2.5841484375,7.186921875,12.9661015625,12.69275,9.2118984375,3.629625,7.89626953125,12.26441796875,9.3551953125,2.87485546875,2.9241796875,8.99584375,8.801859375,5.77194921875,-1.5036953125,5.964546875,3.79116796875,4.30480078125,1.68015234375
8.91076171875,-1.12030859375,4.1719296875,6.49869921875,12.991765625,10.45915234375,5.4000546875,6.60222265625,11.5821171875,14.7407578125,8.9460234375,-2.2898515625,6.256921875,11.6211015625,11.53075,7.8918984375,2.885625,6.35826953125,10.61841796875,8.0151953125,0.30585546875,2.2221796875,7.84184375,7.545859375,3.76594921875,-2.9126953125,4.779546875,2.36116796875,3.16080078125,0.00815234375000001
6.33276171875,-2.67130859375,3.0779296875,4.25869921875,11.226765625,10.81215234375,8.0170546875,4.76522265625,9.9511171875,13.9087578125,9.9030234375,-4.2958515625,4.917921875,10.0141015625,10.20075,6.6568984375,3.049625,5.06426953125,8.92641796875,6.9961953125,-1.12714453125,2.1531796875,6.78484375,6.497859375,2.42594921875,-3.6766953125,3.826546875,1.47616796875,2.08880078125,-1.54384765625
4.06276171875,-3.05930859375,2.3049296875,1.72369921875,9.409765625,10.64515234375,9.7770546875,5.38222265625,8.1591171875,12.7697578125,10.2970234375,-3.5458515625,3.700921875,8.3731015625,8.74075,5.8338984375,3.692625,4.26726953125,7.42741796875,6.3421953125,-1.30214453125,2.8111796875,6.03284375,5.720859375,1.97894921875,-3.6206953125,3.225546875,1.54016796875,1.54780078125,-2.41484765625
2.39776171875,-2.51930859375,1.6609296875,-0.69830078125,7.707765625,9.52815234375,9.8020546875,6.89022265625,6.3421171875,11.0997578125,9.5130234375,-1.3168515625,2.905921875,6.6561015625,6.98075,5.2898984375,4.071625,3.86426953125,6.00541796875,5.7141953125,-0.67114453125,3.9241796875,5.47384375,4.942859375,2.13894921875,-2.9346953125,2.732546875,2.44916796875,1.61080078125,-2.45284765625
1.19076171875,-1.74430859375,0.8209296875,-2.68530078125,6.080765625,7.25415234375,7.8120546875,7.57822265625,4.4821171875,8.6647578125,7.1660234375,1.1001484375,2.500921875,4.6291015625,4.63275,4.3708984375,3.541625,3.46326953125,4.24341796875,4.4921953125,-0.0361445312500002,4.9371796875,4.72084375,3.648859375,2.18094921875,-2.1386953125,1.845546875,3.59216796875,1.86180078125,-2.05784765625
0.19076171875,-1.54430859375,-0.4750703125,-4.01430078125,4.420765625,4.00515234375,4.2140546875,6.90322265625,2.5971171875,5.4417578125,3.3030234375,3.0881484375,2.167921875,2.0931015625,1.53275,2.3238984375,1.863625,2.62926953125,1.71541796875,2.1041953125,-0.17914453125,5.2621796875,3.35084375,1.380859375,1.30494921875,-1.8486953125,0.123546875,4.15816796875,1.60680078125,-1.97584765625
-0.62223828125,-2.38030859375,-2.2180703125,-4.58930078125,2.746765625,0.386152343750001,-0.0289453125000003,5.75722265625,0.8661171875,1.7877578125,-1.4649765625,4.5191484375,1.503921875,-0.8458984375,-2.09825,-1.0941015625,-0.687375,1.19226953125,-1.65458203125,-1.5518046875,-1.46114453125,4.5941796875,1.23584375,-1.907140625,-0.88505078125,-2.4586953125,-2.452453125,3.60516796875,0.34180078125,-2.82084765625
-1.00323828125,-4.07930859375,-4.0550703125,-4.46530078125,1.288765625,-2.73284765625,-3.7379453125,5.59622265625,-0.4068828125,-1.5932421875,-6.0609765625,5.1711484375,0.270921875,-3.6858984375,-5.59725,-5.2951015625,-3.409375,-0.60473046875,-5.37758203125,-5.8888046875,-3.61514453125,3.1171796875,-1.26315625,-5.649140625,-4.05405078125,-3.8696953125,-5.313453125,2.01816796875,-1.81719921875,-4.61184765625
-0.61423828125,-5.91730859375,-5.4120703125,-3.83730078125,0.406765625,-4.52784765625,-5.9059453125,7.25822265625,-0.9198828125,-3.8932421875,-9.2899765625,4.4921484375,-1.405078125,-5.6888984375,-8.07325,-9.0651015625,-5.446375,-2.19373046875,-8.51658203125,-9.7838046875,-5.86514453125,1.4591796875,-3.37415625,-8.813140625,-7.21205078125,-5.5016953125,-7.478453125,0.13116796875,-4.05219921875,-6.66784765625
0.755761718750001,-6.97130859375,-5.7390703125,-2.96630078125,0.401765625,-4.52884765625,-5.9629453125,10.37622265625,-0.519882812500001,-4.5182421875,-10.2629765625,2.0341484375,-3.016078125,-6.2128984375,-8.77125,-11.0681015625,-6.193375,-2.96073046875,-10.07558203125,-12.0198046875,-7.29514453125,0.4241796875,-4.26315625,-10.323140625,-9.14005078125,-6.5856953125,-7.992453125,-1.01483203125,-5.20619921875,-7.94084765625
3.01976171875,-6.54630859375,-4.7570703125,-2.08530078125,1.338765625,-2.76584765625,-3.8479453125,13.67022265625,0.7051171875,-3.3232421875,-8.6799765625,-1.7928515625,-3.861078125,-5.0158984375,-7.36925,-10.3401015625,-5.607375,-2.55273046875,-9.44258203125,-11.7728046875,-7.22014453125,0.6021796875,-3.44315625,-9.542140625,-8.94105078125,-6.5736953125,-6.391453125,-0.60583203125,-4.39119921875,-7.59184765625
5.70776171875,-4.50230859375,-2.6030703125,-1.38130078125,2.974765625,0.260152343750001,-0.00594531249999974,15.72022265625,2.3991171875,-0.6992421875,-4.9369765625,-5.4628515625,-3.417078125,-2.4088984375,-4.13325,-6.6841015625,-4.192375,-1.06573046875,-6.70158203125,-8.9498046875,-5.41614453125,2.0601796875,-1.04615625,-6.571140625,-6.43605078125,-5.3896953125,-2.966453125,1.46816796875,-1.53519921875,-5.47884765625
8.08776171875,-1.41530859375,0.1489296875,-1.01330078125,4.788765625,3.71115234375,4.6290546875,15.65822265625,4.0021171875,2.5137578125,-0.0919765625000002,-6.9928515625,-1.691078125,0.816101562500001,0.09375,-0.9501015625,-2.661375,0.95826953125,-2.66358203125,-4.3048046875,-2.24414453125,4.2601796875,2.15584375,-2.269140625,-2.28305078125,-3.4256953125,1.291546875,4.44616796875,2.46480078125,-2.28484765625
9.47576171875,1.59269140625,2.6269296875,-1.10230078125,6.143765625,6.60615234375,8.7370546875,13.51122265625,4.9471171875,5.2627578125,4.3640234375,-5.1458515625,0.666921875,3.6351015625,4.08875,5.0158984375,-1.515375,2.72126953125,1.38741796875,0.739195312500001,1.37085546875,6.2661796875,5.00884375,2.024859375,2.22294921875,-1.3216953125,5.032546875,6.96216796875,6.06280078125,0.79015234375
9.58576171875,3.34669140625,3.9839296875,-1.65030078125,6.552765625,8.12015234375,10.9530546875,10.14022265625,4.8921171875,6.6697578125,7.0000234375,-0.2338515625,2.632921875,5.1971015625,6.65775,8.9898984375,-0.818375,3.51326953125,4.19841796875,4.5811953125,4.20585546875,7.1631796875,6.46684375,4.998859375,5.64594921875,0.3133046875,7.086546875,7.67416796875,7.76880078125,2.59915234375
8.65976171875,3.22569140625,3.7939296875,-2.45030078125,5.930765625,7.93815234375,10.4770546875,6.86722265625,3.8961171875,6.4147578125,7.0950234375,6.0171484375,3.330921875,5.1951015625,7.16775,9.4848984375,-0.322375,3.05626953125,5.09341796875,6.1301953125,5.29085546875,6.5081796875,6.08284375,5.932859375,7.02094921875,1.1333046875,6.967546875,5.98616796875,6.91580078125,2.61715234375
7.34676171875,1.48369140625,2.3229296875,-3.09330078125,4.683765625,6.49115234375,7.6850546875,4.87122265625,2.4201171875,4.9217578125,5.1320234375,11.3261484375,2.511921875,4.0241015625,5.92475,6.8368984375,0.148625,1.66326953125,4.28841796875,5.3891953125,4.47785546875,4.5661796875,4.25584375,5.029859375,6.33794921875,1.1513046875,5.122546875,2.44816796875,4.03280078125,1.19615234375
6.39876171875,-0.949308593750001,0.4399296875,-3.12730078125,3.529765625,4.84415234375,4.2260546875,4.64622265625,1.1461171875,3.1907578125,2.7270234375,13.8141484375,0.668921875,2.5971015625,4.10875,3.4328984375,0.372625,0.10726953125,2.77141796875,3.5521953125,2.63885546875,2.1741796875,2.04284375,3.323859375,4.57094921875,0.6713046875,2.721546875,-1.45883203125,0.59680078125,-0.64984765625
6.29876171875,-3.01530859375,-0.8100703125,-2.28730078125,3.130765625,4.19215234375,2.2830546875,5.81822265625,0.6801171875,2.3127578125,1.8510234375,12.6461484375,-1.245078125,1.8761015625,3.19475,2.5998984375,-0.188375,-0.77873046875,1.76841796875,2.4101953125,1.22685546875,0.3091796875,0.59484375,2.121859375,3.15294921875,0.0953046875,1.061546875,-4.09683203125,-1.76219921875,-1.82584765625
6.96976171875,-4.06130859375,-0.7530703125,-0.67630078125,3.735765625,5.18215234375,3.3130546875,7.46122265625,1.2461171875,2.8877578125,3.7100234375,8.2971484375,-2.327078125,2.3771015625,4.13375,6.5788984375,-1.907375,-0.54373046875,2.08241796875,3.3261953125,1.43085546875,-0.4138203125,0.55684375,2.286859375,3.15594921875,-0.3046953125,0.875546875,-4.56183203125,-2.12419921875,-1.76984765625
7.80176171875,-4.03230859375,0.5849296875,1.23469921875,5.034765625,7.50215234375,7.0990546875,8.63322265625,2.5601171875,4.6867578125,7.9560234375,2.4511484375,-2.180078125,3.9191015625,6.79175,14.8578984375,-4.552375,0.64526953125,3.68441796875,6.4021953125,3.46185546875,0.00317968749999997,1.75784375,3.769859375,4.66894921875,-0.5286953125,1.960546875,-3.12583203125,-0.71619921875,-0.74484765625
8.04676171875,-3.32930859375,2.5329296875,2.82469921875,6.321765625,10.00015234375,11.8290546875,8.82222265625,3.9761171875,6.7637578125,12.7800234375,-2.4828515625,-1.081078125,5.7511015625,10.00675,24.0948984375,-7.262375,2.11626953125,5.77541796875,10.3641953125,6.43985546875,1.0421796875,3.37184375,5.681859375,6.77494921875,-0.7996953125,3.347546875,-0.97883203125,1.31380078125,0.37715234375
7.23676171875,-2.51330859375,4.1549296875,3.59469921875,6.848765625,11.28915234375,15.0800546875,8.08822265625,4.8261171875,7.9457578125,15.8180234375,-4.2198515625,0.195921875,6.9661015625,12.20275,29.7898984375,-8.916375,3.05726953125,7.26741796875,13.2661953125,8.90185546875,2.0391796875,4.41584375,6.839859375,8.12694921875,-1.3856953125,3.907546875,0.50816796875,2.59480078125,0.66515234375
5.30476171875,-2.06930859375,4.7069296875,3.35469921875,6.179765625,10.45415234375,15.0450546875,6.91722265625,4.7231171875,7.4207578125,15.3490234375,-1.6578515625,0.774921875,6.9701015625,12.20075,28.7188984375,-8.640375,2.93226953125,7.37241796875,13.5541953125,9.58185546875,2.5431796875,4.29384375,6.446859375,7.73694921875,-2.3626953125,3.013546875,0.55216796875,2.29580078125,-0.31484765625
2.45176171875,-2.28530859375,3.9549296875,2.22769921875,4.357765625,7.49215234375,11.3210546875,5.84022265625,3.6891171875,5.0927578125,11.1300234375,4.3111484375,0.100921875,5.7371015625,9.77975,20.7228984375,-6.207375,1.71926953125,5.98341796875,10.8771953125,8.02285546875,2.4711796875,3.06584375,4.519859375,5.51994921875,-3.4846953125,0.881546875,-0.67983203125,0.51980078125,-2.26684765625
-0.91223828125,-3.18230859375,2.2119296875,0.55669921875,1.854765625,3.29615234375,5.0180546875,5.06322265625,2.0671171875,1.5817578125,4.5290234375,10.8271484375,-1.824078125,3.7431015625,5.74175,8.8528984375,-2.211375,-0.14273046875,3.65241796875,6.2341953125,4.75485546875,2.0311796875,1.33884375,1.830859375,2.30794921875,-4.2656953125,-1.586453125,-2.26383203125,-1.83819921875,-4.36384765625
-4.09923828125,-4.48530859375,0.1489296875,-1.23530078125,-0.625234375,-0.747847656249999,-1.7449453125,4.45022265625,0.3341171875,-2.0842421875,-2.0729765625,14.2301484375,-4.459078125,1.6581015625,1.53075,-2.0941015625,2.077625,-2.00673046875,1.24741796875,1.4581953125,1.02985546875,1.5341796875,-0.11915625,-0.530140625,-0.58305078125,-4.2306953125,-3.303453125,-3.08083203125,-3.63819921875,-5.70784765625
-6.21823828125,-5.67130859375,-1.4810703125,-2.78930078125,-2.376234375,-3.25484765625,-6.5979453125,3.89922265625,-1.1018828125,-4.8552421875,-6.2019765625,11.9871484375,-6.954078125,0.0551015625000004,-1.34425,-7.6921015625,5.136625,-3.30073046875,-0.43958203125,-1.5728046875,-1.67314453125,1.2361796875,-0.74715625,-1.651140625,-1.92405078125,-3.1766953125,-3.508453125,-2.40083203125,-4.05119921875,-5.74484765625
-6.51423828125,-6.15430859375,-2.0270703125,-3.89330078125,-2.847234375,-3.21184765625,-7.5209453125,3.66122265625,-1.9898828125,-5.9272421875,-6.0689765625,4.3111484375,-8.457078125,-0.7258984375,-1.77125,-5.4721015625,5.721625,-3.69073046875,-0.91858203125,-1.5738046875,-2.15014453125,1.2991796875,-0.34515625,-1.079140625,-0.96905078125,-1.2556953125,-2.003453125,-0.15583203125,-2.82919921875,-4.41584765625
-4.73323828125,-5.53730859375,-1.0750703125,-4.48330078125,-1.760234375,-0.199847656249999,-3.2909453125,4.11322265625,-2.2218828125,-4.9012421875,-1.0249765625,-5.6688515625,-8.405078125,-0.5708984375,0.67275,4.5368984375,3.278625,-3.09273046875,-0.0515820312500002,1.8181953125,0.16285546875,1.8271796875,0.98184375,1.129859375,2.37694921875,1.1283046875,0.902546875,3.13816796875,-0.24919921875,-2.04284765625
-1.27423828125,-3.86130859375,1.3819296875,-4.59030078125,0.741765625,5.41415234375,6.0510546875,5.06722265625,-1.8098828125,-1.9192421875,8.1840234375,-13.4828515625,-6.773078125,0.396101562500001,5.54575,20.0358984375,-1.851375,-1.67573046875,1.90141796875,7.9071953125,4.94485546875,2.8551796875,2.89584375,4.452859375,7.51794921875,3.4983046875,4.553546875,6.66616796875,3.08480078125,0.84415234375
2.82476171875,-1.72430859375,4.7809296875,-4.36530078125,3.965765625,12.33115234375,18.7430546875,5.24922265625,-0.9548828125,2.1957578125,19.3350234375,-15.7178515625,-4.168078125,1.7501015625,11.46175,36.9948984375,-8.445375,0.12026953125,4.24741796875,14.9621953125,10.91585546875,4.2751796875,4.86584375,7.948859375,13.19694921875,5.4023046875,8.096546875,9.62216796875,6.45680078125,3.64915234375
5.99376171875,-0.186308593750001,8.0129296875,-4.17530078125,6.709765625,18.45615234375,31.3440546875,2.65522265625,-0.1258828125,5.9897578125,29.0530234375,-11.6998515625,-1.689078125,2.7771015625,16.30375,50.4458984375,-14.676375,1.60826953125,5.93641796875,20.5371953125,16.10185546875,5.7491796875,6.22784375,10.415859375,17.71194921875,6.4583046875,10.614546875,11.41816796875,9.20380078125,5.80415234375
6.49476171875,-0.41430859375,9.7869296875,-4.62730078125,7.649765625,21.51215234375,39.6850546875,-4.03677734375,0.0221171874999997,7.7967578125,33.7970234375,-3.5818515625,-0.502078125,2.6921015625,17.88475,55.7778984375,-18.716375,2.02326953125,5.90141796875,22.2271953125,18.52885546875,6.7431796875,6.34884375,10.747859375,19.42294921875,6.3843046875,11.338546875,11.77416796875,10.84280078125,6.88815234375
3.16276171875,-3.12530859375,9.2089296875,-6.32830078125,5.996765625,19.99915234375,40.5520546875,-13.81577734375,-1.0228828125,6.4967578125,31.3300234375,4.8471484375,-1.318078125,1.0461015625,14.91275,50.5178984375,-19.548375,0.85026953125,3.57941796875,18.7211953125,17.11685546875,6.7461796875,4.91584375,8.437859375,17.47294921875,5.1113046875,9.936546875,10.71516796875,11.16380078125,6.76715234375
-3.81323828125,-8.09430859375,6.2299296875,-9.45030078125,2.010765625,13.99515234375,33.1880546875,-23.01777734375,-3.2658828125,2.1507578125,21.9130234375,9.7971484375,-4.043078125,-1.9428984375,7.74075,35.7378984375,-17.506375,-1.87273046875,-0.69858203125,10.5611953125,12.23785546875,5.5261796875,2.14484375,3.912859375,12.27594921875,2.8923046875,6.714546875,8.49316796875,10.24680078125,5.65515234375
-12.67723828125,-14.09830859375,1.5999296875,-13.49030078125,-3.084234375,5.15915234375,19.6070546875,-27.32577734375,-6.1638828125,-3.9892421875,8.2780234375,8.9401484375,-7.864078125,-5.4668984375,-1.72725,15.8398984375,-14.038375,-5.54373046875,-5.81058203125,-0.0158046874999997,5.47585546875,3.2511796875,-1.29515625,-1.613140625,5.36194921875,0.2513046875,2.497546875,5.45516796875,8.35280078125,3.97915234375
-20.68623828125,-19.44130859375,-3.6280703125,-17.46430078125,-7.806234375,-4.08984765625,3.6120546875,-25.18077734375,-8.9528828125,-10.1732421875,-5.6769765625,2.2391484375,-11.705078125,-8.6038984375,-10.95625,-3.3671015625,-10.808375,-9.28573046875,-10.43158203125,-10.1148046875,-1.32114453125,0.3971796875,-4.63315625,-6.743140625,-1.36005078125,-2.2706953125,-1.755453125,1.95016796875,5.76480078125,2.11115234375
-25.04323828125,-22.70330859375,-8.6060703125,-20.35630078125,-11.180234375,-11.59184765625,-10.6409453125,-19.99577734375,-11.0138828125,-14.9522421875,-16.4629765625,-8.2038515625,-14.733078125,-10.8038984375,-17.83925,-16.8831015625,-8.871375,-12.30973046875,-13.62158203125,-17.3358046875,-6.95014453125,-2.4148203125,-7.33215625,-10.472140625,-6.36505078125,-4.3916953125,-5.280453125,-1.65483203125,2.71780078125,0.19615234375
-23.68923828125,-23.22530859375,-12.8800703125,-21.48930078125,-13.009234375,-16.04184765625,-19.7709453125,-19.01277734375,-12.0158828125,-17.5652421875,-21.9019765625,-19.2758515625,-16.600078125,-12.0028984375,-21.21925,-21.7371015625,-8.473375,-14.09373046875,-15.02458203125,-20.3298046875,-11.13014453125,-4.5668203125,-9.17415625,-12.369140625,-8.82805078125,-6.1576953125,-7.607453125,-4.89683203125,-0.56919921875,-1.78584765625
-15.83123828125,-21.13330859375,-16.3270703125,-20.67830078125,-13.641234375,-17.11184765625,-21.9839453125,-29.15077734375,-11.8748828125,-17.9152421875,-21.3649765625,-28.3758515625,-17.392078125,-12.4318984375,-20.92925,-17.2491015625,-9.346375,-14.44473046875,-14.74558203125,-18.8618046875,-14.19814453125,-5.6118203125,-10.17415625,-12.470140625,-8.59905078125,-7.7966953125,-8.543453125,-7.30583203125,-3.86119921875,-3.86684765625
-2.28523828125,-17.09930859375,-19.0780703125,-18.23530078125,-13.586234375,-15.36984765625,-17.6849453125,-52.61377734375,-10.7488828125,-16.4382421875,-15.7719765625,-34.5328515625,-17.451078125,-12.3968984375,-17.66225,-4.9911015625,-11.037375,-13.53673046875,-13.19858203125,-13.7288046875,-16.67914453125,-5.4888203125,-10.50915625,-11.162140625,-6.14705078125,-9.5026953125,-8.226453125,-8.69883203125,-7.01019921875,-6.03284765625
14.53876171875,-12.08930859375,-21.4710703125,-14.87330078125,-13.295234375,-12.11784765625,-9.5549453125,-85.13177734375,-9.0578828125,-13.9922421875,-7.4059765625,-38.5788515625,-17.198078125,-12.1798984375,-12.80925,11.4928984375,-13.054375,-11.90873046875,-11.00858203125,-6.6208046875,-19.02314453125,-4.6218203125,-10.49915625,-9.125140625,-2.49805078125,-11.3306953125,-7.193453125,-9.41183203125,-10.04519921875,-8.26484765625
14.53876171875,-12.08930859375,-21.4710703125,-14.87330078125,-13.295234375,-12.11784765625,-9.5549453125,-85.13177734375,-9.0578828125,-13.9922421875,-7.4059765625,-38.5788515625,-17.198078125,-12.1798984375,-12.80925,11.4928984375,-13.054375,-11.90873046875,-11.00858203125,-6.6208046875,-19.02314453125,-4.6218203125,-10.49915625,-9.125140625,-2.49805078125,-11.3306953125,-7.193453125,-9.41183203125,-10.04519921875,-8.26484765625
