"Fp1","Fpz","Fp2","F7","F3","Fz","F4","F8","FC5","FC1","FC2","FC6","T7","C3","Cz","C4","T8","CP5","CP1","CP2","CP6","P7","P3","Pz","P4","P8","POz","O1","Oz","O2"
16.8784375,2.98162890625,8.81333203125,3.5230390625,4.240140625,12.4748125,14.24496875,10.32478125,5.71405078125,6.49719921875,6.0818203125,6.203984375,0.0944179687499997,3.111265625,5.94623828125,9.7601796875,2.608,1.76033203125,4.5025234375,9.108609375,0.8098359375,-0.16051953125,0.81645703125,5.83054296875,-2.9308125,-9.6569921875,-0.612765625,-8.5873359375,-7.45445703125,-9.1051328125
14.7944375,3.04562890625,11.64533203125,2.5760390625,6.533140625,13.7258125,15.79096875,14.51778125,9.28405078125,10.86219921875,9.8378203125,7.541984375,3.80141796875,7.531265625,10.38123828125,12.7451796875,7.83,6.76433203125,9.4185234375,13.933609375,0.699835937500001,2.98048046875,6.41045703125,10.28154296875,0.5501875,-8.7189921875,3.577234375,-4.0123359375,-3.50445703125,-6.1601328125
11.5304375,2.28862890625,13.35733203125,2.3370390625,8.845140625,14.7488125,17.53896875,16.24778125,11.22005078125,13.69919921875,11.8888203125,8.066984375,6.23241796875,10.253265625,14.07423828125,14.5871796875,11.264,9.72333203125,12.6355234375,17.828609375,1.9698359375,5.57348046875,9.83545703125,13.40754296875,3.8041875,-6.2529921875,6.267234375,-0.4183359375,0.14154296875,-2.2821328125
7.3524375,0.96962890625,13.54733203125,2.4370390625,10.654140625,14.9998125,18.58596875,15.09978125,10.83805078125,14.36619921875,11.6828203125,7.332984375,7.01141796875,10.491265625,16.20023828125,14.7481796875,12.372,9.86633203125,13.1535234375,19.858609375,3.9928359375,6.79148046875,10.00245703125,14.19454296875,6.0441875,-2.7509921875,6.497234375,1.1406640625,2.56454296875,1.7768671875
2.9844375,-0.39637109375,12.05633203125,2.1960390625,11.277140625,13.9288125,17.82896875,11.36078125,8.00805078125,12.54119921875,9.0668203125,5.138984375,6.05141796875,7.890265625,15.91423828125,12.9441796875,11.02,6.92433203125,10.2975234375,19.117609375,5.5878359375,5.83048046875,6.32945703125,11.83254296875,6.3621875,0.7220078125,3.601234375,-0.2743359375,2.74754296875,4.7678671875
-0.7865625,-1.33337109375,9.12333203125,1.0840390625,10.275140625,11.3868125,14.68496875,5.96678125,3.46305078125,8.48419921875,4.4638203125,1.799984375,3.62741796875,2.896265625,12.83723828125,9.4001796875,7.558,1.40833203125,4.2255234375,15.296609375,5.8198359375,2.49248046875,-0.75054296875,6.30254296875,4.3381875,3.2490078125,-2.257765625,-4.8093359375,0.25554296875,5.7088671875
-3.4065625,-1.62737109375,5.45233203125,-0.9199609375,7.757140625,7.8448125,9.51096875,0.32578125,-1.33294921875,3.15419921875,-1.0461796875,-1.777015625,0.36541796875,-3.146734375,7.47923828125,4.9981796875,2.853,-5.32166796875,-3.7934765625,9.140609375,4.6808359375,-2.46951953125,-9.58354296875,-1.25045703125,0.5001875,4.6500078125,-9.778765625,-11.3843359375,-4.27545703125,4.5468671875
-4.6105625,-1.37937109375,2.07533203125,-3.2929609375,4.396140625,4.3068125,3.52296875,-4.03121875,-4.75794921875,-1.98380078125,-5.9101796875,-4.339015625,-2.91258203125,-8.369734375,1.28823828125,1.1291796875,-1.827,-11.36766796875,-11.5834765625,2.429609375,3.1578359375,-7.49051953125,-17.65254296875,-8.67545703125,-3.7028125,5.5420078125,-16.750765625,-17.8763359375,-9.21345703125,2.2438671875
-4.3105625,-0.93837109375,-0.0146679687499995,-5.2819609375,1.153140625,1.9078125,-1.70603125,-5.92721875,-5.74894921875,-5.47080078125,-8.6181796875,-4.802015625,-5.47558203125,-11.092734375,-3.79076171875,-0.8088203125,-5.129,-14.93266796875,-16.7804765625,-2.623390625,2.6088359375,-10.81051953125,-22.44654296875,-13.56745703125,-6.5218125,6.7870078125,-20.832765625,-21.9133359375,-12.59945703125,0.2238671875
-2.5205625,-0.75737109375,-0.285667968749999,-6.3849609375,-1.175859375,1.3758125,-4.90503125,-4.98321875,-4.29494921875,-6.44080078125,-8.3421796875,-2.797015625,-6.91158203125,-10.541734375,-6.08676171875,-0.0898203124999997,-6.052,-15.00466796875,-17.7454765625,-4.323390625,3.8178359375,-11.23551953125,-22.44054296875,-14.26845703125,-6.7948125,8.7100078125,-20.546765625,-21.9143359375,-13.07145703125,-0.4861328125
0.5664375,-1.19537109375,1.12033203125,-6.6409609375,-2.273859375,2.6568125,-5.59603125,-1.75221875,-1.38894921875,-4.93880078125,-5.3361796875,1.088984375,-7.09358203125,-7.130734375,-4.88976171875,2.8851796875,-4.313,-11.69066796875,-14.2004765625,-2.248390625,6.3648359375,-8.62751953125,-17.68654296875,-10.59345703125,-4.5708125,10.6440078125,-15.925765625,-17.7893359375,-10.50945703125,0.1688671875
4.4114375,-2.27437109375,3.53833203125,-6.4529609375,-2.232859375,5.0328125,-4.13903125,2.57778125,1.60905078125,-1.74480078125,-0.789179687500001,5.563984375,-5.96858203125,-2.138734375,-0.660761718749999,6.7211796875,-0.515,-6.03666796875,-7.2594765625,2.620609375,8.7888359375,-3.84151953125,-9.69154296875,-3.87245703125,-1.0768125,11.1910078125,-8.472765625,-10.9103359375,-6.01145703125,1.3348671875
8.0504375,-3.53537109375,6.17133203125,-6.1279609375,-1.163859375,7.6538125,-1.35103125,6.73378125,3.80605078125,2.13819921875,3.7938203125,9.248984375,-3.45458203125,2.987265625,5.31323828125,9.7301796875,3.958,0.50033203125,1.1155234375,8.443609375,9.4518359375,1.79348046875,-0.71854296875,3.69754296875,1.9651875,9.0490078125,-0.455765625,-3.4123359375,-1.27345703125,1.8768671875
10.3144375,-4.14437109375,8.43133203125,-5.5869609375,1.042140625,10.0418125,1.95596875,9.79778125,5.20705078125,5.95419921875,7.2868203125,11.234984375,0.39141796875,7.226265625,11.50823828125,10.7911796875,7.347,6.59333203125,8.8615234375,13.368609375,7.5308359375,7.08348046875,7.08045703125,9.97254296875,3.2191875,3.8720078125,6.017234375,2.7376640625,2.21654296875,1.0848671875
10.3854375,-3.29037109375,10.01933203125,-4.5449609375,4.490140625,12.1638125,5.25596875,11.34278125,6.41805078125,9.30019921875,9.2948203125,11.303984375,5.09541796875,10.144265625,16.64023828125,9.8681796875,8.192,11.32733203125,14.4035234375,16.203609375,3.4728359375,11.30248046875,12.27645703125,13.58654296875,2.3211875,-3.3739921875,9.696234375,6.3956640625,3.72654296875,-0.9661328125
8.4434375,-0.69337109375,10.81833203125,-2.9459609375,8.776140625,14.1228125,8.34496875,11.34578125,7.92305078125,11.92019921875,10.0378203125,9.798984375,9.71641796875,11.674265625,19.86123828125,7.8941796875,6.029,14.22033203125,16.9365234375,16.653609375,-1.3041640625,14.17448046875,14.37045703125,14.21954296875,-0.1118125,-10.7379921875,10.403234375,7.3916640625,3.37454296875,-3.5271328125
5.8454375,3.07062890625,10.76533203125,-1.1959609375,12.704140625,15.7838125,11.22896875,10.04678125,9.51705078125,13.46219921875,9.9378203125,7.340984375,13.11241796875,11.821265625,20.76623828125,6.1571796875,1.707,15.11833203125,16.4215234375,15.171609375,-5.1801640625,15.64148046875,13.64745703125,12.43754296875,-2.9268125,-16.0919921875,8.809234375,6.2526640625,1.85654296875,-5.6111328125
4.4974375,6.62762890625,9.82033203125,0.00303906250000008,14.586140625,16.6508125,13.88096875,7.82778125,10.31205078125,13.43819921875,9.2108203125,4.554984375,14.40941796875,10.538265625,19.31423828125,5.5501796875,-2.936,14.07633203125,13.4305234375,12.580609375,-7.0781640625,15.63448046875,10.85445703125,9.28054296875,-5.0328125,-17.9599921875,5.959234375,3.7456640625,0.0135429687499999,-6.4621328125
5.7174375,8.29362890625,7.99833203125,0.0510390624999997,13.028140625,16.0258125,15.94996875,5.09378125,9.26305078125,11.44419921875,7.7068203125,1.857984375,13.36141796875,7.831265625,15.77023828125,6.1181796875,-5.937,11.30333203125,8.8835234375,9.695609375,-6.7991640625,14.00048046875,6.84545703125,5.79454296875,-5.8368125,-16.0069921875,2.803234375,0.5136640625,-1.53645703125,-5.8501328125
9.3824375,6.86462890625,5.41433203125,-1.2149609375,7.733140625,13.3958125,16.65196875,2.17378125,5.85205078125,7.48119921875,5.0698203125,-0.635015625,10.42241796875,3.948265625,10.65623828125,7.1071796875,-6.146,7.17533203125,3.7765234375,7.071609375,-4.8891640625,10.62248046875,2.34045703125,2.69254296875,-5.3628125,-11.0059921875,-0.0877656249999998,-3.0633359375,-2.58145703125,-4.1011328125
13.9644375,2.31762890625,2.31333203125,-3.4149609375,-0.141859375,8.8618125,15.08596875,-0.69621875,0.544050781250001,2.15119921875,1.1258203125,-3.054015625,6.51041796875,-0.511734375,4.72423828125,7.4611796875,-3.689,2.26533203125,-1.0324765625,4.939609375,-2.2251640625,5.68748046875,-2.14554296875,0.235542968749999,-4.0848125,-4.4179921875,-2.543765625,-6.7743359375,-3.27145703125,-1.8941328125
17.3304375,-3.98637109375,-0.92466796875,-5.7519609375,-8.294859375,3.3588125,10.86396875,-3.33021875,-5.25194921875,-3.39180078125,-3.7481796875,-5.568015625,2.65541796875,-4.662734375,-1.07376171875,6.4541796875,0.24,-2.63166796875,-4.9204765625,3.291609375,0.372835937500001,-0.0755195312500001,-6.22454296875,-1.65045703125,-2.6388125,2.1650078125,-4.639765625,-10.3883359375,-3.91145703125,0.0438671875000003
17.7144375,-9.84937109375,-3.81366796875,-7.3479609375,-14.125859375,-1.5791875,4.58196875,-5.53621875,-9.67994921875,-7.76780078125,-8.5541796875,-8.158015625,-0.27658203125,-7.550734375,-5.71276171875,4.0851796875,4.044,-6.57366796875,-7.5244765625,2.015609375,2.3328359375,-5.40951953125,-9.53954296875,-3.16545703125,-1.5698125,7.4550078125,-6.483765625,-13.5443359375,-4.74745703125,1.1898671875
14.2894375,-13.29937109375,-5.85166796875,-7.6049609375,-15.720859375,-4.4431875,-2.26203125,-7.13721875,-11.19094921875,-9.82680078125,-12.0011796875,-10.496015625,-1.72358203125,-8.459734375,-8.32376171875,1.0271796875,6.392,-8.67266796875,-8.7344765625,0.984609375000001,3.3268359375,-8.88151953125,-11.73554296875,-4.46345703125,-1.2178125,10.6780078125,-8.098765625,-15.7943359375,-5.85145703125,1.3328671875
7.2454375,-13.56237109375,-6.65766796875,-6.4339609375,-12.533859375,-4.4221875,-7.87303125,-8.02221875,-9.12894921875,-9.04780078125,-13.0731796875,-12.021015625,-1.49658203125,-7.163734375,-8.48376171875,-1.7648203125,6.584,-8.38966796875,-8.6654765625,0.112609375,3.2388359375,-9.42851953125,-12.53754296875,-5.56745703125,-1.6928125,11.5820078125,-9.414765625,-16.7653359375,-7.11645703125,0.5508671875
-2.3115625,-11.34337109375,-6.09166796875,-4.2139609375,-5.493859375,-1.7131875,-10.89403125,-8.16521875,-3.91594921875,-5.71880078125,-11.5241796875,-12.168015625,0.16041796875,-4.000734375,-6.38776171875,-3.5148203125,4.616,-5.74966796875,-7.5824765625,-0.602390624999999,2.2088359375,-6.78551953125,-11.84454296875,-6.36045703125,-2.8598125,10.3750078125,-10.287765625,-16.2653359375,-8.28945703125,-0.8471328125
-12.4345625,-8.25137109375,-4.33066796875,-1.5629609375,3.411140625,2.6108125,-10.88903125,-7.58721875,3.19805078125,-0.809800781250001,-8.0101796875,-10.659015625,2.58441796875,0.252265625,-2.79576171875,-3.9188203125,1.098,-1.34766796875,-5.7804765625,-1.044390625,0.6808359375,-1.54951953125,-9.74854296875,-6.59545703125,-4.3248125,7.6340078125,-10.505765625,-14.2813359375,-8.99445703125,-2.3941328125
-20.4945625,-5.80637109375,-1.86766796875,0.9220390625,11.835140625,7.0618125,-8.39303125,-6.30921875,10.58905078125,4.35519921875,-3.8201796875,-7.716015625,4.89241796875,4.629265625,1.22523828125,-3.2008203125,-2.902,3.84533203125,-3.4914765625,-0.986390624999999,-0.6831640625,5.09848046875,-6.52054296875,-5.97745703125,-5.5028125,4.1740078125,-9.824765625,-10.9333359375,-8.79945703125,-3.5701328125
-23.7895625,-4.67137109375,0.59533203125,2.8530390625,17.790140625,10.2978125,-4.57303125,-4.36821875,16.70805078125,8.50719921875,-0.3551796875,-4.056015625,6.38141796875,8.227265625,4.65623828125,-1.9648203125,-6.133,8.76833203125,-0.8844765625,-0.210390625,-1.2921640625,11.80848046875,-2.59254296875,-4.31845703125,-5.8208125,0.8410078125,-8.080765625,-6.5083359375,-7.39945703125,-3.9631328125
-20.6235625,-4.50737109375,2.36533203125,4.1090390625,20.165140625,11.5978125,-0.657031250000001,-1.88621875,20.41605078125,10.76619921875,1.4148203125,-0.625015625,6.88641796875,10.379265625,6.85123828125,-0.8908203125,-7.556,12.51433203125,1.8365234375,1.361609375,-0.9371640625,17.38148046875,1.44445703125,-1.71245703125,-4.9858125,-1.7179921875,-5.357765625,-1.5723359375,-4.84845703125,-3.4661328125
-11.3115625,-4.38037109375,3.04533203125,4.7730390625,18.911140625,11.0558125,2.57496875,0.87078125,21.16705078125,10.86319921875,1.3288203125,1.823984375,6.82741796875,10.766265625,7.71423828125,-0.3558203125,-6.727,14.49933203125,4.3745234375,3.612609375,0.110835937500001,20.91848046875,4.91145703125,1.42554296875,-3.1178125,-3.2079921875,-2.069765625,2.9866640625,-1.67645703125,-2.3401328125
1.6424375,-3.37937109375,2.78533203125,5.0160390625,14.937140625,9.4778125,5.03096875,3.57478125,19.09405078125,9.24219921875,0.1528203125,3.126984375,6.90541796875,9.520265625,7.72223828125,-0.1248203125,-3.959,14.58033203125,6.4155234375,6.346609375,1.3968359375,21.86848046875,7.24445703125,4.53354296875,-0.6228125,-3.6329921875,1.172234375,6.1396640625,1.27554296875,-1.0761328125
14.4934375,-1.06537109375,2.34533203125,5.0570390625,9.819140625,8.0668125,7.23896875,6.02078125,15.03305078125,7.00719921875,-0.6431796875,3.831984375,7.66341796875,7.288265625,7.77123828125,0.6891796875,-0.144,13.11433203125,7.8235234375,9.463609375,2.7608359375,20.10248046875,8.23945703125,7.19354296875,2.1161875,-3.1189921875,3.844234375,7.1136640625,3.24454296875,-0.1161328125
23.8254375,2.40362890625,2.85633203125,5.2170390625,5.413140625,8.0458125,10.03396875,8.29678125,10.44305078125,5.63819921875,0.5448203125,4.943984375,9.19541796875,5.148265625,8.84823828125,3.2671796875,3.676,10.89133203125,8.7705234375,13.014609375,4.5828359375,16.01248046875,8.16445703125,9.30654296875,4.9431875,-1.7789921875,5.732234375,5.7486640625,3.90354296875,0.3488671875
27.8794375,6.42362890625,5.29133203125,5.9130390625,3.373140625,10.2358125,14.07596875,10.73578125,7.03005078125,6.44119921875,4.7078203125,7.362984375,11.11541796875,4.264265625,11.56323828125,8.3911796875,6.788,8.84533203125,9.6345234375,16.992609375,7.4778359375,10.49248046875,7.56745703125,10.99854296875,7.8361875,0.2350078125,6.908234375,2.5776640625,3.41354296875,0.3768671875
27.0084375,10.25862890625,9.88833203125,7.4890390625,4.570140625,14.6508125,19.37296875,13.64578125,6.07805078125,9.92519921875,11.6138203125,11.308984375,12.74341796875,5.351265625,15.74623828125,15.7851796875,9.054,7.66033203125,10.7025234375,21.035609375,11.6218359375,4.72448046875,6.90645703125,12.33254296875,10.6101875,2.6000078125,7.483234375,-1.4483359375,2.19954296875,0.0958671875000003
23.2064375,13.33462890625,15.86433203125,9.9360390625,8.671140625,20.3278125,25.06596875,16.98178125,7.82805078125,15.43619921875,19.7118203125,16.092984375,13.43041796875,8.262265625,20.37423828125,23.9291796875,10.813,7.47133203125,11.9055234375,24.328609375,16.2738359375,-0.16551953125,6.26345703125,13.10154296875,12.7361875,4.8040078125,7.419234375,-5.3563359375,0.66354296875,-0.4131328125
19.0674375,15.39162890625,21.62133203125,12.7330390625,14.181140625,25.6028125,29.69796875,20.20078125,11.33005078125,21.32519921875,26.6818203125,20.367984375,12.86041796875,11.989265625,23.96623828125,30.5551796875,12.476,7.89133203125,12.8195234375,25.882609375,19.9388359375,-3.38451953125,5.37045703125,12.90354296875,13.5091875,6.3300078125,6.541234375,-8.4403359375,-0.92545703125,-1.0761328125
16.5714375,16.40562890625,25.36233203125,14.9560390625,19.066140625,28.7708125,31.83296875,22.40078125,14.93005078125,25.61219921875,30.3718203125,22.723984375,11.20041796875,15.139265625,25.26123828125,33.5951796875,14.076,8.30933203125,12.9175234375,25.049609375,21.1058359375,-4.57151953125,3.93345703125,11.45054296875,12.4501875,6.9230078125,4.759234375,-10.3113359375,-2.36345703125,-1.7051328125
16.1234375,16.35362890625,25.81833203125,15.5930390625,21.652140625,28.7738125,30.67396875,22.64478125,17.09405078125,26.83819921875,29.6728203125,22.258984375,9.00541796875,16.601265625,23.79423828125,32.0751796875,15.131,8.30133203125,11.9335234375,21.923609375,19.0768359375,-3.73151953125,1.99545703125,8.88754296875,9.6761875,6.7430078125,2.301234375,-10.8013359375,-3.40445703125,-1.9531328125
16.3434375,15.02962890625,22.73333203125,13.9630390625,21.315140625,25.5818125,26.34996875,20.33978125,17.12605078125,24.69919921875,24.9318203125,18.917984375,6.98841796875,16.075265625,20.09623828125,26.4791796875,14.927,7.89533203125,10.0905234375,17.371609375,14.3568359375,-1.13151953125,0.10045703125,5.87954296875,5.9561875,6.3030078125,-0.221765625,-9.8473359375,-3.74345703125,-1.4261328125
14.8604375,12.12462890625,16.91533203125,10.0830390625,18.673140625,20.1768125,19.84896875,15.50578125,15.45405078125,20.18019921875,17.7658203125,13.481984375,5.75341796875,14.186265625,15.44723828125,18.4821796875,13.041,7.55433203125,8.0725234375,12.683609375,8.4128359375,2.79048046875,-0.87454296875,3.40754296875,2.4301875,6.2110078125,-1.989765625,-7.4803359375,-3.13045703125,0.1158671875
9.8264375,7.55062890625,9.85533203125,4.8160390625,15.218140625,14.1868125,12.67896875,8.83378125,13.36705078125,15.12719921875,10.3798203125,7.254984375,5.59441796875,12.153265625,11.33523828125,10.2251796875,9.682,7.88333203125,6.7355234375,9.023609375,3.0018359375,7.45648046875,-0.15654296875,2.32754296875,0.1261875,6.8760078125,-2.337765625,-3.9213359375,-1.56145703125,2.5798671875
1.2734375,1.76562890625,3.13133203125,-0.3659609375,12.566140625,9.2778125,6.35796875,1.47878125,12.30305078125,11.44219921875,4.7098203125,1.578984375,6.40641796875,11.161265625,8.86123828125,3.5131796875,5.585,9.21533203125,6.6845234375,6.981609375,-0.534164062499999,12.15848046875,2.44345703125,2.93354296875,-0.4658125,8.3070078125,-1.126765625,0.2776640625,0.56554296875,5.4698671875
-8.5675625,-4.17737109375,-2.13866796875,-3.9599609375,11.644140625,6.4948125,1.88096875,-5.33121875,13.00305078125,10.24519921875,1.7438203125,-2.636015625,7.73341796875,11.733265625,8.32123828125,-0.7258203125,1.589,11.31933203125,7.9175234375,6.415609375,-1.6951640625,16.11048046875,6.28245703125,4.75954296875,0.4371875,10.0780078125,1.088234375,4.2176640625,2.46954296875,7.9718671875
-16.2175625,-8.94137109375,-5.55466796875,-5.0619609375,12.194140625,5.8668125,-0.567031250000001,-10.67521875,15.01405078125,11.39319921875,1.2898203125,-5.162015625,8.94741796875,13.433265625,9.16223828125,-2.5438203125,-1.778,13.42333203125,9.7625234375,6.644609375,-0.8641640625,18.60148046875,10.05345703125,6.76854296875,2.0481875,11.4720078125,3.249234375,6.8676640625,3.23854296875,9.2088671875
-18.6245625,-11.46137109375,-7.35166796875,-3.7039609375,12.917140625,6.5168125,-1.48103125,-14.13021875,16.89405078125,13.61019921875,2.2678203125,-6.380015625,9.48341796875,15.076265625,10.34223828125,-2.6898203125,-4.405,14.56133203125,11.1865234375,6.862609375,0.957835937500001,19.23948046875,12.33745703125,7.86454296875,3.4021875,11.7310078125,4.284234375,7.4736640625,2.22954296875,8.5798671875
-14.6255625,-11.42837109375,-8.07066796875,-0.7339609375,12.211140625,7.2078125,-1.58203125,-15.68021875,17.01505078125,15.17919921875,3.3678203125,-6.927015625,9.06041796875,15.378265625,10.91623828125,-2.0928203125,-6.402,14.07833203125,11.3355234375,6.593609375,2.6068359375,18.14948046875,12.28645703125,7.48354296875,3.8211875,10.3490078125,3.664234375,5.9376640625,-0.54945703125,6.0538671875
-5.4575625,-9.41837109375,-8.16166796875,2.6120390625,9.152140625,7.0128125,-1.36603125,-15.49121875,14.50105078125,14.84319921875,3.7398203125,-7.281015625,7.78341796875,13.683265625,10.53723828125,-1.3818203125,-7.812,12.02133203125,10.0255234375,5.954609375,3.2268359375,15.98948046875,10.05645703125,5.91954296875,3.2221875,7.3060078125,1.705234375,2.9606640625,-4.32945703125,2.2638671875
5.8264375,-6.54837109375,-7.74266796875,5.2610390625,4.163140625,5.7818125,-0.922031250000001,-13.72621875,9.77605078125,12.46419921875,3.3938203125,-7.491015625,6.10041796875,10.377265625,9.61123828125,-0.628820312499999,-8.497,9.18633203125,7.8875234375,5.592609375,2.6098359375,13.72848046875,6.76445703125,4.20154296875,2.1231875,3.1380078125,-0.560765625,-0.201335937500001,-7.82945703125,-1.6831328125
15.6174375,-3.87837109375,-6.60366796875,6.7390390625,-0.967859375,4.2158125,-0.0240312500000011,-10.54321875,4.48705078125,9.09619921875,3.0958203125,-7.175015625,4.60241796875,6.754265625,9.05723828125,0.565179687500001,-8.259,6.78033203125,6.0585234375,6.318609375,1.2718359375,12.28248046875,3.94845703125,3.53654296875,1.3561875,-1.1999921875,-1.912765625,-2.2533359375,-9.79845703125,-4.6151328125
21.0424375,-1.91637109375,-4.41566796875,7.3240390625,-3.787859375,3.5128125,1.61796875,-6.21021875,0.859050781250001,6.46019921875,3.8488203125,-5.780015625,3.80641796875,4.412265625,9.78323828125,2.7341796875,-7.006,5.85633203125,5.5875234375,8.593609375,0.2088359375,12.13648046875,2.82745703125,4.64154296875,1.6091875,-4.6329921875,-1.601765625,-2.4573359375,-9.59145703125,-5.7571328125
20.8404375,-0.52137109375,-1.02366796875,7.7920390625,-2.313859375,4.7238125,4.07996875,-1.20521875,0.748050781250001,6.09819921875,6.2518203125,-2.940015625,4.02741796875,4.484265625,12.16723828125,6.1161796875,-4.807,6.78933203125,6.8555234375,12.161609375,0.378835937500001,13.08948046875,3.71845703125,7.30654296875,3.0461875,-6.3439921875,0.228234375,-0.9903359375,-7.49645703125,-5.0231328125
15.6614375,0.82862890625,3.32833203125,8.8830390625,3.877140625,8.1068125,7.06496875,3.80278125,4.78005078125,8.60119921875,10.0678203125,1.214984375,5.41041796875,7.076265625,15.76623828125,10.3571796875,-1.818,9.07633203125,9.3385234375,16.021609375,2.1398359375,14.28348046875,5.90245703125,10.43654296875,5.1641875,-6.0599921875,2.593234375,1.1286640625,-4.60845703125,-3.0301328125
7.7994375,2.60862890625,7.92533203125,10.7870390625,13.147140625,12.8398125,9.94196875,8.07278125,11.93805078125,13.25019921875,14.1988203125,5.931984375,7.96441796875,11.159265625,19.38523828125,14.4771796875,1.718,11.53533203125,11.8175234375,18.771609375,4.9468359375,14.55948046875,8.00045703125,12.54154296875,6.9581875,-4.1679921875,4.174234375,2.5216640625,-2.31745703125,-0.8311328125
0.4014375,4.89762890625,11.71133203125,12.9450390625,22.217140625,17.2498125,11.95196875,10.95678125,19.78805078125,18.21119921875,17.0718203125,9.970984375,11.47241796875,14.962265625,21.48723828125,17.1341796875,5.353,12.82933203125,12.9345234375,19.170609375,7.5488359375,13.02848046875,8.65945703125,12.44354296875,7.3571875,-1.5629921875,4.002234375,2.1416640625,-1.65745703125,0.5178671875
-3.6645625,7.26162890625,13.60033203125,14.2570390625,27.406140625,19.4688125,12.45796875,12.06078125,25.28505078125,21.25419921875,17.2978203125,12.028984375,15.30741796875,16.710265625,20.80023828125,17.1411796875,8.333,12.06933203125,11.8305234375,16.689609375,8.5958359375,9.58148046875,7.24245703125,9.85954296875,5.7501875,0.7150078125,2.003234375,-0.1653359375,-2.82545703125,0.4068671875
-2.8755625,8.93462890625,12.92333203125,13.6230390625,26.226140625,18.2608125,11.17596875,11.39478125,25.91305078125,20.74119921875,14.3778203125,11.332984375,18.37041796875,15.411265625,16.94523828125,14.0591796875,9.787,9.25133203125,8.6055234375,11.831609375,7.3548359375,5.04748046875,4.17645703125,5.62354296875,2.3761875,1.8980078125,-0.895765625,-3.5323359375,-5.10545703125,-1.0761328125
2.3894375,9.22762890625,9.84033203125,10.6060390625,18.624140625,13.7088125,8.39896875,9.47078125,20.83205078125,16.48619921875,9.1288203125,8.130984375,19.36641796875,11.404265625,10.80823828125,8.5981796875,9.17,5.31433203125,4.4035234375,6.091609375,4.1158359375,0.88048046875,0.80545703125,1.41054296875,-1.6598125,1.7670078125,-3.156765625,-6.4733359375,-7.22545703125,-3.2071328125
10.0434375,7.96462890625,5.48133203125,5.9070390625,7.281140625,7.4228125,5.13396875,7.25578125,11.54205078125,10.05619921875,3.5678203125,3.774984375,17.40641796875,6.353265625,4.44423828125,2.5881796875,6.711,1.78733203125,1.0375234375,1.507609375,0.1058359375,-1.50151953125,-1.21454296875,-0.92245703125,-4.7978125,0.6520078125,-3.368765625,-7.6523359375,-8.00445703125,-5.0111328125
17.1714375,5.70462890625,1.64933203125,1.3260390625,-3.306859375,2.0428125,2.94596875,5.89678125,1.58205078125,4.25919921875,0.2008203125,0.272984375,12.64141796875,2.648265625,0.397238281250001,-1.6138203125,3.487,0.14633203125,0.2755234375,-0.0523906250000001,-3.0351640625,-1.39451953125,-0.69954296875,-0.111457031250001,-5.6818125,-0.7919921875,-0.951765625,-6.5983359375,-6.94645703125,-5.7811328125
21.2144375,3.57862890625,0.12333203125,-0.9279609375,-8.641859375,0.130812499999999,3.37996875,6.25078125,-4.84194921875,1.98819921875,0.9648203125,-0.560015625,6.49641796875,2.387265625,0.672238281250001,-2.0578203125,0.984,1.16933203125,3.0535234375,2.365609375,-3.9551640625,0.82648046875,2.48445703125,3.96054296875,-3.7538125,-1.9329921875,3.519234375,-3.9763359375,-4.48545703125,-5.4321328125
20.9454375,2.80262890625,1.87233203125,0.7020390625,-6.143859375,2.9978125,7.20996875,8.47278125,-4.70394921875,4.91919921875,6.3528203125,2.050984375,1.19841796875,6.409265625,5.82223828125,1.9211796875,0.363,4.60633203125,8.9895234375,8.380609375,-2.1581640625,3.88248046875,7.32345703125,10.20054296875,0.5031875,-2.4539921875,8.552234375,-1.2363359375,-1.75545703125,-4.5071328125
16.8424375,4.11162890625,6.59433203125,6.2510390625,3.736140625,10.0978125,13.93796875,11.91278125,2.45005078125,12.71119921875,15.1228203125,7.437984375,-1.24658203125,13.856265625,14.63823828125,9.3571796875,1.847,9.28833203125,16.4605234375,16.361609375,1.8078359375,6.21348046875,12.09345703125,16.74154296875,5.7781875,-2.4609921875,12.393234375,0.1366640625,-0.0254570312500002,-3.8481328125
10.7954375,7.41462890625,12.83533203125,14.0210390625,17.678140625,19.2488125,21.86496875,15.40378125,14.27905078125,23.09219921875,24.7608203125,13.766984375,-0.0455820312500004,22.472265625,24.58423828125,18.0031796875,4.615,13.60533203125,23.2055234375,24.008609375,6.6138359375,6.70748046875,15.09445703125,21.67054296875,10.4581875,-2.3749921875,13.753234375,-0.6563359375,-0.11745703125,-4.1471328125
5.3094375,11.79662890625,18.59833203125,21.1660390625,30.818140625,27.4938125,28.69096875,17.79778125,26.58905078125,32.75119921875,32.4308203125,18.840984375,3.98041796875,29.448265625,32.74523828125,25.2041796875,7.268,16.10033203125,27.1595234375,29.163609375,10.7108359375,5.13348046875,15.30645703125,23.68154296875,13.2181875,-2.6589921875,12.260234375,-3.4183359375,-2.11345703125,-5.6321328125
2.5024375,15.83362890625,22.11033203125,24.8270390625,38.617140625,32.1698125,32.40496875,18.40578125,34.95205078125,38.55119921875,35.9528203125,21.003984375,8.82341796875,32.394265625,36.80323828125,28.8691796875,8.552,15.92233203125,27.1155234375,30.482609375,12.8878359375,2.12048046875,12.68045703125,22.38454296875,13.4011875,-3.5779921875,8.447234375,-7.1883359375,-5.44145703125,-8.0411328125
3.2264375,18.05562890625,22.37733203125,23.3080390625,38.486140625,31.7678125,32.03996875,17.14178125,36.32005078125,38.55719921875,34.4268203125,19.706984375,12.21641796875,30.054265625,35.64823828125,28.1011796875,7.907,13.00333203125,22.9655234375,27.731609375,12.5818359375,-1.24951953125,7.97645703125,18.20454296875,11.0721875,-5.0949921875,3.380234375,-10.8023359375,-9.23445703125,-10.8331328125
6.7244375,17.43362890625,19.35633203125,16.7500390625,30.573140625,26.3058125,27.94196875,14.34878125,30.04205078125,32.54719921875,28.3108203125,15.510984375,12.60041796875,22.590265625,29.50123828125,23.2891796875,5.563,7.97533203125,15.5415234375,21.649609375,9.8858359375,-3.95451953125,2.33345703125,12.04654296875,6.8191875,-6.9489921875,-1.857765625,-13.4423359375,-12.72445703125,-13.4801328125
11.0294375,13.78062890625,13.78633203125,7.0340390625,17.473140625,17.1548125,21.42696875,10.53078125,17.95105078125,21.94719921875,19.0778203125,9.655984375,9.70341796875,11.465265625,19.63723828125,15.7191796875,2.232,1.94033203125,6.2445234375,13.553609375,5.3708359375,-5.41551953125,-3.17854296875,4.93754296875,1.4801875,-8.8099921875,-6.516765625,-14.8963359375,-15.46945703125,-15.6461328125
13.9324375,7.90562890625,6.88233203125,-2.9679609375,3.139140625,6.4878125,14.09296875,6.19878125,3.55405078125,9.32419921875,8.6768203125,3.534984375,4.58141796875,-0.966734375,7.92723828125,7.0191796875,-1.312,-3.83166796875,-3.3194765625,4.917609375,-0.0971640624999996,-5.61251953125,-7.79254296875,-2.16445703125,-4.0648125,-10.3739921875,-10.265765625,-15.4383359375,-17.34145703125,-17.1991328125
13.9774375,1.37962890625,0.0383320312500004,-10.3859609375,-8.519859375,-3.3681875,7.24496875,1.88878125,-9.25794921875,-2.39080078125,-0.9601796875,-1.677015625,-0.82458203125,-12.052734375,-3.57576171875,-1.2768203125,-4.491,-8.18966796875,-11.5994765625,-2.913390625,-5.5191640625,-4.93251953125,-11.06054296875,-8.40445703125,-9.0048125,-11.3759921875,-13.045765625,-15.4703359375,-18.34645703125,-18.0771328125
10.9594375,-4.04037109375,-5.44066796875,-13.2579609375,-14.842859375,-10.4961875,1.69296875,-1.80021875,-17.46494921875,-10.72680078125,-8.3011796875,-5.177015625,-4.45458203125,-19.507734375,-12.99776171875,-7.9628203125,-6.927,-10.37366796875,-17.3114765625,-8.882390625,-9.9751640625,-3.87551953125,-12.75154296875,-13.04445703125,-12.6998125,-11.6069921875,-14.885765625,-15.1973359375,-18.46745703125,-18.1881328125
5.7744375,-7.11837109375,-8.59566796875,-11.1559609375,-15.119859375,-13.8541875,-2.20203125,-4.28621875,-19.74794921875,-14.35480078125,-12.4781796875,-6.598015625,-4.94058203125,-22.032734375,-18.96376171875,-12.2838203125,-8.373,-10.19866796875,-19.7034765625,-12.363390625,-12.8911640625,-2.82551953125,-12.81654296875,-15.58145703125,-14.8078125,-10.9939921875,-15.830765625,-14.5393359375,-17.64045703125,-17.4401328125
-0.1645625,-7.60537109375,-9.05966796875,-5.3909609375,-10.635859375,-13.5771875,-4.45003125,-5.22121875,-16.69594921875,-13.40480078125,-13.4641796875,-6.083015625,-2.19558203125,-19.702734375,-20.92376171875,-14.0508203125,-8.716,-8.12666796875,-18.7994765625,-13.292390625,-14.2091640625,-1.97351953125,-11.44454296875,-15.95345703125,-15.3928125,-9.6969921875,-15.987765625,-13.3023359375,-15.87445703125,-15.8681328125
-5.5445625,-6.26137109375,-7.18166796875,1.4240390625,-4.033859375,-10.9131875,-5.38303125,-4.67021875,-10.35094921875,-9.31380078125,-12.0611796875,-4.290015625,2.49141796875,-13.938734375,-19.31676171875,-13.6918203125,-8.058,-5.11366796875,-15.4734765625,-12.217390625,-14.3171640625,-1.36851953125,-9.12054296875,-14.64945703125,-14.8918125,-8.0909921875,-15.571765625,-11.3973359375,-13.34645703125,-13.7011328125
-9.5165625,-4.39137109375,-3.92166796875,6.4040390625,1.783140625,-7.7081875,-5.56003125,-3.11321875,-3.27694921875,-4.21780078125,-9.6261796875,-2.198015625,6.94541796875,-6.965734375,-15.42076171875,-12.1058203125,-6.718,-2.26666796875,-11.1684765625,-10.117390625,-13.7581640625,-0.94851953125,-6.52554296875,-12.54645703125,-13.8928125,-6.5589921875,-14.826765625,-8.9183359375,-10.36545703125,-11.2611328125
-11.7735625,-3.18837109375,-0.53666796875,7.5900390625,4.755140625,-5.6441875,-5.61103125,-1.26421875,2.40405078125,-0.13580078125,-7.5661796875,-0.767015625,9.04441796875,-0.983734375,-10.89976171875,-10.3088203125,-5.116,-0.42066796875,-7.3714765625,-8.047390625,-12.9251640625,-0.57251953125,-4.30654296875,-10.53045703125,-12.8488125,-5.2519921875,-13.882765625,-6.0773359375,-7.23745703125,-8.7791328125
-12.4565625,-3.27337109375,1.80733203125,4.6780390625,4.242140625,-5.6741875,-6.08103125,0.13678125,5.55905078125,1.67819921875,-6.8501796875,-0.635015625,7.67741796875,2.558265625,-7.25376171875,-9.0678203125,-3.626,0.12033203125,-5.1134765625,-6.787390625,-11.9511640625,-0.10051953125,-2.85854296875,-9.16445703125,-11.9308125,-4.0359921875,-12.684765625,-3.1373359375,-4.18445703125,-6.2991328125
-12.0115625,-4.63637109375,2.35933203125,-1.0279609375,0.921140625,-7.8531875,-7.29903125,0.48978125,6.03605078125,0.95119921875,-7.7511796875,-2.013015625,3.23541796875,3.238265625,-5.43476171875,-8.7298203125,-2.524,-0.44666796875,-4.7464765625,-6.675390625,-10.8561640625,0.46348046875,-2.29254296875,-8.58445703125,-11.1068125,-2.7029921875,-11.109765625,-0.4363359375,-1.40045703125,-3.7851328125
-11.0085625,-6.88337109375,0.96533203125,-7.2949609375,-3.787859375,-11.5071875,-9.23303125,-0.50621875,4.32405078125,-1.78480078125,-9.8991796875,-4.702015625,-2.64058203125,1.504265625,-5.69476171875,-9.2638203125,-1.997,-1.67666796875,-6.0224765625,-7.631390625,-9.7361640625,0.88948046875,-2.53054296875,-8.63145703125,-10.3448125,-1.2519921875,-9.148765625,1.5766640625,0.86354296875,-1.3001328125
-9.9405625,-9.48937109375,-1.87766796875,-11.8609609375,-8.355859375,-15.5321875,-11.40203125,-2.66121875,1.22005078125,-5.55680078125,-12.5011796875,-8.141015625,-7.86658203125,-1.691734375,-7.62876171875,-10.3658203125,-2.103,-3.11966796875,-8.3014765625,-9.244390625,-8.7611640625,0.83548046875,-3.39254296875,-9.00445703125,-9.6778125,0.0500078124999999,-6.988765625,2.4566640625,2.32454296875,0.920867187500001
-9.0625625,-11.88237109375,-5.13066796875,-13.2009609375,-11.602859375,-18.7401875,-12.96403125,-5.19921875,-2.33794921875,-9.26580078125,-14.6261796875,-11.426015625,-10.77158203125,-5.201734375,-10.35376171875,-11.5148203125,-2.678,-4.37166796875,-10.7264765625,-10.855390625,-7.9691640625,0.12448046875,-4.55754296875,-9.33845703125,-9.0888125,0.8900078125,-4.906765625,2.0266640625,2.84854296875,2.5928671875
-8.3905625,-13.44537109375,-7.52166796875,-10.9649609375,-12.903859375,-20.2101875,-13.03303125,-6.93821875,-5.34494921875,-11.93180078125,-15.4811796875,-13.453015625,-10.56558203125,-7.890734375,-12.80176171875,-12.0378203125,-3.305,-4.99666796875,-12.3824765625,-11.682390625,-7.0691640625,-1.01551953125,-5.48254296875,-9.22545703125,-8.3548125,1.2010078125,-3.062765625,0.5946640625,2.61054296875,3.5758671875
-7.8465625,-13.55637109375,-8.00066796875,-5.9819609375,-12.204859375,-19.5541875,-11.09003125,-6.75721875,-6.86894921875,-12.90180078125,-14.6701796875,-13.249015625,-7.33758203125,-8.822734375,-14.07976171875,-11.2778203125,-3.461,-4.48666796875,-12.4824765625,-11.039390625,-5.4951640625,-1.95151953125,-5.44554296875,-8.26445703125,-7.0418125,1.2810078125,-1.385765625,-1.0633359375,2.09754296875,3.9858671875
-7.3775625,-11.75537109375,-6.17866796875,0.1410390625,-9.931859375,-17.0051875,-7.27103125,-4.15021875,-6.33594921875,-12.00580078125,-12.3241796875,-10.394015625,-1.83858203125,-7.499734375,-13.74776171875,-8.8408203125,-2.782,-2.39866796875,-10.6034765625,-8.598390625,-2.7421640625,-1.91751953125,-3.77454296875,-6.17945703125,-4.7288125,1.6520078125,0.387234375,-1.9883359375,1.91254296875,4.1578671875
-6.9055625,-7.98037109375,-2.51966796875,5.6170390625,-6.869859375,-13.3191875,-2.37703125,0.48278125,-3.84694921875,-9.59780078125,-9.0241796875,-5.278015625,4.70541796875,-4.105734375,-11.92876171875,-4.8178203125,-1.262,1.36033203125,-6.8684765625,-4.566390625,1.2388359375,-0.41751953125,-0.19854296875,-2.95645703125,-1.2858125,2.7680078125,2.541234375,-1.4493359375,2.50154296875,4.4988671875
-6.1855625,-2.77237109375,1.81833203125,9.0520390625,-3.986859375,-9.5031875,2.40396875,5.95178125,-0.299949218749999,-6.43080078125,-5.5411796875,0.992984375,10.73341796875,0.399265625,-9.18876171875,0.1351796875,0.729,6.28133203125,-2.0104765625,0.324609375000001,5.8408359375,2.45148046875,4.87245703125,1.05754296875,2.9461875,4.7550078125,5.170234375,0.7086640625,3.95354296875,5.2988671875
-4.7735625,2.71362890625,5.43133203125,9.8030390625,-2.166859375,-6.4631875,5.96096875,10.74178125,2.86205078125,-3.39780078125,-2.5451796875,7.002984375,14.57041796875,4.460265625,-6.27476171875,4.9431796875,2.594,11.20133203125,2.7725234375,5.024609375,9.9678359375,5.92148046875,10.31245703125,5.14354296875,7.1891875,7.2960078125,8.021234375,3.9276640625,5.92854296875,6.5508671875
-2.2305625,7.02162890625,7.20833203125,8.0820390625,-1.901859375,-4.6711875,7.69996875,13.58678125,4.22505078125,-1.22180078125,-0.3991796875,11.511984375,14.83741796875,6.433265625,-3.80776171875,8.4601796875,3.771,14.58633203125,6.1615234375,8.509609375,12.4858359375,8.79948046875,14.57245703125,8.38454296875,10.4871875,9.7360078125,10.492234375,7.0966640625,7.74854296875,7.8798671875
1.5714375,8.94162890625,6.73133203125,4.7640390625,-3.120859375,-4.0511875,7.67896875,13.92578125,3.01905078125,-0.21580078125,0.8708203125,13.815984375,10.99841796875,5.244265625,-2.06976171875,9.9021796875,3.993,15.10233203125,7.1895234375,10.133609375,12.7458359375,9.94648046875,16.24445703125,9.97754296875,12.0871875,11.3690078125,11.834234375,8.9816640625,8.64254296875,8.6658671875
6.2064375,8.04662890625,4.40933203125,1.0070390625,-5.204859375,-4.1091875,6.39096875,12.04978125,-0.518949218749999,-0.19980078125,1.4898203125,13.844984375,3.76041796875,0.929265625,-0.969761718749999,9.1751796875,3.44,12.23333203125,5.6515234375,9.860609375,10.8998359375,8.75448046875,14.64945703125,9.58354296875,11.7721875,11.7740078125,11.473234375,8.7366640625,8.06354296875,8.3408671875
10.6544375,4.89162890625,1.29133203125,-2.1499609375,-7.160859375,-4.1871875,4.41096875,8.92778125,-5.17294921875,-0.601800781250001,1.8118203125,12.086984375,-4.98158203125,-5.230734375,-0.155761718749999,6.9601796875,2.681,6.62133203125,2.2525234375,8.269609375,7.8768359375,5.43048046875,10.16845703125,7.52054296875,9.9811875,11.0370078125,9.302234375,6.2806640625,5.95854296875,6.7228671875
13.4564375,0.76762890625,-1.32466796875,-4.0339609375,-7.862859375,-3.6891875,2.20296875,5.80278125,-9.11294921875,-0.67980078125,2.2118203125,9.387984375,-12.76058203125,-11.088734375,0.789238281250001,4.4681796875,2.436,-0.0706679687499997,-1.6144765625,6.324609375,5.0258359375,0.95848046875,4.16445703125,4.67454296875,7.6481875,9.7260078125,5.787234375,2.3576640625,2.83854296875,4.1948671875
13.0924375,-2.87137109375,-2.35966796875,-4.3969609375,-6.372859375,-2.2571875,0.154968749999999,3.73578125,-10.52594921875,0.172199218749999,2.9788203125,6.692984375,-17.45958203125,-14.418734375,2.13723828125,2.9251796875,3.268,-5.77066796875,-4.4064765625,4.978609375,3.5708359375,-3.24751953125,-1.50254296875,2.13754296875,5.8041875,8.6070078125,1.802234375,-1.7663359375,-0.39245703125,1.5708671875
8.5564375,-5.00437109375,-1.36066796875,-3.3729609375,-2.348859375,0.0398125,-1.35403125,3.23078125,-8.35594921875,2.15119921875,4.1698203125,4.759984375,-18.06758203125,-13.798734375,3.84323828125,2.9831796875,5.323,-8.79066796875,-5.0774765625,4.757609375,4.0688359375,-5.87351953125,-5.17254296875,0.72454296875,5.1031875,8.2340078125,-1.712765625,-4.8383359375,-2.82945703125,-0.3131328125
0.0244375000000003,-5.40937109375,1.29833203125,-1.3889609375,3.609140625,2.6158125,-2.04903125,4.05778125,-2.86494921875,4.88919921875,5.5028203125,3.896984375,-14.92858203125,-9.215734375,5.48423828125,4.3621796875,8.213,-8.46066796875,-3.5194765625,5.511609375,6.1238359375,-6.21551953125,-5.99954296875,0.58554296875,5.5051875,8.6220078125,-4.140765625,-6.1343359375,-3.96045703125,-1.0371328125
-10.6995625,-4.63937109375,4.53333203125,0.9820390625,9.927140625,4.5108125,-1.92803125,5.34378125,4.33005078125,7.54219921875,6.3788203125,3.851984375,-9.41858203125,-2.082734375,6.40323828125,5.9531796875,11.076,-5.31466796875,-0.5764765625,6.476609375,8.5088359375,-4.41751953125,-4.23154296875,1.13854296875,6.2681875,9.1920078125,-5.402765625,-5.6993359375,-3.86845703125,-0.8361328125
-20.3225625,-3.61037109375,6.97833203125,3.2040390625,14.538140625,4.8338125,-1.33403125,5.94778125,10.87005078125,9.15819921875,6.1428203125,3.924984375,-3.28558203125,5.369265625,6.05023828125,6.3751796875,12.853,-0.76266796875,2.3825234375,6.641609375,9.6918359375,-1.34751953125,-1.03154296875,1.37354296875,6.3001875,9.0400078125,-5.924765625,-4.2173359375,-3.14045703125,-0.4571328125
-25.0135625,-2.97737109375,7.57933203125,4.9610390625,15.806140625,3.2788125,-0.779031250000001,5.00578125,14.68805078125,9.19619921875,4.4808203125,3.294984375,2.02841796875,11.040265625,4.34423828125,4.7131796875,12.684,3.56233203125,4.1145234375,5.265609375,8.5408359375,1.81848046875,2.08645703125,0.38054296875,4.7101875,7.4160078125,-6.346765625,-2.5873359375,-2.50245703125,-0.7251328125
-22.0105625,-2.72737109375,6.07733203125,6.2270390625,13.426140625,0.4038125,-0.601031250000001,2.37578125,14.90805078125,7.89819921875,1.7248203125,1.449984375,5.78341796875,13.786265625,1.83323828125,1.0401796875,10.249,6.46333203125,4.0575234375,2.301609375,4.9078359375,4.07148046875,3.91645703125,-2.15045703125,1.3161875,4.1830078125,-7.115765625,-1.4603359375,-2.40345703125,-2.0281328125
-11.1755625,-2.30437109375,3.12633203125,7.1520390625,8.688140625,-2.5281875,-0.672031250000001,-1.23721875,12.13605078125,6.21319921875,-1.1751796875,-1.501015625,7.94141796875,13.728265625,-0.47876171875,-3.5488203125,5.875,7.53333203125,2.5225234375,-1.491390625,-0.2061640625,4.90748046875,4.02945703125,-5.71045703125,-3.1358125,0.00700781249999993,-8.183765625,-0.9503359375,-2.73945703125,-4.0301328125
4.4354375,-1.14437109375,-0.0146679687499995,7.7860390625,3.791140625,-4.1431875,-0.418031250000001,-4.58721875,7.97805078125,5.25819921875,-3.0641796875,-4.813015625,8.86341796875,11.936265625,-1.58676171875,-7.3878203125,0.413,7.10233203125,0.4665234375,-4.813390625,-4.9901640625,4.43548046875,2.86945703125,-9.12145703125,-7.1718125,-3.8309921875,-8.944765625,-0.6483359375,-2.87045703125,-5.7421328125
19.5724375,0.81062890625,-2.09066796875,7.8260390625,0.573140625,-3.7001875,0.772968749999999,-6.45821875,4.09005078125,5.60819921875,-3.1511796875,-7.436015625,8.96641796875,9.744265625,-0.985761718749999,-8.9508203125,-5.014,5.90633203125,-0.9764765625,-6.359390625,-7.5501640625,3.25848046875,1.47945703125,-10.97245703125,-9.1388125,-5.9169921875,-8.450765625,0.1336640625,-1.91945703125,-5.9611328125
28.9434375,3.00262890625,-2.43966796875,6.6260390625,-0.495859375,-1.5561875,3.00796875,-6.19821875,1.35705078125,6.87619921875,-1.4221796875,-8.536015625,8.52141796875,8.090265625,1.03223828125,-7.5128203125,-9.286,4.70933203125,-0.9934765625,-5.402390625,-6.7341640625,2.18348046875,1.00545703125,-10.19245703125,-7.8988125,-5.2949921875,-5.845765625,1.9876640625,0.77554296875,-3.8401328125
29.3914375,4.52062890625,-1.30366796875,3.5660390625,-0.371859375,0.9638125,5.59496875,-4.00521875,-0.316949218749999,7.86619921875,1.3018203125,-7.928015625,7.61341796875,7.217265625,3.44423828125,-3.5168203125,-11.545,4.04833203125,0.5905234375,-2.172390625,-2.7031640625,1.87448046875,2.18845703125,-6.50645703125,-3.3868125,-1.9159921875,-0.829765625,5.0776640625,5.26354296875,0.6768671875
20.9924375,4.48762890625,0.28733203125,-1.4159609375,-0.610859375,2.2418125,7.24596875,-0.86621875,-1.58894921875,7.21619921875,3.6958203125,-6.182015625,6.15941796875,6.778265625,4.92723828125,1.5051796875,-11.421,4.10133203125,3.2715234375,2.163609375,3.0278359375,2.56548046875,5.02745703125,-0.61645703125,3.2281875,3.2430078125,6.063234375,8.9696640625,10.81754296875,6.7418671875
6.7214375,2.37262890625,1.00433203125,-7.5249609375,-2.277859375,1.1828125,6.67396875,1.80378125,-3.03894921875,4.19419921875,4.4948203125,-4.374015625,3.98741796875,6.202265625,4.46623828125,5.4781796875,-9.188,4.68633203125,6.0975234375,5.937609375,8.1718359375,3.93948046875,8.75945703125,6.00954296875,9.9101875,8.5010078125,13.526234375,12.7396640625,16.13254296875,12.8808671875
-8.9065625,-1.81337109375,-0.14966796875,-13.2609609375,-5.313859375,-2.2541875,3.23496875,2.69278125,-4.78694921875,-0.80080078125,3.0748203125,-3.581015625,1.00341796875,5.067265625,1.87623828125,6.6441796875,-5.715,5.32933203125,8.0695234375,7.706609375,10.6518359375,5.24148046875,12.14745703125,11.66954296875,14.5541875,12.1290078125,19.907234375,15.3066640625,19.79654296875,17.5278671875
-21.4725625,-7.42937109375,-3.33266796875,-16.9589609375,-8.613859375,-6.9951875,-2.68003125,1.13778125,-6.50694921875,-6.26780078125,-0.2211796875,-4.356015625,-2.58158203125,3.317265625,-2.01276171875,4.3831796875,-2.194,5.42533203125,8.5425234375,6.914609375,9.5338359375,5.58948046875,13.96645703125,15.04754296875,15.8461875,13.0570078125,23.782234375,15.8696640625,20.84254296875,19.5888671875
-27.9945625,-13.28437109375,-7.72066796875,-17.4529609375,-10.629859375,-11.2171875,-9.63803125,-2.53421875,-7.69694921875,-10.18480078125,-4.1551796875,-6.429015625,-6.18658203125,1.241265625,-5.62576171875,-0.4258203125,0.299,4.45133203125,7.4475234375,4.159609375,5.4118359375,4.37248046875,13.44845703125,15.64554296875,13.7811875,11.2870078125,24.407234375,14.2076640625,19.08454296875,18.7798671875
-27.6375625,-17.92437109375,-11.80166796875,-14.6049609375,-10.123859375,-13.0601875,-15.56703125,-7.05121875,-8.00694921875,-10.87480078125,-7.0961796875,-8.774015625,-9.06758203125,-0.719734375,-7.30576171875,-5.7528203125,1.188,2.17533203125,5.2365234375,0.875609375000001,0.0738359375000004,1.56548046875,10.53645703125,13.82654296875,9.5571875,7.7880078125,21.852234375,10.7256640625,15.08754296875,15.6078671875
-21.6735625,-20.10037109375,-13.97966796875,-9.4829609375,-6.781859375,-11.4381875,-18.47003125,-10.64221875,-7.44894921875,-7.77380078125,-7.7371796875,-10.076015625,-10.70258203125,-2.220734375,-6.07876171875,-9.3558203125,0.56,-1.20166796875,2.6135234375,-1.400390625,-4.3781640625,-2.21151953125,5.85545703125,10.48754296875,4.9371875,3.9580078125,16.817234375,6.2376640625,9.82654296875,11.0298671875
-12.8245625,-19.22237109375,-13.22966796875,-4.0449609375,-1.432859375,-6.6091875,-17.20303125,-11.73921875,-6.43194921875,-1.74680078125,-5.6941796875,-9.350015625,-11.07158203125,-3.172734375,-2.14376171875,-9.7908203125,-0.955,-5.05366796875,0.2205234375,-1.776390625,-6.4731640625,-5.92651953125,0.47745703125,6.58454296875,1.4291875,0.9370078125,10.311234375,1.6356640625,4.25554296875,6.0048671875
-4.1875625,-15.57037109375,-9.49966796875,-0.3519609375,4.205140625,-0.1291875,-11.97803125,-9.62421875,-5.58194921875,5.20719921875,-1.6741796875,-6.420015625,-10.63658203125,-3.723734375,3.19523828125,-6.9788203125,-2.506,-8.50266796875,-1.5444765625,-0.352390624999999,-5.9111640625,-8.53051953125,-4.42154296875,2.80454296875,-0.2768125,-0.8329921875,3.353234375,-2.3913359375,-0.98045703125,1.1938671875
1.8814375,-10.16237109375,-3.74766796875,0.3410390625,8.164140625,5.8048125,-4.33403125,-4.76121875,-5.45594921875,10.74519921875,2.8508203125,-2.011015625,-10.04158203125,-4.107734375,8.09823828125,-2.0928203125,-3.368,-10.70066796875,-2.5444765625,1.970609375,-3.4971640625,-9.35051953125,-7.86254296875,-0.50145703125,-0.4028125,-1.6129921875,-3.194765625,-5.4783359375,-5.58645703125,-3.0991328125
4.4964375,-4.36137109375,2.41833203125,-1.8889609375,8.999140625,9.2728125,3.42796875,1.34478125,-6.27994921875,13.09419921875,6.3108203125,2.579984375,-9.71158203125,-4.459734375,10.98123828125,3.0841796875,-3.18,-11.10466796875,-2.8094765625,4.038609375,-0.5921640625,-8.31451953125,-9.28754296875,-3.19045703125,0.2771875,-2.0009921875,-8.681765625,-7.5333359375,-9.45545703125,-6.7741328125
4.2844375,0.59062890625,7.32933203125,-5.7459609375,6.381140625,9.3758125,9.14496875,6.73878125,-7.81894921875,11.72719921875,7.7228203125,6.039984375,-9.59358203125,-4.709734375,11.13523828125,6.9581796875,-2.035,-9.64866796875,-2.4304765625,5.048609375,1.6008359375,-5.92651953125,-8.63754296875,-5.14445703125,0.9591875,-2.4439921875,-12.626765625,-8.5833359375,-12.43945703125,-9.7071328125
2.7694375,3.94662890625,9.88233203125,-9.3429609375,1.296140625,6.5378125,11.65296875,9.82078125,-9.41194921875,7.48919921875,7.0788203125,7.588984375,-9.14658203125,-4.609734375,8.95223828125,8.7251796875,-0.405,-6.73466796875,-1.4924765625,4.871609375,2.5768359375,-3.03151953125,-6.30954296875,-6.17945703125,1.2381875,-2.9319921875,-14.686765625,-8.6223359375,-14.22145703125,-11.6111328125
1.5294375,5.62662890625,9.91833203125,-10.9789609375,-4.305859375,2.2858125,11.18396875,9.99478125,-10.20294921875,2.16419921875,5.2658203125,7.228984375,-7.63458203125,-3.869734375,5.67923828125,8.5441796875,1.058,-3.09666796875,-0.0934765625,3.998609375,2.6638359375,-0.48651953125,-3.01654296875,-6.10545703125,1.2191875,-3.0479921875,-14.679765625,-7.5653359375,-14.39045703125,-12.0831328125
1.5744375,6.08662890625,8.14733203125,-9.7899609375,-8.352859375,-1.4631875,9.02496875,7.79278125,-9.54294921875,-2.32480078125,3.5478203125,5.597984375,-4.60258203125,-2.389734375,2.79223828125,7.2471796875,1.796,0.37433203125,1.5555234375,3.129609375,2.6958359375,1.09848046875,0.34845703125,-4.92145703125,1.2981875,-2.3159921875,-12.704765625,-5.3743359375,-12.69745703125,-10.8351328125
3.1414375,5.94262890625,5.67333203125,-6.0649609375,-9.602859375,-3.2861875,6.64296875,4.44978125,-7.38394921875,-4.73580078125,2.8638203125,3.519984375,-0.35258203125,-0.473734375,1.27223828125,5.7651796875,1.569,2.78433203125,2.9975234375,2.663609375,3.3958359375,1.42548046875,2.82345703125,-3.03945703125,1.7581875,-0.5969921875,-9.271765625,-2.2693359375,-9.32745703125,-7.9671328125
5.7194375,5.52562890625,3.39633203125,-1.1269609375,-8.168859375,-2.8831875,4.83396875,1.21178125,-4.41394921875,-4.97080078125,3.3068203125,1.521984375,3.88841796875,1.103265625,1.11923828125,4.5641796875,0.529,3.34533203125,3.4725234375,2.371609375,4.8128359375,0.42148046875,3.47745703125,-1.34745703125,2.4341875,1.6840078125,-5.345765625,1.1196640625,-5.01645703125,-4.1101328125
8.1734375,4.67962890625,1.63933203125,3.1950390625,-5.295859375,-1.0901875,3.43096875,-1.18321875,-1.75094921875,-3.98680078125,4.0898203125,-0.378015625,6.35341796875,1.322265625,1.39523828125,3.4221796875,-0.882,1.51333203125,2.0975234375,1.471609375,6.1658359375,-1.86551953125,1.60945703125,-0.97545703125,2.6881875,3.6390078125,-2.155765625,3.8346640625,-0.88845703125,-0.3001328125
9.0694375,2.95162890625,0.20233203125,5.3080390625,-2.576859375,0.678812499999999,1.70096875,-2.59921875,-0.354949218749999,-3.18380078125,4.0398203125,-2.481015625,5.60541796875,-0.564734375,0.790238281250001,1.7021796875,-2.136,-2.78066796875,-1.6894765625,-0.873390625,6.2588359375,-5.26551953125,-2.93654296875,-2.75945703125,1.7771875,4.3210078125,-0.746765625,4.9456640625,1.97254296875,2.4088671875
7.3314375,0.08562890625,-1.26066796875,4.5090390625,-1.126859375,1.2158125,-0.926031250000001,-3.21021875,-0.556949218749999,-3.60180078125,2.3588203125,-4.949015625,1.43041796875,-4.521734375,-1.56376171875,-1.0458203125,-2.78,-8.90766796875,-7.6274765625,-4.884390625,4.2938359375,-9.38151953125,-9.46254296875,-6.67045703125,-0.5618125,3.2580078125,-1.450765625,4.0296640625,3.00754296875,3.4278671875
3.0274375,-3.56037109375,-2.82466796875,1.2600390625,-1.220859375,0.101812499999999,-4.25603125,-3.11021875,-2.02194921875,-5.39280078125,-0.8141796875,-7.432015625,-4.94058203125,-9.550734375,-5.52376171875,-4.5588203125,-2.506,-15.52666796875,-14.4174765625,-9.775390625,0.5378359375,-13.53751953125,-16.40354296875,-11.56845703125,-3.7038125,0.8170078125,-3.594765625,1.4736640625,2.47954296875,2.9608671875
-2.3375625,-6.99937109375,-4.16066796875,-3.0579609375,-2.488859375,-2.1631875,-7.25103125,-2.15121875,-4.12394921875,-7.85580078125,-4.3981796875,-9.061015625,-11.47458203125,-14.084734375,-9.93076171875,-7.8098203125,-1.153,-20.94866796875,-20.0654765625,-13.935390625,-3.6261640625,-16.91251953125,-21.74754296875,-15.52345703125,-6.2508125,-1.8769921875,-5.709765625,-1.6323359375,1.35054296875,1.9218671875
-6.4735625,-9.06937109375,-4.72166796875,-6.8029609375,-4.390859375,-4.5141875,-8.53103125,-0.0992187499999999,-6.37294921875,-9.94280078125,-6.9161796875,-8.857015625,-16.40858203125,-16.707734375,-13.15776171875,-9.4858203125,1.258,-23.75766796875,-22.6804765625,-15.645390625,-6.3601640625,-18.82651953125,-23.78654296875,-16.61645703125,-6.6778125,-3.4469921875,-6.191765625,-3.9833359375,0.78554296875,1.4708671875
-7.6325625,-9.04437109375,-4.09866796875,-8.8159609375,-6.522859375,-5.8961875,-7.18303125,3.04578125,-8.57094921875,-10.82980078125,-7.2331796875,-6.289015625,-18.96958203125,-16.773734375,-13.88076171875,-8.6848203125,4.46,-23.32066796875,-21.2724765625,-13.898390625,-6.3111640625,-18.99451953125,-21.77954296875,-13.79845703125,-4.1228125,-2.9409921875,-4.070765625,-4.6653359375,1.53954296875,2.3878671875
-5.6775625,-6.97337109375,-2.29666796875,-8.8139609375,-8.550859375,-5.7201875,-3.34703125,6.82478125,-10.58394921875,-10.20080078125,-5.0591796875,-1.650015625,-19.34858203125,-14.544734375,-11.62776171875,-5.3978203125,7.917,-19.92066796875,-16.1284765625,-8.862390625,-3.2811640625,-17.58251953125,-16.20454296875,-7.36245703125,1.1201875,-0.3189921875,0.535234375,-3.5273359375,3.57254296875,4.6288671875
-2.1535625,-3.59337109375,0.21133203125,-7.2649609375,-9.959859375,-3.9821875,1.79796875,10.36278125,-12.05394921875,-8.19180078125,-0.9881796875,3.948984375,-18.16058203125,-10.852734375,-6.88676171875,-0.5388203125,10.91,-14.50166796875,-8.6074765625,-1.785390625,1.6808359375,-15.03251953125,-8.49254296875,1.16854296875,7.6561875,3.4900078125,6.456234375,-1.1653359375,6.07454296875,7.2848671875
0.6504375,0.03462890625,2.63933203125,-4.9319609375,-9.977859375,-1.1311875,6.61796875,12.63478125,-12.37294921875,-5.19080078125,3.8218203125,8.923984375,-15.89858203125,-6.618734375,-0.832761718749999,4.4551796875,12.722,-8.26966796875,-0.5684765625,5.517609375,6.7668359375,-11.82351953125,-0.48354296875,9.61754296875,13.5261875,6.9690078125,11.918234375,1.3956640625,7.82254296875,8.9458671875
0.9284375,2.90562890625,4.19733203125,-2.4989609375,-7.899859375,2.1068125,9.74196875,12.84078125,-11.04894921875,-1.70580078125,8.1108203125,11.746984375,-12.76958203125,-2.557734375,5.08223828125,8.1861796875,12.869,-2.36866796875,6.2285234375,11.287609375,10.1788359375,-8.35151953125,6.12545703125,15.88654296875,16.9361875,8.6680078125,15.180234375,3.1326640625,7.70354296875,8.3168671875
-1.7705625,4.30362890625,4.39733203125,-0.4879609375,-3.643859375,4.8778125,10.51296875,10.74478125,-8.18994921875,1.66719921875,10.8948203125,11.478984375,-8.88358203125,0.830265625,9.50723828125,9.7781796875,11.279,2.26433203125,10.5215234375,14.287609375,10.8208359375,-4.95351953125,10.13745703125,18.53254296875,16.8651875,7.8010078125,15.085234375,3.3686640625,5.14954296875,4.7878671875
-6.3655625,3.94162890625,3.24933203125,0.6390390625,1.886140625,6.3948125,9.05096875,6.82578125,-4.66494921875,4.27619921875,11.6838203125,8.142984375,-4.53258203125,3.120265625,11.46723828125,9.0881796875,8.328,4.94733203125,11.6835234375,14.030609375,8.6288359375,-1.98151953125,10.98645703125,17.06254296875,13.3321875,4.5380078125,11.380234375,1.9576640625,0.34954296875,-1.2721328125
-10.7495625,2.03462890625,1.25433203125,0.4590390625,6.933140625,6.2018125,6.04696875,2.16678125,-1.79894921875,5.51919921875,10.5108203125,2.749984375,-0.27158203125,3.908265625,10.55523828125,6.6331796875,4.7,5.29533203125,9.7005234375,10.768609375,4.4648359375,0.18048046875,8.71545703125,11.91854296875,7.2871875,-0.1539921875,4.719234375,-0.7383359375,-5.81745703125,-8.6241328125
-12.7485625,-0.75637109375,-0.81566796875,-1.2929609375,9.523140625,4.3358125,2.42196875,-1.93221875,-0.784949218749999,5.01219921875,7.8168203125,-3.072015625,3.20541796875,2.901265625,6.99923828125,3.2881796875,1.112,3.28233203125,5.0475234375,5.317609375,-0.3361640625,1.16748046875,3.86345703125,4.21954296875,0.2031875,-4.9799921875,-3.605765625,-4.0343359375,-12.11145703125,-15.6161328125
-11.1725625,-3.56737109375,-2.25066796875,-4.5139609375,8.288140625,1.2528125,-1.01003125,-4.44421875,-2.16194921875,2.70819921875,4.2108203125,-7.718015625,5.22941796875,0.0932656249999999,1.54923828125,-0.1188203125,-1.967,-0.72666796875,-1.4704765625,-1.221390625,-4.5001640625,0.70348046875,-2.69554296875,-4.60745703125,-6.4278125,-8.8409921875,-12.080765625,-7.2253359375,-17.35945703125,-20.7821328125
-6.4105625,-5.67437109375,-2.70866796875,-8.5689609375,3.104140625,-2.4111875,-3.74703125,-4.98921875,-5.58794921875,-1.08880078125,0.2428203125,-10.184015625,5.27541796875,-4.103734375,-4.77376171875,-3.0968203125,-4.415,-6.00766796875,-8.8664765625,-7.739390625,-7.2081640625,-1.30851953125,-9.91554296875,-13.17445703125,-11.4998125,-11.1299921875,-19.351765625,-9.8273359375,-20.78545703125,-23.2821328125
-0.2665625,-6.74337109375,-2.34166796875,-12.3029609375,-4.802859375,-6.0711875,-5.61803125,-3.90221875,-9.96294921875,-5.82180078125,-3.7261796875,-10.329015625,3.09541796875,-8.899734375,-10.96776171875,-5.5538203125,-6.296,-11.59766796875,-16.0754765625,-13.330390625,-8.2191640625,-4.68951953125,-16.71254296875,-20.33645703125,-14.4538125,-11.7259921875,-24.437765625,-11.6343359375,-22.10345703125,-23.0081328125
4.8784375,-6.86837109375,-1.68466796875,-14.3559609375,-13.331859375,-9.3421875,-6.73403125,-2.00721875,-13.87894921875,-10.83680078125,-7.5021796875,-8.769015625,-1.06258203125,-13.327734375,-16.25976171875,-7.6488203125,-7.589,-16.48166796875,-22.0744765625,-17.405390625,-7.7911640625,-8.93351953125,-22.08654296875,-25.28045703125,-15.2478125,-10.8129921875,-26.814765625,-12.6263359375,-21.42545703125,-20.4291328125
7.0964375,-6.40737109375,-1.38866796875,-13.7329609375,-20.359859375,-12.1031875,-7.44703125,-0.22421875,-16.21694921875,-15.53280078125,-10.9751796875,-6.549015625,-6.30658203125,-16.561734375,-20.24876171875,-9.6118203125,-8.069,-19.81866796875,-26.0504765625,-19.744390625,-6.5381640625,-13.29251953125,-25.26554296875,-27.59645703125,-14.2508125,-8.7479921875,-26.441765625,-12.8493359375,-19.11345703125,-16.3321328125
5.6024375,-5.78337109375,-1.92666796875,-10.3119609375,-24.516859375,-14.4661875,-8.24903125,0.77478125,-16.59594921875,-19.46980078125,-14.0661796875,-4.756015625,-11.27358203125,-18.200734375,-22.91976171875,-11.6258203125,-7.492,-21.14766796875,-27.6104765625,-20.519390625,-5.2351640625,-16.97951953125,-25.88154296875,-27.35145703125,-12.1188125,-6.0119921875,-23.764765625,-12.3833359375,-15.69445703125,-11.6041328125
0.8314375,-5.35437109375,-3.39966796875,-4.9659609375,-25.512859375,-16.6141875,-9.52603125,0.72978125,-15.43394921875,-22.39580078125,-16.7211796875,-4.172015625,-14.67958203125,-18.346734375,-24.55576171875,-13.7718203125,-5.923,-20.49666796875,-26.9094765625,-20.214390625,-4.5571640625,-19.39851953125,-24.08254296875,-25.08445703125,-9.6438125,-3.1599921875,-19.636765625,-11.3543359375,-11.78745703125,-7.0451328125
-5.9465625,-5.38237109375,-5.50366796875,0.7670390625,-23.957859375,-18.6071875,-11.27403125,-0.23621875,-13.60894921875,-24.20980078125,-18.8751796875,-5.020015625,-15.89258203125,-17.455734375,-25.51676171875,-15.9578203125,-3.886,-18.31966796875,-24.5774765625,-19.441390625,-4.7921640625,-20.25551953125,-20.48554296875,-21.64245703125,-7.5208125,-0.6719921875,-15.062765625,-9.9103359375,-7.96845703125,-3.1851328125
-13.1275625,-5.98737109375,-7.66266796875,5.2580390625,-20.919859375,-20.2861875,-13.00103125,-1.74321875,-11.97094921875,-24.89180078125,-20.3961796875,-6.908015625,-15.11458203125,-16.057734375,-26.01476171875,-17.8528203125,-2.148,-15.30966796875,-21.4484765625,-18.696390625,-5.6981640625,-19.57451953125,-15.95754296875,-17.88745703125,-6.1148125,1.2360078125,-10.861765625,-8.1623359375,-4.59945703125,-0.1691328125
-19.1485625,-7.10837109375,-9.27166796875,7.2860390625,-17.503859375,-21.3451875,-13.96803125,-3.32221875,-11.01394921875,-24.49280078125,-21.0701796875,-9.034015625,-13.10658203125,-14.555734375,-26.03576171875,-18.9368203125,-1.311,-12.21066796875,-18.2884765625,-18.194390625,-6.6601640625,-17.67151953125,-11.38854296875,-14.46945703125,-5.4098125,2.6470078125,-7.458765625,-6.1803359375,-1.78645703125,2.1588671875
-22.7925625,-8.52537109375,-9.98666796875,6.3110390625,-14.619859375,-21.5301875,-13.63903125,-4.61321875,-10.83794921875,-23.21880078125,-20.7291796875,-10.623015625,-10.79658203125,-13.224734375,-25.46476171875,-18.7488203125,-1.528,-9.74966796875,-15.6604765625,-17.913390625,-7.0961640625,-15.11651953125,-7.57554296875,-11.78345703125,-5.1838125,3.7490078125,-4.958765625,-4.1053359375,0.46054296875,3.9668671875
-23.4645625,-9.95637109375,-9.88466796875,2.5360390625,-12.895859375,-20.8011875,-12.04803125,-5.51221875,-11.33994921875,-21.50180078125,-19.4331796875,-11.325015625,-9.05058203125,-12.330734375,-24.29976171875,-17.1848203125,-2.517,-8.57766796875,-13.9274765625,-17.740390625,-6.8471640625,-12.63151953125,-5.16754296875,-10.06445703125,-5.2718125,4.5510078125,-3.374765625,-2.2593359375,2.00654296875,5.1488671875
-21.3765625,-11.12637109375,-9.37866796875,-3.1829609375,-12.652859375,-19.3921875,-9.85903125,-6.14821875,-12.42494921875,-19.90480078125,-17.5231796875,-11.312015625,-8.59458203125,-12.164734375,-22.75676171875,-14.6238203125,-3.745,-9.11666796875,-13.2504765625,-17.583390625,-6.2571640625,-10.84451953125,-4.54554296875,-9.41245703125,-5.6838125,4.7550078125,-2.768765625,-1.0703359375,2.54854296875,5.3128671875
-17.4655625,-11.79637109375,-8.91466796875,-9.5659609375,-13.853859375,-17.7031875,-8.06103125,-6.69621875,-14.08094921875,-18.86480078125,-15.4681796875,-10.999015625,-9.88158203125,-12.896734375,-21.15476171875,-11.7688203125,-4.62,-11.30766796875,-13.5024765625,-17.350390625,-5.9051640625,-9.99851953125,-5.62054296875,-9.69945703125,-6.4768125,3.9280078125,-3.142765625,-0.7983359375,1.83854296875,4.0898671875
-13.0295625,-11.81237109375,-8.67266796875,-15.2259609375,-16.084859375,-16.1021875,-7.44903125,-7.16021875,-16.26394921875,-18.44480078125,-13.6291796875,-10.628015625,-12.85858203125,-14.373734375,-19.69976171875,-9.3068203125,-4.62,-14.45666796875,-14.2114765625,-16.878390625,-6.1881640625,-9.78951953125,-7.73254296875,-10.46045703125,-7.5528125,1.8360078125,-4.252765625,-1.2633359375,-0.0144570312500001,1.5128671875
-9.1765625,-11.16937109375,-8.46366796875,-19.0329609375,-18.589859375,-14.7331875,-8.16903125,-7.29421875,-18.70894921875,-18.27780078125,-12.1081796875,-10.025015625,-16.75758203125,-16.024734375,-18.33276171875,-7.6078203125,-3.433,-17.36766796875,-14.6324765625,-15.915390625,-7.0511640625,-9.47551953125,-9.79254296875,-10.95245703125,-8.5628125,-1.2779921875,-5.542765625,-1.8233359375,-2.41345703125,-1.8121328125
-6.4025625,-10.02937109375,-7.85666796875,-20.3969609375,-20.412859375,-13.4561875,-9.59803125,-6.71221875,-20.82194921875,-17.74080078125,-10.7491796875,-8.681015625,-20.12758203125,-16.996734375,-16.74176171875,-6.5998203125,-1.11,-18.74166796875,-14.0024765625,-14.209390625,-8.0021640625,-8.23151953125,-10.68254296875,-10.41445703125,-9.0188125,-4.6809921875,-6.335765625,-1.6813359375,-4.47045703125,-4.8911328125
-4.5805625,-8.60737109375,-6.42966796875,-19.3739609375,-20.626859375,-11.9641875,-10.65703125,-5.09221875,-21.79394921875,-16.23880078125,-9.2751796875,-6.136015625,-21.26458203125,-16.469734375,-14.54976171875,-5.8918203125,1.827,-17.68966796875,-11.8634765625,-11.664390625,-8.3821640625,-5.61151953125,-9.74454296875,-8.44245703125,-8.5438125,-7.4159921875,-6.162765625,-0.3723359375,-5.44845703125,-6.7901328125
-3.3275625,-7.01637109375,-4.00766796875,-16.5339609375,-18.584859375,-9.9701875,-10.38703125,-2.36721875,-20.87694921875,-13.46880078125,-7.4881796875,-2.386015625,-18.96058203125,-14.014734375,-11.57976171875,-5.0828203125,4.436,-14.12666796875,-8.3184765625,-8.485390625,-7.7361640625,-1.86351953125,-7.12854296875,-5.26245703125,-7.1208125,-8.7559921875,-5.060765625,1.8386640625,-5.19445703125,-7.0781328125
-2.3855625,-5.14037109375,-0.777667968749999,-12.6219609375,-14.117859375,-7.3281875,-8.39903125,1.19178125,-17.67794921875,-9.53080078125,-5.4261796875,1.952984375,-13.19058203125,-9.808734375,-8.02276171875,-4.0688203125,5.623,-8.86966796875,-4.0524765625,-5.225390625,-6.0681640625,2.05248046875,-3.78654296875,-1.73445703125,-5.1708125,-8.5589921875,-3.620765625,3.9626640625,-4.26445703125,-6.0171328125
-1.6385625,-2.65537109375,2.75533203125,-8.2099609375,-7.643859375,-4.0741875,-4.97003125,5.02878125,-12.36394921875,-4.87180078125,-3.3451796875,5.866984375,-5.32258203125,-4.590734375,-4.39176171875,-3.1228203125,4.602,-3.35866796875,-0.0724765624999999,-2.633390625,-3.8201640625,4.79848046875,-1.08054296875,0.99054296875,-3.3568125,-7.2799921875,-2.692765625,4.7156640625,-3.62345703125,-4.3761328125
-0.8435625,0.76762890625,5.92633203125,-3.5419609375,-0.157859375,-0.439187500000001,-0.830031250000001,8.44778125,-5.69994921875,-0.0998007812500004,-1.5541796875,8.428984375,2.39841796875,0.621265625,-1.29776171875,-2.6548203125,1.378,0.89533203125,2.7095234375,-1.338390625,-1.6261640625,5.18348046875,-0.17154296875,1.99754296875,-2.2328125,-5.6409921875,-2.935765625,3.1756640625,-4.08245703125,-3.0041328125
0.5224375,5.12762890625,8.13033203125,1.3250390625,6.935140625,3.1478125,3.16496875,10.79078125,1.10105078125,4.18019921875,-0.2021796875,9.253984375,7.83241796875,4.883265625,0.806238281250001,-2.8388203125,-3.036,2.86433203125,3.8355234375,-1.546390625,-0.0281640624999997,2.65348046875,-1.50754296875,1.01754296875,-1.9538125,-4.2149921875,-4.445765625,-0.7223359375,-5.82845703125,-2.4301328125
3.0094375,9.84762890625,9.00633203125,6.2680390625,12.204140625,6.1428125,6.34596875,11.59978125,6.71905078125,7.46919921875,0.8128203125,8.672984375,9.88841796875,7.604265625,1.78223828125,-3.4098203125,-6.875,2.33633203125,3.4315234375,-2.927390625,0.6868359375,-2.46051953125,-4.64754296875,-1.46145703125,-2.2418125,-3.2179921875,-6.700765625,-6.0943359375,-8.30645703125,-2.6971328125
6.6684375,13.84062890625,8.54933203125,10.9110390625,14.668140625,8.0668125,8.41496875,10.75378125,10.15605078125,9.43319921875,1.7498203125,7.545984375,8.90441796875,8.663265625,1.80623828125,-3.7568203125,-8.376,-0.0976679687499997,2.0785234375,-4.742390625,0.5488359375,-8.99051953125,-8.45954296875,-4.41145703125,-2.5708125,-2.5359921875,-8.797765625,-11.4293359375,-10.48345703125,-3.4441328125
10.7024375,15.96162890625,7.11433203125,14.6350390625,14.119140625,8.6718125,9.45396875,8.52378125,11.03805078125,9.94519921875,2.8128203125,6.773984375,6.30041796875,8.349265625,1.22823828125,-3.2718203125,-6.649,-3.32266796875,0.5475234375,-6.151390625,-0.100164062499999,-15.29551953125,-11.57254296875,-6.67045703125,-2.4268125,-1.9099921875,-9.817765625,-15.1343359375,-11.30145703125,-4.1171328125
13.6334375,15.56462890625,5.26133203125,16.7660390625,11.137140625,7.9958125,9.73896875,5.48078125,9.65805078125,9.09219921875,3.9478203125,6.775984375,3.76041796875,7.149265625,0.357238281250001,-1.7418203125,-2.2,-6.14766796875,-0.5334765625,-6.579390625,-0.7181640625,-19.79451953125,-12.90354296875,-7.40145703125,-1.5518125,-1.1359921875,-9.191765625,-16.1093359375,-10.13945703125,-4.2171328125
14.0134375,12.83862890625,3.47733203125,16.8450390625,6.809140625,6.2918125,9.47096875,2.26878125,6.79105078125,7.10419921875,4.7368203125,7.209984375,2.44041796875,5.473265625,-0.713761718749999,0.4251796875,3.253,-7.73566796875,-0.9184765625,-5.985390625,-0.861164062499999,-21.48951953125,-12.06054296875,-6.41845703125,-0.1018125,-0.2409921875,-6.932765625,-14.1383359375,-7.08945703125,-3.5151328125
11.2914375,8.69762890625,1.90733203125,14.8730390625,2.301140625,3.8628125,8.56096875,-0.62921875,3.34805078125,4.22219921875,4.4868203125,7.122984375,2.54041796875,3.484265625,-2.16876171875,2.2711796875,7.604,-7.85066796875,-0.8264765625,-4.932390625,-0.526164062499999,-20.23651953125,-9.44154296875,-4.25445703125,1.3431875,0.4420078125,-3.652765625,-9.9393359375,-2.94745703125,-2.1691328125
6.2874375,4.33962890625,0.29333203125,11.3660390625,-1.549859375,0.8828125,6.57696875,-3.01121875,0.0160507812500006,0.62019921875,2.4828203125,5.453984375,3.37641796875,1.102265625,-4.35176171875,2.6741796875,9.352,-6.82566796875,-0.7864765625,-4.353390625,-0.2351640625,-16.68951953125,-5.99254296875,-1.89545703125,1.9921875,0.3780078125,-0.307765625,-4.8363359375,1.10754296875,-0.6811328125
0.9334375,0.74962890625,-1.79266796875,7.1980390625,-4.466859375,-2.6591875,2.90996875,-4.87321875,-2.94694921875,-3.55680078125,-1.6531796875,1.656984375,3.81441796875,-1.790734375,-7.52476171875,0.866179687500001,8.233,-5.29066796875,-1.3294765625,-5.111390625,-0.7171640625,-11.94351953125,-2.73254296875,-0.304457031250001,1.2261875,-0.8839921875,2.235234375,-0.1633359375,4.02854296875,0.3468671875
-2.6715625,-1.59537109375,-4.55766796875,3.3330390625,-6.659859375,-6.8071875,-2.83303125,-6.18921875,-5.62694921875,-8.05380078125,-7.6641796875,-3.840015625,2.86441796875,-5.095734375,-11.59476171875,-3.1188203125,5.208,-3.81566796875,-2.6564765625,-7.526390625,-2.3811640625,-7.07551953125,-0.29554296875,0.0335429687499995,-1.0238125,-3.3709921875,3.593234375,3.3006640625,5.35654296875,0.5328671875
-3.4095625,-2.74637109375,-7.66566796875,0.5820390625,-8.465859375,-11.3391875,-10.37103125,-6.76221875,-8.12994921875,-12.35680078125,-14.5571796875,-9.626015625,0.21341796875,-8.342734375,-15.94476171875,-8.3318203125,1.879,-2.65066796875,-4.4594765625,-11.128390625,-4.9721640625,-2.77151953125,1.27245703125,-0.67245703125,-4.1758125,-6.5399921875,4.004234375,5.5676640625,5.37354296875,-0.0691328124999997
-1.8385625,-3.07737109375,-10.25066796875,-0.5749609375,-9.942859375,-15.5841875,-18.52703125,-6.28621875,-10.28694921875,-15.67780078125,-20.7961796875,-13.793015625,-3.52258203125,-10.758734375,-19.51376171875,-13.2178203125,-0.312,-1.67466796875,-6.0024765625,-14.796390625,-7.6651640625,0.77848046875,2.38345703125,-1.65945703125,-7.2328125,-9.4779921875,4.117234375,7.2376640625,4.86954296875,-1.0121328125
0.0694375000000003,-3.00237109375,-11.27766796875,-0.0659609375000003,-10.664859375,-18.5311875,-25.44103125,-4.59021875,-11.60294921875,-17.11380078125,-24.7431796875,-14.762015625,-6.95558203125,-11.535734375,-21.12776171875,-16.2218203125,-0.707,-0.53666796875,-6.4344765625,-17.202390625,-9.5191640625,3.73048046875,3.55845703125,-2.01145703125,-9.2158125,-11.3409921875,4.610234375,9.0076640625,4.67454296875,-1.7081328125
0.1014375,-2.76237109375,-10.08066796875,1.8120390625,-9.867859375,-19.1671875,-29.16903125,-1.87421875,-11.44194921875,-15.93180078125,-25.1791796875,-12.009015625,-8.48958203125,-10.140734375,-19.94376171875,-16.4138203125,0.369,1.10333203125,-5.1664765625,-17.361390625,-9.9621640625,6.30348046875,5.10445703125,-1.07045703125,-9.5428125,-11.7669921875,5.862234375,11.2256640625,5.26154296875,-1.7161328125
-2.7445625,-2.38737109375,-6.77866796875,4.5240390625,-6.873859375,-16.8701875,-28.39803125,1.25278125,-9.31194921875,-11.89580078125,-21.7151796875,-6.346015625,-7.07558203125,-6.524734375,-15.78576171875,-13.8168203125,1.825,3.35833203125,-2.1194765625,-14.984390625,-9.0221640625,8.57348046875,6.98945703125,1.33054296875,-8.1578125,-11.0179921875,7.858234375,13.7356640625,6.61554296875,-0.8771328125
-7.4255625,-1.77637109375,-2.35266796875,7.4480390625,-1.617859375,-11.7341875,-23.01803125,3.93078125,-5.15394921875,-5.49580078125,-14.9511796875,0.379984375,-2.75358203125,-1.187734375,-9.27376171875,-9.3278203125,2.278,6.01533203125,2.2215234375,-10.551390625,-7.2091640625,10.42448046875,8.92645703125,4.87754296875,-5.4198125,-9.7789921875,10.297234375,16.0406640625,8.37354296875,0.7198671875
-11.2205625,-0.82837109375,1.64733203125,9.9430390625,5.011140625,-4.7231875,-14.32703125,5.30578125,0.411050781250001,2.01519921875,-6.3701796875,5.965984375,3.30141796875,4.892265625,-1.70676171875,-4.3628203125,0.59,8.57233203125,6.9535234375,-5.122390625,-5.2271640625,11.62648046875,10.54845703125,8.90754296875,-1.9118125,-8.7519921875,12.780234375,17.6086640625,10.08254296875,2.8478671875
-11.2515625,0.43562890625,3.62833203125,11.4120390625,11.262140625,2.4558125,-4.74303125,4.73578125,6.06005078125,8.87119921875,2.0328203125,8.585984375,9.26941796875,10.450265625,5.22323828125,-0.426820312499999,-3.714,10.42533203125,11.0225234375,-0.025390625,-3.7471640625,11.95348046875,11.54545703125,12.58854296875,1.7121875,-8.2899921875,14.929234375,18.1146640625,11.38854296875,5.2388671875
-6.3685625,1.75662890625,2.52333203125,11.4360390625,15.139140625,7.8618125,2.99496875,1.92078125,10.12605078125,13.30319921875,8.2808203125,7.315984375,13.45541796875,14.256265625,9.88123828125,1.2621796875,-10.258,11.12133203125,13.5235234375,3.498609375,-3.3391640625,11.30248046875,11.74145703125,15.10354296875,4.7971875,-8.2829921875,16.435234375,17.5356640625,12.12554296875,7.6288671875
1.7734375,2.59262890625,-1.78566796875,9.9480390625,15.264140625,10.0348125,6.83096875,-3.00621875,11.26805078125,14.14919921875,10.9978203125,2.324984375,14.96541796875,15.507265625,11.18723828125,0.0661796875,-17.917,10.57433203125,13.9885234375,4.626609375,-4.4391640625,9.76548046875,11.14445703125,15.86554296875,6.7491875,-8.3259921875,17.086234375,16.1096640625,12.31354296875,9.7778671875
9.2904375,2.28562890625,-8.33466796875,7.2840390625,11.497140625,8.5848125,6.18096875,-9.41421875,9.09905078125,11.33519921875,9.8728203125,-5.209015625,13.97741796875,14.136265625,9.02823828125,-3.8538203125,-25.154,9.13533203125,12.5485234375,3.209609375,-7.2001640625,7.63548046875,9.97145703125,14.73954296875,7.1891875,-8.0149921875,16.809234375,14.2376640625,12.12054296875,11.4978671875
12.0934375,0.44162890625,-15.30166796875,4.0720390625,5.019140625,4.3598125,2.11196875,-16.19121875,4.43005078125,5.97519921875,5.8108203125,-13.397015625,11.50141796875,10.892265625,4.37523828125,-9.4688203125,-30.477,7.46733203125,9.9025234375,-0.113390625,-11.2221640625,5.34048046875,8.60745703125,12.14954296875,6.1461875,-7.1439921875,15.716234375,12.3746640625,11.79554296875,12.6908671875
8.1714375,-2.72137109375,-20.59366796875,1.0500390625,-2.115859375,-0.852187499999999,-3.16403125,-21.94021875,-0.999949218749999,0.0311992187499994,0.6388203125,-20.094015625,8.76241796875,7.086265625,-0.99476171875,-15.0768203125,-32.874,6.24533203125,7.0725234375,-4.079390625,-15.4161640625,3.31948046875,7.47645703125,8.96254296875,4.1541875,-5.7219921875,14.071234375,10.9076640625,11.55754296875,13.3578671875
-1.2415625,-6.31737109375,-22.61966796875,-1.1179609375,-7.690859375,-4.9901875,-7.28503125,-25.37721875,-5.18494921875,-4.38680078125,-3.5851796875,-23.497015625,6.54241796875,4.086265625,-5.12676171875,-18.8298203125,-32.06,5.82133203125,4.9965234375,-7.232390625,-18.2781640625,1.90248046875,6.84045703125,6.14054296875,2.0941875,-3.8829921875,12.157234375,10.0316640625,11.46454296875,13.5408671875
-12.2725625,-9.13437109375,-20.93366796875,-2.0109609375,-10.059859375,-6.5131875,-8.81903125,-25.82821875,-6.64794921875,-5.80880078125,-5.3691796875,-22.740015625,4.84141796875,2.761265625,-6.62976171875,-19.4198203125,-28.495,6.03333203125,4.1315234375,-8.509390625,-18.5511640625,1.20248046875,6.63245703125,4.29354296875,0.7961875,-1.8319921875,10.098234375,9.6466640625,11.30754296875,13.2098671875
-20.3505625,-10.16137109375,-16.42566796875,-1.5959609375,-8.670859375,-4.9941875,-7.85403125,-23.58021875,-5.03694921875,-3.93380078125,-4.3241796875,-18.293015625,3.06841796875,3.164265625,-5.17776171875,-16.6008203125,-23.198,6.27933203125,4.2835234375,-7.674390625,-15.8811640625,1.06448046875,6.45245703125,3.41154296875,0.6291875,0.1380078125,7.780234375,9.3586640625,10.63254296875,12.1868671875
-22.3905625,-9.01737109375,-10.92266796875,-0.2149609375,-4.177859375,-1.1941875,-5.76603125,-19.87021875,-1.19094921875,0.349199218749999,-1.1651796875,-11.898015625,0.60841796875,4.622265625,-1.52676171875,-11.2488203125,-17.456,5.85733203125,4.7795234375,-5.368390625,-11.0411640625,1.12748046875,5.78245703125,2.93654296875,1.3201875,1.6400078125,4.974234375,8.6356640625,8.93754296875,10.2028671875
-18.0955625,-6.09537109375,-6.38566796875,1.6400390625,1.895140625,3.4178125,-4.28103125,-16.44921875,3.37705078125,5.43319921875,2.7698203125,-5.946015625,-2.61958203125,6.180265625,2.95523828125,-4.9398203125,-12.463,4.36333203125,4.8935234375,-2.734390625,-5.5861640625,0.97448046875,4.29945703125,2.15054296875,2.1281875,2.2570078125,1.595234375,7.1046640625,5.97754296875,7.0888671875
-9.8255625,-2.35337109375,-4.09266796875,3.6120390625,7.803140625,7.4068125,-4.44203125,-14.85821875,7.23405078125,9.71319921875,6.2078203125,-2.502015625,-6.00258203125,7.108265625,6.93823828125,0.709179687500001,-8.979,1.91033203125,4.2635234375,-0.866390625,-1.1671640625,0.31248046875,2.11345703125,0.62554296875,2.2291875,1.6700078125,-2.073765625,4.8026640625,2.01154296875,2.9798671875
-1.1935625,1.14062890625,-4.20766796875,5.5970390625,12.202140625,9.9418125,-6.10403125,-15.73321875,9.54505078125,12.19419921875,8.4448203125,-2.390015625,-8.55758203125,7.177265625,9.63323828125,4.5801796875,-7.095,-0.96166796875,3.0615234375,-0.348390625,1.1028359375,-0.91451953125,-0.26154296875,-1.53345703125,1.1331875,-0.1779921875,-5.362765625,2.2306640625,-2.17745703125,-1.5871328125
4.8394375,3.68462890625,-5.87566796875,7.6390390625,14.490140625,10.9808125,-8.14103125,-18.47421875,10.13905078125,12.73219921875,9.4888203125,-4.836015625,-9.49058203125,6.599265625,10.94423828125,6.3121796875,-6.259,-3.58166796875,1.8415234375,-1.075390625,1.0028359375,-2.52951953125,-2.14754296875,-3.75845703125,-1.0658125,-2.9569921875,-7.424765625,0.1406640625,-5.52745703125,-5.7571328125
7.3294375,5.19862890625,-7.73466796875,9.7230390625,14.793140625,11.1048125,-9.13103125,-21.45921875,9.27505078125,11.88819921875,9.8488203125,-7.872015625,-8.59258203125,5.767265625,11.29823828125,6.2501796875,-5.569,-5.45866796875,1.2035234375,-2.388390625,-0.8101640625,-4.18351953125,-3.01954296875,-5.30745703125,-3.7008125,-5.9479921875,-7.577765625,-0.8113359375,-7.08345703125,-8.5911328125
7.4514375,6.12862890625,-8.54166796875,11.6460390625,13.689140625,11.1148125,-8.08503125,-22.73121875,7.41105078125,10.51619921875,10.1428203125,-9.337015625,-6.25658203125,5.018265625,11.28923828125,5.1881796875,-4.234,-6.39966796875,1.4865234375,-3.425390625,-3.0871640625,-5.45551953125,-2.70254296875,-5.60545703125,-5.7718125,-8.2009921875,-5.594765625,-0.3573359375,-6.35245703125,-9.3731328125
7.3854375,7.08462890625,-7.63866796875,13.0570390625,11.832140625,11.5558125,-4.91803125,-20.85821875,5.10705078125,9.33219921875,10.7198203125,-7.943015625,-3.18358203125,4.534265625,11.31423828125,3.9941796875,-1.942,-6.44166796875,2.6235234375,-3.540390625,-4.4521640625,-5.97551953125,-1.37354296875,-4.47545703125,-6.3608125,-8.8429921875,-1.825765625,1.2736640625,-3.48545703125,-7.8731328125
8.7764375,8.43462890625,-5.10566796875,13.6720390625,9.706140625,12.3828125,-0.487031250000001,-15.55021875,3.02005078125,8.63119921875,11.4498203125,-3.835015625,-0.0345820312500003,4.367265625,11.34623828125,3.2261796875,1.031,-5.69766796875,4.1745234375,-2.626390625,-3.9251640625,-5.56151953125,0.55045703125,-2.22845703125,-5.0428125,-7.4329921875,2.870234375,3.4376640625,0.74654296875,-4.4781328125
11.7474375,10.08362890625,-1.63166796875,13.5280390625,7.621140625,12.9828125,3.79196875,-7.76421875,1.85405078125,8.23819921875,11.7738203125,1.639984375,2.76641796875,4.503265625,10.95323828125,2.9051796875,4.048,-4.29466796875,5.5075234375,-1.188390625,-1.3441640625,-4.32951953125,2.54245703125,0.41654296875,-2.1358125,-4.2189921875,7.319234375,5.2686640625,5.13754296875,-0.1381328125
14.9614375,11.55862890625,1.82433203125,13.0510390625,5.871140625,12.5288125,6.54896875,0.75478125,2.17505078125,7.67919921875,10.9978203125,6.751984375,5.04541796875,4.882265625,9.54223828125,2.6021796875,6.511,-2.42366796875,6.0145234375,-0.101390625,2.5138359375,-2.70751953125,4.05745703125,2.55454296875,1.3661875,-0.1429921875,10.311234375,5.9186640625,8.33854296875,3.8738671875
16.5164375,12.31962890625,4.44433203125,12.7990390625,4.780140625,10.4378125,6.95096875,8.23878125,4.10005078125,6.44519921875,8.6878203125,10.281984375,6.80741796875,5.362265625,6.71823828125,1.7831796875,8.213,-0.41566796875,5.3165234375,-0.183390625,6.2308359375,-1.32451953125,4.61145703125,3.38954296875,4.1761875,3.4590078125,10.926234375,4.7936640625,9.23154296875,6.3268671875
15.0454375,12.08262890625,5.85233203125,13.0060390625,4.526140625,6.6738125,4.92096875,13.57478125,7.03105078125,4.21719921875,4.9338203125,11.979984375,8.16141796875,5.652265625,2.52623828125,0.201179687500001,9.415,1.26133203125,3.3635234375,-1.776390625,8.3688359375,-0.80551953125,3.89345703125,2.50454296875,5.2561875,5.3950078125,8.845234375,1.7866640625,7.31454296875,6.4428671875
10.4454375,10.98462890625,6.17233203125,13.2930390625,4.873140625,1.7748125,1.05896875,16.54978125,9.69205078125,0.94119921875,0.3378203125,12.430984375,9.22241796875,5.300265625,-2.51076171875,-1.9228203125,10.608,2.13133203125,0.4085234375,-4.591390625,8.1548359375,-1.52451953125,1.88445703125,0.00354296874999971,4.2561875,5.1540078125,4.512234375,-2.6113359375,2.95654296875,4.1868671875
3.9594375,9.49462890625,5.79433203125,12.7870390625,5.088140625,-3.3781875,-3.64903125,17.60078125,10.55005078125,-3.22280078125,-4.2791796875,12.466984375,9.94341796875,3.791265625,-7.60676171875,-4.0258203125,12.117,1.86933203125,-3.1174765625,-7.883390625,5.8598359375,-3.40751953125,-1.07654296875,-3.53845703125,1.6281875,3.1620078125,-0.965765625,-7.3953359375,-2.65745703125,0.2998671875
-2.3385625,8.11362890625,5.01933203125,10.5390390625,4.135140625,-7.9941875,-8.27103125,17.28878125,8.46205078125,-8.01980078125,-8.2881796875,12.523984375,9.94241796875,0.742265625,-12.05876171875,-5.5498203125,13.827,0.41333203125,-6.7634765625,-10.860390625,2.6308359375,-5.90451953125,-4.37054296875,-7.32545703125,-1.6378125,0.5560078125,-6.187765625,-11.3693359375,-7.93945703125,-3.9881328125
-6.4225625,6.99762890625,3.81533203125,6.0290390625,1.081140625,-11.7741875,-12.34803125,15.87878125,3.17605078125,-13.18380078125,-11.5561796875,12.311984375,8.53141796875,-3.902734375,-15.55776171875,-6.2848203125,15.219,-2.04766796875,-10.1964765625,-13.090390625,-0.1411640625,-8.21051953125,-7.33754296875,-10.67745703125,-4.5238125,-1.4279921875,-9.993765625,-13.6173359375,-11.53745703125,-7.4801328125
-7.1525625,5.75562890625,1.88633203125,-0.4779609375,-4.450859375,-15.0221875,-15.99203125,13.30178125,-4.50794921875,-18.45180078125,-14.4501796875,11.033984375,5.08741796875,-9.778734375,-18.27876171875,-6.5128203125,15.652,-5.17966796875,-13.2674765625,-14.681390625,-1.5691640625,-9.65551953125,-9.56754296875,-13.29845703125,-6.4648125,-2.0879921875,-11.906765625,-13.8893359375,-12.88845703125,-9.5121328125
-4.7365625,3.68262890625,-0.97066796875,-7.8179609375,-11.962859375,-18.2761875,-19.55103125,9.51578125,-12.95394921875,-23.46580078125,-17.5181796875,8.015984375,-0.39558203125,-16.103734375,-20.65476171875,-6.8508203125,14.735,-8.60266796875,-15.9614765625,-16.112390625,-1.6641640625,-10.03751953125,-11.04754296875,-15.30145703125,-7.5388125,-1.5579921875,-12.266765625,-12.6823359375,-12.38345703125,-10.1811328125
-0.6065625,0.40362890625,-4.44766796875,-14.1929609375,-20.014859375,-21.7091875,-23.02203125,4.97078125,-20.15994921875,-27.63380078125,-20.9811796875,3.373984375,-6.99958203125,-21.784734375,-22.96076171875,-7.8748203125,12.536,-11.90866796875,-18.2314765625,-17.844390625,-1.1991640625,-9.66951953125,-12.05154296875,-16.97945703125,-8.2818125,-0.6299921875,-11.973765625,-10.9443359375,-11.06145703125,-10.1671328125
3.2224375,-3.52337109375,-7.56866796875,-17.8299609375,-26.527859375,-24.7431875,-25.70403125,0.79878125,-24.34194921875,-30.10180078125,-24.3711796875,-1.764015625,-13.10658203125,-25.613734375,-24.97576171875,-9.7478203125,9.548,-14.60766796875,-19.8304765625,-19.930390625,-1.1751640625,-9.11051953125,-12.82354296875,-18.48245703125,-9.2828125,-0.2669921875,-11.952765625,-9.5403359375,-10.00445703125,-10.2721328125
5.0034375,-6.60137109375,-8.99866796875,-17.7729609375,-29.408859375,-26.1961875,-26.38303125,-1.53121875,-24.48294921875,-29.94980078125,-26.5521796875,-5.671015625,-17.07658203125,-26.561734375,-25.96476171875,-12.0358203125,6.407,-16.12266796875,-20.2634765625,-21.881390625,-2.2551640625,-8.75751953125,-13.29654296875,-19.61745703125,-10.8028125,-1.1279921875,-12.643765625,-8.7883359375,-9.76345703125,-10.9411328125
3.8914375,-7.12837109375,-7.67266796875,-14.3669609375,-27.318859375,-24.8791875,-23.97103125,-0.94321875,-20.66194921875,-26.59680078125,-26.1841796875,-6.854015625,-17.95158203125,-24.109734375,-24.99176171875,-13.8298203125,3.573,-15.90966796875,-18.9384765625,-22.843390625,-4.4541640625,-8.56951953125,-13.03654296875,-19.88645703125,-12.6088125,-3.3229921875,-13.761765625,-8.3133359375,-10.10945703125,-11.9951328125
0.1304375,-4.23437109375,-3.41866796875,-9.1049609375,-20.263859375,-20.2651875,-18.20203125,2.55578125,-14.03094921875,-20.18980078125,-22.3621796875,-4.820015625,-15.81658203125,-18.508734375,-21.38176171875,-14.0998203125,1.162,-13.71066796875,-15.4714765625,-21.970390625,-7.1501640625,-8.11251953125,-11.46754296875,-18.71545703125,-14.0528125,-6.4169921875,-14.425765625,-7.3003359375,-10.19345703125,-12.7031328125
-5.1365625,1.52762890625,2.83333203125,-3.9209609375,-9.736859375,-12.8551875,-9.97403125,7.70478125,-6.42694921875,-11.69580078125,-15.0891796875,-0.300015625,-11.69858203125,-10.802734375,-15.08376171875,-12.1428203125,-0.951,-9.77666796875,-9.9674765625,-18.793390625,-9.3521640625,-6.89051953125,-8.24554296875,-15.73345703125,-14.3268125,-9.6049921875,-13.575765625,-4.9833359375,-9.00545703125,-12.1341328125
-10.2485625,8.41662890625,9.35433203125,-0.3189609375,1.732140625,-4.0121875,-1.10003125,12.47778125,0.280050781250001,-2.62280078125,-5.3391796875,5.159984375,-7.10758203125,-2.583734375,-6.75876171875,-7.9128203125,-2.886,-4.90766796875,-3.1264765625,-13.422390625,-10.0831640625,-4.73451953125,-3.53554296875,-10.96945703125,-12.7828125,-11.9589921875,-10.465765625,-1.0883359375,-5.89445703125,-9.6021328125
-13.4905625,14.36162890625,14.28433203125,1.2080390625,11.497140625,4.6128125,6.43796875,14.95878125,4.84605078125,5.49819921875,5.2678203125,9.959984375,-3.44458203125,4.491265625,2.40423828125,-2.0778203125,-4.551,-0.22566796875,3.9185234375,-6.523390625,-8.7521640625,-1.97351953125,1.95645703125,-4.88845703125,-9.2048125,-12.6989921875,-5.033765625,3.9976640625,-0.90345703125,-5.0211328125
-13.6285625,17.88362890625,16.32333203125,1.2170390625,17.784140625,11.7258125,11.37796875,14.14478125,7.05705078125,11.62019921875,14.9908203125,13.096984375,-1.48558203125,9.247265625,11.04723828125,4.2351796875,-5.595,3.25133203125,9.9675234375,0.887609375,-5.4001640625,0.72648046875,7.23345703125,1.73554296875,-3.9268125,-11.4269921875,2.040234375,9.4126640625,5.22554296875,1.0258671875
-10.3645625,18.57962890625,15.13733203125,0.8580390625,20.298140625,16.7368125,13.67196875,10.28478125,7.67405078125,15.43419921875,22.4498203125,14.395984375,-1.09658203125,11.378265625,18.01523828125,9.8541796875,-5.53,5.03533203125,14.1835234375,7.749609375,-0.724164062499999,2.73848046875,11.42545703125,8.05254296875,2.2601875,-8.2319921875,9.584234375,14.2096640625,11.36654296875,7.5148671875
-4.4675625,17.02062890625,11.33933203125,1.2220390625,20.044140625,19.6388125,14.26096875,4.63878125,7.94105078125,17.27319921875,26.8748203125,14.268984375,-1.30158203125,11.483265625,22.57723828125,13.9131796875,-4.01,5.35933203125,16.3535234375,13.211609375,4.1498359375,3.81948046875,14.12545703125,13.35654296875,8.3481875,-3.6429921875,16.350234375,17.7276640625,16.43654296875,13.3688671875
2.5624375,14.23762890625,6.09533203125,2.7790390625,18.468140625,20.6078125,14.24996875,-1.18621875,8.86805078125,17.68519921875,28.0518203125,13.227984375,-0.75158203125,10.670265625,24.43323828125,16.0001796875,-1.2,5.00333203125,16.8415234375,16.749609375,8.0608359375,4.20548046875,15.45045703125,17.18354296875,13.3791875,1.5210078125,21.357234375,19.7276640625,19.71554296875,17.7788671875
9.0574375,11.11962890625,0.58333203125,5.1320390625,16.411140625,19.6268125,14.01496875,-5.97921875,10.63505078125,16.93419921875,26.0748203125,11.465984375,1.52141796875,9.905265625,23.55723828125,16.0541796875,2.016,4.82033203125,16.2395234375,18.103609375,10.2038359375,4.42648046875,15.81345703125,19.25254296875,16.6091875,6.3240078125,24.018234375,20.2686640625,20.89154296875,20.2868671875
13.5874375,8.00862890625,-4.42466796875,7.1100390625,13.595140625,16.3638125,12.81896875,-9.35921875,12.42305078125,14.74419921875,21.1248203125,8.753984375,5.41041796875,9.469265625,20.02723828125,14.1551796875,4.248,5.25833203125,14.9475234375,17.142609375,10.2968359375,4.96748046875,15.56645703125,19.34054296875,17.5761875,9.8540078125,24.089234375,19.4876640625,19.94754296875,20.7038671875
15.0344375,4.63362890625,-8.65866796875,7.1960390625,8.973140625,10.3918125,9.22296875,-11.69221875,12.78605078125,10.50919921875,13.4718203125,4.689984375,9.55541796875,8.842265625,13.99423828125,10.3821796875,4.286,6.14233203125,12.9575234375,13.809609375,8.4868359375,5.97148046875,14.76645703125,17.24654296875,16.1011875,11.3770078125,21.594234375,17.4686640625,17.03254296875,19.0028671875
12.5664375,0.43362890625,-12.11866796875,4.1920390625,1.723140625,1.6688125,2.13496875,-13.56521875,10.42605078125,3.86419921875,3.7028203125,-0.815015625,11.90641796875,7.091265625,5.85323828125,4.8811796875,1.852,6.82533203125,9.9895234375,8.235609375,5.1588359375,7.16848046875,13.21545703125,12.94354296875,12.3311875,10.5380078125,16.842234375,14.2866640625,12.47054296875,15.3498671875
5.8234375,-4.85837109375,-14.69266796875,-2.0879609375,-7.774859375,-8.9611875,-8.10003125,-15.15521875,4.99305078125,-4.72880078125,-7.0041796875,-7.098015625,10.81741796875,3.549265625,-3.49376171875,-1.8738203125,-2.059,6.61433203125,5.8985234375,1.000609375,0.8778359375,8.03648046875,10.72945703125,6.85254296875,6.8361875,7.6000078125,10.517234375,10.1776640625,6.85854296875,10.2438671875
-4.6345625,-10.67237109375,-15.92066796875,-10.4569609375,-17.631859375,-19.6131875,-19.31403125,-15.90121875,-2.54994921875,-13.77580078125,-16.8301796875,-12.644015625,6.02941796875,-1.637734375,-12.51276171875,-8.8288203125,-5.501,5.18833203125,1.0585234375,-6.685390625,-3.5281640625,8.08948046875,7.44045703125,0.0125429687499996,0.6811875,3.5500078125,3.715234375,5.6706640625,1.12654296875,4.6128671875
-16.9555625,-15.51037109375,-15.12266796875,-18.5889609375,-25.050859375,-27.8111875,-28.21603125,-14.72021875,-10.22194921875,-21.13780078125,-23.6781796875,-15.540015625,-1.09358203125,-7.409734375,-19.29876171875,-14.4088203125,-6.433,2.79933203125,-3.5694765625,-13.116390625,-6.9981640625,7.09848046875,3.90245703125,-6.05545703125,-4.7028125,-0.1309921875,-2.223765625,1.5326640625,-3.59545703125,-0.3231328125
-28.1345625,-17.50937109375,-11.87266796875,-23.7989609375,-27.543859375,-31.3971875,-31.88703125,-10.71221875,-15.82594921875,-24.87380078125,-25.8911796875,-14.353015625,-8.25458203125,-12.232734375,-22.23276171875,-17.0258203125,-3.71,0.12833203125,-6.8004765625,-16.629390625,-8.5471640625,5.15248046875,0.89145703125,-9.87045703125,-7.9548125,-2.0459921875,-6.105765625,-1.4693359375,-6.32445703125,-3.4581328125
-34.8705625,-15.41837109375,-6.51766796875,-24.0639609375,-24.078859375,-29.4611875,-29.21103125,-3.92721875,-17.81894921875,-24.12680078125,-23.0291796875,-8.995015625,-13.34958203125,-14.812734375,-20.73676171875,-15.8178203125,2.263,-2.07666796875,-7.8254765625,-16.323390625,-7.7321640625,2.56448046875,-0.98854296875,-10.63045703125,-8.3328125,-1.5509921875,-7.340765625,-2.8813359375,-6.62145703125,-4.2671328125
-34.8555625,-9.42637109375,-0.34966796875,-18.8519609375,-15.595859375,-22.7851875,-21.45303125,4.27678125,-15.83394921875,-19.55980078125,-16.2331796875,-1.021015625,-15.32358203125,-14.688734375,-15.66576171875,-11.1718203125,9.566,-3.35166796875,-6.6664765625,-12.530390625,-4.9221640625,-0.24451953125,-1.61654296875,-8.60345703125,-6.0598125,0.9360078125,-6.179765625,-2.7373359375,-4.78845703125,-3.0361328125
-27.8795625,-1.31337109375,4.79633203125,-9.4289609375,-4.684859375,-13.6011875,-11.67803125,11.58678125,-10.69294921875,-13.07080078125,-7.9001796875,6.884984375,-14.34658203125,-12.357734375,-9.04676171875,-4.6808203125,15.538,-3.65066796875,-4.1714765625,-6.726390625,-1.1231640625,-2.85351953125,-1.37954296875,-4.99745703125,-2.2028125,4.1890078125,-3.547765625,-1.4863359375,-1.68745703125,-0.6691328125
-16.0815625,6.23562890625,7.32033203125,1.5730390625,5.391140625,-4.7491875,-3.37703125,15.67978125,-3.99194921875,-6.94480078125,-0.7471796875,12.022984375,-11.40658203125,-8.940734375,-3.22576171875,1.4791796875,17.946,-3.24466796875,-1.5644765625,-0.878390624999999,2.5418359375,-4.91151953125,-0.90554296875,-1.37245703125,1.8581875,6.8460078125,-0.569765625,0.2826640625,1.69654296875,1.8058671875
-3.1185625,10.81062890625,6.60633203125,11.1410390625,11.869140625,1.3808125,0.986968749999999,15.24778125,2.50505078125,-2.91280078125,3.2598203125,12.800984375,-7.71158203125,-5.611734375,0.102238281250001,5.4291796875,15.955,-2.50366796875,0.1605234375,3.361609375,5.3278359375,-6.19651953125,-0.71254296875,1.04254296875,5.0131875,8.0610078125,1.907234375,2.1056640625,4.67354296875,3.7028671875
7.3384375,11.33462890625,3.27633203125,16.9730390625,13.367140625,3.6408125,0.805968749999999,10.58378125,7.39305078125,-1.60580078125,3.5708203125,9.312984375,-4.23758203125,-3.146734375,0.494238281250001,6.2771796875,10.433,-1.72766796875,0.6275234375,5.206609375,7.0188359375,-6.65651953125,-0.99754296875,1.75754296875,6.7371875,7.7770078125,3.515234375,3.7656640625,6.98954296875,4.8388671875
12.9794375,8.41262890625,-1.14266796875,18.1120390625,10.090140625,2.2798125,-2.79203125,3.41178125,9.85005078125,-2.61880078125,1.0178203125,3.129984375,-1.55958203125,-1.782734375,-1.30976171875,4.3081796875,3.486,-1.10366796875,0.0825234375,4.767609375,7.6918359375,-6.42051953125,-1.65054296875,0.97854296875,7.0171875,6.5160078125,4.254234375,5.2096640625,8.67154296875,5.3698671875
13.4224375,3.85662890625,-4.94466796875,14.8980390625,3.380140625,-1.5261875,-7.75603125,-3.91121875,9.57705078125,-5.02680078125,-2.8081796875,-3.488015625,0.08841796875,-1.400734375,-3.98576171875,0.6551796875,-2.526,-0.74966796875,-0.9144765625,2.698609375,7.3838359375,-5.78551953125,-2.42554296875,-0.748457031250001,6.0711875,4.9280078125,4.239234375,6.3736640625,9.75554296875,5.4768671875
9.8474375,-0.27737109375,-6.93466796875,8.4890390625,-5.009859375,-6.3501875,-12.07203125,-9.37921875,6.64305078125,-7.98080078125,-6.3691796875,-8.512015625,0.67841796875,-1.809734375,-6.34876171875,-3.3078203125,-5.988,-0.78366796875,-1.8684765625,-0.257390625,5.9878359375,-5.15651953125,-3.10854296875,-2.91345703125,4.1341875,3.4070078125,3.512234375,7.0686640625,10.12554296875,5.1738671875
4.1224375,-2.58537109375,-6.79766796875,0.3320390625,-13.467859375,-10.9891875,-14.40503125,-12.03021875,1.43105078125,-11.00680078125,-8.7371796875,-10.766015625,0.27141796875,-2.930734375,-7.80676171875,-6.4798203125,-6.593,-1.32966796875,-2.5744765625,-3.511390625,3.4798359375,-4.93651953125,-3.60254296875,-5.20745703125,1.4341875,2.0150078125,2.061234375,7.0176640625,9.56054296875,4.3258671875
-2.0065625,-2.74837109375,-5.03166796875,-8.1619609375,-20.690859375,-14.6051875,-14.31503125,-12.08521875,-5.30094921875,-13.90380078125,-9.6861796875,-10.100015625,-1.01858203125,-4.744734375,-8.36576171875,-8.2598203125,-5.212,-2.42866796875,-3.0864765625,-6.618390625,0.255835937500001,-5.33551953125,-3.87254296875,-7.42045703125,-1.6558125,0.6850078125,0.000234375000000231,6.0526640625,7.96854296875,2.8708671875
-7.3195625,-1.39537109375,-2.56966796875,-15.7399609375,-25.582859375,-16.6501875,-12.12803125,-10.52921875,-12.36294921875,-16.38180078125,-9.3871796875,-7.171015625,-3.00558203125,-7.077734375,-8.30476171875,-8.4698203125,-3.189,-3.89866796875,-3.4924765625,-9.118390625,-2.7691640625,-6.20351953125,-3.82654296875,-9.22945703125,-4.4938125,-0.4839921875,-2.241765625,4.3596640625,5.64154296875,1.0348671875
-11.0735625,0.45362890625,-0.29666796875,-21.2999609375,-27.134859375,-16.7241875,-8.57003125,-8.43221875,-18.20494921875,-17.75680078125,-8.0071796875,-2.973015625,-5.40458203125,-9.381734375,-7.76376171875,-7.1598203125,-1.487,-5.25466796875,-3.6544765625,-10.424390625,-4.4161640625,-6.97751953125,-3.22354296875,-10.06145703125,-6.1898125,-1.0809921875,-3.867765625,2.5816640625,3.35954296875,-0.5601328125
-12.7705625,2.01562890625,1.31433203125,-23.8929609375,-24.517859375,-14.5021875,-4.30903125,-6.39121875,-21.20194921875,-16.99080078125,-5.4781796875,1.595984375,-7.85258203125,-10.723734375,-6.50676171875,-4.4528203125,-0.198,-5.78266796875,-3.1054765625,-9.890390625,-3.7251640625,-6.82751953125,-1.69254296875,-9.17845703125,-5.8368125,-0.4879921875,-3.903765625,1.6826640625,2.21854296875,-1.0271328125
-12.0545625,3.10362890625,2.27233203125,-22.8769609375,-17.436859375,-9.8451875,0.309968749999999,-4.40921875,-20.14194921875,-13.10880078125,-1.5921796875,5.956984375,-9.94758203125,-10.067734375,-3.99576171875,-0.5428203125,1.317,-4.81266796875,-1.2064765625,-7.058390625,-0.4081640625,-5.02751953125,1.08745703125,-5.96645703125,-2.8568125,1.8080078125,-1.572765625,2.5476640625,3.21954296875,0.4748671875
-8.8745625,4.03662890625,2.87533203125,-18.2159609375,-6.616859375,-3.0721875,5.18096875,-2.22421875,-14.77594921875,-5.82380078125,3.6708203125,9.760984375,-11.25258203125,-6.771734375,0.232238281250001,4.1881796875,3.795,-2.06466796875,2.4725234375,-1.960390625,4.9578359375,-1.39151953125,5.13745703125,-0.31345703125,2.6781875,5.8590078125,3.307234375,5.5266640625,6.77354296875,4.3288671875
-3.7075625,5.22362890625,3.37233203125,-10.7339609375,5.966140625,4.8038125,10.06796875,0.20778125,-6.14094921875,4.00119921875,9.8138203125,12.674984375,-11.30058203125,-1.058734375,6.10523828125,9.0631796875,7.393,2.10433203125,7.7595234375,4.688609375,11.0578359375,3.47948046875,9.97845703125,7.13654296875,9.9101875,11.0740078125,10.098234375,10.1486640625,12.39754296875,10.1658671875
2.3974375,6.73562890625,3.71533203125,-2.0579609375,17.408140625,12.1738125,14.33396875,2.45678125,3.60505078125,14.34019921875,15.7448203125,14.236984375,-9.70458203125,5.838265625,12.73923828125,13.1291796875,11.383,6.72933203125,13.7185234375,11.566609375,16.2458359375,8.33648046875,14.66745703125,15.04154296875,17.3361875,16.3000078125,17.450234375,15.2286640625,18.79354296875,16.8588671875
7.9944375,8.13262890625,3.54833203125,5.8000390625,24.761140625,17.2658125,17.02696875,3.74878125,11.82205078125,22.52819921875,20.0228203125,13.920984375,-6.42458203125,11.993265625,18.53923828125,15.3701796875,14.394,10.56233203125,18.8495234375,17.063609375,19.0458359375,11.81148046875,18.08545703125,21.72154296875,23.2071875,20.1670078125,23.721234375,19.3436640625,24.32754296875,22.8498671875
11.5404375,8.64562890625,2.41533203125,11.0220390625,26.068140625,18.7278125,17.28996875,3.36078125,16.24505078125,26.12019921875,21.3578203125,11.367984375,-1.99858203125,15.456265625,21.68423828125,15.0171796875,15.026,12.55633203125,21.6095234375,19.748609375,18.5638359375,13.05048046875,19.37345703125,25.68954296875,26.0441875,21.5020078125,27.540234375,21.4356640625,27.67654296875,26.6618671875
11.7664375,7.59362890625,0.0573320312500005,12.5030390625,21.052140625,16.0618125,14.83096875,0.99578125,15.69305078125,23.75619921875,19.1198203125,6.659984375,2.47341796875,14.983265625,20.78423828125,11.8391796875,12.464,12.26333203125,20.9915234375,18.805609375,14.6848359375,12.09648046875,18.27045703125,26.10854296875,25.0741875,19.6580078125,28.238234375,21.2186640625,28.29754296875,27.3638671875
8.1104375,4.78362890625,-3.38266796875,10.1470390625,11.144140625,9.7798125,10.16896875,-3.08821875,10.38905078125,15.64519921875,13.6198203125,0.449984375,5.72641796875,10.496265625,15.45123828125,6.2921796875,6.783,9.97333203125,16.9175234375,14.294609375,8.0588359375,9.81048046875,15.18345703125,23.00754296875,20.4321875,14.6620078125,25.979234375,19.1936640625,26.50954296875,24.7958671875
1.0834375,0.68762890625,-7.36566796875,4.8690390625,-1.108859375,1.2618125,4.51496875,-8.20921875,1.83905078125,3.51419921875,6.0308203125,-6.146015625,6.89941796875,3.097265625,6.54823828125,-0.5528203125,-1.114,6.53233203125,10.2695234375,7.161609375,-0.0531640624999996,7.40448046875,10.98845703125,17.21154296875,13.1081875,7.2500078125,21.550234375,16.3146640625,23.19754296875,19.5368671875
-7.6605625,-3.70437109375,-11.13866796875,-1.7379609375,-12.959859375,-7.6451875,-0.742031250000001,-13.53121875,-7.69494921875,-9.94680078125,-2.0251796875,-11.912015625,5.94941796875,-5.348734375,-4.01376171875,-7.3088203125,-9.791,2.97433203125,2.5725234375,-1.038390625,-8.0391640625,5.86048046875,6.66145703125,10.03754296875,4.6561875,-1.2119921875,15.997234375,13.5286640625,19.36754296875,12.7088671875
-15.7185625,-7.24037109375,-14.02466796875,-7.9559609375,-22.286859375,-15.1331875,-4.68803125,-18.29321875,-15.90094921875,-21.90980078125,-9.0481796875,-15.972015625,3.66241796875,-12.865734375,-13.87576171875,-12.7188203125,-17.615,0.14733203125,-4.5374765625,-8.616390625,-14.2741640625,5.53848046875,2.93945703125,2.88554296875,-3.2138125,-8.9419921875,10.266234375,11.4026640625,15.77254296875,5.7068671875
-20.6745625,-9.04437109375,-15.66066796875,-12.4579609375,-28.007859375,-19.8471875,-7.27903125,-21.95321875,-21.04794921875,-30.19780078125,-14.1361796875,-18.089015625,1.22541796875,-17.975734375,-20.97876171875,-16.0548203125,-23.082,-1.54166796875,-9.8474765625,-14.263390625,-17.5211640625,6.12048046875,0.107457031250001,-3.17445703125,-9.0988125,-14.1579921875,4.960234375,9.9766640625,12.72154296875,-0.1311328125
-20.8895625,-8.83137109375,-16.10166796875,-14.5989609375,-30.052859375,-21.0981875,-9.21803125,-24.26421875,-22.33594921875,-33.79580078125,-17.1831796875,-18.663015625,-0.38358203125,-20.079734375,-24.17076171875,-17.2908203125,-25.128,-2.19366796875,-12.8904765625,-17.397390625,-17.2811640625,6.86848046875,-2.02554296875,-7.68245703125,-12.2708125,-15.6189921875,0.242234375,8.8366640625,10.09054296875,-3.8771328125
-16.0075625,-6.93437109375,-15.72366796875,-14.4279609375,-29.056859375,-18.9201875,-11.41503125,-25.30121875,-19.93194921875,-32.94480078125,-18.7221796875,-18.437015625,-0.79458203125,-19.466734375,-23.44076171875,-16.9588203125,-23.432,-2.25866796875,-13.9484765625,-18.217390625,-13.8921640625,7.04948046875,-3.93354296875,-10.79645703125,-12.8118125,-13.0579921875,-4.087765625,7.3976640625,7.49854296875,-5.2761328125
-6.9965625,-4.02337109375,-14.97966796875,-12.5319609375,-26.033859375,-14.0431875,-14.41403125,-25.40921875,-14.77494921875,-28.85380078125,-19.5091796875,-18.070015625,-0.22158203125,-17.009734375,-19.73776171875,-15.7878203125,-18.581,-2.22766796875,-13.7384765625,-17.450390625,-8.3031640625,6.31248046875,-6.04654296875,-13.05245703125,-11.4458125,-7.2419921875,-8.362765625,5.2776640625,4.60554296875,-4.7701328125
4.2154375,-0.73737109375,-14.17666796875,-9.8199609375,-22.141859375,-7.7601875,-18.12003125,-25.08721875,-8.28594921875,-23.23380078125,-20.1371796875,-17.846015625,0.84641796875,-13.765734375,-14.56776171875,-14.3688203125,-11.999,-2.34766796875,-13.0474765625,-15.999390625,-1.6941640625,4.85548046875,-8.47754296875,-15.03245703125,-9.2008125,0.3010078125,-12.792765625,2.5536640625,1.33954296875,-3.2951328125
4.2154375,-0.73737109375,-14.17666796875,-9.8199609375,-22.141859375,-7.7601875,-18.12003125,-25.08721875,-8.28594921875,-23.23380078125,-20.1371796875,-17.846015625,0.84641796875,-13.765734375,-14.56776171875,-14.3688203125,-11.999,-2.34766796875,-13.0474765625,-15.999390625,-1.6941640625,4.85548046875,-8.47754296875,-15.03245703125,-9.2008125,0.3010078125,-12.792765625,2.5536640625,1.33954296875,-3.2951328125
