"Fp1","Fpz","Fp2","F7","F3","Fz","F4","F8","FC5","FC1","FC2","FC6","T7","C3","Cz","C4","T8","CP5","CP1","CP2","CP6","P7","P3","Pz","P4","P8","POz","O1","Oz","O2"
-14.9803125,-14.27030859375,-10.72820703125,-5.67123046875,-16.77608984375,-16.36308203125,-13.419578125,-10.86295703125,-3.3259453125,-18.35252734375,-18.4185390625,-10.59175,-2.09831640625,-12.33430078125,-18.0296875,-13.50122265625,-9.34662890625,-7.1986953125,-14.22176953125,-16.49825,-19.3957109375,0.376484375,-11.8121953125,-15.1195546875,-12.65144140625,-6.200875,-10.726109375,-9.837640625,-7.51340234375,-11.5126484375
-17.6973125,-15.17030859375,-15.36120703125,-9.87123046875,-19.54208984375,-18.25008203125,-15.183578125,-12.02295703125,-11.8309453125,-19.47852734375,-18.6415390625,-13.96675,-3.19631640625,-14.18330078125,-19.0606875,-15.08222265625,-9.68362890625,-9.3726953125,-15.25676953125,-17.21325,-17.4447109375,-1.716515625,-12.9961953125,-14.7375546875,-12.25044140625,-5.892875,-11.071109375,-10.070640625,-8.39240234375,-12.5026484375
-17.6233125,-14.01030859375,-16.05820703125,-10.34523046875,-19.45508984375,-17.27408203125,-14.726578125,-10.82795703125,-14.1219453125,-18.30052734375,-17.0985390625,-14.74575,-3.01931640625,-13.96830078125,-18.1046875,-14.62222265625,-8.27662890625,-8.8056953125,-14.23776953125,-16.11325,-13.9067109375,-1.821515625,-12.0631953125,-12.6905546875,-10.08844140625,-3.771875,-9.001109375,-8.081640625,-6.86540234375,-10.8946484375
-14.5243125,-10.58630859375,-12.75320703125,-7.08123046875,-16.38708984375,-13.35308203125,-11.878578125,-7.31395703125,-10.4389453125,-14.63452734375,-13.5445390625,-12.56975,-1.66431640625,-11.31930078125,-14.9486875,-11.61422265625,-5.13362890625,-5.3666953125,-10.97976953125,-12.97525,-8.8147109375,0.153484375,-8.8571953125,-8.8095546875,-6.00844140625,0.181125,-4.445109375,-3.792640625,-2.79040234375,-6.5916484375
-9.2953125,-5.60830859375,-6.83620703125,-1.49323046875,-11.33808984375,-7.56108203125,-7.371578125,-2.50395703125,-3.2529453125,-9.26852734375,-8.5155390625,-8.08275,0.25768359375,-6.70830078125,-10.2096875,-6.39522265625,-1.03462890625,-0.0366953125,-6.15776953125,-8.36325,-3.0167109375,3.521484375,-4.0801953125,-3.6965546875,-0.66744140625,5.134125,1.613890625,1.899359375,2.94959765625,-0.6206484375
-3.6483125,-0.48830859375,-0.51620703125,4.22376953125,-6.02908984375,-1.69708203125,-2.578578125,2.03604296875,4.0540546875,-3.69952734375,-3.2185390625,-2.73375,1.95968359375,-1.42630078125,-5.1436875,-0.200222656250001,2.77737109375,5.4083046875,-1.11576953125,-3.50525,2.0822890625,7.086484375,0.921804687500001,1.4014453125,4.63555859375,9.693125,7.468890625,7.415359375,8.73959765625,5.2273515625
0.639687500000001,3.30469140625,4.14479296875,8.10376953125,-2.12808984375,2.52491796875,1.091421875,4.93904296875,8.7260546875,0.51347265625,0.979460937500001,1.84225,2.89668359375,2.88869921875,-1.0956875,5.27177734375,5.22037109375,9.1213046875,2.71123046875,0.242750000000001,5.1632890625,9.655484375,4.7378046875,5.1194453125,8.51955859375,12.540125,11.448890625,11.190359375,12.94659765625,9.1963515625
2.5016875,4.92369140625,6.01179296875,9.21676953125,-0.54008984375,4.20291796875,2.792421875,5.67404296875,9.6440546875,2.42047265625,3.1594609375,4.51525,3.01368359375,4.92769921875,1.1033125,8.54977734375,5.91837109375,9.9713046875,4.44023046875,2.01775,5.6292890625,10.538484375,6.5038046875,6.6014453125,10.16855859375,13.063125,12.691890625,12.375359375,14.65759765625,10.3743515625
1.9076875,4.42169140625,5.13379296875,7.88176953125,-1.16208984375,3.50391796875,2.506421875,4.68104296875,7.4050546875,1.98347265625,3.1694609375,4.99025,2.67468359375,4.21769921875,1.4043125,8.95877734375,5.29337109375,8.0063046875,4.06723046875,1.78875,3.8522890625,9.789484375,6.2168046875,5.8434453125,9.63355859375,11.558125,11.466890625,11.157359375,13.99459765625,9.0213515625
-0.350312499999999,2.52369140625,2.43379296875,5.22476953125,-3.16808984375,1.36391796875,0.859421874999999,2.95404296875,3.6210546875,-0.0935273437500008,1.5374609375,3.65625,2.35268359375,1.24669921875,0.377312499999999,6.82277734375,4.17137109375,4.3603046875,2.31423046875,0.225750000000001,0.8952890625,8.063484375,4.5818046875,3.5834453125,7.66855859375,8.921125,8.898890625,8.533359375,11.88459765625,6.2663515625
-3.1813125,0.164691406249999,-0.86220703125,2.49676953125,-5.52008984375,-1.08208203125,-1.295578125,1.39204296875,-0.0109453125000005,-2.79252734375,-0.869539062499999,1.18325,2.33868359375,-2.75130078125,-1.1926875,3.25677734375,3.20837109375,0.6683046875,0.195230468749999,-1.71925,-2.0307109375,6.219484375,2.5668046875,0.8844453125,5.28555859375,6.106125,6.327890625,5.758359375,9.50259765625,3.4503515625
-5.6433125,-1.88830859375,-3.70520703125,0.536769531249999,-7.38208984375,-2.98808203125,-3.240578125,0.376042968749999,-2.3439453125,-5.17552734375,-3.2215390625,-1.75075,2.62768359375,-6.25130078125,-2.6666875,-0.32322265625,2.56537109375,-1.6616953125,-1.44576953125,-3.26325,-4.0347109375,4.934484375,0.963804687500001,-1.3185546875,3.32955859375,3.741125,4.711890625,3.815359375,7.75459765625,1.5353515625
-7.1943125,-3.22930859375,-5.48320703125,-0.413230468750001,-8.34108984375,-4.02608203125,-4.588578125,-0.251957031250001,-2.9529453125,-6.66052734375,-4.9815390625,-4.55175,3.00568359375,-8.02130078125,-3.7326875,-2.80222265625,1.97237109375,-1.9816953125,-2.20376953125,-4.06725,-4.7327109375,4.493484375,0.161804687500001,-2.5155546875,2.25255859375,2.064125,4.327890625,3.126359375,7.02159765625,0.8463515625
-7.7763125,-3.88730859375,-6.11820703125,-0.655230468750001,-8.47608984375,-4.38308203125,-5.326578125,-0.934957031250001,-2.0739453125,-7.17252734375,-6.0585390625,-6.76375,3.18868359375,-7.64530078125,-4.4316875,-3.83822265625,1.03837109375,-0.5416953125,-2.17576953125,-4.29425,-4.2607109375,4.796484375,0.139804687500001,-2.7205546875,2.05355859375,1.059125,4.817890625,3.535359375,7.16859765625,1.1203515625
-7.8043125,-4.28930859375,-6.07120703125,-0.84723046875,-8.33808984375,-4.60308203125,-5.778578125,-2.12895703125,-0.4799453125,-7.15152734375,-6.7995390625,-8.22075,2.92168359375,-5.73530078125,-5.0846875,-3.97222265625,-0.46862890625,1.7013046875,-1.86876953125,-4.48525,-3.1877109375,5.487484375,0.561804687500001,-2.4115546875,2.32355859375,0.580125,5.441890625,4.471359375,7.70559765625,1.7363515625
-8.0073125,-5.07930859375,-6.15920703125,-1.71723046875,-8.72908984375,-5.33708203125,-6.476578125,-4.10695703125,0.755054687499999,-7.36752734375,-7.8025390625,-9.11375,2.04968359375,-3.65130078125,-6.1396875,-4.29522265625,-2.50462890625,3.4963046875,-1.98276953125,-5.29525,-2.3767109375,6.106484375,0.8938046875,-2.3085546875,2.39655859375,0.382125,5.417890625,5.199359375,8.02259765625,2.0083515625
-9.0683125,-6.78630859375,-7.15120703125,-3.69523046875,-10.30008984375,-7.01008203125,-7.888578125,-6.79795703125,0.681054687499999,-8.54952734375,-9.5745390625,-9.85175,0.59468359375,-2.86130078125,-7.9356875,-5.78222265625,-4.75862890625,3.7893046875,-3.10576953125,-7.16125,-2.6827109375,6.236484375,0.582804687500001,-3.0575546875,1.62155859375,0.154125,4.246890625,5.107359375,7.64559765625,1.4683515625
-11.2163125,-9.48830859375,-9.31020703125,-6.62323046875,-13.13808984375,-9.56608203125,-10.132578125,-9.72395703125,-1.0799453125,-10.98952734375,-12.1785390625,-10.76175,-1.22831640625,-4.22230078125,-10.4726875,-8.64122265625,-6.74962890625,2.1303046875,-5.41976953125,-10.01625,-4.5267109375,5.645484375,-0.697195312499999,-4.9025546875,-0.29044140625,-0.375875,1.922890625,3.958359375,6.43459765625,0.0483515625000002
-14.0493125,-12.68530859375,-12.22320703125,-9.78223046875,-16.64408984375,-12.45508203125,-12.866578125,-12.15695703125,-4.1719453125,-14.34852734375,-15.1285390625,-11.90375,-3.08031640625,-7.56530078125,-13.3336875,-12.12222265625,-8.01562890625,-1.1306953125,-8.55676953125,-13.25725,-7.5937109375,4.373484375,-2.8431953125,-7.5435546875,-3.07044140625,-1.308875,-1.069109375,1.971359375,4.62659765625,-1.9266484375
-16.7353125,-15.51030859375,-15.05820703125,-12.26723046875,-19.81608984375,-14.90208203125,-15.451578125,-13.46195703125,-7.7619453125,-17.79952734375,-17.6245390625,-13.13775,-4.65631640625,-11.79530078125,-15.8626875,-14.94222265625,-8.34762890625,-4.9796953125,-11.73176953125,-16.01725,-10.9217109375,2.722484375,-5.3261953125,-10.2725546875,-6.00444140625,-2.523875,-3.993109375,-0.305640625,2.67159765625,-3.9436484375
-18.4923125,-17.18130859375,-17.06620703125,-13.48323046875,-21.77208984375,-16.32008203125,-17.280578125,-13.44195703125,-10.9859453125,-20.43552734375,-19.0005390625,-14.32075,-5.80731640625,-15.44530078125,-17.4916875,-16.06822265625,-7.90862890625,-8.1756953125,-14.10376953125,-17.60325,-13.4197109375,1.132484375,-7.4341953125,-12.3205546875,-8.31744140625,-3.767875,-6.206109375,-2.289640625,0.97859765625,-5.5936484375
-18.9923125,-17.40430859375,-17.94720703125,-13.42623046875,-22.16708984375,-16.57808203125,-18.029578125,-12.40995703125,-13.2709453125,-21.67952734375,-19.0715390625,-15.38575,-6.52331640625,-17.41030078125,-18.0156875,-15.32022265625,-7.14362890625,-9.8076953125,-15.16176953125,-17.83625,-14.4487109375,-0.0125156249999998,-8.6261953125,-13.2165546875,-9.57444140625,-4.793875,-7.415109375,-3.630640625,-0.27840234375,-6.7316484375
-18.4453125,-16.45930859375,-17.87920703125,-12.58623046875,-21.26508984375,-15.97808203125,-17.721578125,-10.96895703125,-14.3999453125,-21.48452734375,-18.1755390625,-16.23275,-6.83031640625,-17.42930078125,-17.6246875,-13.41122265625,-6.47962890625,-9.6866953125,-14.91776953125,-17.06825,-14.0567109375,-0.520515625,-8.7811953125,-12.9505546875,-9.81344140625,-5.452875,-7.697109375,-4.301640625,-1.14140234375,-7.4426484375
-17.3543125,-14.93630859375,-17.27120703125,-11.58423046875,-19.68508984375,-14.99208203125,-16.613578125,-9.64795703125,-14.4089453125,-20.22752734375,-16.8935390625,-16.59275,-6.70231640625,-16.05030078125,-16.7036875,-11.48522265625,-6.06162890625,-8.3356953125,-13.79776953125,-15.89925,-12.7527109375,-0.440515625,-8.1851953125,-11.8615546875,-9.38244140625,-5.664875,-7.316109375,-4.484640625,-1.71940234375,-7.8386484375
-16.1463125,-13.35530859375,-16.45220703125,-10.81523046875,-18.00008984375,-13.94708203125,-14.999578125,-8.65995703125,-13.4409453125,-18.41452734375,-15.6675390625,-16.05675,-6.07931640625,-14.14130078125,-15.5646875,-10.43822265625,-5.69262890625,-6.5956953125,-12.33076953125,-14.79625,-11.0837109375,0.021484375,-7.2811953125,-10.3665546875,-8.62444140625,-5.355875,-6.507109375,-4.365640625,-2.01640234375,-7.8866484375
-14.9563125,-11.91930859375,-15.49220703125,-10.29923046875,-16.46108984375,-12.86108203125,-13.059578125,-7.89395703125,-11.6609453125,-16.42052734375,-14.5615390625,-14.32575,-4.96831640625,-12.33230078125,-14.2806875,-10.43522265625,-5.01962890625,-5.1226953125,-10.85576953125,-13.85125,-9.3427109375,0.622484375,-6.3831953125,-8.7285546875,-7.67544140625,-4.438875,-5.368109375,-4.003640625,-1.90040234375,-7.4006484375
-13.6603125,-10.54730859375,-14.25420703125,-9.79123046875,-15.00108984375,-11.52508203125,-10.874578125,-7.10095703125,-9.2689453125,-14.41152734375,-13.3165390625,-11.49275,-3.51431640625,-10.77230078125,-12.7466875,-10.87922265625,-3.81762890625,-4.1216953125,-9.43176953125,-12.82925,-7.5717109375,1.162484375,-5.5551953125,-7.0095546875,-6.48344140625,-2.888875,-3.936109375,-3.360640625,-1.22740234375,-6.2096484375
-12.1163125,-9.09730859375,-12.62420703125,-9.04423046875,-13.46208984375,-9.76108203125,-8.564578125,-6.13295703125,-6.5859453125,-12.44352734375,-11.6425390625,-8.12975,-2.01031640625,-9.34330078125,-10.8926875,-10.87522265625,-2.20162890625,-3.4476953125,-7.99176953125,-11.44225,-5.7847109375,1.487484375,-4.7311953125,-5.2225546875,-5.02044140625,-0.870875,-2.343109375,-2.448640625,-0.04340234375,-4.3846484375
-10.3713125,-7.56430859375,-10.72820703125,-7.99623046875,-11.84008984375,-7.65008203125,-6.428578125,-5.06195703125,-4.0629453125,-10.61452734375,-9.5355390625,-5.12175,-0.82331640625,-8.04230078125,-8.8826875,-9.89222265625,-0.61062890625,-2.9126953125,-6.56576953125,-9.67925,-4.1907109375,1.468484375,-3.9381953125,-3.5215546875,-3.47944140625,1.177125,-0.916109375,-1.456640625,1.31359765625,-2.3616484375
-8.6873125,-6.13730859375,-8.94120703125,-6.77223046875,-10.33908984375,-5.56508203125,-4.910578125,-4.09995703125,-2.1409453125,-9.10652734375,-7.3905390625,-3.29475,-0.27131640625,-7.12930078125,-7.1266875,-8.14322265625,0.42437109375,-2.5136953125,-5.37576953125,-7.90025,-3.1957109375,1.035484375,-3.3821953125,-2.2335546875,-2.28244140625,2.638125,-0.0841093750000002,-0.721640625,2.31259765625,-0.8146484375
-7.3813125,-5.07330859375,-7.66720703125,-5.56223046875,-9.21208984375,-3.97308203125,-4.388578125,-3.43195703125,-1.0339453125,-8.08752734375,-5.8125390625,-3.03175,-0.50031640625,-6.89530078125,-6.0626875,-6.42722265625,0.59737109375,-2.4136953125,-4.68876953125,-6.63925,-3.1517109375,0.245484375,-3.3211953125,-1.6805546875,-1.84844140625,2.986125,-0.128109375,-0.543640625,2.52759765625,-0.3166484375
-6.6383125,-4.51730859375,-7.09620703125,-4.52223046875,-8.55108984375,-3.17608203125,-4.925578125,-3.11495703125,-0.6339453125,-7.56452734375,-5.2535390625,-4.06475,-1.40931640625,-7.31630078125,-5.8806875,-5.57322265625,0.00837109375000011,-2.7656953125,-4.59476953125,-6.24325,-4.0297109375,-0.687515625,-3.8451953125,-1.9305546875,-2.28344140625,2.089125,-0.954109375,-0.983640625,1.90159765625,-1.0126484375
-6.4193125,-4.38730859375,-7.10920703125,-3.77623046875,-8.21508984375,-3.15008203125,-6.164578125,-3.09695703125,-0.625945312500001,-7.33452734375,-5.7245390625,-5.57075,-2.66731640625,-7.96930078125,-6.3796875,-5.91922265625,-0.91362890625,-3.5586953125,-4.90876953125,-6.62425,-5.2837109375,-1.484515625,-4.7841953125,-2.7145546875,-3.25644140625,0.316125,-2.090109375,-1.825640625,0.78159765625,-2.5246484375
-6.4853125,-4.40430859375,-7.36720703125,-3.41823046875,-7.91408984375,-3.55208203125,-7.433578125,-3.28795703125,-0.7219453125,-7.06352734375,-6.7415390625,-6.56275,-3.83131640625,-8.26930078125,-7.0496875,-7.10622265625,-1.67062890625,-4.5636953125,-5.25676953125,-7.26825,-6.0357109375,-1.942515625,-5.7891953125,-3.5525546875,-4.13744140625,-1.623875,-2.928109375,-2.732640625,-0.29240234375,-4.1626484375
-6.4953125,-4.21030859375,-7.45020703125,-3.45823046875,-7.37608984375,-3.86008203125,-8.002578125,-3.59395703125,-0.824945312500001,-6.43452734375,-7.5195390625,-6.37475,-4.53631640625,-7.80230078125,-7.2886875,-8.25422265625,-1.95562890625,-5.3946953125,-5.26676953125,-7.49225,-5.4917109375,-2.035515625,-6.4921953125,-4.0055546875,-4.31644140625,-2.997875,-3.052109375,-3.442640625,-0.88940234375,-5.2766484375
-6.1453125,-3.54430859375,-7.01820703125,-3.75623046875,-6.49708984375,-3.60208203125,-7.405578125,-3.92295703125,-1.0179453125,-5.29052734375,-7.3305390625,-4.96675,-4.64631640625,-6.51530078125,-6.6536875,-8.40222265625,-1.78062890625,-5.6566953125,-4.73376953125,-6.80725,-3.3907109375,-1.910515625,-6.6551953125,-3.8805546875,-3.50644140625,-3.370875,-2.441109375,-3.886640625,-0.892402343750001,-5.5696484375
-5.3493125,-2.41230859375,-5.95620703125,-4.08423046875,-5.41708984375,-2.59508203125,-5.714578125,-4.20895703125,-1.4199453125,-3.73452734375,-5.8695390625,-2.91675,-4.30531640625,-4.73230078125,-5.0746875,-7.02722265625,-1.43462890625,-5.1716953125,-3.70376953125,-5.20425,-0.246710937500001,-1.828515625,-6.2661953125,-3.3095546875,-1.90144140625,-2.782875,-1.476109375,-4.160640625,-0.50840234375,-5.1956484375
-4.3553125,-1.15730859375,-4.45920703125,-4.26523046875,-4.48108984375,-1.09108203125,-3.590578125,-4.40495703125,-2.0209453125,-2.12352734375,-3.4565390625,-1.12275,-3.83531640625,-3.04230078125,-2.9106875,-4.38622265625,-1.28062890625,-4.1116953125,-2.45476953125,-3.20825,2.7672890625,-2.042515625,-5.5441953125,-2.6705546875,-0.11044140625,-1.685875,-0.722109375,-4.398640625,-0.10240234375,-4.6176484375
-3.6723125,-0.34430859375,-2.96620703125,-4.29523046875,-4.06208984375,0.32491796875,-2.017578125,-4.42695703125,-2.6239453125,-0.94352734375,-0.9265390625,-0.37575,-3.54931640625,-2.06830078125,-0.801687500000002,-1.47822265625,-1.50562890625,-2.9116953125,-1.35376953125,-1.62225,4.3352890625,-2.666515625,-4.8081953125,-2.3735546875,1.13655859375,-0.665875,-0.616109375,-4.617640625,0.0555976562499998,-4.2936484375
-3.7903125,-0.45430859375,-1.94620703125,-4.30323046875,-4.33008984375,1.06991796875,-1.776578125,-4.11395703125,-2.9679453125,-0.545527343750001,0.792460937500001,-0.95975,-3.58831640625,-2.19230078125,0.662312499999999,0.428777343749999,-1.97462890625,-1.9936953125,-0.63876953125,-1.07225,3.7022890625,-3.572515625,-4.2701953125,-2.5965546875,1.37955859375,-0.079875,-1.207109375,-4.643640625,-0.0134023437500002,-4.3746484375
-4.8283125,-1.54230859375,-1.62620703125,-4.41123046875,-5.12008984375,0.932917968750001,-2.951578125,-3.27795703125,-2.9199453125,-0.92852734375,1.2004609375,-2.43675,-3.87531640625,-3.34130078125,1.2553125,0.48277734375,-2.29962890625,-1.5076953125,-0.27676953125,-1.61225,1.1842890625,-4.413515625,-3.8871953125,-3.1365546875,0.71455859375,0.146125,-2.102109375,-4.166640625,0.00659765624999986,-4.5986484375
-6.3873125,-3.12530859375,-1.85720703125,-4.61723046875,-6.00008984375,0.220917968750001,-4.790578125,-1.83495703125,-2.5529453125,-1.70052734375,0.521460937500001,-3.76775,-4.20331640625,-5.00730078125,1.1983125,-1.21122265625,-2.07862890625,-1.2806953125,-0.000769531250000455,-2.67425,-1.9197109375,-4.791515625,-3.4001953125,-3.5015546875,-0.23944140625,0.432125,-2.674109375,-2.932640625,0.52659765625,-4.4746484375
-7.7473125,-4.44530859375,-2.22220703125,-4.80923046875,-6.53108984375,-0.46008203125,-6.115578125,0.0780429687499993,-2.0549453125,-2.32852734375,-0.4715390625,-3.83975,-4.37931640625,-6.53530078125,0.938312499999999,-3.61322265625,-1.14262890625,-1.0266953125,0.45523046875,-3.41125,-4.0247109375,-4.479515625,-2.5701953125,-3.2235546875,-0.70844140625,1.227125,-2.432109375,-0.952640625,1.76759765625,-3.6136484375
-8.2953125,-4.93630859375,-2.34520703125,-4.87623046875,-6.55008984375,-0.630082031249999,-6.044578125,2.10804296875,-1.6039453125,-2.49752734375,-1.0065390625,-2.13975,-4.31931640625,-7.50830078125,0.771312499999999,-5.36522265625,0.32837109375,-0.6436953125,1.08923046875,-3.25125,-4.1427109375,-3.574515625,-1.4211953125,-2.2065546875,-0.23644140625,2.681125,-1.327109375,1.407359375,3.58259765625,-2.0046484375
-7.8943125,-4.54730859375,-2.16920703125,-4.80823046875,-6.27408984375,-0.260082031249999,-4.542578125,3.78704296875,-1.3249453125,-2.31952734375,-0.828539062499999,0.850250000000001,-4.06231640625,-7.93430078125,0.609312499999998,-5.64022265625,1.84437109375,-0.3886953125,1.55123046875,-2.26825,-2.3807109375,-2.455515625,-0.322195312499999,-0.8575546875,1.03155859375,4.509125,0.197890625,3.532359375,5.46559765625,-0.0626484374999998
-6.9193125,-3.71830859375,-1.97520703125,-4.68823046875,-6.14408984375,0.24191796875,-2.404578125,4.69604296875,-1.3129453125,-2.21152734375,-0.322539062499999,3.86125,-3.75431640625,-8.08930078125,0.0603124999999984,-4.62622265625,2.78737109375,-0.7376953125,1.34023046875,-1.14125,0.210289062499999,-1.595515625,0.190804687500001,0.0974453124999997,2.42555859375,6.097125,1.425890625,4.816359375,6.77059765625,1.5483515625
-5.9943125,-3.05630859375,-2.14720703125,-4.61123046875,-6.50608984375,0.339917968750001,-0.735578125,4.62504296875,-1.6039453125,-2.57152734375,-0.187539062499999,5.51325,-3.61131640625,-8.18030078125,-1.2336875,-3.33722265625,2.66637109375,-2.0276953125,0.15423046875,-0.740249999999998,2.2632890625,-1.329515625,-0.259195312499999,-0.00155468750000054,3.11555859375,6.768125,1.721890625,4.919359375,6.98459765625,2.2023515625
-5.6153125,-2.97230859375,-2.87820703125,-4.61223046875,-7.37508984375,-0.26508203125,-0.308578125,3.64804296875,-2.1319453125,-3.48752734375,-0.9395390625,5.02525,-3.84931640625,-8.14230078125,-3.2766875,-2.89722265625,1.34737109375,-4.1386953125,-1.86376953125,-1.60825,2.7862890625,-1.721515625,-1.6571953125,-1.4015546875,2.53155859375,6.083125,0.821890625,3.891359375,5.94059765625,1.5733515625
-5.9093125,-3.49030859375,-4.03420703125,-4.67423046875,-8.43108984375,-1.45208203125,-1.202578125,2.07004296875,-2.7399453125,-4.68152734375,-2.5635390625,2.58325,-4.57831640625,-7.76330078125,-5.6316875,-3.81422265625,-0.87262890625,-6.4836953125,-4.15076953125,-3.65425,1.5762890625,-2.583515625,-3.5871953125,-3.8085546875,0.65755859375,4.076125,-1.076109375,2.123359375,3.86759765625,-0.2356484375
-6.6293125,-4.28030859375,-5.24520703125,-4.76423046875,-9.22308984375,-2.77008203125,-2.857578125,0.30604296875,-3.2769453125,-5.68852734375,-4.5315390625,-0.804749999999999,-5.68431640625,-7.00730078125,-7.6156875,-5.67922265625,-3.35962890625,-8.3156953125,-5.99976953125,-6.18625,-0.7797109375,-3.592515625,-5.4521953125,-6.5235546875,-1.95044140625,1.293125,-3.410109375,0.178359375,1.31559765625,-2.7326484375
-7.3343125,-4.87630859375,-6.09920703125,-4.82523046875,-9.42608984375,-3.69308203125,-4.425578125,-1.21095703125,-3.6929453125,-6.11852734375,-6.1025390625,-3.83475,-6.82531640625,-6.23730078125,-8.6246875,-7.43922265625,-5.35862890625,-9.1186953125,-6.89876953125,-8.25225,-3.2437109375,-4.421515625,-6.7441953125,-8.7355546875,-4.38844140625,-1.375875,-5.482109375,-1.404640625,-1.02940234375,-5.2196484375
-7.6233125,-4.94030859375,-6.31820703125,-4.74323046875,-8.98708984375,-3.88608203125,-5.205578125,-2.11195703125,-4.0509453125,-5.84652734375,-6.7435390625,-5.53275,-7.59531640625,-6.06730078125,-8.4156875,-8.05522265625,-6.25262890625,-8.8116953125,-6.73276953125,-9.08425,-4.8007109375,-4.822515625,-7.2081953125,-9.8235546875,-5.78944140625,-3.050875,-6.702109375,-2.251640625,-2.55340234375,-7.0576484375
-7.3243125,-4.42430859375,-5.87220703125,-4.39723046875,-8.11608984375,-3.35708203125,-4.974578125,-2.19995703125,-4.4629453125,-5.02452734375,-6.4135390625,-5.67875,-7.78131640625,-6.90430078125,-7.1986875,-7.10022265625,-5.82362890625,-7.6756953125,-5.75276953125,-8.43325,-4.8557109375,-4.668515625,-6.8511953125,-9.5645546875,-5.68044140625,-3.218875,-6.777109375,-2.239640625,-2.90640234375,-7.8936484375
-6.5493125,-3.58630859375,-4.98820703125,-3.78523046875,-7.16208984375,-2.43608203125,-4.070578125,-1.60995703125,-5.0079453125,-3.95352734375,-5.5465390625,-4.81475,-7.51131640625,-8.52330078125,-5.5356875,-4.95622265625,-4.40062890625,-6.1386953125,-4.39176953125,-6.65125,-3.4037109375,-3.994515625,-5.8461953125,-8.1805546875,-4.15844140625,-1.944875,-5.787109375,-1.529640625,-2.12340234375,-7.7656484375
-5.6163125,-2.84230859375,-4.03020703125,-3.12023046875,-6.43808984375,-1.60108203125,-3.170578125,-0.84295703125,-5.6519453125,-2.93252734375,-4.7795390625,-3.85875,-7.15531640625,-10.09030078125,-4.0886875,-2.53222265625,-2.77862890625,-4.5686953125,-3.06576953125,-4.49025,-0.9497109375,-2.993515625,-4.4511953125,-6.2335546875,-1.81044140625,0.198125,-4.142109375,-0.517640625,-0.61340234375,-7.0276484375
-4.8833125,-2.57330859375,-3.31520703125,-2.73923046875,-6.09308984375,-1.23508203125,-2.914578125,-0.54995703125,-6.1869453125,-2.17952734375,-4.5965390625,-3.54975,-7.01531640625,-10.69530078125,-3.3646875,-0.764222656250001,-1.84362890625,-3.1926953125,-2.06476953125,-2.74125,1.7432890625,-1.970515625,-2.9481953125,-4.3985546875,0.55355859375,2.436125,-2.396109375,0.327359375,1.02459765625,-6.1456484375
-4.5713125,-2.94430859375,-2.98020703125,-2.89823046875,-6.07008984375,-1.45108203125,-3.568578125,-1.13995703125,-6.2119453125,-1.80652734375,-5.1115390625,-4.05775,-7.07131640625,-9.97930078125,-3.5416875,-0.218222656250001,-2.07562890625,-2.1056953125,-1.51976953125,-1.90025,3.9312890625,-1.230515625,-1.5841953125,-3.1895546875,2.24355859375,4.153125,-1.018109375,0.676359375,2.26659765625,-5.4506484375
-4.6693125,-3.80930859375,-2.98620703125,-3.57223046875,-6.16508984375,-2.06008203125,-4.924578125,-2.49295703125,-5.2609453125,-1.81552734375,-6.0635390625,-4.96175,-6.97031640625,-8.33930078125,-4.4426875,-0.946222656250001,-3.24962890625,-1.3286953125,-1.40576953125,-1.99225,5.0892890625,-0.963515624999999,-0.5151953125,-2.7525546875,2.94255859375,5.135125,-0.183109375,0.523359375,2.91159765625,-4.9756484375
-4.9303125,-4.74330859375,-3.21020703125,-4.41623046875,-6.15108984375,-2.68508203125,-6.434578125,-4.00395703125,-3.0949453125,-2.09252734375,-6.9855390625,-5.58875,-6.26931640625,-6.61130078125,-5.6396875,-2.52422265625,-4.53862890625,-0.8526953125,-1.55176953125,-2.61725,5.0182890625,-1.162515625,0.247804687500001,-2.8265546875,2.77755859375,5.556125,0.272890625,0.215359375,3.14759765625,-4.4586484375
-4.9943125,-5.23330859375,-3.52520703125,-4.90523046875,-5.89808984375,-2.96008203125,-7.493578125,-4.93695703125,0.0170546874999995,-2.43952734375,-7.4355390625,-5.47375,-4.74431640625,-5.51230078125,-6.6416875,-4.20322265625,-5.00562890625,-0.6656953125,-1.71076953125,-3.16925,3.8822890625,-1.607515625,0.807804687500001,-2.9185546875,2.19055859375,5.769125,0.712890625,0.280359375,3.40259765625,-3.5226484375
-4.5923125,-4.95030859375,-3.84120703125,-4.60223046875,-5.46508984375,-2.73908203125,-7.738578125,-4.87795703125,3.2580546875,-2.69452734375,-7.2225390625,-4.66675,-2.56531640625,-5.26930078125,-7.1186875,-5.19122265625,-4.19262890625,-0.7346953125,-1.68076953125,-3.14525,2.1592890625,-1.945515625,1.2908046875,-2.6155546875,1.67155859375,6.049125,1.436890625,1.138359375,4.06159765625,-1.9466484375
-3.7473125,-3.96730859375,-4.14320703125,-3.45523046875,-5.12908984375,-2.21608203125,-7.255578125,-3.98195703125,5.5690546875,-2.85952734375,-6.5265390625,-3.67975,-0.25631640625,-5.64130078125,-7.0696875,-5.04022265625,-2.41362890625,-0.9806953125,-1.42576953125,-2.42125,0.4802890625,-1.837515625,1.7448046875,-1.8375546875,1.49355859375,6.431125,2.451890625,2.841359375,5.21759765625,0.1493515625
-2.8383125,-2.77930859375,-4.52220703125,-1.90523046875,-5.29408984375,-1.86508203125,-6.543578125,-2.87195703125,6.1510546875,-3.14552734375,-5.8345390625,-3.15575,1.53868359375,-6.20930078125,-6.8416875,-3.95722265625,-0.56262890625,-1.2986953125,-1.12076953125,-1.33825,-0.6577109375,-1.138515625,2.0778046875,-0.9015546875,1.58255859375,6.731125,3.424890625,4.988359375,6.60759765625,2.3083515625
-2.4363125,-2.08430859375,-5.12420703125,-0.700230468750001,-6.29208984375,-2.20308203125,-6.246578125,-2.25595703125,4.8280546875,-3.84752734375,-5.7055390625,-3.50975,2.35768359375,-6.68330078125,-6.9486875,-2.76622265625,0.43737109375,-1.6276953125,-1.07276953125,-0.543249999999999,-1.1267109375,0.00348437500000021,2.0938046875,-0.344554687500001,1.59155859375,6.691125,3.841890625,6.873359375,7.75259765625,3.9413515625
-2.9983125,-2.43430859375,-6.03420703125,-0.49723046875,-8.16408984375,-3.48608203125,-6.791578125,-2.53295703125,2.0730546875,-5.13452734375,-6.4725390625,-4.75375,2.11468359375,-7.02330078125,-7.7806875,-2.45122265625,0.13037109375,-2.0116953125,-1.56276953125,-0.652249999999999,-1.1957109375,1.171484375,1.5948046875,-0.6235546875,1.12755859375,6.117125,3.284890625,7.766359375,8.19059765625,4.5733515625
-4.5973125,-3.93830859375,-7.17620703125,-1.51023046875,-10.56808984375,-5.53208203125,-8.164578125,-3.62795703125,-1.2609453125,-6.88452734375,-8.0475390625,-6.54575,1.09268359375,-7.36930078125,-9.3746875,-3.55122265625,-1.32962890625,-2.5646953125,-2.68176953125,-1.91325,-1.3187109375,1.828484375,0.509804687500001,-1.8565546875,0.00155859375,4.931125,1.656890625,7.193359375,7.65559765625,3.9913515625
-6.8533125,-6.18130859375,-8.31420703125,-3.41623046875,-12.87408984375,-7.77408203125,-9.935578125,-5.11495703125,-4.2939453125,-8.67752734375,-9.9395390625,-8.35475,-0.25331640625,-7.84930078125,-11.3536875,-5.79122265625,-3.41062890625,-3.3376953125,-4.24776953125,-4.05325,-1.8357109375,1.528484375,-1.0071953125,-3.7325546875,-1.64544140625,3.173125,-0.748109375,5.095359375,6.13659765625,2.2763515625
-9.0763125,-8.37730859375,-9.12320703125,-5.51223046875,-14.38208984375,-9.48108203125,-11.460578125,-6.45495703125,-6.3769453125,-9.92952734375,-11.4525390625,-9.63975,-1.51531640625,-8.39330078125,-13.0466875,-8.16622265625,-5.52362890625,-4.1826953125,-5.79276953125,-6.34625,-2.7707109375,0.108484375,-2.5611953125,-5.5955546875,-3.36244140625,1.012125,-3.313109375,1.840359375,3.88459765625,-0.2216484375
-10.4903125,-9.65930859375,-9.28420703125,-6.99023046875,-14.54408984375,-9.99008203125,-12.096578125,-7.17995703125,-7.1929453125,-10.08352734375,-11.9215390625,-9.96075,-2.44931640625,-8.63430078125,-13.7016875,-9.38622265625,-7.21462890625,-4.7196953125,-6.65376953125,-7.84625,-3.7797109375,-2.204515625,-3.5781953125,-6.6405546875,-4.53544140625,-1.196875,-5.271109375,-1.871640625,1.39659765625,-2.9146484375
-10.4423125,-9.34930859375,-8.54220703125,-7.19623046875,-13.11408984375,-8.88208203125,-11.357578125,-6.97495703125,-6.7539453125,-8.77052734375,-10.8865390625,-9.02575,-2.94731640625,-7.99930078125,-12.7146875,-8.41422265625,-8.18262890625,-4.4756953125,-6.16076953125,-7.71425,-4.2767109375,-4.825515625,-3.4871953125,-6.1755546875,-4.58744140625,-2.922875,-5.930109375,-5.190640625,-0.658402343750001,-5.0766484375
-8.5763125,-7.15030859375,-6.79520703125,-5.82623046875,-10.20508984375,-6.07708203125,-9.011578125,-5.72295703125,-5.3229453125,-5.93552734375,-8.1935390625,-6.71275,-2.92131640625,-6.00830078125,-9.8496875,-4.91422265625,-8.25662890625,-3.1646953125,-3.93676953125,-5.53225,-3.6747109375,-7.030515625,-1.9851953125,-3.8865546875,-3.18744140625,-3.580875,-4.916109375,-7.366640625,-1.64040234375,-6.0546484375
-4.9773125,-3.26630859375,-4.16920703125,-3.04123046875,-6.28308984375,-1.89908203125,-5.199578125,-3.54395703125,-3.2919453125,-1.90652734375,-4.0835390625,-3.13875,-2.21831640625,-2.66130078125,-5.3946875,0.516777343749999,-7.39862890625,-0.9576953125,-0.16676953125,-1.53525,-1.6847109375,-8.254515625,0.721804687500001,-0.0375546875000001,-0.43444140625,-2.780875,-2.369109375,-7.992640625,-1.21040234375,-5.5326484375
-0.2603125,1.57269140625,-1.03620703125,0.57876953125,-2.06308984375,2.92491796875,-0.523578125,-0.769957031250001,-1.0219453125,2.62047265625,0.756460937500002,1.22625,-0.66231640625,1.38069921875,-0.169687500000002,6.42977734375,-5.73362890625,1.4773046875,4.32923046875,3.38475,1.4772890625,-8.343515625,3.9068046875,4.5264453125,3.09055859375,-0.567875,1.035890625,-7.151640625,0.47359765625,-3.7176484375
4.5136875,6.26069140625,2.06379296875,4.21576953125,1.67491015625,7.40991796875,4.018421875,2.14204296875,1.2660546875,6.75847265625,5.3014609375,5.50925,1.75968359375,5.03469921875,4.6903125,10.99977734375,-3.55662890625,3.2923046875,8.36723046875,7.95675,5.0952890625,-7.579515625,6.6038046875,8.6534453125,6.47055859375,2.503125,4.310890625,-5.350640625,2.79659765625,-1.2786484375
8.1546875,9.67269140625,4.59479296875,7.08376953125,4.30591015625,10.60491796875,7.329421875,4.72204296875,3.5100546875,9.71247265625,8.5104609375,8.63025,4.71068359375,7.35069921875,8.1253125,12.81277734375,-1.28362890625,3.9543046875,10.91123046875,11.02775,8.2102890625,-6.483515625,8.0678046875,11.3484453125,8.79355859375,5.531125,6.543890625,-3.283640625,4.95559765625,0.9363515625
9.7966875,11.09969140625,6.20079296875,8.67276953125,5.53691015625,11.94291796875,8.665421875,6.58504296875,5.7370546875,11.06247265625,9.7634609375,9.74625,7.52868359375,7.97069921875,9.5543125,11.58977734375,0.66337109375,3.5553046875,11.52323046875,12.03275,9.9982890625,-5.519515625,8.1298046875,12.1764453125,9.52055859375,7.602125,7.255890625,-1.525640625,6.31559765625,2.2673515625
9.2626875,10.50269140625,6.81279296875,8.87776953125,5.44391015625,11.44791796875,7.987421875,7.49604296875,7.9520546875,10.86147265625,9.1294609375,8.73425,9.50768359375,7.18269921875,9.0563125,8.34777734375,1.99937109375,2.6993046875,10.49123046875,11.17675,10.0582890625,-4.885515625,7.2018046875,11.3874453125,8.68455859375,8.153125,6.552890625,-0.334640625,6.66659765625,2.4893515625
7.0836875,8.43769140625,6.59879296875,7.94276953125,4.36091015625,9.66591796875,5.958421875,7.41904296875,9.9950546875,9.52247265625,7.2714609375,6.33425,10.24068359375,5.61169921875,7.2593125,4.81677734375,2.69237109375,2.0683046875,8.58823046875,9.23775,8.5062890625,-4.500515625,5.9978046875,9.7214453125,6.82455859375,7.188125,5.005890625,0.363359375,6.25259765625,1.8423515625
4.1906875,5.73469140625,5.81379296875,6.29276953125,2.70291015625,7.38191796875,3.588421875,6.55004296875,11.4460546875,7.60847265625,5.0744609375,3.80025,9.76268359375,3.86769921875,5.0183125,2.49077734375,2.93637109375,2.0413046875,6.67123046875,7.15275,5.9132890625,-4.148515625,5.1638046875,8.0554453125,4.74055859375,5.277125,3.404890625,0.848359375,5.61359765625,0.8873515625
1.4956875,3.15869140625,4.67079296875,4.36376953125,0.84491015625,5.29591796875,1.766421875,5.27304296875,11.7090546875,5.65447265625,3.2524609375,2.26125,8.43468359375,2.39969921875,3.0913125,1.96277734375,3.00237109375,2.6013046875,5.37223046875,5.64875,3.1562890625,-3.645515625,5.0588046875,7.0864453125,3.21455859375,3.322125,2.473890625,1.440359375,5.33659765625,0.2643515625
-0.389312499999999,1.23169140625,3.36379296875,2.53576953125,-0.87308984375,3.86391796875,0.970421875,4.05504296875,10.3890546875,4.08247265625,2.1804609375,2.21325,6.72668359375,1.49769921875,1.9633125,2.90677734375,3.06437109375,3.5103046875,4.98823046875,5.08175,1.1612890625,-2.914515625,5.7298046875,7.1724453125,2.79555859375,2.170125,2.657890625,2.358359375,5.81559765625,0.4473515625
-1.2173125,0.207691406249999,2.15479296875,1.14776953125,-2.09708984375,3.29691796875,1.227421875,3.29704296875,7.6910546875,3.19147265625,1.9224609375,3.37425,5.05968359375,1.34869921875,1.8233125,4.54177734375,3.14037109375,4.5363046875,5.53023046875,5.47175,0.572289062499999,-1.970515625,7.0068046875,8.2984453125,3.65655859375,2.246125,4.004890625,3.651359375,7.11459765625,1.5673515625
-1.0693125,0.11469140625,1.38679296875,0.475769531249999,-2.49508984375,3.63191796875,2.249421875,3.19904296875,4.4740546875,3.14247265625,2.3734609375,4.91225,3.75268359375,2.03469921875,2.6293125,6.14377734375,3.15337109375,5.5583046875,6.82323046875,6.61075,1.4892890625,-0.864515625,8.6168046875,10.1544453125,5.57455859375,3.398125,6.186890625,5.201359375,8.96059765625,3.3783515625
-0.252312499999999,0.78969140625,1.34479296875,0.63676953125,-1.90408984375,4.74591796875,3.622421875,3.69604296875,1.8060546875,3.92747265625,3.3694609375,5.88925,3.03768359375,3.49369921875,4.1853125,7.32077734375,3.04237109375,6.5143046875,8.60023046875,8.17975,3.4492890625,0.340484375,10.2658046875,12.2684453125,8.03855859375,5.044125,8.651890625,6.800359375,10.86959765625,5.3823515625
0.835687500000001,1.93669140625,2.09979296875,1.51476953125,-0.46908984375,6.35791796875,4.974421875,4.50904296875,0.384054687499999,5.34547265625,4.7304609375,5.74125,3.05768359375,5.48269921875,6.1983125,8.02677734375,2.82337109375,7.3173046875,10.54823046875,9.84075,5.6832890625,1.568484375,11.6868046875,14.1644453125,10.44055859375,6.487125,10.833890625,8.245359375,12.34559765625,7.0443515625
1.8876875,3.21269140625,3.45679296875,2.78976953125,1.37791015625,8.07491796875,6.093421875,5.28304296875,0.2870546875,7.05047265625,6.2804609375,4.54225,3.83868359375,7.61069921875,8.3403125,8.45977734375,2.58437109375,7.8613046875,12.34623046875,11.30875,7.4612890625,2.735484375,12.6888046875,15.5084453125,12.26855859375,7.222125,12.328890625,9.403359375,13.07259765625,7.9753515625
2.8146875,4.34969140625,5.03379296875,4.06676953125,3.11791015625,9.51691796875,6.940421875,5.73504296875,1.1840546875,8.67247265625,7.8374609375,2.91725,5.24668359375,9.45169921875,10.3163125,8.88677734375,2.42937109375,8.1123046875,13.71823046875,12.39175,8.3512890625,3.768484375,13.1998046875,16.1814453125,13.22655859375,7.085125,12.985890625,10.227359375,13.00259765625,8.0323515625
3.7406875,5.23769140625,6.41779296875,5.03576953125,4.39591015625,10.45691796875,7.570421875,5.75204296875,2.7150546875,9.95947265625,9.2174609375,1.67925,6.99268359375,10.69869921875,11.9153125,9.45077734375,2.39237109375,8.1753046875,14.48023046875,13.00575,8.2732890625,4.618484375,13.2688046875,16.2714453125,13.25755859375,6.230125,12.893890625,10.726359375,12.33259765625,7.3103515625
4.8606875,5.92869140625,7.32179296875,5.57376953125,5.17591015625,10.88791796875,8.045421875,5.41304296875,4.7020546875,10.85247265625,10.2414609375,1.43925,8.71768359375,11.26669921875,13.0293125,10.03677734375,2.38537109375,8.2113046875,14.57423046875,13.15075,7.4282890625,5.235484375,13.0138046875,15.9744453125,12.49955859375,5.011125,12.296890625,10.918359375,11.37159765625,6.0743515625
6.2646875,6.55469140625,7.68979296875,5.76876953125,5.70091015625,10.99791796875,8.395421875,4.94004296875,7.0730546875,11.45247265625,10.7934609375,2.39825,10.11268359375,11.31569921875,13.6573125,10.32677734375,2.21837109375,8.2813046875,14.07223046875,12.89175,6.1762890625,5.538484375,12.5378046875,15.4654453125,11.21155859375,3.816125,11.475890625,10.818359375,10.39359765625,4.6613515625
7.8166875,7.21369140625,7.66879296875,5.80376953125,6.26891015625,11.03791796875,8.616421875,4.57604296875,9.6370546875,11.90447265625,10.8634609375,4.31825,11.00368359375,11.13269921875,13.8753125,10.02477734375,1.69637109375,8.2773046875,13.14323046875,12.33875,4.9222890625,5.438484375,11.8998046875,14.8214453125,9.70955859375,2.925125,10.646890625,10.439359375,9.52059765625,3.3613515625
9.1566875,7.88869140625,7.45079296875,5.78976953125,6.96691015625,11.15791796875,8.662421875,4.42204296875,11.9180546875,12.25747265625,10.5464609375,6.61725,11.34668359375,10.93969921875,13.7793125,9.08877734375,0.73537109375,8.0083046875,11.98923046875,11.62075,4.0362890625,4.904484375,11.1228046875,14.0154453125,8.30055859375,2.431125,9.906890625,9.812359375,8.70959765625,2.3373515625
9.8226875,8.43069140625,7.10879296875,5.66776953125,7.55391015625,11.30691796875,8.431421875,4.35404296875,13.2400546875,12.40147265625,9.9734609375,8.54525,11.18668359375,10.72369921875,13.4233125,7.75877734375,-0.56262890625,7.3653046875,10.76923046875,10.84475,3.7672890625,4.032484375,10.2328046875,12.9974453125,7.23355859375,2.248125,9.247890625,9.003359375,7.84159765625,1.6313515625
9.4746875,8.62769140625,6.56379296875,5.27476953125,7.59991015625,11.26891796875,7.809421875,4.12804296875,13.0370546875,12.12647265625,9.2224609375,9.46025,10.60568359375,10.25769921875,12.8033125,6.38077734375,-1.90262890625,6.4473046875,9.58823046875,10.08075,4.1852890625,3.064484375,9.3088046875,11.8014453125,6.65155859375,2.215125,8.634890625,8.129359375,6.86259765625,1.2193515625
8.0926875,8.31069140625,5.71079296875,4.51276953125,6.80191015625,10.82391796875,6.765421875,3.60804296875,11.2290546875,11.27847265625,8.3014609375,9.09925,9.70568359375,9.32569921875,11.9163125,5.21077734375,-2.87562890625,5.5673046875,8.54023046875,9.37875,5.1382890625,2.323484375,8.5068046875,10.6174453125,6.57055859375,2.210125,8.102890625,7.363359375,5.89559765625,1.1013515625
6.0476875,7.47069140625,4.57779296875,3.47276953125,5.25791015625,9.92191796875,5.439421875,2.94104296875,8.3790546875,9.93547265625,7.2204609375,7.72225,8.62068359375,7.99869921875,10.8403125,4.36977734375,-3.08962890625,5.1373046875,7.76823046875,8.81475,6.2752890625,2.092484375,8.0438046875,9.7534453125,6.88955859375,2.209125,7.784890625,6.895359375,5.21959765625,1.3213515625
4.0046875,6.33469140625,3.41779296875,2.46376953125,3.51791015625,8.76791796875,4.153421875,2.50604296875,5.5300546875,8.45647265625,6.0954609375,6.01125,7.54968359375,6.70569921875,9.7703125,3.92877734375,-2.31962890625,5.4343046875,7.43323046875,8.49775,7.1652890625,2.491484375,8.0938046875,9.4984453125,7.43755859375,2.259125,7.848890625,6.863359375,5.11759765625,1.9143515625
2.6966875,5.32569140625,2.65979296875,1.92976953125,2.37291015625,7.77291796875,3.332421875,2.69204296875,3.7850546875,7.36347265625,5.1854609375,4.75625,6.78968359375,6.01469921875,8.9583125,3.98177734375,-0.59962890625,6.3973046875,7.62223046875,8.54475,7.4922890625,3.410484375,8.6688046875,9.9604453125,8.03855859375,2.410125,8.385890625,7.281359375,5.69959765625,2.8193515625
2.6506875,4.90669140625,2.73079296875,2.29476953125,2.49091015625,7.37791796875,3.347421875,3.65304296875,3.8450546875,7.08047265625,4.8074609375,4.45225,6.66268359375,6.23369921875,8.6023125,4.61077734375,1.75137109375,7.5803046875,8.24923046875,9.01975,7.2322890625,4.552484375,9.5618046875,10.9824453125,8.56855859375,2.675125,9.312890625,8.004359375,6.80759765625,3.8303515625
3.9576875,5.35969140625,3.81079296875,3.74776953125,4.06791015625,7.83691796875,4.328421875,5.18604296875,5.6940546875,7.70147265625,5.1804609375,5.04025,7.32868359375,7.17069921875,8.7453125,5.80477734375,4.17237109375,8.3563046875,9.05523046875,9.87375,6.6742890625,5.554484375,10.4138046875,12.2024453125,8.98755859375,3.022125,10.384890625,8.769359375,8.06559765625,4.6313515625
6.1766875,6.61269140625,5.65679296875,6.04676953125,6.66591015625,9.05791796875,6.046421875,6.78804296875,8.5450546875,8.92147265625,6.2914609375,5.94625,8.58768359375,8.25269921875,9.2483125,7.40177734375,6.00837109375,8.2733046875,9.71923046875,10.92375,6.2042890625,6.123484375,10.8968046875,13.2084453125,9.30555859375,3.368125,11.268890625,9.287359375,9.03659765625,4.8903515625
8.4606875,8.21069140625,7.64579296875,8.51276953125,9.35191015625,10.59191796875,7.961421875,7.86904296875,11.1450546875,10.18047265625,7.8604609375,6.40225,9.85968359375,8.90769921875,9.8443125,9.12577734375,6.71637109375,7.3153046875,10.02023046875,11.89575,6.0282890625,6.136484375,10.8758046875,13.7024453125,9.51055859375,3.568125,11.665890625,9.353359375,9.38259765625,4.3843515625
9.9196875,9.49169140625,9.07279296875,10.29476953125,11.11291015625,11.83191796875,9.446421875,8.03104296875,12.3790546875,10.92747265625,9.4274609375,5.87525,10.45668359375,8.89869921875,10.2553125,10.67577734375,6.08137109375,5.8913046875,9.92023046875,12.52475,6.0592890625,5.657484375,10.4578046875,13.5844453125,9.52455859375,3.431125,11.395890625,8.904359375,8.97659765625,3.0823515625
10.0476875,9.90469140625,9.51079296875,10.77176953125,11.34591015625,12.29391796875,10.067421875,7.26204296875,11.8770546875,10.87647265625,10.5414609375,4.37825,9.96968359375,8.41069921875,10.2953125,11.80677734375,4.31837109375,4.5723046875,9.55223046875,12.65875,6.0362890625,4.879484375,9.9048046875,12.9604453125,9.23255859375,2.802125,10.440890625,8.018359375,7.91959765625,1.1573515625
8.9676875,9.29669140625,8.98579296875,9.83776953125,10.13491015625,11.84791796875,9.751421875,5.94804296875,10.1970546875,10.11147265625,10.9394609375,2.51325,8.50968359375,7.87569921875,9.9333125,12.34777734375,2.02337109375,3.7993046875,9.13523046875,12.32375,5.7482890625,4.031484375,9.4878046875,12.0694453125,8.55355859375,1.671125,8.946890625,6.859359375,6.47759765625,-1.0586484375
7.3066875,7.96969140625,7.89679296875,7.90976953125,8.15991015625,10.74091796875,8.764421875,4.68704296875,8.4400546875,9.00847265625,10.6354609375,1.20025,6.62468359375,7.68869921875,9.2793125,12.16877734375,-0.0456289062499997,3.7283046875,8.87023046875,11.68775,5.1632890625,3.299484375,9.3618046875,11.1834453125,7.51055859375,0.237125,7.182890625,5.619359375,4.98059765625,-3.1596484375
5.8156875,6.47469140625,6.76879296875,5.69776953125,6.30091015625,9.43491796875,7.541421875,4.01204296875,7.5460546875,7.99947265625,9.8574609375,1.20825,4.99668359375,7.96869921875,8.5123125,11.19977734375,-1.26162890625,4.2303046875,8.85723046875,10.96475,4.4172890625,2.805484375,9.5138046875,10.4994453125,6.24055859375,-1.133875,5.473890625,4.468359375,3.72659765625,-4.7606484375
4.9676875,5.28969140625,6.01579296875,3.86976953125,5.19791015625,8.35791796875,6.508421875,4.14904296875,7.7430546875,7.35147265625,8.9254609375,2.73725,4.11468359375,8.48669921875,7.7963125,9.54077734375,-1.36162890625,5.0023046875,9.04523046875,10.31475,3.7142890625,2.612484375,9.7728046875,10.0604453125,4.95255859375,-2.047875,4.113890625,3.545359375,2.91459765625,-5.5816484375
4.7806875,4.60369140625,5.79579296875,2.78576953125,5.00091015625,7.72391796875,5.943421875,4.93404296875,8.4690546875,7.06547265625,8.1324609375,5.29625,4.08568359375,8.79169921875,7.2233125,7.56177734375,-0.51462890625,5.6873046875,9.26623046875,9.80175,3.2322890625,2.734484375,9.8928046875,9.7604453125,3.86255859375,-2.236875,3.282890625,2.958359375,2.61659765625,-5.5166484375
4.9096875,4.30069140625,5.98879296875,2.39076953125,5.39791015625,7.49191796875,5.924421875,5.91704296875,8.7630546875,6.94547265625,7.6604609375,7.96325,4.64968359375,8.47369921875,6.7943125,5.80677734375,0.80237109375,5.9603046875,9.30923046875,9.40475,3.0552890625,3.118484375,9.6478046875,9.4124453125,3.11455859375,-1.680875,3.007890625,2.759359375,2.77059765625,-4.6706484375
4.9256875,4.10669140625,6.29779296875,2.33176953125,5.87191015625,7.45991796875,6.331421875,6.60404296875,7.8500546875,6.75447265625,7.5424609375,9.85225,5.34768359375,7.41469921875,6.4443125,4.72777734375,2.04637109375,5.5793046875,9.01623046875,9.05175,3.1632890625,3.641484375,8.9158046875,8.8444453125,2.72455859375,-0.631875,3.165890625,2.899359375,3.20159765625,-3.3516484375
4.5786875,3.78869140625,6.43379296875,2.19976953125,6.01491015625,7.42591796875,6.932421875,6.68804296875,5.5830546875,6.36847265625,7.6814609375,10.51625,5.74168359375,5.90269921875,6.0943125,4.45577734375,2.81137109375,4.4193046875,8.34923046875,8.67875,3.4742890625,4.125484375,7.7278046875,7.9804453125,2.58455859375,0.478125,3.536890625,3.196359375,3.65759765625,-2.0086484375
3.8996875,3.27469140625,6.26379296875,1.76176953125,5.70691015625,7.29591796875,7.483421875,6.13104296875,2.4880546875,5.82647265625,7.9154609375,10.06725,5.56468359375,4.54169921875,5.7013125,4.78677734375,2.89237109375,2.5673046875,7.40323046875,8.27375,3.9112890625,4.388484375,6.2898046875,6.8804453125,2.52655859375,1.217125,3.892890625,3.361359375,3.86859765625,-1.0996484375
3.1196875,2.66069140625,5.83579296875,1.02776953125,5.09591015625,7.07991796875,7.787421875,5.08804296875,-0.526945312500001,5.27947265625,8.0794609375,8.98125,4.77368359375,3.97269921875,5.2753125,5.34877734375,2.22837109375,0.3993046875,6.37623046875,7.89275,4.4612890625,4.302484375,4.9498046875,5.7224453125,2.42355859375,1.358125,4.098890625,3.109359375,3.64059765625,-0.9296484375
2.5186875,2.12469140625,5.30079296875,0.201769531249999,4.44191015625,6.82391796875,7.719421875,3.79404296875,-2.5539453125,4.87947265625,8.0544609375,7.74825,3.56368359375,4.53369921875,4.8723125,5.83877734375,0.85937109375,-1.4416953125,5.49523046875,7.63475,5.1582890625,3.874484375,4.1158046875,4.7454453125,2.28355859375,1.015125,4.165890625,2.328359375,2.96359765625,-1.5026484375
2.3436875,1.85569140625,4.84179296875,-0.40423046875,3.98991015625,6.57891796875,7.276421875,2.51304296875,-2.9439453125,4.71347265625,7.8244609375,6.62625,2.35368359375,6.02869921875,4.5873125,6.19877734375,-1.02462890625,-2.2726953125,4.94623046875,7.61175,6.0042890625,3.299484375,4.1198046875,4.1854453125,2.25655859375,0.584125,4.246890625,1.215359375,2.06959765625,-2.4896484375
2.8006875,2.02669140625,4.63679296875,-0.44023046875,3.92091015625,6.43591796875,6.650421875,1.52904296875,-1.4479453125,4.80847265625,7.5364609375,5.62925,1.70368359375,7.78069921875,4.5483125,6.65577734375,-2.99662890625,-1.6846953125,4.82523046875,7.91375,6.8732890625,2.918484375,5.0908046875,4.2104453125,2.55355859375,0.527125,4.550890625,0.246359375,1.37759765625,-3.3656484375
4.0276875,2.77469140625,4.82379296875,0.35776953125,4.33691015625,6.56091796875,6.227421875,1.11204296875,1.6810546875,5.17847265625,7.5004609375,4.72125,2.09968359375,8.97069921875,4.9053125,7.59477734375,-4.42862890625,0.2313046875,5.11623046875,8.57075,7.4992890625,3.073484375,6.8768046875,4.8714453125,3.30655859375,1.114125,5.215890625,-0.0256406250000001,1.30959765625,-3.6556484375
5.9726875,4.10669140625,5.42079296875,1.98576953125,5.19791015625,7.11091796875,6.433421875,1.40804296875,5.6460546875,5.79947265625,8.0334609375,3.96625,3.65268359375,9.06969921875,5.7383125,9.25477734375,-4.73662890625,2.9083046875,5.68723046875,9.47875,7.5772890625,3.905484375,9.0648046875,6.0374453125,4.43855859375,2.277125,6.191890625,0.717359375,2.04459765625,-3.1746484375
8.2166875,5.73569140625,6.23079296875,4.01276953125,6.22891015625,8.05091796875,7.418421875,2.31104296875,9.2500546875,6.51547265625,9.1664609375,3.49425,5.91168359375,8.06869921875,6.9203125,11.39077734375,-3.73862890625,5.5233046875,6.27423046875,10.32275,6.9372890625,5.209484375,11.0528046875,7.3444453125,5.61755859375,3.629125,7.183890625,2.314359375,3.35559765625,-2.1506484375
9.9586875,7.03469140625,6.83579296875,5.64176953125,6.91491015625,9.00391796875,8.798421875,3.39804296875,11.2970546875,6.95947265625,10.4404609375,3.32725,7.96968359375,6.35969921875,8.0353125,13.15077734375,-1.87062890625,7.2923046875,6.48723046875,10.56875,5.6272890625,6.472484375,12.1778046875,8.2234453125,6.32755859375,4.627125,7.707890625,4.125359375,4.64859765625,-1.1426484375
10.3176875,7.28069140625,6.77479296875,6.06176953125,6.72891015625,9.37091796875,9.736421875,4.06704296875,11.1170546875,6.67647265625,11.0504609375,3.30425,8.89368359375,4.41469921875,8.5033125,13.40977734375,-0.0396289062499995,7.7253046875,5.92423046875,9.66875,3.8872890625,7.099484375,11.9178046875,8.1094453125,6.08655859375,4.819125,7.294890625,5.320359375,5.24059765625,-0.7556484375
8.8926875,6.13269140625,5.87979296875,4.95976953125,5.50591015625,8.73191796875,9.448421875,3.87704296875,8.9430546875,5.44647265625,10.3784609375,3.23825,8.24168359375,2.59269921875,7.9473125,11.50277734375,0.86637109375,6.7873046875,4.42923046875,7.44375,2.0722890625,6.737484375,10.1548046875,6.7754453125,4.76555859375,4.117125,5.784890625,5.351359375,4.77159765625,-1.2616484375
6.1726875,3.98669140625,4.52579296875,2.81876953125,3.69791015625,7.24991796875,7.833421875,2.88104296875,5.8480546875,3.58147265625,8.5284609375,3.18325,6.33168359375,1.16669921875,6.5523125,7.88077734375,0.50337109375,4.8983046875,2.31623046875,4.39975,0.6212890625,5.486484375,7.3238046875,4.5944453125,2.78755859375,2.919125,3.517890625,4.268359375,3.45359765625,-2.3806484375
3.4036875,1.88369140625,3.51879296875,0.72476953125,2.20591015625,5.69591796875,5.680421875,1.67204296875,3.2160546875,1.87447265625,6.4064609375,3.51725,4.06968359375,0.393699218750001,5.0773125,4.07277734375,-0.75162890625,2.7293046875,0.315230468749999,1.64375,-0.0227109375000003,3.837484375,4.2898046875,2.4354453125,1.00455859375,1.942125,1.226890625,2.674359375,1.96459765625,-3.4076484375
1.9046875,0.93369140625,3.60779296875,-0.25023046875,1.85991015625,4.98591796875,4.209421875,1.05104296875,2.0030546875,1.17247265625,5.1934609375,4.69025,2.42668359375,0.442699218750001,4.4153125,1.84877734375,-2.06862890625,0.8583046875,-0.81376953125,0.322750000000001,0.4042890625,2.369484375,1.9308046875,1.1974453125,0.24955859375,1.801125,-0.349109375,1.310359375,1.00159765625,-3.6616484375
2.2866875,1.65669140625,4.95579296875,0.32576953125,2.89391015625,5.57391796875,4.261421875,1.54704296875,2.2740546875,1.85047265625,5.5874609375,6.78525,1.89368359375,1.24769921875,5.0063125,2.12177734375,-2.67862890625,-0.4636953125,-0.73376953125,0.959750000000001,1.7652890625,1.418484375,0.713804687500001,1.2884453125,0.84155859375,2.603125,-0.871109375,0.609359375,0.83959765625,-2.9306484375
4.1476875,3.68469140625,6.99679296875,2.03576953125,4.83391015625,7.14591796875,5.754421875,3.13204296875,3.3120546875,3.58347265625,7.3674609375,9.29925,2.28368359375,2.47069921875,6.5503125,4.42477734375,-2.26762890625,-1.3136953125,0.286230468749999,3.14675,3.5022890625,0.948484375,0.539804687500001,2.4104453125,2.40755859375,3.878125,-0.558109375,0.500359375,1.20159765625,-1.5996484375
6.4016875,6.02569140625,8.78879296875,3.92976953125,6.81191015625,8.83791796875,7.804421875,5.28404296875,4.1920546875,5.55547265625,9.5844609375,11.35725,2.97668359375,3.65169921875,8.2013125,7.31077734375,-1.05762890625,-1.9126953125,1.57923046875,5.81675,4.8862890625,0.688484375,0.923804687500001,3.7804453125,4.13055859375,4.882125,0.00389062499999984,0.571359375,1.49259765625,-0.4116484375
7.9886875,7.67869140625,9.57479296875,5.10276953125,8.07291015625,9.78091796875,9.332421875,7.26804296875,4.3920546875,6.93847265625,11.1724609375,12.25325,3.39568359375,4.42869921875,9.0803125,9.30777734375,0.37137109375,-2.4046953125,2.49623046875,7.86175,5.4192890625,0.376484375,1.3408046875,4.6074453125,5.25155859375,5.066125,0.236890625,0.403359375,1.21359765625,-0.0316484374999999
8.4516875,8.16969140625,9.16279296875,5.15776953125,8.32491015625,9.57191796875,9.683421875,8.42104296875,4.0420546875,7.29847265625,11.5304609375,11.83025,3.36468359375,4.67769921875,8.7413125,9.73077734375,1.36037109375,-2.7276953125,2.74723046875,8.68475,5.1042890625,-0.0455156249999997,1.5068046875,4.4954453125,5.46155859375,4.349125,-0.126109375,-0.153640625,0.23359765625,-0.7176484375
8.0556875,7.67569140625,7.93879296875,4.33976953125,7.79091015625,8.39391796875,8.859421875,8.34304296875,3.7230546875,6.70547265625,10.7104609375,10.41325,3.11968359375,4.51169921875,7.3203125,8.88277734375,1.40537109375,-2.6216953125,2.46523046875,8.34275,4.3912890625,-0.431515624999999,1.4418046875,3.5554453125,4.95355859375,3.051125,-0.965109375,-0.941640625,-1.20040234375,-2.2756484375
7.4556875,6.73169140625,6.54879296875,3.29976953125,6.98691015625,6.78891796875,7.331421875,6.97304296875,3.9890546875,5.54047265625,9.1894609375,8.39325,3.02868359375,4.18069921875,5.3403125,7.65477734375,0.29737109375,-1.7916953125,2.01823046875,7.31975,3.8512890625,-0.577515625,1.3468046875,2.2184453125,4.16255859375,1.593125,-1.946109375,-1.665640625,-2.69040234375,-4.2656484375
7.1956875,5.81069140625,5.50179296875,2.65676953125,6.38991015625,5.28391796875,5.675421875,4.59504296875,4.9260546875,4.20047265625,7.4984609375,5.93625,3.27868359375,3.93269921875,3.3793125,6.88777734375,-1.81262890625,-0.1436953125,1.72523046875,6.13675,3.7862890625,-0.405515625,1.3958046875,0.9284453125,3.43255859375,0.237125,-2.768109375,-2.118640625,-3.93440234375,-6.2686484375
7.3806875,5.07869140625,4.90979296875,2.61976953125,6.19791015625,4.13491796875,4.293421875,1.77104296875,6.0430546875,2.91447265625,5.9714609375,3.11725,3.74868359375,3.89569921875,1.7973125,6.90677734375,-4.42762890625,2.0333046875,1.67323046875,5.09175,4.0492890625,-0.0425156249999996,1.5838046875,-0.0875546875,2.82355859375,-0.974875,-3.328109375,-2.296640625,-4.85440234375,-8.0406484375
7.6806875,4.42869140625,4.51479296875,2.89776953125,6.29191015625,3.30191796875,3.341421875,-0.788957031250001,6.5900546875,1.73647265625,4.7154609375,0.29325,4.14768359375,3.99069921875,0.647312499999998,7.41377734375,-6.78462890625,4.0673046875,1.70423046875,4.21975,4.1502890625,0.251484375,1.7128046875,-0.852554687500001,2.15255859375,-2.089875,-3.708109375,-2.368640625,-5.53740234375,-9.5056484375
7.6076875,3.66969140625,3.93779296875,2.93276953125,6.37791015625,2.59491796875,2.781421875,-2.40995703125,6.1150546875,0.64447265625,3.6854609375,-1.77475,4.26868359375,3.92669921875,-0.239687500000002,7.70077734375,-8.06562890625,5.1533046875,1.54823046875,3.40775,3.5842890625,0.243484375,1.5118046875,-1.5235546875,1.18655859375,-3.095875,-4.055109375,-2.550640625,-6.11640234375,-10.6576484375
6.8426875,2.70869140625,2.94179296875,2.29476953125,6.19191015625,1.83891796875,2.424421875,-2.69695703125,4.8090546875,-0.37652734375,2.7634609375,-2.33175,4.12168359375,3.32369921875,-1.1046875,7.04477734375,-7.73562890625,4.7353046875,1.00323046875,2.51775,2.1502890625,-0.142515625,0.800804687500001,-2.2585546875,-0.17544140625,-3.897875,-4.470109375,-2.995640625,-6.68340234375,-11.5176484375
5.4036875,1.58869140625,1.52779296875,0.94576953125,5.62791015625,0.935917968750001,1.965421875,-1.73495703125,3.3390546875,-1.31752734375,1.7804609375,-1.26775,3.87168359375,1.95269921875,-2.1426875,5.08077734375,-5.87862890625,2.8163046875,0.0442304687499995,1.45375,0.0652890624999998,-0.815515625,-0.380195312499999,-3.1255546875,-1.83244140625,-4.423875,-4.991109375,-3.752640625,-7.28140234375,-12.1416484375
3.6256875,0.454691406249999,-0.106207031249999,-0.73923046875,4.76491015625,-0.135082031249999,1.069421875,-0.115957031250001,2.3470546875,-2.15552734375,0.5634609375,0.626250000000001,3.66568359375,-0.0383007812499994,-3.4186875,1.99177734375,-3.25362890625,-0.0016953125000001,-1.15776953125,0.166750000000002,-2.1837109375,-1.588515625,-1.7711953125,-4.1065546875,-3.54844140625,-4.739875,-5.614109375,-4.765640625,-7.92440234375,-12.6456484375
2.0326875,-0.51030859375,-1.62720703125,-2.11323046875,3.84391015625,-1.30508203125,-0.417578125,1.35904296875,2.1080546875,-2.84252734375,-0.969539062499999,2.11525,3.56568359375,-2.08830078125,-4.8286875,-1.56922265625,-0.89762890625,-2.7626953125,-2.30176953125,-1.31125,-4.0977109375,-2.239515625,-2.9721953125,-5.0865546875,-5.03444140625,-5.034875,-6.285109375,-5.847640625,-8.54840234375,-13.1286484375
1.1806875,-1.09630859375,-2.60620703125,-2.51023046875,3.20791015625,-2.37108203125,-2.266578125,2.15604296875,2.5730546875,-3.26452734375,-2.6625390625,2.37925,3.60268359375,-3.41830078125,-6.0706875,-4.74022265625,0.48637109375,-4.5446953125,-3.03376953125,-2.78925,-5.3127109375,-2.525515625,-3.5541953125,-5.8415546875,-5.99344140625,-5.450875,-6.833109375,-6.651640625,-8.91740234375,-13.5346484375
1.4816875,-1.08230859375,-2.63220703125,-1.52123046875,3.18591015625,-2.99908203125,-3.852578125,2.30504296875,3.5930546875,-3.23852734375,-4.0815390625,1.57625,3.85268359375,-3.39030078125,-6.7106875,-6.74822265625,0.89537109375,-4.7716953125,-3.04876953125,-3.87325,-5.6067109375,-2.211515625,-3.1861953125,-6.0495546875,-6.12944140625,-5.926875,-6.943109375,-6.716640625,-8.62440234375,-13.5736484375
3.0196875,-0.32930859375,-1.52220703125,0.76176953125,3.92091015625,-2.87608203125,-4.444578125,2.26804296875,5.0110546875,-2.60952734375,-4.6595390625,0.655250000000001,4.38768359375,-1.82530078125,-6.3716875,-7.12622265625,0.87637109375,-3.3766953125,-2.20576953125,-4.08925,-4.8997109375,-1.168515625,-1.7661953125,-5.4125546875,-5.23444140625,-6.228875,-6.291109375,-5.672640625,-7.29340234375,-12.8606484375
5.4616875,1.10269140625,0.51079296875,3.70876953125,5.27591015625,-1.89208203125,-3.617578125,2.50504296875,6.6280546875,-1.37652734375,-4.0005390625,0.607250000000001,5.15568359375,0.87969921875,-4.9526875,-5.82922265625,1.03637109375,-0.7756953125,-0.626769531250001,-3.12925,-3.3287109375,0.490484375,0.4768046875,-3.8475546875,-3.34844140625,-6.153875,-4.780109375,-3.513640625,-4.87340234375,-11.2046484375
8.1566875,2.90569140625,2.91579296875,6.40576953125,6.91191015625,-0.224082031249999,-1.521578125,3.11404296875,8.2150546875,0.275472656250001,-2.1125390625,1.74125,5.93668359375,3.91369921875,-2.7236875,-3.21722265625,1.62537109375,2.3083046875,1.31323046875,-1.06425,-1.2897109375,2.367484375,3.0108046875,-1.6055546875,-0.84444140625,-5.701875,-2.676109375,-0.708640625,-1.81340234375,-8.8216484375
10.4006875,4.65169140625,5.06579296875,8.06876953125,8.47491015625,1.75891796875,1.189421875,3.79904296875,9.6000546875,2.06947265625,0.590460937500001,3.49725,6.41668359375,6.41269921875,-0.191687500000002,0.109777343749999,2.45637109375,5.0913046875,3.14523046875,1.65075,0.6792890625,3.881484375,5.1928046875,0.7974453125,1.66955859375,-5.086875,-0.527109375,1.950359375,1.06959765625,-6.3066484375
11.6886875,5.96869140625,6.51479296875,8.34676953125,9.72691015625,3.66891796875,3.670421875,4.10704296875,10.6600546875,3.75647265625,3.4944609375,4.84225,6.33368359375,7.79269921875,2.1303125,3.51077734375,3.09537109375,6.9413046875,4.49323046875,4.37275,2.1342890625,4.493484375,6.5058046875,2.7934453125,3.60455859375,-4.582875,1.096890625,3.691359375,2.93559765625,-4.3646484375
11.8276875,6.64569140625,7.09279296875,7.35576953125,10.52391015625,5.19891796875,5.229421875,3.73104296875,11.1960546875,5.15347265625,6.0154609375,4.93525,5.60068359375,7.90669921875,3.8963125,6.40177734375,3.14137109375,7.4803046875,5.17923046875,6.51075,2.9192890625,3.925484375,6.7278046875,3.9804453125,4.62355859375,-4.352875,1.850890625,4.087359375,3.30559765625,-3.4756484375
10.9076875,6.61969140625,6.84979296875,5.50476953125,10.75391015625,6.15291796875,5.549421875,2.68504296875,10.8640546875,6.10247265625,7.7284609375,3.62325,4.32868359375,7.00669921875,4.9553125,8.25877734375,2.44137109375,6.6223046875,5.21323046875,7.68075,3.1682890625,2.290484375,5.9548046875,4.2404453125,4.71155859375,-4.373875,1.725890625,3.208359375,2.26359765625,-3.6716484375
9.2336875,5.93869140625,5.95479296875,3.30176953125,10.34291015625,6.44091796875,4.742421875,1.27704296875,9.3310546875,6.46847265625,8.4094609375,1.50625,2.77768359375,5.59469921875,5.3143125,8.65877734375,1.16237109375,4.6003046875,4.73023046875,7.76475,3.1212890625,0.061484375,4.5268046875,3.7454453125,4.08955859375,-4.483875,1.002890625,1.558359375,0.39059765625,-4.5576484375
7.2436875,4.76069140625,4.61979296875,1.20276953125,9.33991015625,6.09091796875,3.255421875,-0.0929570312500001,6.5780546875,6.20047265625,8.0514609375,-0.437749999999999,1.27168359375,4.21769921875,5.0773125,7.43377734375,-0.30062890625,1.9603046875,3.92323046875,6.88275,2.8732890625,-2.095515625,2.8968046875,2.8364453125,3.03955859375,-4.536875,0.0828906249999998,-0.176640625,-1.52440234375,-5.5436484375
5.3936875,3.34069140625,3.06779296875,-0.458230468750001,7.97491015625,5.24291796875,1.676421875,-1.16495703125,3.1080546875,5.39747265625,6.8594609375,-1.44075,0.12168359375,3.24169921875,4.4033125,4.84777734375,-1.52162890625,-0.5936953125,2.98523046875,5.31475,2.2552890625,-3.579515625,1.4618046875,1.8424453125,1.74855859375,-4.541875,-0.712109375,-1.428640625,-2.85940234375,-6.1656484375
4.0086875,1.97169140625,1.53579296875,-1.50423046875,6.60491015625,4.11391796875,0.497421874999999,-1.91295703125,-0.1209453125,4.29347265625,5.1764609375,-1.35275,-0.43631640625,2.68969921875,3.4613125,1.59877734375,-2.23662890625,-2.4896953125,2.05023046875,3.39875,0.955289062499999,-4.087515625,0.410804687500001,0.9184453125,0.26155859375,-4.694875,-1.279109375,-1.987640625,-3.41740234375,-6.2946484375
3.1716875,0.87669140625,0.261792968750001,-1.92723046875,5.57191015625,2.93791796875,-0.0615781250000005,-2.44095703125,-2.0929453125,3.17547265625,3.3734609375,-0.628749999999999,-0.30031640625,2.27469921875,2.4013125,-1.45322265625,-2.41562890625,-3.5436953125,1.16823046875,1.44475,-1.1487109375,-3.704515625,-0.316195312499999,0.0184453124999999,-1.42944140625,-5.245875,-1.717109375,-2.012640625,-3.42340234375,-6.1266484375
2.7266875,0.148691406249999,-0.550207031249999,-1.86623046875,5.05991015625,1.90791796875,-0.0865781250000008,-2.80395703125,-2.2409453125,2.29647265625,1.7624609375,0.0672499999999996,0.43268359375,1.64169921875,1.3673125,-3.64922265625,-2.20962890625,-3.9736953125,0.34823046875,-0.28525,-3.7297109375,-2.819515625,-0.907195312499999,-0.9635546875,-3.23444140625,-6.287875,-2.170109375,-1.863640625,-3.29540234375,-5.9606484375
2.3976875,-0.24130859375,-0.80220703125,-1.55823046875,5.02991015625,1.16091796875,0.135421874999999,-2.92295703125,-0.7789453125,1.81847265625,0.581460937500001,0.296250000000001,1.43268359375,0.663699218750001,0.542312499999998,-4.74322265625,-1.84562890625,-4.1516953125,-0.35376953125,-1.57625,-6.0807109375,-1.918515625,-1.4841953125,-2.0025546875,-4.89044140625,-7.632875,-2.667109375,-1.846640625,-3.35340234375,-5.9656484375
1.9576875,-0.39330859375,-0.550207031249999,-1.25423046875,5.24691015625,0.76791796875,0.297421875,-2.67395703125,1.3960546875,1.78747265625,-0.00753906249999936,0.0252499999999998,2.21768359375,-0.46330078125,0.130312499999999,-4.85722265625,-1.51562890625,-4.3246953125,-0.80776953125,-2.26325,-7.4907109375,-1.365515625,-1.9851953125,-2.8775546875,-6.04844140625,-8.884875,-3.086109375,-2.065640625,-3.66940234375,-6.0756484375
1.3316875,-0.433308593750001,0.0087929687500008,-1.14223046875,5.37891015625,0.732917968750002,0.214421874999999,-2.03595703125,3.1710546875,2.10847265625,0.0674609375000017,-0.493749999999999,2.34268359375,-1.37030078125,0.264312499999999,-4.29122265625,-1.32162890625,-4.4956953125,-0.86376953125,-2.28525,-7.6377109375,-1.261515625,-2.2211953125,-3.2845546875,-6.44244140625,-9.628875,-3.247109375,-2.419640625,-4.09140234375,-6.0676484375
0.6406875,-0.43530859375,0.645792968749999,-1.27723046875,5.16691015625,1.03891796875,-0.0775781250000005,-1.15795703125,3.7940546875,2.61147265625,0.777460937500001,-0.93175,1.61568359375,-1.73030078125,0.946312499999998,-3.30422265625,-1.24962890625,-4.4646953125,-0.40476953125,-1.68325,-6.6527109375,-1.429515625,-1.9941953125,-2.9825546875,-5.97544140625,-9.566875,-3.000109375,-2.671640625,-4.35040234375,-5.6796484375
0.222687500000001,-0.30730859375,1.26879296875,-1.52423046875,4.63591015625,1.74991796875,-0.267578125,-0.24695703125,3.2430546875,3.21747265625,2.0744609375,-0.97275,0.22568359375,-1.32430078125,2.1053125,-1.93022265625,-1.13562890625,-3.9316953125,0.66523046875,-0.509249999999998,-4.8637109375,-1.494515625,-1.1691953125,-1.8555546875,-4.65244140625,-8.531875,-2.227109375,-2.498640625,-4.13340234375,-4.6666484375
0.603687500000001,0.28369140625,2.03979296875,-1.55323046875,4.21491015625,3.08191796875,0.177421874999999,0.64604296875,2.2280546875,4.09647265625,3.9834609375,-0.32475,-1.30031640625,0.0386992187500006,3.7163125,0.060777343749999,-0.67162890625,-2.5896953125,2.46923046875,1.26575,-2.4947109375,-1.017515625,0.3398046875,0.1144453125,-2.47844140625,-6.434875,-0.788109375,-1.553640625,-3.12940234375,-2.8016484375
2.2896875,1.75669140625,3.27479296875,-0.95223046875,4.57891015625,5.28591796875,1.750421875,1.67604296875,1.7930546875,5.59847265625,6.5414609375,1.18425,-2.31831640625,2.50769921875,5.8043125,2.97777734375,0.47437109375,-0.2886953125,5.07523046875,3.71175,0.375289062499999,0.296484375,2.5348046875,2.8234453125,0.49655859375,-3.324875,1.413890625,0.385359375,-1.15140234375,0.0333515625
5.3886875,4.26069140625,5.13479296875,0.49576953125,6.19591015625,8.33591796875,4.493421875,2.99604296875,2.6890546875,7.92747265625,9.5674609375,3.39325,-2.38431640625,5.97269921875,8.2613125,6.81777734375,2.40237109375,2.7453046875,8.29123046875,6.70275,3.5482890625,2.392484375,5.2038046875,5.9134453125,3.96655859375,0.424125,4.253890625,3.202359375,1.65959765625,3.6573515625
9.2936875,7.35269140625,7.31879296875,2.56076953125,8.87391015625,11.64791796875,7.724421875,4.44604296875,4.8520546875,10.78947265625,12.4524609375,5.68125,-1.50331640625,9.85469921875,10.6443125,10.92677734375,4.74837109375,5.7853046875,11.49623046875,9.69675,6.4432890625,4.763484375,7.8048046875,8.6874453125,7.22455859375,4.017125,7.226890625,6.314359375,4.71259765625,7.4673515625
12.7506875,10.02669140625,9.07479296875,4.56576953125,11.69591015625,14.14891796875,10.205421875,5.49104296875,7.3660546875,13.34747265625,14.2464609375,7.15825,-0.13431640625,13.13769921875,12.2253125,14.02977734375,6.74037109375,7.8283046875,13.76023046875,11.80175,8.1722890625,6.618484375,9.5708046875,10.2694453125,9.32555859375,6.458125,9.548890625,8.850359375,7.13459765625,10.5943515625
14.4266875,11.18169140625,9.61479296875,5.72276953125,13.47691015625,14.77991796875,10.769421875,5.51804296875,8.9890546875,14.60647265625,14.1024609375,7.17125,1.06268359375,14.77969921875,12.3433125,14.76377734375,7.59237109375,8.1043046875,14.27923046875,12.18775,8.0132890625,7.286484375,9.8628046875,10.0204453125,9.55855859375,7.068125,10.530890625,10.077359375,8.20459765625,12.3343515625
13.6426875,10.27069140625,8.63579296875,5.59476953125,13.44691015625,13.12691796875,9.032421875,4.28304296875,8.9130546875,13.99347265625,11.8184609375,5.76825,1.60568359375,14.24469921875,10.8523125,12.47177734375,6.98537109375,6.5683046875,12.85423046875,10.61475,5.9662890625,6.613484375,8.5618046875,7.9644453125,7.92455859375,5.952125,9.980890625,9.833359375,7.78359765625,12.5723515625
10.7956875,7.67769140625,6.56979296875,4.34876953125,11.70391015625,9.74391796875,5.700421875,2.12304296875,7.2520546875,11.73547265625,8.0954609375,3.74725,1.43668359375,11.85369921875,8.3053125,7.75577734375,5.29037109375,3.9753046875,10.08823046875,7.69775,2.9482890625,5.072484375,6.2018046875,4.8964453125,5.26155859375,4.041125,8.370890625,8.642359375,6.43659765625,11.8883515625
7.1616875,4.56269140625,4.37379296875,2.65376953125,9.14091015625,5.91291796875,2.236421875,-0.20495703125,4.9470546875,8.77347265625,4.2704609375,2.21225,0.91668359375,8.67669921875,5.7183125,2.36377734375,3.35937109375,1.5093046875,7.13423046875,4.68575,0.4292890625,3.513484375,3.7538046875,2.0664453125,2.89755859375,2.659125,6.627890625,7.447359375,5.15959765625,11.2593515625
4.2146875,2.24969140625,3.01479296875,1.33076953125,6.91591015625,2.98991796875,0.0834218749999991,-1.91595703125,3.1700546875,6.25047265625,1.6574609375,1.94625,0.57468359375,5.99169921875,4.0613125,-1.62622265625,2.04837109375,0.2023046875,5.12823046875,2.85175,-0.2767109375,2.740484375,2.1728046875,0.607445312499999,2.00455859375,2.847125,5.689890625,7.128359375,4.88559765625,11.5523515625
2.8766875,1.51769140625,2.91879296875,0.920769531249999,5.79491015625,1.71791796875,-0.102578125000001,-2.56595703125,2.5840546875,4.87147265625,0.865460937500002,2.99725,0.79468359375,4.59669921875,3.7473125,-2.88422265625,1.75337109375,0.4763046875,4.63023046875,2.83475,1.3102890625,3.149484375,1.9538046875,0.9924453125,3.02255859375,4.826125,6.037890625,8.055359375,6.01159765625,13.0703515625
3.1156875,2.23069140625,3.71279296875,1.40176953125,5.76091015625,1.88491796875,1.225421875,-2.24995703125,2.9460546875,4.54947265625,1.5094609375,4.66025,1.58168359375,4.42169921875,4.4313125,-1.49922265625,2.22437109375,2.0173046875,5.36223046875,4.31275,4.5452890625,4.594484375,2.9188046875,2.8264453125,5.41855859375,7.850125,7.456890625,9.906359375,8.18759765625,15.3753515625
4.1096875,3.48269140625,4.41479296875,2.21876953125,6.12391015625,2.51891796875,2.813421875,-1.53495703125,3.3340546875,4.54347265625,2.4764609375,5.83025,2.54368359375,4.71669921875,5.2293125,1.16377734375,2.74937109375,4.0193046875,6.40823046875,6.18275,7.8942890625,6.507484375,4.3398046875,5.0504453125,7.94655859375,10.533125,9.149890625,11.833359375,10.45959765625,17.4823515625
4.8276875,4.17569140625,4.05179296875,2.64176953125,6.05991015625,2.51091796875,3.362421875,-1.18095703125,2.8910546875,4.01747265625,2.6074609375,5.55625,3.11368359375,4.65369921875,5.2303125,3.32977734375,2.57737109375,5.6423046875,6.75723046875,7.17575,9.6422890625,8.177484375,5.3468046875,6.4894453125,9.25855859375,11.521125,10.170890625,12.891359375,11.73559765625,18.3523515625
4.6666875,3.67269140625,2.31179296875,2.25076953125,5.20591015625,1.29791796875,2.289421875,-1.74895703125,1.5560546875,2.63147265625,1.3634609375,3.56825,2.89868359375,3.89869921875,4.0243125,3.84277734375,1.35237109375,6.4033046875,5.87223046875,6.54875,8.7522890625,9.072484375,5.3828046875,6.4364453125,8.59655859375,10.173125,9.945890625,12.538359375,11.35759765625,17.4543515625
3.7506875,2.14669140625,-0.19820703125,1.21276953125,3.89591015625,-0.81308203125,0.0424218749999987,-3.31695703125,0.168054687499999,0.78347265625,-0.871539062499998,0.475250000000001,1.95668359375,2.75869921875,1.9303125,2.74577734375,-0.73462890625,6.2943046875,3.95723046875,4.48075,5.4372890625,9.032484375,4.4498046875,4.9804453125,6.18355859375,6.891125,8.586890625,10.900359375,9.45459765625,15.0553515625
2.7616875,0.429691406249999,-2.29920703125,0.16076953125,2.89991015625,-2.84208203125,-2.215578125,-5.45895703125,-0.162945312500001,-0.625527343750001,-3.0335390625,-2.51175,0.79668359375,1.90469921875,-0.180687500000001,1.08977734375,-3.09362890625,5.6273046875,1.80223046875,1.93175,1.0502890625,8.268484375,3.0438046875,2.9074453125,3.08155859375,2.872125,6.805890625,8.689359375,6.86159765625,12.0883515625
2.4456875,-0.52330859375,-2.94020703125,-0.20523046875,2.89391015625,-3.72708203125,-3.303578125,-7.44895703125,1.0940546875,-0.744527343750001,-4.0015390625,-4.24175,0.0956835937499998,1.91269921875,-1.3556875,0.142777343749999,-5.02762890625,4.8003046875,0.32423046875,0.0737500000000004,-2.6887109375,7.203484375,1.8428046875,1.2384453125,0.58555859375,-0.563875,5.483890625,6.805359375,4.65559765625,9.6463515625
3.1166875,-0.21730859375,-1.82020703125,0.45576953125,4.01191015625,-2.92708203125,-2.687578125,-8.57095703125,3.4470546875,0.704472656249999,-3.2375390625,-4.26675,0.30068359375,2.89769921875,-1.0536875,0.525777343749999,-5.99362890625,4.1243046875,0.0782304687499993,-0.381249999999998,-4.6597109375,6.242484375,1.3388046875,0.6644453125,-0.49644140625,-2.659875,5.168890625,5.872359375,3.57859765625,8.4163515625
4.4606875,1.10569140625,0.45879296875,1.93576953125,5.77091015625,-0.71508203125,-0.734578125000001,-8.40595703125,5.6610546875,3.23447265625,-1.0655390625,-3.05075,1.34868359375,4.44269921875,0.591312499999999,1.83077734375,-5.75762890625,3.7553046875,1.00223046875,0.46475,-4.8377109375,5.580484375,1.6068046875,1.1994453125,-0.22144140625,-3.492875,5.786890625,5.932359375,3.68259765625,8.3783515625
5.7476875,2.67669140625,2.77679296875,3.58676953125,7.36191015625,1.99591796875,1.565421875,-7.00395703125,6.5080546875,5.86547265625,1.5434609375,-1.58175,2.66868359375,5.86669921875,2.8753125,2.96177734375,-4.45762890625,3.6853046875,2.51923046875,1.85375,-4.0647109375,5.139484375,2.3048046875,2.2394453125,0.65355859375,-3.694875,6.730890625,6.475359375,4.36659765625,8.9243515625
6.2956875,3.70269140625,4.15179296875,4.68176953125,8.12991015625,4.16391796875,3.221421875,-4.84795703125,5.4870546875,7.65347265625,3.5524609375,-0.671749999999999,3.49068359375,6.65869921875,4.9213125,2.93377734375,-2.53362890625,3.7753046875,3.91523046875,2.90175,-3.3357109375,4.674484375,2.9178046875,2.9714453125,1.23655859375,-3.880875,7.249890625,6.759359375,4.78359765625,9.3053515625
5.8936875,3.82169140625,4.26779296875,4.82176953125,7.92391015625,5.16191796875,3.810421875,-2.57995703125,3.0480546875,8.16447265625,4.4124609375,-0.477749999999999,3.26468359375,6.76369921875,6.1313125,1.56877734375,-0.52662890625,3.8563046875,4.74223046875,3.13675,-3.1397109375,3.991484375,3.0708046875,2.8824453125,1.06655859375,-4.212875,6.897890625,6.270359375,4.36359765625,9.1163515625
4.8976875,3.24269140625,3.56879296875,4.15076953125,7.12191015625,5.03591796875,3.644421875,-0.66295703125,0.2500546875,7.60747265625,4.2704609375,-0.55575,1.94968359375,6.52769921875,6.4333125,-0.377222656250001,1.17937109375,3.8363046875,4.99323046875,2.73875,-3.2407109375,3.106484375,2.7458046875,2.0554453125,0.35555859375,-4.330875,5.788890625,5.030359375,3.13759765625,8.5363515625
3.9766875,2.53369140625,2.88779296875,3.22776953125,6.35991015625,4.36491796875,3.480421875,0.77904296875,-1.8589453125,6.60547265625,3.7694609375,-0.269749999999999,0.0186835937499998,6.38169921875,6.2203125,-1.67222265625,2.47237109375,3.7233046875,4.99723046875,2.35475,-2.9177109375,2.254484375,2.2388046875,1.1114453125,-0.18644140625,-3.648875,4.519890625,3.568359375,1.68759765625,8.1733515625
3.6786875,2.22069140625,2.89279296875,2.60676953125,6.10891015625,3.83091796875,3.980421875,1.83504296875,-2.7679453125,5.77847265625,3.5914609375,0.770250000000001,-1.82631640625,6.50469921875,6.0303125,-1.35422265625,3.42337109375,3.5643046875,5.10623046875,2.65175,-1.4607109375,1.721484375,1.9138046875,0.8034453125,0.17455859375,-1.781875,3.794890625,2.569359375,0.74659765625,8.6383515625
4.0616875,2.44069140625,3.66979296875,2.43676953125,6.37091015625,3.77591796875,5.273421875,2.54404296875,-2.6649453125,5.37147265625,4.0184609375,2.47125,-3.03531640625,6.68769921875,6.1713125,0.681777343749999,4.06537109375,3.3703046875,5.42123046875,3.86275,1.3352890625,1.663484375,1.9268046875,1.5304453125,1.71055859375,1.111125,3.986890625,2.422359375,0.71259765625,10.0903515625
4.6816875,2.87469140625,4.70679296875,2.38376953125,6.70891015625,4.02891796875,6.890421875,2.77004296875,-2.1979453125,5.19447265625,4.7844609375,4.28525,-3.44931640625,6.52269921875,6.5543125,3.64077734375,4.28337109375,3.1283046875,5.73723046875,5.62275,4.9482890625,2.039484375,2.1338046875,3.0744453125,4.02355859375,4.298125,4.922890625,3.004359375,1.42359765625,12.0833515625
4.9336875,3.02969140625,5.27079296875,1.94876953125,6.59491015625,4.12791796875,8.079421875,2.33704296875,-1.9959453125,4.88147265625,5.3254609375,5.48925,-3.28131640625,5.78069921875,6.8543125,6.33377734375,3.90737109375,2.9013046875,5.77423046875,7.21875,8.2982890625,2.700484375,2.2688046875,4.7724453125,6.26355859375,6.806125,6.053890625,3.837359375,2.34059765625,13.8343515625
4.5146875,2.64269140625,4.90479296875,0.90576953125,5.83991015625,3.70991796875,8.284421875,1.26604296875,-2.2269453125,4.25247265625,5.2294609375,5.58525,-2.85531640625,4.64969921875,6.8303125,7.89777734375,2.93837109375,2.8693046875,5.44623046875,8.04175,10.2302890625,3.518484375,2.1988046875,5.9504453125,7.61155859375,7.924125,6.847890625,4.465359375,2.97359765625,14.7053515625
3.6166875,1.85669140625,3.71779296875,-0.478230468750001,4.74091015625,2.76891796875,7.433421875,-0.11395703125,-2.4739453125,3.45947265625,4.5134609375,4.55725,-2.35031640625,3.60469921875,6.5223125,8.18677734375,1.67437109375,3.2023046875,4.92823046875,7.91375,10.0232890625,4.439484375,2.0178046875,6.2864453125,7.68655859375,7.515125,7.084890625,4.722359375,3.17559765625,14.5393515625
2.7266875,1.04869140625,2.25079296875,-1.62623046875,3.83291015625,1.59491796875,5.875421875,-1.31995703125,-2.0479453125,2.79847265625,3.5354609375,2.80025,-1.74531640625,3.01069921875,6.1623125,7.61977734375,0.59637109375,3.8773046875,4.46223046875,7.05375,7.6802890625,5.405484375,1.9048046875,5.8644453125,6.61455859375,5.963125,6.865890625,4.694359375,3.10159765625,13.6143515625
2.2016875,0.48269140625,1.05479296875,-2.07923046875,3.44891015625,0.477917968750001,4.072421875,-2.03595703125,-0.5599453125,2.39547265625,2.6554609375,0.79025,-1.00431640625,2.83669921875,5.9023125,6.68677734375,0.0513710937500003,4.5923046875,4.09323046875,5.78375,3.8882890625,6.252484375,1.8858046875,4.9584453125,4.82155859375,3.850125,6.387890625,4.474359375,2.92059765625,12.3213515625
1.9586875,0.0616914062499996,0.261792968750001,-1.86523046875,3.40691015625,-0.56608203125,2.256421875,-2.37095703125,1.5890546875,2.01447265625,1.9144609375,-1.26175,-0.31431640625,2.64369921875,5.6013125,5.52477734375,-0.0396289062499995,4.8753046875,3.55323046875,4.23575,-0.3297109375,6.670484375,1.7158046875,3.7674453125,2.70555859375,1.606125,5.690890625,3.946359375,2.54459765625,10.8223515625
1.4866875,-0.66030859375,-0.53920703125,-1.53723046875,3.05391015625,-1.87208203125,0.292421874999999,-2.83695703125,3.2140546875,1.12047265625,0.947460937500001,-3.47775,-0.12431640625,1.81469921875,4.8183125,3.82677734375,-0.19462890625,4.2703046875,2.35723046875,2.25575,-4.0907109375,6.286484375,0.931804687500001,2.2734453125,0.43155859375,-0.647875,4.570890625,2.768359375,1.58159765625,8.9403515625
0.1886875,-2.19430859375,-2.00820703125,-1.82623046875,1.66891015625,-3.91408203125,-2.155578125,-4.01195703125,2.9670546875,-0.81352734375,-0.7855390625,-6.05575,-0.91131640625,-0.10930078125,3.0563125,1.09177734375,-1.02762890625,2.5243046875,0.0992304687499992,-0.414249999999999,-6.9727109375,4.847484375,-0.883195312499999,0.3334453125,-2.05444140625,-2.990875,2.741890625,0.625359375,-0.40740234375,6.3763515625
-2.1293125,-4.68030859375,-4.48620703125,-3.11423046875,-0.961089843749999,-6.87908203125,-5.224578125,-6.06195703125,0.2790546875,-3.87552734375,-3.5475390625,-8.83375,-2.80031640625,-3.09430078125,0.165312499999999,-2.87522265625,-2.75462890625,-0.2236953125,-3.18376953125,-3.76225,-8.9367109375,2.451484375,-3.7481953125,-2.0435546875,-4.74544140625,-5.396875,0.191890625,-2.387640625,-3.47640234375,3.1463515625
-4.9143125,-7.55430859375,-7.52820703125,-5.06223046875,-4.16608984375,-10.28908203125,-8.448578125,-8.45795703125,-4.0269453125,-7.39852734375,-6.8945390625,-11.02275,-5.32931640625,-6.39430078125,-3.3146875,-7.49122265625,-4.85862890625,-3.3006953125,-6.75876953125,-7.17625,-9.9617109375,-0.327515625,-7.0131953125,-4.4175546875,-7.24344140625,-7.446875,-2.512109375,-5.516640625,-6.95640234375,-0.0796484374999999
-6.9723125,-9.60930859375,-9.90320703125,-6.66423046875,-6.53308984375,-12.98708203125,-10.719578125,-10.08395703125,-7.9709453125,-10.03852734375,-9.6345390625,-11.39575,-7.54831640625,-8.69930078125,-6.1876875,-11.30822265625,-6.21062890625,-5.5706953125,-9.33476953125,-9.47525,-9.7597109375,-2.537515625,-9.4481953125,-5.9215546875,-8.68944140625,-8.334875,-4.271109375,-7.493640625,-9.54440234375,-2.0576484375
-7.0563125,-9.56430859375,-10.17620703125,-6.74823046875,-6.60608984375,-13.64008203125,-10.774578125,-9.77195703125,-9.4879453125,-10.38252734375,-10.3655390625,-8.92775,-8.47131640625,-8.72630078125,-7.1246875,-12.59822265625,-5.63662890625,-5.8716953125,-9.63976953125,-9.42325,-7.9047109375,-3.240515625,-9.7881953125,-5.6745546875,-8.15644140625,-7.280875,-3.980109375,-7.136640625,-9.90640234375,-1.5746484375
-4.6553125,-6.86630859375,-7.59920703125,-4.67923046875,-3.79608984375,-11.55308203125,-8.009578125,-7.00095703125,-7.6899453125,-7.79552734375,-8.3565390625,-3.58775,-7.63931640625,-5.98730078125,-5.4466875,-10.40722265625,-2.65962890625,-3.6596953125,-7.18876953125,-6.53025,-4.3047109375,-2.022515625,-7.4831953125,-3.4025546875,-5.30744140625,-4.141875,-1.265109375,-4.107640625,-7.50840234375,1.7393515625
-0.457312499999999,-2.18730859375,-2.73020703125,-0.837230468750001,1.10491015625,-7.24808203125,-3.056578125,-2.35795703125,-3.5019453125,-2.94952734375,-4.1415390625,3.28725,-5.44831640625,-1.20930078125,-1.6556875,-5.34322265625,2.02937109375,0.5493046875,-2.71776953125,-1.55825,0.4052890625,0.675484375,-3.1621953125,0.2034453125,-0.84044140625,0.243125,3.083890625,0.690359375,-3.11940234375,6.9543515625
3.8896875,2.79469140625,2.69479296875,3.46476953125,6.20891015625,-2.35508203125,2.352421875,2.60604296875,0.8070546875,2.39347265625,0.6244609375,9.36825,-2.98231640625,3.96669921875,2.7253125,0.548777343749999,6.75437109375,5.3013046875,2.06923046875,3.68875,4.9702890625,3.677484375,1.5728046875,3.7084453125,3.70155859375,4.319125,7.358890625,5.424359375,1.45159765625,12.1403515625
6.6356875,6.23669140625,6.64379296875,6.62876953125,9.50791015625,1.21391796875,6.233421875,6.10604296875,2.9460546875,6.26447265625,4.0384609375,12.41625,-1.43031640625,7.80469921875,5.9213125,4.83977734375,9.66437109375,8.8453046875,5.33323046875,7.23775,8.1082890625,5.624484375,4.9158046875,5.6464453125,6.68255859375,6.600125,9.763890625,8.225359375,4.24559765625,15.2853515625
6.8526875,7.07569140625,7.83379296875,7.56876953125,9.90491015625,2.23791796875,7.370421875,6.97004296875,1.9140546875,7.44447265625,4.9404609375,11.41525,-1.47031640625,9.28269921875,6.7793125,5.99877734375,9.67137109375,9.9103046875,5.96023046875,7.89175,9.1382890625,5.627484375,5.6988046875,5.2384453125,7.16355859375,6.419125,9.267890625,8.072359375,4.10159765625,15.2563515625
4.8156875,5.44069140625,6.24979296875,6.16076953125,7.64091015625,0.691917968750001,5.812421875,5.09804296875,-1.5929453125,5.90747265625,3.3774609375,7.04525,-2.99631640625,8.34569921875,5.1803125,4.04477734375,6.92637109375,8.1553046875,3.92023046875,5.66675,8.1712890625,3.626484375,3.7948046875,2.6394453125,5.21755859375,4.157125,5.976890625,5.148359375,1.09059765625,12.2083515625
1.6686875,2.37269140625,2.88779296875,3.14976953125,3.93291015625,-2.48608203125,2.601421875,1.34304296875,-5.8099453125,2.55547265625,0.331460937500001,1.18825,-5.31631640625,5.61069921875,1.8413125,0.25677734375,2.61037109375,4.1593046875,0.0442304687499995,1.54075,5.8062890625,0.317484375,-0.0341953124999992,-1.3255546875,1.67255859375,0.870125,0.900890625,0.562359375,-3.71340234375,7.3313515625
-1.2853125,-0.859308593750001,-0.91520703125,-0.312230468750001,0.20991015625,-6.02708203125,-0.924578125000001,-2.93995703125,-8.9989453125,-1.39352734375,-2.9685390625,-4.11675,-7.56131640625,1.90269921875,-2.1766875,-3.69522265625,-1.67862890625,-0.8736953125,-4.48276953125,-3.15125,2.7042890625,-3.220515625,-4.5801953125,-5.6315546875,-2.40644140625,-2.317875,-4.584109375,-4.234640625,-8.81440234375,2.2213515625
-3.1883125,-3.34830859375,-4.05620703125,-3.15923046875,-2.51508984375,-8.90108203125,-3.735578125,-6.40395703125,-10.2309453125,-4.92552734375,-5.6175390625,-7.54575,-9.04831640625,-2.01430078125,-5.9016875,-6.55722265625,-4.58462890625,-5.5456953125,-8.56076953125,-7.23625,-0.6017109375,-5.974515625,-8.6301953125,-9.3965546875,-6.10444140625,-4.649875,-9.235109375,-7.990640625,-12.86140234375,-1.7296484375
-3.8573125,-4.76830859375,-5.92220703125,-4.75523046875,-3.88208984375,-10.55908203125,-5.339578125,-8.13095703125,-9.5649453125,-7.42752734375,-7.2305390625,-8.77075,-9.43031640625,-5.46330078125,-8.6376875,-7.84622265625,-5.45262890625,-8.6956953125,-11.40276953125,-9.96125,-3.6117109375,-7.347515625,-11.2821953125,-12.0095546875,-8.79444140625,-5.841875,-12.228109375,-9.979640625,-15.02040234375,-3.7126484375
-3.6563125,-5.24830859375,-6.37620703125,-5.02123046875,-4.06908984375,-10.91908203125,-5.695578125,-7.89895703125,-7.7589453125,-8.66652734375,-7.8145390625,-8.22075,-8.71431640625,-7.83930078125,-10.0156875,-7.76122265625,-4.46962890625,-9.7486953125,-12.63076953125,-11.03125,-5.7467109375,-7.312515625,-12.1261953125,-13.1475546875,-10.12844140625,-5.956875,-13.256109375,-10.099640625,-15.11940234375,-3.6286484375
-3.1713125,-5.13330859375,-5.65820703125,-4.33023046875,-3.53808984375,-10.23108203125,-5.040578125,-6.19395703125,-5.8139453125,-8.71252734375,-7.5675390625,-6.64875,-7.18431640625,-8.75230078125,-9.9996875,-6.89322265625,-2.45262890625,-8.8426953125,-12.29876953125,-10.56225,-6.4807109375,-6.325515625,-11.2991953125,-12.7975546875,-10.04144140625,-5.255875,-12.507109375,-8.784640625,-13.59040234375,-1.9906484375
-2.8903125,-4.77330859375,-4.22220703125,-3.24123046875,-2.78808984375,-8.93508203125,-3.736578125,-3.92095703125,-4.5479453125,-7.87052734375,-6.7325390625,-4.79575,-5.29931640625,-8.24630078125,-8.8716875,-5.87522265625,-0.37262890625,-6.6956953125,-10.85676953125,-9.00025,-5.6617109375,-5.057515625,-9.3761953125,-11.2925546875,-8.79444140625,-4.109875,-10.561109375,-6.783640625,-11.26340234375,0.3293515625
-2.9693125,-4.38630859375,-2.55820703125,-2.19123046875,-2.16508984375,-7.48408203125,-2.154578125,-1.95295703125,-4.3289453125,-6.57152734375,-5.5105390625,-3.21875,-3.56531640625,-6.84530078125,-7.1036875,-5.09422265625,1.11437109375,-4.2436953125,-8.96976953125,-6.97025,-3.6957109375,-4.078515625,-7.1131953125,-9.2205546875,-6.92444140625,-2.943875,-8.191109375,-4.869640625,-9.03640234375,2.4433515625
-3.1853125,-3.98330859375,-1.01520703125,-1.31123046875,-1.74508984375,-6.17608203125,-0.574578125,-0.76595703125,-4.9879453125,-5.17852734375,-4.0135390625,-2.20775,-2.40831640625,-5.26430078125,-5.1396875,-4.55422265625,1.86737109375,-2.2156953125,-7.21976953125,-5.03425,-1.3817109375,-3.658515625,-5.1301953125,-7.1915546875,-5.03844140625,-2.122875,-6.088109375,-3.560640625,-7.53140234375,3.7693515625
-3.0613125,-3.36030859375,0.29879296875,-0.44823046875,-1.31008984375,-5.04308203125,0.876421874999998,-0.31895703125,-5.9369453125,-3.80552734375,-2.2635390625,-1.73675,-2.06431640625,-3.96730078125,-3.2026875,-3.95622265625,2.15537109375,-0.8446953125,-5.84876953125,-3.48025,0.5232890625,-3.730515625,-3.6691953125,-5.5565546875,-3.53844140625,-1.796875,-4.610109375,-2.968640625,-6.87940234375,4.2093515625
-2.1413125,-2.24530859375,1.47079296875,0.65576953125,-0.490089843749999,-3.90508203125,2.199421875,-0.219957031250001,-6.4389453125,-2.32752734375,-0.2855390625,-1.48275,-2.50431640625,-2.93730078125,-1.2666875,-2.97522265625,2.35937109375,0.1273046875,-4.70876953125,-2.27825,1.6362890625,-4.008515625,-2.6031953125,-4.3025546875,-2.50544140625,-1.859875,-3.726109375,-2.863640625,-6.74540234375,4.0773515625
-0.3173125,-0.548308593750001,2.59779296875,2.08376953125,0.933910156250001,-2.59308203125,3.393421875,-0.0469570312500007,-6.0009453125,-0.615527343749999,1.7374609375,-0.98975,-3.46231640625,-1.87230078125,0.739312499999999,-1.56022265625,2.69837109375,1.1033046875,-3.51376953125,-1.27925,1.9572890625,-4.194515625,-1.6871953125,-3.2295546875,-1.84344140625,-2.094875,-3.211109375,-2.920640625,-6.63140234375,3.8003515625
1.9246875,1.38269140625,3.55679296875,3.52876953125,2.71791015625,-1.23808203125,4.296421875,0.32504296875,-4.7119453125,1.15147265625,3.3574609375,0.0482500000000012,-4.57631640625,-0.63230078125,2.6463125,-0.0862226562500004,3.07737109375,2.1803046875,-2.20476953125,-0.506249999999998,1.6002890625,-4.187515625,-0.897195312499999,-2.2835546875,-1.56544140625,-2.411875,-2.966109375,-3.018640625,-6.28140234375,3.5783515625
3.5496875,2.73769140625,3.91479296875,4.26776953125,4.06391015625,-0.37408203125,4.533421875,0.61604296875,-3.3489453125,2.36347265625,3.9174609375,1.51025,-5.59731640625,0.44969921875,3.9173125,0.767777343749999,3.13037109375,2.8943046875,-1.16676953125,-0.310249999999998,0.5672890625,-4.189515625,-0.607195312499999,-1.7615546875,-1.95844140625,-2.966875,-3.216109375,-3.386640625,-5.93140234375,3.2153515625
3.3736875,2.53569140625,3.11679296875,3.48776953125,3.92291015625,-0.73608203125,3.648421875,0.34104296875,-3.0909453125,2.20247265625,2.8194609375,2.74825,-6.49631640625,0.64269921875,3.8333125,0.337777343749999,2.45137109375,2.4253046875,-1.09476953125,-1.22425,-1.2217109375,-4.612515625,-1.4151953125,-2.2205546875,-3.44344140625,-4.030875,-4.403109375,-4.476640625,-6.19440234375,2.2653515625
0.7146875,0.180691406249999,0.87179296875,0.800769531249999,1.60491015625,-2.79408203125,1.399421875,-0.806957031250001,-4.8949453125,0.140472656249999,-0.1125390625,2.80425,-7.41731640625,-0.711300781249999,1.9313125,-1.64422265625,0.91337109375,0.1613046875,-2.56376953125,-3.57025,-3.6597109375,-5.811515625,-3.7161953125,-4.0885546875,-6.19644140625,-5.682875,-6.831109375,-6.613640625,-7.63240234375,0.4013515625
-4.0823125,-4.03730859375,-2.48920703125,-3.34423046875,-2.65408984375,-6.32008203125,-1.927578125,-2.63595703125,-8.8419453125,-3.58552734375,-4.3515390625,0.96425,-8.47531640625,-3.65730078125,-1.5616875,-4.80622265625,-1.12862890625,-3.7496953125,-5.55376953125,-7.08925,-6.2097109375,-7.794515625,-7.3001953125,-7.2595546875,-9.81744140625,-7.583875,-10.301109375,-9.658640625,-10.30540234375,-2.2466484375
-9.5783125,-8.83030859375,-5.94920703125,-7.69323046875,-7.56708984375,-10.26908203125,-5.413578125,-4.40995703125,-13.8669453125,-7.85152734375,-8.6695390625,-2.58975,-9.56531640625,-7.36330078125,-5.6166875,-8.15622265625,-2.88762890625,-8.2926953125,-9.27276953125,-10.84025,-7.9427109375,-10.105515625,-11.2731953125,-10.9475546875,-13.30744140625,-9.015875,-14.010109375,-12.918640625,-13.58940234375,-5.0106484375
-13.7993125,-12.38530859375,-8.14720703125,-10.68823046875,-11.27608984375,-13.14408203125,-7.751578125,-5.13695703125,-18.0999453125,-11.04052734375,-11.5475390625,-6.53475,-10.31731640625,-10.39430078125,-8.7616875,-10.44022265625,-3.45562890625,-12.0156953125,-12.41976953125,-13.52525,-7.9367109375,-11.988515625,-14.4041953125,-13.9585546875,-15.46144140625,-9.218875,-16.838109375,-15.421640625,-16.42940234375,-6.9546484375
-15.1733125,-13.24830859375,-8.02720703125,-11.21023046875,-12.25808984375,-13.71408203125,-7.853578125,-4.06895703125,-19.7469453125,-11.82852734375,-11.8775390625,-8.95575,-10.30531640625,-11.40230078125,-9.7936875,-10.75222265625,-2.24162890625,-13.7296953125,-13.81576953125,-14.10825,-5.8617109375,-12.752515625,-15.7141953125,-15.2645546875,-15.50244140625,-7.841875,-17.894109375,-16.414640625,-17.89440234375,-7.3736484375
-13.3623125,-11.11630859375,-5.47920703125,-9.16123046875,-10.15708984375,-11.70208203125,-5.520578125,-1.18995703125,-18.0299453125,-9.89752734375,-9.6025390625,-8.47075,-9.39031640625,-9.86030078125,-8.4416875,-9.08322265625,0.65537109375,-13.0466953125,-13.02576953125,-12.41625,-2.3727109375,-12.151515625,-14.9791953125,-14.5715546875,-13.57044140625,-5.253875,-17.019109375,-15.812640625,-17.70240234375,-6.2406484375
-9.4323125,-7.02330859375,-1.54120703125,-5.55223046875,-6.00208984375,-7.99708203125,-1.685578125,2.62504296875,-13.6499453125,-6.14652734375,-5.8255390625,-5.16075,-7.93931640625,-6.35830078125,-5.5376875,-6.36922265625,4.35437109375,-10.4596953125,-10.57076953125,-9.27625,1.0422890625,-10.539515625,-12.8251953125,-12.4785546875,-10.70944140625,-2.477875,-14.898109375,-14.265640625,-16.38840234375,-4.2986484375
-5.2503125,-2.77030859375,2.06679296875,-1.99223046875,-1.67008984375,-4.21408203125,2.011421875,5.95304296875,-8.4449453125,-2.20952734375,-2.2595390625,-0.594749999999999,-6.69131640625,-2.26730078125,-2.5566875,-3.94522265625,7.51837109375,-6.9796953125,-7.60776953125,-6.07725,2.8012890625,-8.679515625,-10.3541953125,-10.1115546875,-8.30844140625,-0.722875,-12.696109375,-12.792640625,-14.96240234375,-2.6766484375
-2.4703125,0.0226914062499999,3.82379296875,0.11976953125,1.10291015625,-1.86208203125,4.074421875,7.52304296875,-4.4549453125,0.38847265625,-0.3435390625,3.07325,-6.32831640625,0.98769921875,-0.809687500000001,-2.80422265625,8.97037109375,-3.6146953125,-5.29276953125,-4.03025,2.1232890625,-7.310515625,-8.5541953125,-8.4765546875,-7.35044140625,-0.764875,-11.433109375,-12.209640625,-14.31340234375,-2.2676484375
-1.7503125,0.666691406249999,3.16479296875,0.24076953125,1.54891015625,-1.63008203125,3.865421875,6.86204296875,-2.9089453125,0.925472656249999,-0.599539062499998,4.28425,-7.01331640625,2.55169921875,-0.824687500000001,-3.16322265625,8.25737109375,-1.0336953125,-4.28276953125,-3.63125,-0.5407109375,-6.776515625,-7.8841953125,-7.9805546875,-7.96344140625,-2.550875,-11.517109375,-12.737640625,-14.74040234375,-3.2646484375
-2.6053125,-0.425308593750001,0.67779296875,-1.16923046875,0.11091015625,-3.18108203125,1.802421875,4.49304296875,-3.6799453125,-0.32252734375,-2.5215390625,2.81925,-8.23631640625,2.33469921875,-2.2446875,-4.54722265625,5.84637109375,0.4663046875,-4.60176953125,-4.59725,-3.8347109375,-6.930515625,-8.2381953125,-8.3795546875,-9.51744140625,-5.255875,-12.674109375,-13.992640625,-15.88940234375,-5.1476484375
-3.8513125,-2.12130859375,-2.25420703125,-2.98423046875,-1.93508984375,-5.44508203125,-0.948578125000001,1.62404296875,-5.4619453125,-2.36652734375,-4.9605390625,-0.235749999999999,-9.04931640625,0.84469921875,-4.1666875,-6.14422265625,2.85137109375,0.8333046875,-5.82376953125,-6.17625,-6.2697109375,-7.320515625,-9.1791953125,-9.0805546875,-11.08244140625,-7.700875,-14.223109375,-15.285640625,-17.03340234375,-7.0316484375
-4.2853125,-3.19130859375,-4.10920703125,-3.97923046875,-3.17208984375,-7.17308203125,-3.013578125,-0.43695703125,-6.5569453125,-4.03352734375,-6.6705390625,-3.11075,-8.57931640625,-1.11030078125,-5.6196875,-7.15122265625,0.51637109375,0.2063046875,-7.31476953125,-7.54325,-6.9187109375,-7.478515625,-10.1841953125,-9.5095546875,-11.89044140625,-8.867875,-15.426109375,-15.963640625,-17.45640234375,-8.1096484375
-3.2393125,-2.85830859375,-3.84820703125,-3.36823046875,-2.70108984375,-7.45508203125,-3.351578125,-0.838957031250001,-5.8489453125,-4.45152734375,-6.7765390625,-4.16875,-6.50231640625,-2.66830078125,-5.9256875,-6.96722265625,-0.29062890625,-1.0396953125,-8.43776953125,-8.07025,-5.6917109375,-7.118515625,-10.7841953125,-9.3095546875,-11.58744140625,-8.272875,-15.746109375,-15.628640625,-16.73240234375,-7.9436484375
-0.8013125,-1.04330859375,-1.33520703125,-1.10523046875,-0.477089843749999,-6.04708203125,-1.632578125,0.50204296875,-3.3869453125,-3.34552734375,-5.0395390625,-2.58775,-3.22031640625,-3.19130078125,-4.8966875,-5.34022265625,0.64937109375,-2.3286953125,-8.71776953125,-7.48425,-3.2107109375,-6.207515625,-10.6481953125,-8.4075546875,-10.25944140625,-6.100875,-14.970109375,-14.230640625,-14.86440234375,-6.5626484375
2.3226875,1.69769140625,2.61079296875,2.14276953125,2.76391015625,-3.43408203125,1.619421875,2.94504296875,-0.254945312500001,-1.10452734375,-1.9205390625,1.27725,0.35168359375,-2.53730078125,-2.8656875,-2.49922265625,2.89437109375,-3.1306953125,-8.02776953125,-5.94525,-0.4747109375,-4.918515625,-9.7121953125,-6.9965546875,-8.33844140625,-3.117875,-13.250109375,-12.065640625,-12.27940234375,-4.4116484375
5.1706875,4.45769140625,6.56979296875,5.34376953125,5.92791015625,-0.60708203125,5.190421875,5.46604296875,2.1620546875,1.41947265625,1.5714609375,6.00725,3.21968359375,-1.15030078125,-0.566687500000002,0.776777343749999,5.59537109375,-3.2686953125,-6.67976953125,-4.01625,1.5402890625,-3.549515625,-8.2611953125,-5.4735546875,-6.44544140625,-0.388875,-11.048109375,-9.703640625,-9.68940234375,-2.1946484375
6.9166875,6.34169140625,9.13079296875,7.54176953125,8.06391015625,1.35291796875,7.646421875,7.14304296875,2.9720546875,3.27347265625,4.2124609375,9.70525,4.70468359375,0.19369921875,1.1273125,3.29177734375,7.85337109375,-3.0106953125,-5.31376953125,-2.47325,2.2122890625,-2.422515625,-6.8421953125,-4.3155546875,-5.19244140625,1.097125,-8.988109375,-7.809640625,-7.83240234375,-0.6366484375
7.1166875,6.75969140625,9.45279296875,8.18976953125,8.70191015625,1.69991796875,7.922421875,7.49704296875,2.1190546875,3.78547265625,5.0264609375,10.85825,4.61668359375,0.81269921875,1.5273125,3.85677734375,9.02337109375,-2.8566953125,-4.60776953125,-2.00625,1.4562890625,-1.796515625,-6.0201953125,-3.9055546875,-4.97744140625,0.793125,-7.641109375,-6.902640625,-7.20240234375,-0.2396484375
5.7866875,5.60569140625,7.52779296875,7.24276953125,7.87491015625,0.28391796875,5.792421875,6.54504296875,0.1370546875,2.76747265625,3.6874609375,9.02425,3.21868359375,0.43069921875,0.396312499999999,1.87177734375,8.81737109375,-3.2226953125,-4.96976953125,-2.91225,-0.2757109375,-1.821515625,-6.1171953125,-4.3825546875,-5.83744140625,-1.218875,-7.341109375,-7.171640625,-7.88940234375,-1.1106484375
3.3586875,3.25569140625,4.08479296875,5.08276953125,5.96191015625,-2.44108203125,1.949421875,4.63604296875,-2.3369453125,0.521472656249999,0.668460937500001,4.96325,1.04468359375,-0.764300781249999,-1.9616875,-2.23522265625,7.27437109375,-4.2046953125,-6.36476953125,-4.94625,-2.2107109375,-2.507515625,-7.0761953125,-5.5815546875,-7.43744140625,-4.273875,-8.089109375,-8.424640625,-9.58940234375,-2.9426484375
0.533687500000001,0.409691406249999,0.22179296875,2.35976953125,3.49391015625,-5.62908203125,-2.352578125,2.25104296875,-4.8709453125,-2.31952734375,-2.9805390625,0.15025,-1.31231640625,-2.27930078125,-4.8116875,-7.09922265625,4.71137109375,-5.5356953125,-8.34176953125,-7.42925,-3.6297109375,-3.706515625,-8.5071953125,-7.1035546875,-9.22844140625,-7.410875,-9.585109375,-10.195640625,-11.76440234375,-5.1396484375
-1.9313125,-2.17430859375,-3.02720703125,-0.21023046875,1.02091015625,-8.37808203125,-5.895578125,-0.11195703125,-7.2159453125,-5.01252734375,-6.1125390625,-3.97775,-3.36031640625,-3.54030078125,-7.2646875,-11.04922265625,1.68737109375,-6.7136953125,-10.22176953125,-9.55325,-4.2187109375,-5.137515625,-9.8571953125,-8.4615546875,-10.68744140625,-9.757875,-11.339109375,-11.916640625,-13.82740234375,-7.0356484375
-3.4483125,-3.88630859375,-5.01720703125,-2.03923046875,-0.936089843749999,-10.00908203125,-7.941578125,-1.98595703125,-9.0809453125,-6.88652734375,-7.9085390625,-6.52375,-4.76231640625,-4.08030078125,-8.5786875,-12.88922265625,-1.05362890625,-7.2276953125,-11.35776953125,-10.70125,-4.2027109375,-6.444515625,-10.6181953125,-9.2305546875,-11.49844140625,-10.812875,-12.810109375,-13.063640625,-15.27840234375,-8.0846484375
-3.7043125,-4.35930859375,-5.54220703125,-2.76323046875,-1.91708984375,-10.18508203125,-8.308578125,-2.95795703125,-9.9449453125,-7.47352734375,-8.0405390625,-7.20575,-5.31731640625,-3.66830078125,-8.3466875,-12.33222265625,-2.72162890625,-6.7886953125,-11.32276953125,-10.60725,-4.1007109375,-7.289515625,-10.4881953125,-9.1345546875,-11.55744140625,-10.493875,-13.519109375,-13.243640625,-15.74140234375,-7.9716484375
-2.6573125,-3.48230859375,-4.71020703125,-2.26223046875,-1.59508984375,-8.90408203125,-7.166578125,-2.72195703125,-9.1419453125,-6.61152734375,-6.5925390625,-6.16575,-4.94331640625,-2.37030078125,-6.5446875,-9.89022265625,-2.72962890625,-5.4586953125,-10.02276953125,-9.33125,-4.2827109375,-7.440515625,-9.4421953125,-8.0755546875,-10.86744140625,-9.005875,-13.147109375,-12.253640625,-14.97740234375,-6.6236484375
-0.538312499999998,-1.43530859375,-2.82120703125,-0.67223046875,0.0399101562500004,-6.47508203125,-4.870578125,-1.23195703125,-6.3129453125,-4.53052734375,-3.9445390625,-3.82875,-3.74831640625,-0.54730078125,-3.5226875,-6.47322265625,-0.96062890625,-3.6616953125,-7.72176953125,-7.18025,-4.6717109375,-6.877515625,-7.7381953125,-6.1745546875,-9.47844140625,-6.697875,-11.651109375,-10.167640625,-12.97040234375,-4.2286484375
2.0876875,1.22669140625,-0.388207031249999,1.54976953125,2.48291015625,-3.52208203125,-1.966578125,1.12804296875,-2.0369453125,-1.88052734375,-0.728539062499999,-0.86375,-2.12931640625,1.22769921875,0.0153124999999985,-3.01422265625,2.08437109375,-2.0586953125,-5.01976953125,-4.67125,-4.8827109375,-5.859515625,-5.8841953125,-3.8305546875,-7.55844140625,-4.016875,-9.355109375,-7.413640625,-10.04740234375,-1.2316484375
4.3176875,3.58969140625,1.83079296875,3.61276953125,4.69891015625,-0.923082031249999,0.795421874999999,3.54504296875,1.8650546875,0.40547265625,2.2154609375,1.88825,-0.76031640625,2.35969921875,3.1173125,-0.278222656250001,5.42237109375,-1.3546953125,-2.73376953125,-2.48025,-4.6297109375,-4.896515625,-4.5221953125,-1.7095546875,-5.49644140625,-1.514875,-6.932109375,-4.715640625,-6.90140234375,1.7213515625
5.1256875,4.62269140625,2.99279296875,4.59476953125,5.45691015625,0.422917968750001,2.631421875,5.07904296875,2.8340546875,1.41947265625,4.0234609375,3.64025,-0.35931640625,2.44469921875,4.8313125,1.23777734375,8.00237109375,-2.0806953125,-1.65376953125,-1.29525,-4.0117109375,-4.565515625,-4.2461953125,-0.5675546875,-3.86044140625,0.235125,-5.184109375,-2.859640625,-4.38840234375,3.9663515625
3.7986875,3.60169140625,2.52779296875,3.84076953125,3.88991015625,-0.0410820312499993,3.046421875,5.10204296875,-1.1999453125,0.63647265625,4.1294609375,3.96525,-1.34831640625,1.39569921875,4.5783125,1.37877734375,9.16737109375,-4.4256953125,-2.23476953125,-1.54625,-3.3977109375,-5.251515625,-5.3771953125,-0.9315546875,-3.14344140625,0.853125,-4.700109375,-2.361640625,-3.15240234375,5.0733515625
0.344687500000001,0.51469140625,0.45179296875,1.32876953125,-0.0360898437499984,-2.24608203125,2.089421875,3.60504296875,-10.5489453125,-1.84852734375,2.5594609375,2.97325,-3.64631640625,-0.562300781249999,2.4413125,0.378777343749999,8.90537109375,-8.1646953125,-4.38476953125,-3.18325,-3.0827109375,-6.954515625,-7.8051953125,-2.8095546875,-3.46844140625,0.354125,-5.558109375,-3.223640625,-3.29940234375,5.0483515625
-4.4033125,-3.83930859375,-2.57620703125,-2.25623046875,-5.41808984375,-5.47808203125,0.350421874999999,1.19204296875,-23.3099453125,-5.33552734375,-0.0035390624999998,1.25825,-6.70431640625,-2.99430078125,-0.808687500000001,-1.19022265625,7.78537109375,-12.6886953125,-7.45876953125,-5.63425,-3.0347109375,-9.278515625,-10.9911953125,-5.6155546875,-4.45944140625,-0.798875,-7.259109375,-4.910640625,-4.31440234375,4.3473515625
-4.4033125,-3.83930859375,-2.57620703125,-2.25623046875,-5.41808984375,-5.47808203125,0.350421874999999,1.19204296875,-23.3099453125,-5.33552734375,-0.0035390624999998,1.25825,-6.70431640625,-2.99430078125,-0.808687500000001,-1.19022265625,7.78537109375,-12.6886953125,-7.45876953125,-5.63425,-3.0347109375,-9.278515625,-10.9911953125,-5.6155546875,-4.45944140625,-0.798875,-7.259109375,-4.910640625,-4.31440234375,4.3473515625
