"Fp1","Fpz","Fp2","F7","F3","Fz","F4","F8","FC5","FC1","FC2","FC6","T7","C3","Cz","C4","T8","CP5","CP1","CP2","CP6","P7","P3","Pz","P4","P8","POz","O1","Oz","O2"
9.81041796875,7.29283203125,3.9351875,13.8726328125,13.04512890625,18.2910546875,14.38873046875,-3.98262109375,2.053,17.919484375,13.46009765625,5.49538671875,-13.3894140625,15.83825390625,13.552828125,17.9289375,7.78701953125,2.19434375,26.76423046875,25.00287109375,3.486546875,17.4021328125,12.69417578125,42.1192890625,13.4673515625,9.88068359375,13.7679921875,22.91787890625,10.1676640625,12.09870703125
8.15241796875,4.91683203125,3.3391875,10.0676328125,9.64512890625,13.7270546875,13.89273046875,-7.98062109375,-3.918,14.427484375,10.34809765625,7.00938671875,-0.984414062500001,11.91925390625,10.296828125,18.1279375,2.03701953125,1.29034375,23.45823046875,20.81587109375,3.423546875,22.4111328125,12.43917578125,35.7472890625,12.9893515625,9.85068359375,14.4579921875,23.92087890625,10.5596640625,10.58170703125
11.82641796875,5.58483203125,5.4121875,10.0896328125,9.28512890625,11.5020546875,13.41773046875,-6.71562109375,-6.451,13.083484375,8.63809765625,8.50138671875,8.2585859375,10.47425390625,9.043828125,18.4209375,0.59101953125,2.03634375,22.64423046875,18.39287109375,3.908546875,27.7481328125,13.44117578125,28.7552890625,13.0113515625,10.17268359375,15.8419921875,25.40487890625,10.8866640625,8.84770703125
20.06241796875,9.30883203125,9.7281875,13.7096328125,11.76412890625,12.0070546875,13.36273046875,-0.72462109375,-5.581,14.200484375,8.62309765625,9.90738671875,13.9195859375,11.77625390625,10.043828125,18.7219375,3.50601953125,4.41234375,24.46923046875,17.69787109375,4.703546875,33.1131328125,15.65717578125,21.5502890625,13.2773515625,10.72568359375,17.4759921875,26.94087890625,10.7296640625,6.55570703125
30.01341796875,15.02983203125,14.9921875,19.3856328125,15.96312890625,14.9760546875,14.12073046875,7.54337890625,-2.323,17.452484375,10.18609765625,11.11038671875,16.3425859375,15.33725390625,12.924828125,18.8659375,9.25501953125,7.81434375,28.30223046875,18.13987109375,5.314546875,37.9351328125,18.58517578125,14.9032890625,13.2683515625,11.19868359375,18.5289921875,27.80987890625,9.5216640625,3.34770703125
38.26841796875,21.08983203125,19.8131875,25.0586328125,20.54712890625,19.5840546875,15.75573046875,14.96437890625,2.019,22.026484375,12.83009765625,11.93338671875,16.2345859375,20.15625390625,16.846828125,18.6749375,15.45701953125,11.32734375,33.04523046875,18.91787109375,5.253546875,41.5941328125,21.51017578125,9.5832890625,12.4703515625,11.24168359375,18.2109921875,27.38087890625,6.8306640625,-0.91129296875
42.53341796875,25.86883203125,23.2991875,29.0176328125,24.53212890625,24.6710546875,17.89873046875,19.09037890625,6.402,26.893484375,15.84609765625,12.18938671875,14.3295859375,25.06625390625,20.773828125,18.0379375,19.94201953125,14.06534375,37.50623046875,19.34787109375,4.284546875,43.6711328125,23.76117578125,5.9942890625,10.6643515625,10.62868359375,16.1849921875,25.43187890625,2.6306640625,-5.95629296875
42.51341796875,28.29883203125,25.1851875,30.3986328125,27.44112890625,29.0300546875,19.90073046875,19.01937890625,10.202,31.041484375,18.50909765625,11.76838671875,11.2795859375,29.01525390625,23.747828125,16.9659375,21.57001953125,15.40234375,40.67523046875,19.04087109375,2.526546875,44.0411328125,24.85217578125,3.9802890625,8.0483515625,9.30668359375,12.7049921875,22.20087890625,-2.6173359375,-11.16229296875
39.64341796875,28.09983203125,25.6371875,29.2576328125,29.13212890625,31.6990546875,21.13173046875,15.55237890625,13.054,33.655484375,20.25309765625,10.74738671875,7.7275859375,31.21525390625,25.114828125,15.5889375,20.44201953125,15.05934375,41.87223046875,17.91087109375,0.389546875,42.8041328125,24.50117578125,2.9182890625,5.1453515625,7.31768359375,8.4559921875,18.21987890625,-8.1063359375,-15.74929296875
36.04141796875,25.74283203125,25.0311875,26.3366328125,29.55412890625,32.1870546875,21.25273046875,10.70437890625,14.639,34.268484375,20.79809765625,9.46138671875,4.4375859375,31.24225390625,24.674828125,14.1559375,17.52801953125,13.10134375,40.83723046875,16.11287109375,-1.566453125,40.1831328125,22.63517578125,2.0302890625,2.6053515625,4.73468359375,4.2819921875,14.10087890625,-12.9133359375,-19.01029296875
33.30341796875,22.18983203125,23.7931875,22.7046328125,28.62912890625,30.5610546875,20.29273046875,6.79737890625,14.619,32.869484375,20.19609765625,8.42738671875,2.2625859375,29.08925390625,22.718828125,12.9899375,14.06101953125,9.87534375,37.74123046875,13.94587109375,-2.801453125,36.4571328125,19.41717578125,0.7402890625,0.9823515625,1.66768359375,0.9139921875,10.37687890625,-16.2393359375,-20.43529296875
31.72941796875,18.47883203125,22.2651875,19.3846328125,26.33212890625,27.3540546875,18.48473046875,5.45337890625,12.774,29.871484375,18.72309765625,8.06638671875,1.8235859375,25.13425390625,19.867828125,12.3259375,11.05001953125,5.86934375,33.10823046875,11.72887109375,-2.990453125,31.9041328125,15.20317578125,-1.1327109375,0.5233515625,-1.70231640625,-1.2310078125,7.37687890625,-17.6203359375,-19.82729296875
30.34841796875,15.31283203125,20.5341875,17.0466328125,22.89312890625,23.3520546875,16.07773046875,6.93037890625,9.216,25.932484375,16.69009765625,8.40038671875,3.0935859375,19.99025390625,16.787828125,12.1119375,9.09201953125,1.53734375,27.63223046875,9.66887109375,-2.188453125,26.7211328125,10.42017578125,-3.4477109375,1.0333515625,-5.12831640625,-2.1600078125,5.12187890625,-17.0873359375,-17.40529296875
27.71641796875,12.85883203125,18.3531875,15.8636328125,18.89812890625,19.3670546875,13.33073046875,10.13737890625,4.515,21.745484375,14.32109765625,8.99738671875,5.2555859375,14.34825390625,13.924828125,11.9749375,8.39801953125,-2.79465625,21.99123046875,7.78287109375,-0.831453125,20.9911328125,5.45717578125,-5.9327109375,1.9293515625,-8.30331640625,-2.2470078125,3.33087890625,-15.1433359375,-13.81729296875
23.00841796875,10.86783203125,15.2901875,15.5326328125,15.14912890625,16.0620546875,10.61673046875,13.32737890625,-0.415,17.886484375,11.77309765625,9.24138671875,7.0905859375,8.86725390625,11.415828125,11.4009375,8.89701953125,-6.88065625,16.73923046875,5.89787109375,0.448546875,14.7581328125,0.642175781250001,-8.3797109375,2.4903515625,-10.86731640625,-2.0250078125,1.57287890625,-12.5453359375,-9.95829296875
16.67941796875,8.98683203125,11.0971875,15.4376328125,12.32312890625,13.8140546875,8.39373046875,15.03937890625,-4.627,14.696484375,9.19209765625,8.70238671875,7.6515859375,4.09525390625,9.111828125,9.9989375,10.31401953125,-10.47665625,12.23623046875,3.72487109375,1.091546875,8.1651328125,-3.73982421875,-10.7667109375,2.1413515625,-12.46731640625,-1.9450078125,-0.514121093749999,-9.9873359375,-6.65529296875
10.23541796875,7.02283203125,6.0481875,14.8956328125,10.65612890625,12.6170546875,6.93973046875,14.76737890625,-7.482,12.186484375,6.70709765625,7.32538671875,6.7415859375,0.37325390625,6.669828125,7.6419375,12.25301953125,-13.34065625,8.61423046875,0.97187109375,0.807546875,1.5291328125,-7.47082421875,-13.2857109375,0.6333515625,-12.87831640625,-2.2420078125,-3.08012109375,-7.8763359375,-4.37729296875
5.32441796875,4.99983203125,1.0111875,13.4566328125,9.86612890625,12.0470546875,6.11773046875,13.01037890625,-8.823,10.064484375,4.36809765625,5.37038671875,4.9355859375,-2.22374609375,3.698828125,4.4599375,14.28901953125,-15.31865625,5.76823046875,-2.52512890625,-0.362453125,-4.6628671875,-10.44182421875,-16.2327109375,-1.9416484375,-12.12131640625,-2.9280078125,-6.03412109375,-6.2583359375,-3.10029296875
2.81241796875,3.04883203125,-2.8718125,11.1226328125,9.32812890625,11.3820546875,5.42473046875,10.79837890625,-8.969,7.915484375,2.14809765625,3.22638671875,3.2015859375,-3.84574609375,-0.0381718749999989,0.7559375,16.04001953125,-16.42465625,3.40723046875,-6.69612890625,-2.112453125,-9.8268671875,-12.65282421875,-19.7857109375,-5.2006484375,-10.48031640625,-3.8480078125,-9.10912109375,-4.9173359375,-2.38129296875
2.42041796875,1.25883203125,-4.7428125,8.3326328125,8.36812890625,9.8840546875,4.27073046875,9.01537890625,-8.542,5.428484375,-0.0119023437500001,1.21038671875,2.3915859375,-4.76974609375,-4.446171875,-3.0860625,17.15501953125,-16.85065625,1.19023046875,-11.19612890625,-4.028453125,-13.4258671875,-14.16582421875,-23.7927109375,-8.5966484375,-8.42831640625,-4.7790078125,-11.96812109375,-3.5813359375,-1.64429296875
3.05141796875,-0.378167968750001,-4.4878125,5.6866328125,6.53812890625,7.1240546875,2.25073046875,7.93237890625,-8.241,2.524484375,-2.16290234375,-0.555613281250001,2.8675859375,-5.30374609375,-9.062171875,-6.6950625,17.29801953125,-16.88765625,-1.11176953125,-15.46112890625,-5.766453125,-15.1138671875,-15.05782421875,-27.7277109375,-11.5706484375,-6.52431640625,-5.5390078125,-14.31212109375,-2.1433359375,-0.53429296875
3.47941796875,-1.90016796875,-2.7898125,3.6136328125,3.80112890625,3.2240546875,-0.683269531250001,7.17237890625,-8.599,-0.632515624999998,-4.29490234375,-2.12261328125,4.4235859375,-5.69974609375,-13.180171875,-9.7350625,16.22001953125,-16.78265625,-3.45976953125,-18.82412890625,-7.146453125,-14.7968671875,-15.36082421875,-30.8267109375,-13.6586484375,-5.25931640625,-6.0370078125,-15.89712109375,-0.7513359375,0.86370703125
2.93041796875,-3.25016796875,-0.7318125,2.2356328125,0.581128906249999,-1.1119453125,-4.10226953125,6.08937890625,-9.801,-3.670515625,-6.24690234375,-3.52761328125,6.4815859375,-6.04674609375,-16.045171875,-11.8510625,13.95301953125,-16.57565625,-5.50676953125,-20.65812890625,-8.089453125,-12.5468671875,-14.99382421875,-32.3147109375,-14.5036484375,-4.85531640625,-6.2230078125,-16.45012109375,0.3376640625,2.12770703125
1.31841796875,-4.18716796875,0.7711875,1.4716328125,-2.33587109375,-4.8189453125,-7.09126953125,4.30337890625,-11.628,-6.063515625,-7.63990234375,-4.60261328125,8.3885859375,-6.19574609375,-17.064171875,-12.6100625,10.97901953125,-16.03065625,-6.69376953125,-20.49512890625,-8.490453125,-8.4758671875,-13.74282421875,-31.6437109375,-13.8296484375,-5.11031640625,-5.9980078125,-15.61312109375,0.9956640625,2.80170703125
-0.80758203125,-4.30016796875,1.3791875,1.2216328125,-4.04987109375,-6.8429453125,-8.48026953125,2.07037890625,-13.532,-7.279515625,-7.95190234375,-4.96861328125,9.6475859375,-5.83674609375,-15.992171875,-11.5840625,8.16101953125,-14.75665625,-6.47676953125,-18.11612890625,-8.151453125,-2.6998671875,-11.35882421875,-28.6727109375,-11.4856484375,-5.42231640625,-5.2060078125,-13.03612109375,1.3556640625,2.67870703125
-2.44258203125,-3.14416796875,1.3851875,1.4686328125,-3.89787109375,-6.5339453125,-7.32826953125,0.24537890625,-14.836,-6.992515625,-6.74290234375,-4.22561328125,10.0725859375,-4.68774609375,-13.019171875,-8.5580625,6.42501953125,-12.44265625,-4.54976953125,-13.58412890625,-6.836453125,4.5771328125,-7.72982421875,-23.7167109375,-7.5446484375,-5.02031640625,-3.7060078125,-8.59012109375,1.7416640625,1.90470703125
-2.38158203125,-0.435167968750001,1.4951875,2.2916328125,-1.78487109375,-3.8809453125,-3.42026953125,-0.138621093749999,-14.989,-5.241515625,-3.90290234375,-2.19561328125,9.8585859375,-2.69274609375,-8.730171875,-3.7210625,6.33601953125,-9.08065625,-0.969769531249998,-7.26212890625,-4.389453125,12.9571328125,-3.00582421875,-17.4637109375,-2.3616484375,-3.25631640625,-1.4590078125,-2.54612109375,2.4916640625,0.90770703125
0.34941796875,3.75583203125,2.4481875,3.7986328125,1.68812890625,0.448054687500001,2.50473046875,1.53237890625,-13.791,-2.474515625,0.197097656250001,0.932386718749999,9.4985859375,-0.0967460937499993,-3.957171875,2.2719375,7.82501953125,-5.03965625,3.81823046875,0.153871093749999,-0.853453125,21.7971328125,2.38917578125,-10.8107109375,3.4693515625,0.15768359375,1.4009921875,4.38387890625,3.7556640625,0.23070703125
5.93241796875,8.89583203125,4.6561875,6.0326328125,5.41212890625,5.3080546875,8.89173046875,5.04937890625,-11.449,0.550484375000002,4.72409765625,4.59838671875,9.5095859375,2.62125390625,0.394828125000001,8.3869375,10.24301953125,-1.00265625,9.03423046875,7.63787109375,3.459546875,30.2101328125,7.80117578125,-4.7237109375,9.2093515625,5.04668359375,4.5249921875,11.15187890625,5.3846640625,0.33070703125
13.40041796875,14.08183203125,8.0251875,8.8706328125,8.24312890625,9.4320546875,13.87873046875,9.39537890625,-8.455,2.971484375,8.59309765625,8.00738671875,10.1035859375,4.90325390625,3.545828125,13.4629375,12.68601953125,2.21934375,13.72023046875,13.99387109375,7.996546875,37.1601328125,12.46317578125,-0.0917109374999998,14.1093515625,10.83668359375,7.3749921875,16.60687890625,6.9766640625,1.45170703125
20.89941796875,18.33383203125,12.0251875,11.9636328125,9.43912890625,11.8480546875,16.03073046875,13.20037890625,-5.358,4.145484375,10.87909765625,10.42138671875,11.0785859375,6.33925390625,5.059828125,16.5809375,14.40101953125,3.96234375,17.01523046875,18.19587109375,12.124546875,41.6961328125,15.69717578125,2.4752890625,17.6003515625,16.77168359375,9.3999921875,19.83787890625,8.1056640625,3.65070703125
26.52541796875,20.94383203125,15.9301875,14.7796328125,8.84912890625,12.1810546875,14.97073046875,15.35337890625,-2.58,3.928484375,11.22509765625,11.44638671875,12.0095859375,6.83625390625,5.023828125,17.4169375,15.05801953125,3.96034375,18.45323046875,19.75687109375,15.361546875,43.2851328125,17.16417578125,2.8802890625,19.4803515625,22.20268359375,10.3049921875,20.53787890625,8.6486640625,6.93870703125
29.20141796875,21.70283203125,19.0571875,16.7426328125,6.83412890625,10.7260546875,11.52873046875,15.44137890625,-0.382,2.736484375,10.00009765625,11.14638671875,12.5835859375,6.62925390625,4.028828125,16.3419375,14.79801953125,2.45734375,18.14623046875,18.91287109375,17.524546875,42.0471328125,16.99517578125,1.6362890625,19.9863515625,26.77768359375,10.2599921875,19.17287890625,8.9476640625,11.35770703125
28.99641796875,20.88783203125,20.9481875,17.4206328125,4.07712890625,8.2730546875,7.27873046875,13.81437890625,1.094,1.314484375,8.06109765625,9.91738671875,12.7845859375,6.10325390625,2.909828125,14.2019375,14.10201953125,0.0893437500000003,16.71623046875,16.51587109375,18.730546875,38.7211328125,15.72417578125,-0.2927109375,19.6663515625,30.43368359375,9.8509921875,16.82987890625,9.6806640625,16.90470703125
26.78841796875,19.06383203125,21.4631875,16.6986328125,1.40212890625,5.7760546875,3.78973046875,11.36237890625,1.781,0.376484375000002,6.30809765625,8.27238671875,12.8125859375,5.59425390625,2.386828125,11.9219375,13.54801953125,-2.37365625,15.03923046875,13.68587109375,19.280546875,34.3691328125,14.03817578125,-1.8367109375,19.1443515625,33.25568359375,9.8159921875,14.78987890625,11.5056640625,23.36170703125
23.61541796875,16.85283203125,20.7891875,14.8656328125,-0.40487109375,4.0170546875,2.05073046875,9.14737890625,1.7,0.341484375000002,5.31109765625,6.70638671875,12.8305859375,5.27825390625,2.804828125,10.1759375,13.54801953125,-4.30365625,13.88723046875,11.37187109375,19.503546875,29.9761328125,12.51017578125,-2.2227109375,18.8803515625,35.28968359375,10.6749921875,14.02087890625,14.6766640625,30.17470703125
20.15041796875,14.70283203125,19.2841875,12.5016328125,-0.83087109375,3.3640546875,2.26873046875,8.00637890625,0.975,1.207484375,5.14509765625,5.60738671875,12.7205859375,5.14525390625,4.035828125,9.2149375,14.16601953125,-5.44065625,13.58823046875,9.98387109375,19.569546875,26.1101328125,11.35217578125,-1.2927109375,18.9543515625,36.37568359375,12.4039921875,14.77187890625,18.7886640625,36.41670703125
16.52141796875,12.73183203125,17.2111875,10.1866328125,0.145128906249999,3.6870546875,3.97473046875,8.21137890625,-0.226,2.531484375,5.42309765625,5.14838671875,12.0165859375,4.96125390625,5.502828125,8.8309375,15.09101953125,-6.01765625,13.82623046875,9.23187109375,19.313546875,22.7451328125,10.26617578125,0.3422890625,18.9383515625,36.05268359375,14.2709921875,16.40587890625,22.7566640625,40.85270703125
12.47841796875,10.67583203125,14.5421875,8.2056328125,1.96612890625,4.4360546875,6.26573046875,9.29537890625,-1.799,3.515484375,5.48009765625,5.19238671875,10.0855859375,4.24825390625,6.337828125,8.4399375,15.78901953125,-6.71465625,13.70423046875,8.24887109375,18.183546875,19.3511328125,8.50117578125,1.4342890625,17.9493515625,33.62868359375,14.9729921875,17.58887890625,25.0776640625,42.14170703125
7.74841796875,8.04583203125,11.0381875,6.4546328125,3.63112890625,4.8300546875,8.11373046875,10.20937890625,-3.762,3.271484375,4.66509765625,5.33138671875,6.5275859375,2.40125390625,5.677828125,7.3269375,15.72901953125,-8.37565625,12.10023046875,5.97387109375,15.431546875,15.2511328125,5.18117578125,0.5522890625,14.9943515625,28.47968359375,13.1349921875,16.82587890625,24.3616640625,39.24970703125
2.33841796875,4.42683203125,6.5931875,4.6036328125,4.03912890625,4.1330546875,8.64573046875,9.81437890625,-6.191,1.210484375,2.63809765625,5.08838671875,1.5525859375,-1.05074609375,3.027828125,4.9779375,14.56401953125,-11.60465625,8.19923046875,1.65487109375,10.521546875,10.0441328125,-0.22682421875,-3.2837109375,9.4933515625,20.45268359375,7.9519921875,13.11287890625,19.9026640625,31.90070703125
-3.37458203125,-0.20016796875,1.5511875,2.3586328125,2.41912890625,1.9440546875,7.34973046875,7.45537890625,-9.028,-2.642515625,-0.472902343749999,4.15238671875,-3.9054140625,-6.15374609375,-1.459171875,1.3629375,12.22201953125,-16.44265625,1.94023046875,-4.72512890625,3.550546875,3.8481328125,-7.56582421875,-10.0887109375,1.6893515625,10.14068359375,-0.3550078125,6.35787890625,12.0126640625,20.84670703125
-8.72958203125,-5.26116796875,-3.2408125,-0.294367187499997,-1.26487109375,-1.5289453125,4.23473046875,3.35837890625,-11.89,-7.536515625,-4.07190234375,2.54838671875,-8.4824140625,-12.34674609375,-6.909171875,-2.9550625,8.94601953125,-22.27665625,-5.80376953125,-12.28412890625,-4.546453125,-2.7768671875,-15.96582421875,-18.7677109375,-7.2806484375,-1.15531640625,-10.5390078125,-2.64212109375,1.9146640625,7.72870703125
-12.89058203125,-9.64616796875,-6.7158125,-2.9783671875,-6.12387109375,-5.3339453125,0.0187304687499985,-1.35462109375,-14.053,-12.104515625,-7.19190234375,0.717386718749999,-10.9054140625,-18.44974609375,-11.875171875,-6.8960625,5.31101953125,-27.97665625,-13.38876953125,-19.42612890625,-12.147453125,-9.1218671875,-24.09882421875,-27.4207109375,-15.6966484375,-11.73731640625,-20.7730078125,-12.58712109375,-8.7213359375,-5.39529296875
-14.89558203125,-12.02616796875,-8.0058125,-4.9693671875,-10.50487109375,-7.9219453125,-3.82226953125,-5.00562109375,-14.656,-14.703515625,-8.68090234375,-0.529613281250001,-10.4734140625,-22.91274609375,-14.722171875,-9.1440625,2.15001953125,-32.22165625,-18.88376953125,-24.35512890625,-17.426453125,-14.6558671875,-30.60382421875,-33.9917109375,-21.8246484375,-19.98531640625,-29.3160078125,-22.21112109375,-18.3513359375,-16.66529296875
-13.80758203125,-11.36016796875,-6.7808125,-5.4253671875,-12.54087109375,-7.6779453125,-5.42526953125,-5.97662109375,-13.052,-13.973515625,-7.54890234375,-0.276613281250001,-7.2594140625,-24.32074609375,-14.191171875,-8.5920625,0.34401953125,-33.91565625,-20.73676953125,-25.73412890625,-19.013453125,-19.2208671875,-34.51282421875,-37.0207109375,-24.5306484375,-24.84431640625,-35.0970078125,-30.67412109375,-26.0033359375,-24.93129296875
-9.13858203125,-7.39016796875,-3.3628125,-3.7023671875,-10.89687109375,-3.6669453125,-3.33026953125,-3.37762109375,-9.097,-9.437515625,-3.42090234375,2.07038671875,-2.0054140625,-21.97474609375,-9.968171875,-4.8440625,0.525019531250001,-32.56065625,-18.37976953125,-23.21612890625,-16.542453125,-22.9888671875,-35.52882421875,-36.1917109375,-23.6956484375,-26.12731640625,-37.9580078125,-37.64112109375,-31.3943359375,-29.95929296875
-1.35458203125,-0.87916796875,1.3951875,0.376632812500002,-5.37387109375,3.7590546875,2.71473046875,2.49037890625,-3.25,-1.821515625,3.13409765625,6.41038671875,4.1615859375,-16.23774609375,-2.935171875,1.5049375,2.83001953125,-28.39965625,-12.47976953125,-17.61712890625,-10.834453125,-26.1828671875,-34.02882421875,-32.4107109375,-20.2086484375,-24.53031640625,-38.4800078125,-43.02712109375,-34.7163359375,-32.26429296875
7.90641796875,6.56583203125,6.3901875,6.3956328125,2.91112890625,12.8900546875,11.44073046875,10.13237890625,3.513,7.122484375,10.64509765625,11.86738671875,10.0245859375,-8.42974609375,5.054828125,8.9759375,6.77501953125,-22.27865625,-4.73076953125,-10.68012890625,-3.644453125,-28.7248671875,-30.78982421875,-27.3887109375,-15.5826484375,-21.32931640625,-37.5460078125,-46.64412109375,-36.2813359375,-32.69029296875
16.22841796875,13.05783203125,10.5771875,13.3806328125,11.87012890625,21.2480546875,20.41473046875,17.38037890625,9.961,15.217484375,17.18609765625,17.05338671875,14.5215859375,-0.34274609375,11.814828125,15.6699375,11.33901953125,-15.30765625,2.77123046875,-4.49712890625,2.923546875,-30.0748671875,-26.63482421875,-22.9397109375,-11.3756484375,-17.94331640625,-35.9390078125,-48.03312109375,-36.2563359375,-32.00729296875
21.32341796875,17.13083203125,13.2231875,19.9976328125,19.17512890625,26.5680546875,26.89973046875,22.20737890625,14.982,20.611484375,21.03609765625,20.57338671875,16.9815859375,6.37825390625,15.607828125,19.9039375,15.26801953125,-8.45565625,8.29323046875,-0.809128906250001,7.106546875,-29.3588671875,-22.13182421875,-20.3027109375,-8.6746484375,-15.51631640625,-34.0980078125,-46.60112109375,-34.6203359375,-30.67429296875
22.03341796875,18.29983203125,14.0791875,24.8956328125,23.11512890625,27.7240546875,28.89773046875,23.49837890625,17.974,22.430484375,21.34109765625,21.58338671875,17.3755859375,10.79425390625,15.790828125,20.8249375,17.48801953125,-2.22165625,11.10723046875,-0.371128906250001,8.084546875,-25.7258671875,-17.42682421875,-19.6797109375,-7.7616484375,-14.62631640625,-32.0170078125,-41.93312109375,-31.2743359375,-28.80329296875
18.89141796875,17.20383203125,13.4431875,27.1326328125,23.23412890625,25.1770546875,26.02673046875,21.45237890625,19.102,21.119484375,18.52009765625,20.19138671875,16.4625859375,12.97725390625,13.107828125,18.7699375,17.45801953125,3.50134375,11.72823046875,-2.64112890625,6.276546875,-18.6998671875,-12.22282421875,-20.1517109375,-8.0196484375,-15.17231640625,-29.2210078125,-34.04412109375,-26.1713359375,-26.23729296875
13.87341796875,15.24483203125,12.0661875,26.5166328125,20.51112890625,20.7550546875,19.78473046875,17.45237890625,19.237,18.289484375,14.18009765625,17.47038671875,15.5985859375,13.91225390625,9.429828125,15.1759375,15.29801953125,9.25934375,11.61523046875,-5.96712890625,3.161546875,-8.4478671875,-5.95782421875,-20.0507109375,-8.1696484375,-16.51831640625,-24.9040078125,-23.49012109375,-19.4493359375,-22.74729296875
9.41641796875,13.88883203125,10.8581875,23.6826328125,16.96412890625,16.8870546875,12.97373046875,13.45737890625,19.576,16.028484375,10.48309765625,14.97538671875,16.1515859375,14.97325390625,6.972828125,11.9889375,11.69201953125,15.58834375,12.44923046875,-8.24612890625,0.648546875,4.1101328125,1.80017578125,-17.6997109375,-6.8316484375,-17.85031640625,-18.3000078125,-11.33612109375,-11.5533359375,-18.29929296875
7.30341796875,14.00783203125,10.5211875,19.8486328125,14.78212890625,15.5780546875,8.45173046875,11.17737890625,21.093,15.961484375,9.21109765625,14.01338671875,18.7945859375,17.19325390625,7.329828125,10.8119375,7.66901953125,22.54934375,15.32623046875,-7.80412890625,0.256546875,17.4021328125,10.93517578125,-12.2097109375,-3.1706484375,-18.55031640625,-9.1680078125,0.99987890625,-3.2693359375,-13.22529296875
8.06341796875,15.57683203125,11.2621875,16.3766328125,15.31312890625,17.5430546875,7.86873046875,11.40637890625,24.057,18.530484375,11.01509765625,15.05838671875,23.1575859375,20.71825390625,10.781828125,12.2389375,4.31901953125,29.51834375,20.26723046875,-4.11112890625,2.516546875,29.5651328125,20.58417578125,-3.9367109375,2.6973515625,-18.37531640625,1.8649921875,12.01487890625,4.4056640625,-8.18629296875
11.03941796875,17.81983203125,12.7281875,14.3116328125,18.42512890625,21.9150546875,11.00873046875,13.75637890625,27.88,22.846484375,15.17709765625,17.58738671875,28.0605859375,24.72425390625,16.223828125,15.6689375,2.49101953125,35.37634375,26.23123046875,1.98387109375,6.818546875,38.9141328125,29.31317578125,5.6012890625,9.7103515625,-17.40831640625,13.3069921875,20.41087890625,10.5176640625,-3.95329296875
14.82641796875,19.62883203125,14.1251875,14.0846328125,22.60412890625,26.6320546875,15.99673046875,16.85537890625,31.395,27.138484375,19.95509765625,20.34238671875,32.1285859375,27.79425390625,21.671828125,19.6189375,2.52601953125,38.94234375,31.56723046875,8.59887109375,11.736546875,44.3111328125,35.54617578125,14.2742890625,16.2443515625,-15.91731640625,23.1749921875,25.29087890625,14.3846640625,-1.17429296875
17.72241796875,20.02583203125,14.4981875,15.4566328125,25.73112890625,29.3480546875,20.16773046875,18.89237890625,33.402,29.515484375,23.28709765625,21.84638671875,34.3785859375,28.55625390625,25.067828125,22.3559375,4.15901953125,39.41834375,34.66623046875,13.57187109375,15.632546875,45.2921328125,38.07117578125,20.0912890625,20.6713515625,-14.23431640625,29.5949921875,26.22987890625,15.7076640625,-0.20029296875
18.18341796875,18.47883203125,13.1141875,17.6976328125,26.08012890625,28.3980546875,21.19473046875,18.31137890625,33.186,28.717484375,23.57709765625,20.96638671875,34.4905859375,26.27425390625,25.045828125,22.5559375,6.63801953125,36.66734375,34.53223046875,15.26687109375,17.297546875,42.0391328125,36.43617578125,21.8532890625,21.9303515625,-12.63431640625,31.4329921875,23.32487890625,14.6126640625,-0.95929296875
15.32741796875,15.01883203125,9.8251875,19.8746328125,22.99312890625,23.4290546875,18.00573046875,14.44537890625,30.716,24.555484375,20.26509765625,17.36438671875,32.7055859375,21.14625390625,21.361828125,19.7489375,9.02201953125,31.24534375,31.08123046875,13.08387109375,16.371546875,35.2781328125,31.10217578125,19.4972890625,19.8813515625,-11.22131640625,28.6729921875,17.22587890625,11.6406640625,-2.89129296875
9.32541796875,10.16183203125,5.1661875,21.0806328125,16.98612890625,15.4370546875,11.08573046875,7.84337890625,26.537,17.879484375,13.93909765625,11.61038671875,29.4885859375,14.16925390625,14.858828125,14.3659375,10.50501953125,24.19034375,25.06923046875,7.51687109375,13.361546875,26.1351328125,23.27617578125,14.0002890625,15.2993515625,-9.89431640625,22.3819921875,9.07787890625,7.6646640625,-5.04529296875
1.40241796875,4.70883203125,0.0941875000000003,20.5696328125,9.39612890625,6.2660546875,2.11273046875,0.0943789062500002,21.47,10.134484375,5.96509765625,4.88938671875,25.1815859375,6.66425390625,7.005828125,7.3939375,10.62201953125,16.67434375,17.75423046875,-0.168128906250001,9.285546875,15.9301328125,14.49017578125,6.9472890625,9.4813515625,-8.44931640625,14.2779921875,0.323878906250001,3.6896640625,-6.38229296875
-6.61058203125,-0.53616796875,-4.4838125,17.8386328125,1.79512890625,-2.1919453125,-6.85126953125,-6.79762109375,16.319,2.773484375,-2.13190234375,-1.52861328125,19.9005859375,-0.241746093749999,-0.696171875,-0.1080625,9.28301953125,9.69634375,10.44223046875,-8.44812890625,5.168546875,5.9491328125,6.14117578125,-0.0157109375000002,3.7193515625,-6.75631640625,6.1419921875,-7.60112109375,0.6096640625,-6.15429296875
-12.93358203125,-5.01416796875,-8.1178125,12.7466328125,-4.58487109375,-8.6919453125,-14.14526953125,-11.22862109375,11.637,-3.220515625,-9.21990234375,-6.77561328125,13.7445859375,-5.95574609375,-7.208171875,-7.3710625,6.68101953125,3.89734375,4.09423046875,-16.02812890625,1.647546875,-2.7528671875,-0.81582421875,-5.6247109375,-1.1246484375,-4.85331640625,-0.6730078125,-13.54112109375,-1.0083359375,-4.16029296875
-16.46358203125,-8.54016796875,-10.9868125,5.6636328125,-9.21987109375,-12.9469453125,-18.98926953125,-12.61362109375,7.612,-7.558515625,-14.81490234375,-10.60361328125,7.1305859375,-10.49074609375,-12.156171875,-14.0210625,3.15801953125,-0.50065625,-0.905769531249998,-22.15512890625,-1.145453125,-9.5088671875,-5.99582421875,-9.2567109375,-4.7816484375,-2.93431640625,-5.4850078125,-16.83712109375,-1.0443359375,-0.79429296875
-17.14058203125,-11.25516796875,-13.7828125,-2.4263671875,-12.31287109375,-15.4599453125,-21.54626953125,-11.57462109375,4.107,-10.588515625,-19.00790234375,-13.29061328125,0.935585937499999,-14.30774609375,-15.743171875,-19.9390625,-0.887980468749999,-3.66065625,-4.75376953125,-26.65812890625,-3.448453125,-14.1118671875,-9.52482421875,-10.9597109375,-7.4626484375,-1.23231640625,-8.2790078125,-17.40512109375,0.1986640625,3.15970703125
-15.92158203125,-13.43316796875,-17.3068125,-10.0243671875,-14.46687109375,-17.0559453125,-22.60426953125,-9.62562109375,0.868,-12.979515625,-22.14490234375,-15.31661328125,-3.7024140625,-17.96674609375,-18.422171875,-25.0030625,-5.02598046875,-5.99265625,-7.96776953125,-29.73112890625,-5.561453125,-16.7508671875,-11.84482421875,-11.2547109375,-9.5526484375,0.13468359375,-9.4900078125,-15.67112109375,2.1956640625,6.90270703125
-14.32758203125,-15.25116796875,-21.9098125,-15.4863671875,-16.23287109375,-18.3929453125,-23.04426953125,-8.48262109375,-2.207,-15.263515625,-24.44590234375,-16.99761328125,-5.8704140625,-21.71074609375,-20.496171875,-28.8670625,-8.81398046875,-7.91965625,-10.99076953125,-31.60512890625,-7.540453125,-17.8028671875,-13.41082421875,-10.7687109375,-11.2566484375,1.29368359375,-9.6830078125,-12.33712109375,4.4946640625,10.00170703125
-13.77658203125,-16.66916796875,-27.1008125,-17.6173671875,-17.82987109375,-19.7289453125,-23.43226953125,-9.31762109375,-4.952,-17.515515625,-25.83890234375,-18.31061328125,-5.3934140625,-25.22974609375,-21.908171875,-30.9690625,-11.84998046875,-9.68265625,-13.90176953125,-32.32612890625,-9.078453125,-17.6428671875,-14.47282421875,-9.9017109375,-12.4256484375,2.59368359375,-9.2980078125,-8.15812109375,6.8926640625,12.53570703125
-15.04558203125,-17.49216796875,-31.6468125,-16.2403671875,-19.19087109375,-20.9949453125,-23.94926953125,-12.29062109375,-7.065,-19.419515625,-26.12090234375,-19.02861328125,-3.0814140625,-27.82374609375,-22.383171875,-30.8300625,-13.82298046875,-11.30165625,-16.40076953125,-31.77612890625,-9.667453125,-16.6168671875,-15.05982421875,-8.7237109375,-12.6756484375,4.40568359375,-8.6020078125,-3.84412109375,9.3606640625,14.88570703125
-18.05258203125,-17.55016796875,-34.1778125,-12.4023671875,-20.21187109375,-22.0459453125,-24.58826953125,-16.58962109375,-8.386,-20.621515625,-25.28090234375,-19.01461328125,-0.516414062500001,-28.85974609375,-21.779171875,-28.4370625,-14.54798046875,-12.68765625,-18.07576953125,-29.87812890625,-8.912453125,-15.1298671875,-15.12882421875,-7.1037109375,-11.6936484375,6.86968359375,-7.7860078125,-0.0861210937499992,11.8096640625,17.33670703125
-21.95258203125,-16.87516796875,-33.9128125,-8.0153671875,-20.95187109375,-22.8489453125,-25.30026953125,-20.88762109375,-9.079,-21.062515625,-23.67590234375,-18.38961328125,0.589585937499999,-28.17274609375,-20.349171875,-24.3920625,-13.98198046875,-13.76265625,-18.70176953125,-26.82412890625,-6.786453125,-13.6928671875,-14.70382421875,-4.9107109375,-9.4776484375,9.79468359375,-7.0380078125,2.47187890625,13.9346640625,19.82470703125
-25.44458203125,-15.75816796875,-31.0758125,-5.0503671875,-21.60787109375,-23.4839453125,-25.95426953125,-23.96462109375,-9.553,-21.029515625,-21.91190234375,-17.44461328125,-0.861414062500001,-26.14974609375,-18.699171875,-19.6970625,-12.25998046875,-14.49565625,-18.36776953125,-23.14312890625,-3.641453125,-12.8258671875,-13.89582421875,-2.1427109375,-6.3446484375,12.76968359375,-6.5080078125,3.37087890625,15.2916640625,21.98970703125
-27.25658203125,-14.65516796875,-26.7938125,-4.6953671875,-22.26287109375,-23.9979453125,-26.24326953125,-25.17662109375,-10.155,-20.950515625,-20.55890234375,-16.42061328125,-4.9124140625,-23.48774609375,-17.502171875,-15.3350625,-9.73898046875,-14.85165625,-17.37076953125,-19.53212890625,-0.0364531249999999,-12.8968671875,-12.82682421875,1.0602890625,-2.7676484375,15.38068359375,-6.2320078125,2.52287890625,15.5176640625,23.42870703125
-26.67558203125,-13.96316796875,-22.5588125,-6.9223671875,-22.64387109375,-24.2809453125,-25.76326953125,-24.58962109375,-10.888,-21.117515625,-19.91890234375,-15.39561328125,-10.5714140625,-20.83074609375,-17.159171875,-11.9070625,-6.98798046875,-14.74665625,-15.99476953125,-16.56012890625,3.501546875,-13.9968671875,-11.56382421875,4.4742890625,0.8293515625,17.38368359375,-6.0780078125,0.285878906250001,14.5446640625,23.94070703125
-23.85258203125,-13.81816796875,-19.5598125,-10.6773671875,-22.16687109375,-24.0939453125,-24.27326953125,-22.76762109375,-11.392,-21.493515625,-19.94790234375,-14.32261328125,-16.2274140625,-18.49374609375,-17.606171875,-9.5220625,-4.67598046875,-14.03865625,-14.34476953125,-14.42212890625,6.643546875,-15.8888671875,-10.07082421875,7.8812890625,4.1823515625,18.72668359375,-5.7640078125,-2.60512109375,12.6846640625,23.60170703125
-19.71158203125,-14.00916796875,-18.2228125,-14.4793671875,-20.31187109375,-23.2329453125,-21.91526953125,-20.39462109375,-11.222,-21.709515625,-20.31990234375,-13.15561328125,-20.2664140625,-16.40574609375,-18.345171875,-7.9190625,-3.38598046875,-12.58565625,-12.33776953125,-12.92612890625,9.273546875,-18.0468671875,-8.20282421875,11.1402890625,7.1873515625,19.45168359375,-4.9380078125,-5.25312109375,10.5376640625,22.65770703125
-15.54958203125,-14.11916796875,-18.1968125,-17.0433671875,-17.06087109375,-21.6949453125,-19.23926953125,-17.98462109375,-10.195,-21.259515625,-20.57490234375,-11.94161328125,-21.6664140625,-14.27274609375,-18.684171875,-6.7290625,-3.43098046875,-10.33565625,-9.86076953125,-11.68412890625,11.360546875,-19.7808671875,-5.78482421875,14.2142890625,9.7893515625,19.50468359375,-3.3170078125,-6.87012109375,8.7516640625,21.32170703125
-12.57058203125,-13.78916796875,-18.7068125,-17.6153671875,-13.03787109375,-19.7099453125,-16.96726953125,-15.81962109375,-8.505,-19.777515625,-20.27790234375,-10.81461328125,-20.3624140625,-11.83074609375,-18.055171875,-5.7080625,-4.76098046875,-7.40765625,-6.93976953125,-10.36612890625,12.795546875,-20.4238671875,-2.72682421875,17.1442890625,11.8623515625,18.63468359375,-0.8070078125,-7.00712109375,7.7616640625,19.61570703125
-11.47158203125,-12.93816796875,-18.9908125,-16.0123671875,-9.18987109375,-17.6039453125,-15.59426953125,-14.03362109375,-6.561,-17.205515625,-19.11390234375,-9.87461328125,-17.1664140625,-8.99874609375,-16.205171875,-4.7580625,-7.00698046875,-4.07865625,-3.78876953125,-8.83312890625,13.364546875,-19.5028671875,0.91117578125,20.0362890625,13.2163515625,16.48568359375,2.4619921875,-5.60212109375,7.6666640625,17.41370703125
-12.18158203125,-11.77516796875,-18.5688125,-12.5433671875,-6.26187109375,-15.5739453125,-15.02926953125,-12.67462109375,-4.711,-13.754515625,-16.86690234375,-9.00661328125,-13.2594140625,-5.86874609375,-13.189171875,-3.7870625,-9.63998046875,-0.68165625,-0.705769531249999,-7.10212890625,12.879546875,-16.8138671875,4.94717578125,23.0552890625,13.7303515625,12.89668359375,6.2379921875,-2.85212109375,8.3156640625,14.66570703125
-13.86558203125,-10.60316796875,-17.3598125,-7.8713671875,-4.42687109375,-13.5239453125,-14.52126953125,-11.67962109375,-3.079,-9.767515625,-13.40490234375,-7.84161328125,-9.5954140625,-2.61774609375,-9.261171875,-2.5640625,-12.15098046875,2.52534375,2.09323046875,-5.22812890625,11.375546875,-12.4568671875,9.14617578125,26.3722890625,13.5063515625,8.14568359375,10.2699921875,0.93587890625,9.4746640625,11.59770703125
-15.30158203125,-9.59616796875,-15.6858125,-2.8273671875,-3.28987109375,-11.0909453125,-13.03226953125,-10.85862109375,-1.569,-5.625515625,-8.75290234375,-5.94861328125,-6.5744140625,0.550253906250001,-4.775171875,-0.7770625,-14.16598046875,5.42034375,4.56223046875,-3.21112890625,9.187546875,-6.8318671875,13.25217578125,30.0402890625,12.8823515625,2.95568359375,14.3589921875,5.40187890625,10.9436640625,8.69570703125
-15.46658203125,-8.69716796875,-14.1698125,1.8516328125,-2.20087109375,-7.8829453125,-9.85826953125,-9.97862109375,0.046,-1.720515625,-3.21890234375,-3.19161328125,-4.1284140625,3.42925390625,-0.147171874999999,1.7529375,-15.43298046875,8.00934375,6.80623046875,-0.996128906250001,6.868546875,-0.586867187499999,16.98117578125,33.9162890625,12.3093515625,-1.76031640625,18.3179921875,10.08087890625,12.5536640625,6.52170703125
-14.00258203125,-7.67816796875,-13.4378125,5.7486328125,-0.597871093750001,-3.7929453125,-5.12826953125,-8.87962109375,2.007,1.612484375,2.57209765625,0.0713867187499986,-2.0644140625,5.86125390625,4.204828125,4.9049375,-15.77398046875,10.35634375,8.97423046875,1.45987109375,4.995546875,5.5121328125,20.03017578125,37.6722890625,12.1873515625,-5.22331640625,21.9279921875,14.36587890625,14.1386640625,5.48670703125
-11.33058203125,-6.27816796875,-13.7398125,8.7686328125,1.82312890625,0.8370546875,0.171730468749999,-7.49262109375,4.457,4.212484375,7.83409765625,3.10338671875,-0.3684140625,7.79325390625,7.947828125,8.2689375,-15.09598046875,12.48234375,11.12323046875,4.10487109375,3.973546875,10.7391328125,22.11117578125,40.9062890625,12.7253515625,-7.01531640625,24.9199921875,17.54487890625,15.4946640625,5.71670703125
-8.42458203125,-4.34816796875,-14.6808125,10.9626328125,5.13512890625,5.3510546875,4.69973046875,-5.74362109375,7.343,6.171484375,11.89309765625,5.19938671875,0.738585937499999,9.27525390625,10.917828125,11.3479375,-13.49198046875,14.27034375,13.14223046875,6.76887109375,3.935546875,14.5131328125,22.97017578125,43.2432890625,13.8863515625,-7.13731640625,26.9929921875,18.90987890625,16.3796640625,7.02270703125
-6.37058203125,-1.93916796875,-15.2988125,12.3446328125,9.26912890625,9.1360546875,7.53173046875,-3.46262109375,10.405,7.809484375,14.45709765625,6.13038671875,1.0235859375,10.40425390625,13.147828125,13.7939375,-11.30298046875,15.45334375,14.76023046875,9.20087109375,4.785546875,16.4761328125,22.42817578125,44.4112890625,15.4153515625,-5.91231640625,27.8729921875,17.95187890625,16.5556640625,8.97870703125
-5.86358203125,0.637832031249999,-14.4978125,12.9056328125,14.00712890625,11.9440546875,8.78573046875,-0.456621093749999,13.236,9.538484375,15.74609765625,6.34638671875,0.5755859375,11.22725390625,14.802828125,15.5659375,-9.00798046875,15.72534375,15.62923046875,11.11387109375,6.335546875,16.5591328125,20.44617578125,44.2812890625,16.9583515625,-3.79931640625,27.4209921875,14.57687890625,15.8886640625,11.07670703125
-6.88158203125,2.83483203125,-11.6988125,12.7616328125,18.88512890625,13.9460546875,9.63473046875,3.24937890625,15.377,11.638484375,16.34609765625,6.75638671875,-0.0374140625000008,11.65225390625,16.026828125,16.8589375,-6.97698046875,14.88534375,15.41423046875,12.19187109375,8.396546875,14.9851328125,17.16917578125,42.8742890625,18.1693515625,-1.21431640625,25.6979921875,9.21487890625,14.4226640625,12.88870703125
-8.76158203125,3.98483203125,-7.3488125,12.2376328125,23.12912890625,15.4780546875,11.55473046875,7.19137890625,16.393,14.021484375,16.82909765625,8.15238671875,-0.00441406250000043,11.39225390625,16.764828125,17.8389375,-5.30198046875,12.89034375,13.85923046875,12.05987109375,10.731546875,12.1611328125,12.88917578125,40.3152890625,18.7293515625,1.50468359375,22.9379921875,2.71687890625,12.3566640625,14.13470703125
-10.61058203125,3.56283203125,-2.9178125,11.7446328125,25.76212890625,16.6820546875,15.20273046875,10.49937890625,15.946,16.103484375,17.33009765625,10.62138671875,1.2265859375,10.00125390625,16.676828125,18.3509375,-3.85498046875,9.82534375,10.83923046875,10.32787109375,12.916546875,8.5121328125,7.93717578125,36.7832890625,18.2953515625,4.04868359375,19.4339921875,-3.92212109375,9.9266640625,14.65970703125
-11.74958203125,1.48783203125,-0.2668125,11.5306328125,25.89012890625,17.2870546875,19.66973046875,12.26337890625,13.919,16.971484375,17.40609765625,13.35438671875,3.5505859375,7.10425390625,15.293828125,17.8639375,-2.54698046875,5.88134375,6.46123046875,6.73887109375,14.316546875,4.4061328125,2.64217578125,32.5242890625,16.5423515625,6.09068359375,15.4579921875,-9.85312109375,7.3216640625,14.41870703125
-11.90358203125,-1.70416796875,-0.733812500000001,11.4986328125,23.05512890625,16.7110546875,22.73173046875,11.99937890625,10.533,15.832484375,16.29709765625,15.00838671875,6.2125859375,2.72025390625,12.361828125,15.7279375,-1.55798046875,1.41034375,1.13423046875,1.37387109375,14.256546875,0.2181328125,-2.62582421875,27.8782890625,13.3013515625,7.31668359375,11.2269921875,-14.53512109375,4.6726640625,13.45570703125
-11.20258203125,-5.01316796875,-4.5018125,11.2526328125,17.53012890625,14.4400546875,22.03873046875,9.90137890625,6.385,12.476484375,13.44109765625,14.38038671875,8.1635859375,-2.53374609375,8.134828125,11.6039375,-1.31898046875,-3.04465625,-4.46576953125,-5.23612890625,12.287546875,-3.6038671875,-7.43782421875,23.2242890625,8.6973515625,7.47868359375,6.8869921875,-17.79212109375,2.0486640625,11.82870703125
-10.12858203125,-7.41216796875,-10.5568125,10.3526328125,10.44512890625,10.4850546875,16.54073046875,6.68137890625,2.359,7.481484375,8.90309765625,11.01338671875,8.5425859375,-7.56074609375,3.404828125,5.7759375,-2.23598046875,-6.85165625,-9.55576953125,-12.16512890625,8.418546875,-6.5958671875,-11.37782421875,18.8052890625,3.1553515625,6.41368359375,2.4799921875,-19.79812109375,-0.5713359375,9.49170703125
-9.37858203125,-8.32116796875,-17.0918125,8.6196328125,3.59112890625,5.5820546875,7.28673046875,3.15037890625,-0.605,2.071484375,3.48609765625,5.46438671875,7.0475859375,-11.14374609375,-0.766171874999999,-0.7980625,-4.33998046875,-9.46365625,-13.44276953125,-18.29912890625,3.175546875,-8.4128671875,-14.15282421875,14.5842890625,-2.7096484375,4.09168359375,-2.0480078125,-20.94512109375,-3.3183359375,6.25470703125
-9.55358203125,-7.81216796875,-22.0938125,6.2796328125,-1.16187109375,0.982054687500002,-2.93426953125,-0.13462109375,-1.815,-2.310515625,-1.54690234375,-0.884613281250001,4.0495859375,-12.37774609375,-3.458171875,-6.7490625,-7.14698046875,-10.58265625,-15.67076953125,-22.65112890625,-2.509453125,-8.9288671875,-15.62482421875,10.2782890625,-8.2266484375,0.69968359375,-6.7410078125,-21.62312109375,-6.3523359375,1.92670703125
-10.81558203125,-6.46016796875,-23.9958125,3.8866328125,-2.64687109375,-2.1119453125,-10.90326953125,-3.00162109375,-1.077,-4.558515625,-5.02190234375,-6.38561328125,0.4215859375,-10.98074609375,-4.288171875,-10.8020625,-9.84498046875,-10.22565625,-16.12376953125,-24.66812890625,-7.590453125,-8.2598671875,-15.77382421875,5.5672890625,-12.8056484375,-3.32031640625,-11.5390078125,-22.03112109375,-9.7343359375,-3.47629296875
-12.78458203125,-5.00516796875,-22.3218125,2.0776328125,-0.943871093750001,-3.1349453125,-14.46826953125,-5.58262109375,1.241,-4.376515625,-6.41990234375,-9.81961328125,-2.8634140625,-7.42074609375,-3.592171875,-12.2940625,-11.69798046875,-8.70465625,-15.06976953125,-24.42512890625,-11.251453125,-6.7418671875,-14.69182421875,0.3552890625,-16.0776484375,-7.37831640625,-16.2770078125,-22.15012109375,-13.3773359375,-9.63929296875
-14.73758203125,-4.04816796875,-18.0008125,1.2766328125,2.65612890625,-2.4439453125,-13.38726953125,-8.13862109375,4.334,-2.453515625,-6.13090234375,-10.87261328125,-5.0714140625,-2.80574609375,-2.321171875,-11.4510625,-12.39798046875,-6.52265625,-13.12576953125,-22.60612890625,-13.157453125,-4.8388671875,-12.60982421875,-5.0977109375,-17.9696484375,-10.93131640625,-20.7350078125,-21.85812109375,-17.0553359375,-16.01029296875
-15.95258203125,-3.90116796875,-13.0788125,1.4606328125,6.22012890625,-1.1749453125,-9.19326953125,-10.86762109375,7.206,-0.188515624999999,-5.26490234375,-10.14361328125,-5.8044140625,1.45225390625,-1.639171875,-9.2300625,-12.19998046875,-4.20165625,-11.11176953125,-20.26312890625,-13.456453125,-2.9658671875,-9.88282421875,-10.2297109375,-18.6456484375,-13.64031640625,-24.6410078125,-21.02712109375,-20.4133359375,-21.89929296875
-16.01158203125,-4.56416796875,-9.8308125,2.0916328125,7.95212890625,-0.741945312499999,-4.37226953125,-13.73862109375,8.953,0.901484375000001,-5.12990234375,-8.75661328125,-4.9404140625,4.09725390625,-2.439171875,-6.8530625,-11.77998046875,-2.12765625,-9.81276953125,-18.44512890625,-12.596453125,-1.2948671875,-6.90482421875,-14.3907109375,-18.3486484375,-15.41531640625,-27.5870078125,-19.53412109375,-22.9573359375,-26.56929296875
-15.01658203125,-5.77616796875,-9.7518125,2.3236328125,6.82612890625,-2.2259453125,-1.36126953125,-16.43462109375,9.036,-0.208515624999999,-6.66090234375,-7.82161328125,-2.6224140625,4.45325390625,-4.982171875,-5.3130625,-11.89198046875,-0.46165625,-9.72176953125,-17.80912890625,-11.085453125,0.3021328125,-3.98082421875,-17.0747109375,-17.2436484375,-16.36331640625,-28.9840078125,-17.22712109375,-24.0943359375,-29.32029296875
-13.61058203125,-7.11216796875,-12.9198125,1.4306328125,2.88312890625,-5.8849453125,-1.72226953125,-18.44262109375,7.496,-3.663515625,-10.02890234375,-7.99861328125,0.659585937499999,2.64725390625,-8.805171875,-5.0360625,-12.96698046875,0.84334375,-10.83676953125,-18.33912890625,-9.295453125,2.1201328125,-1.21382421875,-17.9967109375,-15.3416484375,-16.69631640625,-28.1360078125,-13.93512109375,-23.2863359375,-29.63129296875
-12.67458203125,-8.12016796875,-18.0028125,-0.724367187499997,-2.82987109375,-10.9919453125,-5.60326953125,-19.24162109375,4.974,-8.655515625,-14.52990234375,-9.23261328125,4.0895859375,-0.42574609375,-12.851171875,-5.7680625,-14.81498046875,1.96134375,-12.59376953125,-19.29612890625,-7.358453125,4.3931328125,1.53717578125,-17.0047109375,-12.4956484375,-16.58831640625,-24.4440078125,-9.53212109375,-20.2193359375,-27.29529296875
-12.76658203125,-8.46916796875,-22.8258125,-3.4993671875,-8.65087109375,-16.0759453125,-11.63426953125,-18.48062109375,2.497,-13.686515625,-18.78290234375,-10.76761328125,6.7745859375,-3.40674609375,-15.786171875,-6.6740625,-16.61998046875,3.08834375,-14.01176953125,-19.46812890625,-5.145453125,7.1241328125,4.60017578125,-13.9657109375,-8.4676484375,-16.05231640625,-17.6550078125,-4.02412109375,-14.9493359375,-22.51129296875
-13.69858203125,-8.02816796875,-25.2598125,-5.7273671875,-12.86787109375,-19.4819453125,-17.43326953125,-16.06162109375,1.108,-17.089515625,-21.23690234375,-11.45161328125,8.0645859375,-4.99074609375,-16.432171875,-6.6680625,-17.25798046875,4.32334375,-14.04576953125,-17.67212890625,-2.370453125,10.0401328125,8.29117578125,-8.8227109375,-3.1106484375,-14.93931640625,-8.0820078125,2.34787890625,-7.9423359375,-15.89029296875
-14.60458203125,-6.86216796875,-24.0928125,-6.2913671875,-14.28087109375,-20.0019453125,-20.59626953125,-12.16862109375,1.49,-17.673515625,-20.80890234375,-10.27661328125,7.7665859375,-4.44374609375,-14.216171875,-4.8900625,-15.83898046875,5.59934375,-11.99976953125,-13.30012890625,1.193546875,12.7021328125,12.67117578125,-1.8017109375,3.4303515625,-13.06231640625,3.3279921875,9.08887890625,-0.0233359375000002,-8.35129296875
-14.48758203125,-5.15716796875,-19.5408125,-4.6883671875,-12.56187109375,-17.3199453125,-19.71026953125,-7.30462109375,3.74,-15.164515625,-17.34790234375,-6.87461328125,6.1485859375,-1.86074609375,-9.412171875,-1.1030625,-12.18898046875,6.72134375,-7.81676953125,-6.64012890625,5.516546875,14.7261328125,17.41517578125,6.4192890625,10.6163515625,-10.35231640625,15.1629921875,15.54487890625,7.8156640625,-0.89929296875
-12.85358203125,-3.17916796875,-13.1808125,-1.2803671875,-8.32187109375,-12.0999453125,-14.84626953125,-2.33862109375,7.34,-10.256515625,-11.68490234375,-1.72761328125,3.7915859375,1.94725390625,-3.054171875,4.1629375,-7.03798046875,7.48334375,-2.11676953125,1.16987109375,10.224546875,16.0011328125,21.88917578125,14.7482890625,17.6043515625,-6.93431640625,25.9329921875,21.09487890625,14.6856640625,5.64770703125
-10.06558203125,-1.26716796875,-7.3558125,2.8306328125,-2.87487109375,-5.7309453125,-7.42926953125,1.55537890625,11.301,-4.328515625,-5.30490234375,3.96838671875,1.3125859375,5.80525390625,3.395828125,9.7729375,-1.77998046875,7.74934375,3.96923046875,8.51987109375,14.646546875,16.7231328125,25.32917578125,21.9222890625,23.4383515625,-3.11931640625,34.4519921875,25.28387890625,19.9906640625,10.81470703125
-7.24758203125,0.144832031249999,-4.2508125,6.2346328125,2.19112890625,0.134054687500001,0.355730468749998,3.21837890625,14.449,0.998484375000002,0.13809765625,8.69438671875,-0.918414062500001,8.54225390625,8.463828125,14.3109375,2.09201953125,7.41834375,9.06223046875,13.82987109375,17.957546875,17.1921328125,27.00717578125,26.7892890625,27.2343515625,0.62768359375,40.0159921875,27.80487890625,23.4586640625,14.43270703125
-5.77258203125,0.59183203125,-4.9988125,7.7566328125,5.48412890625,4.0700546875,6.33073046875,2.03537890625,15.763,4.303484375,3.31609765625,11.12038671875,-2.8694140625,9.24725390625,11.012828125,16.5199375,3.59701953125,6.35234375,11.84623046875,16.00887109375,19.421546875,17.5161328125,26.34817578125,28.5502890625,28.3353515625,3.77568359375,42.3649921875,28.39987890625,25.0256640625,16.48370703125
-6.53158203125,-0.24516796875,-9.1418125,6.9186328125,6.18112890625,5.2860546875,9.07973046875,-1.58662109375,14.685,4.769484375,3.62409765625,10.64038671875,-4.6534140625,7.46925390625,10.526828125,15.7589375,2.65001953125,4.38334375,11.42823046875,14.73187109375,18.679546875,17.4671328125,23.09317578125,26.9482890625,26.5093515625,5.89268359375,41.5799921875,26.84987890625,24.7466640625,17.01370703125
-9.38358203125,-2.29916796875,-14.7738125,4.1116328125,4.24312890625,3.8580546875,8.44173046875,-6.11362109375,11.349,2.451484375,1.40009765625,7.70238671875,-6.2154140625,3.35925390625,7.287828125,12.3109375,0.0620195312499998,1.44034375,7.67223046875,10.51787109375,15.964546875,16.5991328125,17.47917578125,22.3832890625,22.1233515625,6.82768359375,38.0389921875,23.11687890625,22.7796640625,16.14870703125
-13.14058203125,-4.99116796875,-19.3468125,0.372632812500003,0.44512890625,0.7280546875,5.52473046875,-9.38362109375,6.629,-1.724515625,-2.16290234375,3.69738671875,-7.2224140625,-2.29974609375,2.359828125,7.3649375,-2.80398046875,-2.29265625,1.35823046875,4.61287109375,12.099546875,14.5431328125,10.32517578125,15.8742890625,16.1563515625,6.77068359375,32.4209921875,17.54287890625,19.4216640625,14.14870703125
-16.11958203125,-7.34816796875,-20.7578125,-3.1013671875,-3.80487109375,-2.5859453125,2.17773046875,-9.52962109375,1.919,-6.260515625,-5.42490234375,0.397386718749999,-7.2394140625,-8.23574609375,-2.667171875,2.6179375,-4.57398046875,-6.27365625,-5.94376953125,-1.31012890625,8.248546875,11.2951328125,2.93717578125,8.8592890625,9.9873515625,6.18868359375,25.7059921875,10.95987890625,15.1646640625,11.44170703125
-16.90658203125,-8.35216796875,-18.1398125,-5.4413671875,-6.89687109375,-4.5449453125,0.177730468749999,-5.85362109375,-1.336,-9.594515625,-6.87390234375,-0.762613281250001,-6.0414140625,-13.00374609375,-6.142171875,-0.322062499999999,-4.37498046875,-9.66665625,-12.31576953125,-5.60712890625,5.544546875,7.3541328125,-3.18882421875,2.8352890625,5.0473515625,5.67668359375,19.0749921875,4.60687890625,10.7056640625,8.60870703125
-14.92858203125,-7.35416796875,-12.0758125,-6.3503671875,-7.59587109375,-4.1859453125,0.505730468749999,0.856378906250001,-2.202,-10.623515625,-5.68490234375,0.768386718749999,-3.8164140625,-15.41774609375,-6.917171875,-0.518062499999999,-2.14698046875,-11.58565625,-16.11176953125,-7.19312890625,4.727546875,3.6001328125,-6.80682421875,-1.0547109375,2.4123515625,5.79268359375,13.6709921875,-0.217121093749999,6.8496640625,6.28770703125
-10.65558203125,-4.35116796875,-4.2988125,-6.0533671875,-5.54887109375,-1.5429453125,2.98173046875,8.67237890625,-0.617,-9.117515625,-2.07190234375,4.49438671875,-1.1524140625,-14.99574609375,-4.816171875,1.9529375,1.36801953125,-11.48765625,-16.54976953125,-5.94412890625,5.909546875,0.903132812500001,-7.40282421875,-2.4047109375,2.4473515625,6.86268359375,10.2029921875,-2.68412109375,4.2336640625,4.95970703125
-5.39958203125,-0.044167968750001,2.8911875,-5.0893671875,-1.47587109375,2.3590546875,6.42373046875,15.25637890625,2.623,-5.818515625,2.72709765625,9.08238671875,1.1565859375,-12.20674609375,-0.779171874999999,6.0069375,4.98101953125,-9.52165625,-14.00376953125,-2.78012890625,8.543546875,-0.346867187500001,-5.49282421875,-1.7067109375,4.6343515625,8.81868359375,8.6019921875,-2.90712109375,3.0036640625,4.69970703125
-0.83358203125,4.32183203125,7.3701875,-4.0823671875,3.11412890625,5.9250546875,9.26773046875,18.61337890625,6.21,-2.143515625,6.90709765625,12.87038671875,2.3855859375,-8.33374609375,3.487828125,9.9809375,7.55901953125,-6.58965625,-9.85776953125,0.677871093749999,11.640546875,-0.5148671875,-2.53082421875,-0.1597109375,7.7373515625,11.18168359375,7.9839921875,-2.03112109375,2.6576640625,5.08870703125
1.61641796875,7.30383203125,7.9581875,-3.5613671875,6.57112890625,7.6540546875,10.34173046875,17.65637890625,8.834,0.422484375000002,8.85509765625,14.47738671875,2.1205859375,-4.96474609375,6.238828125,12.3139375,8.45801953125,-4.03165625,-5.94876953125,2.75587109375,14.151546875,-0.599867187500001,-0.37282421875,0.8352890625,10.2773515625,13.22668359375,7.0039921875,-1.82612109375,2.2106640625,5.36470703125
1.29841796875,7.74183203125,4.9101875,-3.8563671875,7.80112890625,6.7480546875,9.31773046875,12.56437890625,9.615,0.929484375000001,7.81709765625,13.27838671875,0.355585937499999,-3.35674609375,6.422828125,12.1479375,7.66601953125,-3.09765625,-3.87076953125,2.37387109375,15.320546875,-1.8108671875,-0.554824218749999,0.2422890625,11.0903515625,14.25468359375,4.4709921875,-3.95812109375,0.5996640625,4.71870703125
-1.40358203125,5.26483203125,-0.1748125,-5.0633671875,6.63512890625,3.3800546875,6.61273046875,4.84937890625,8.333,-0.741515624999998,4.13509765625,9.57538671875,-2.5944140625,-4.02274609375,4.041828125,9.5679375,5.65401953125,-4.46665625,-4.40076953125,-0.56612890625,14.874546875,-5.0228671875,-3.71782421875,-2.2337109375,9.6833515625,13.81468359375,-0.1240078125,-9.24712109375,-2.8343359375,2.59470703125
-5.18358203125,0.583832031249999,-5.0698125,-7.0553671875,3.67112890625,-1.4829453125,2.94373046875,-3.00562109375,5.38,-3.967515625,-1.00690234375,4.42738671875,-6.2374140625,-6.65474609375,0.0228281250000011,5.4379375,3.07501953125,-8.00665625,-7.28576953125,-5.23612890625,12.989546875,-10.3858671875,-9.38882421875,-6.1187109375,6.2963515625,11.83368359375,-6.3710078125,-17.25312109375,-8.0023359375,-1.11329296875
-8.35658203125,-4.69616796875,-7.9488125,-9.5543671875,-0.219871093750001,-6.5799453125,-1.07926953125,-8.39262109375,1.495,-7.728515625,-6.14190234375,-0.756613281250001,-10.0084140625,-10.36674609375,-4.304171875,0.9579375,0.499019531250001,-12.85665625,-11.45276953125,-10.32112890625,10.122546875,-17.2208671875,-16.18982421875,-10.4517109375,1.6983515625,8.61068359375,-13.1190078125,-26.35912109375,-14.0373359375,-5.99329296875
-9.68858203125,-8.76416796875,-8.2088125,-12.2573671875,-4.36087109375,-10.8949453125,-5.10826953125,-9.67662109375,-2.566,-11.064515625,-10.13090234375,-4.74961328125,-13.2834140625,-14.10274609375,-7.829171875,-2.8710625,-1.71898046875,-17.76865625,-15.54676953125,-14.62312890625,6.749546875,-24.2818671875,-22.39382421875,-14.2447109375,-3.1946484375,4.66168359375,-18.9800078125,-34.37112109375,-19.6343359375,-11.26429296875
-9.09558203125,-10.48216796875,-6.6428125,-14.9273671875,-8.37787109375,-13.9949453125,-9.00526953125,-6.97562109375,-6.237,-13.458515625,-12.57790234375,-6.99061328125,-15.3934140625,-17.04274609375,-10.115171875,-5.6390625,-3.44898046875,-21.55365625,-18.53476953125,-17.52612890625,3.146546875,-30.2248671875,-26.56782421875,-16.9177109375,-7.7056484375,0.48168359375,-22.9310078125,-39.38112109375,-23.6203359375,-16.08829296875
-7.68958203125,-9.90316796875,-4.8808125,-17.3923671875,-12.01487109375,-16.0449453125,-12.68626953125,-2.10862109375,-9.159,-14.955515625,-13.85890234375,-7.74961328125,-15.7084140625,-18.79274609375,-11.454171875,-7.5910625,-4.73598046875,-23.38465625,-20.06376953125,-19.06812890625,-0.648453125,-34.0278671875,-28.00882421875,-18.4667109375,-11.5786484375,-3.62931640625,-24.6600078125,-40.47212109375,-25.4453359375,-19.88429296875
-7.04758203125,-8.12116796875,-4.4148125,-19.4643671875,-14.92887109375,-17.5469453125,-15.96226953125,2.29237890625,-11.055,-15.975515625,-14.76390234375,-7.86361328125,-13.8324140625,-19.31574609375,-12.517171875,-9.2970625,-5.75298046875,-22.87265625,-20.39676953125,-19.64812890625,-4.653453125,-35.1588671875,-26.77482421875,-19.2737109375,-14.8436484375,-7.53931640625,-24.5100078125,-37.92412109375,-25.3013359375,-22.43829296875
-8.19358203125,-6.57916796875,-5.7928125,-20.8833671875,-16.72487109375,-18.9809453125,-18.49726953125,4.03237890625,-11.661,-16.952515625,-15.98590234375,-8.20961328125,-9.8454140625,-18.71874609375,-13.862171875,-11.1680625,-6.72298046875,-20.00165625,-20.06276953125,-19.60012890625,-8.687453125,-33.5378671875,-23.42182421875,-19.7147109375,-17.4996484375,-11.12631640625,-23.1200078125,-32.90012109375,-23.8813359375,-23.79729296875
-10.98558203125,-6.30016796875,-8.4158125,-21.3823671875,-17.18287109375,-20.5219453125,-19.95026953125,2.27537890625,-10.788,-18.092515625,-17.77390234375,-9.26861328125,-4.4214140625,-17.13174609375,-15.610171875,-13.1690625,-7.81598046875,-15.06665625,-19.46076953125,-18.92612890625,-12.245453125,-29.4518671875,-18.68282421875,-19.8577109375,-19.3016484375,-14.15031640625,-21.0500078125,-26.87012109375,-21.9733359375,-24.08529296875
-14.24558203125,-7.46416796875,-10.9628125,-20.8293671875,-16.46687109375,-21.9859453125,-20.18526953125,-2.25362109375,-8.494,-19.331515625,-19.89790234375,-10.99461328125,1.3045859375,-14.72174609375,-17.445171875,-14.8620625,-9.02798046875,-8.65265625,-18.67576953125,-17.34612890625,-14.614453125,-23.4958671875,-13.26282421875,-19.4067109375,-19.8116484375,-16.25531640625,-18.5820078125,-21.04212109375,-20.1043359375,-23.36629296875
-16.42458203125,-9.47616796875,-12.1408125,-19.3333671875,-15.13887109375,-22.9859453125,-19.38226953125,-7.76462109375,-5.216,-20.439515625,-21.83490234375,-12.94661328125,6.0965859375,-11.77674609375,-18.840171875,-15.6940625,-10.15398046875,-1.58865625,-17.54176953125,-14.58012890625,-15.157453125,-16.5068671875,-7.74282421875,-17.9097109375,-18.6286484375,-17.05431640625,-15.7110078125,-16.01312109375,-18.3593359375,-21.60729296875
-16.38358203125,-11.36816796875,-11.3258125,-17.2523671875,-13.92187109375,-23.1739453125,-17.94326953125,-12.27562109375,-1.709,-21.122515625,-23.02390234375,-14.54561328125,9.0235859375,-8.70574609375,-19.322171875,-15.3090625,-10.88098046875,5.18634375,-15.87476953125,-10.65912890625,-13.608453125,-9.4238671875,-2.57782421875,-15.0577109375,-15.6386484375,-16.24431640625,-12.2610078125,-11.72112109375,-16.4293359375,-18.73129296875
-13.96558203125,-12.27716796875,-8.8028125,-15.0813671875,-13.30287109375,-22.4039453125,-16.32126953125,-14.41862109375,1.225,-21.111515625,-23.06990234375,-15.31561328125,9.7235859375,-5.98074609375,-18.666171875,-13.7360625,-10.94798046875,10.80334375,-13.71276953125,-6.03512890625,-10.261453125,-3.1108671875,1.87217578125,-10.9367109375,-11.1616484375,-13.71731640625,-8.0810078125,-7.67912109375,-13.8583359375,-14.72329296875
-10.10858203125,-11.76716796875,-5.5558125,-13.2563671875,-13.18987109375,-20.7319453125,-14.84526953125,-13.86262109375,3.1,-20.229515625,-21.85290234375,-15.00861328125,8.4425859375,-4.00874609375,-16.947171875,-11.3620625,-10.25998046875,14.64134375,-11.39276953125,-1.42112890625,-5.928453125,1.8221328125,5.30817578125,-6.0797109375,-5.9086484375,-9.64331640625,-3.2160078125,-3.35512109375,-10.3373359375,-9.74729296875
-6.36358203125,-9.88916796875,-2.7488125,-11.9633671875,-12.88187109375,-18.3239453125,-13.59926953125,-11.21262109375,3.956,-18.404515625,-19.50590234375,-13.57561328125,5.9065859375,-3.00274609375,-14.453171875,-8.7250625,-8.89598046875,16.48234375,-9.44376953125,2.50687109375,-1.676453125,5.1541328125,7.53917578125,-1.3007109375,-0.7766484375,-4.48031640625,2.0289921875,1.52687890625,-5.8993359375,-4.16029296875
-4.00658203125,-7.05516796875,-1.1828125,-11.0963671875,-11.48287109375,-15.3679453125,-12.39626953125,-7.55062109375,4.248,-15.688515625,-16.31090234375,-11.06161328125,3.0825859375,-2.89674609375,-11.560171875,-6.2640625,-7.07198046875,16.54234375,-8.34676953125,5.33587109375,1.530546875,7.0681328125,8.55117578125,2.6012890625,3.4403515625,1.09868359375,7.1499921875,6.87587890625,-0.9153359375,1.55870703125
-3.31458203125,-3.88116796875,-1.0158125,-10.3993671875,-8.54887109375,-12.0539453125,-10.92126953125,-3.91862109375,4.449,-12.310515625,-12.63490234375,-7.61961328125,0.875585937499999,-3.40774609375,-8.673171875,-4.2370625,-5.11098046875,15.33434375,-8.34976953125,6.92387109375,3.091546875,8.0091328125,8.51517578125,5.0492890625,6.2203515625,6.30768359375,11.5599921875,12.28387890625,4.0256640625,6.89770703125
-3.54058203125,-1.05816796875,-1.8808125,-9.6653671875,-4.52687109375,-8.6019453125,-8.96826953125,-0.995621093750001,4.685,-8.766515625,-8.94690234375,-3.64361328125,-0.1374140625,-4.23474609375,-6.247171875,-2.8200625,-3.40398046875,13.42134375,-9.41276953125,7.27987109375,2.809546875,8.4371328125,7.68517578125,5.7612890625,7.3303515625,10.36668359375,14.6999921875,17.14887890625,8.2836640625,11.36770703125
-3.56758203125,0.77183203125,-3.2748125,-8.8243671875,-0.63487109375,-5.2809453125,-6.56126953125,0.94737890625,4.671,-5.753515625,-5.80290234375,0.154386718749999,0.1825859375,-5.20374609375,-4.746171875,-2.2210625,-2.36298046875,11.22534375,-11.24876953125,6.46187109375,0.820546875,8.6601328125,6.29517578125,4.7462890625,6.7783515625,12.64568359375,16.1609921875,20.87487890625,11.3476640625,14.57770703125
-2.70358203125,1.18883203125,-4.9018125,-7.8673671875,1.75712890625,-2.3799453125,-3.87126953125,1.91037890625,4.011,-3.888515625,-3.70690234375,2.92338671875,1.6025859375,-6.23674609375,-4.472171875,-2.6330625,-2.32198046875,9.02134375,-13.39576953125,4.59887109375,-2.486453125,8.8601328125,4.56917578125,2.3212890625,4.8213515625,12.87268359375,15.8319921875,23.12087890625,13.0126640625,16.34570703125
-1.07158203125,0.153832031249999,-6.7208125,-6.7493671875,1.86812890625,-0.141945312499999,-1.07526953125,1.98837890625,2.598,-3.373515625,-2.91290234375,4.01938671875,3.6655859375,-7.19674609375,-5.363171875,-4.0670625,-3.42498046875,7.03834375,-15.30076953125,1.98387109375,-6.520453125,9.1831328125,2.77317578125,-0.9007109375,1.9713515625,11.27668359375,13.9739921875,23.95587890625,13.4426640625,16.76870703125
0.579417968750001,-1.95316796875,-8.7058125,-5.4143671875,-0.0928710937500004,1.3120546875,1.61073046875,1.25237890625,0.796,-3.868515625,-3.32990234375,3.25338671875,5.8215859375,-7.81574609375,-6.953171875,-6.2560625,-5.54298046875,5.49134375,-16.44876953125,-0.883128906250001,-10.571453125,9.7341328125,1.18417578125,-4.1387109375,-1.0996484375,8.53668359375,11.1309921875,23.76387890625,13.0226640625,16.14270703125
1.39241796875,-4.44516796875,-10.5528125,-3.9503671875,-3.09687109375,1.9980546875,3.77773046875,-0.23362109375,-0.746,-4.681515625,-4.58990234375,0.909386718749999,7.5015859375,-7.80574609375,-8.557171875,-8.7240625,-8.24298046875,4.48934375,-16.53776953125,-3.37812890625,-13.969453125,10.4501328125,-0.0338242187499995,-6.6977109375,-3.7656484375,5.53568359375,7.8959921875,22.94887890625,12.0936640625,14.75870703125
0.91041796875,-6.54416796875,-11.5958125,-2.6933671875,-5.87187109375,2.0470546875,4.77873046875,-2.29862109375,-1.523,-5.107515625,-6.19090234375,-2.39861328125,8.2175859375,-7.03974609375,-9.563171875,-10.9530625,-10.83398046875,3.91234375,-15.61376953125,-4.95212890625,-16.235453125,10.9851328125,-0.942824218749999,-8.2047109375,-5.6346484375,3.05668359375,4.7219921875,21.61487890625,10.7566640625,12.74870703125
-0.684582031249999,-7.61716796875,-11.0338125,-2.1283671875,-7.50987109375,1.6640546875,3.97873046875,-4.52662109375,-1.525,-4.723515625,-7.64090234375,-5.92761328125,7.7115859375,-5.65674609375,-9.656171875,-12.5270625,-12.53098046875,3.40134375,-14.07676953125,-5.31512890625,-17.178453125,10.7461328125,-1.80482421875,-8.7007109375,-6.6066484375,1.55168359375,1.8459921875,19.47787890625,8.8596640625,10.09270703125
-2.67058203125,-7.36716796875,-8.3568125,-2.5953671875,-7.74787109375,1.0970546875,1.15973046875,-6.23862109375,-1.254,-3.513515625,-8.55690234375,-8.98361328125,6.1205859375,-4.03674609375,-8.882171875,-13.2140625,-12.69598046875,2.48934375,-12.53576953125,-4.50212890625,-16.887453125,9.0801328125,-2.94782421875,-8.5507109375,-6.8156484375,1.05868359375,-0.6470078125,16.02687890625,6.1586640625,6.74670703125
-4.07058203125,-5.88616796875,-3.7238125,-4.0163671875,-6.88287109375,0.601054687500001,-3.13626953125,-6.67262109375,-1.397,-1.813515625,-8.70190234375,-11.02361328125,3.9795859375,-2.64974609375,-7.547171875,-12.9490625,-11.10298046875,0.81934375,-11.54876953125,-2.77512890625,-15.635453125,5.5301328125,-4.58482421875,-8.2277109375,-6.4976484375,1.28768359375,-2.7340078125,10.88687890625,2.5406640625,2.81570703125
-3.98458203125,-3.57016796875,1.9481875,-5.8543671875,-5.52287109375,0.384054687500001,-7.56926953125,-5.29362109375,-2.406,-0.104515624999998,-7.94590234375,-11.64661328125,1.9725859375,-1.83774609375,-6.014171875,-11.7350625,-8.08298046875,-1.67265625,-11.36576953125,-0.46212890625,-13.730453125,0.0481328125000005,-6.67782421875,-8.0607109375,-5.8466484375,1.83868359375,-4.3720078125,4.16287890625,-1.8093359375,-1.33729296875
-1.90258203125,-0.93616796875,7.2801875,-7.3903671875,-4.36787109375,0.550054687500001,-10.38526953125,-2.12362109375,-4.251,1.212484375,-6.23190234375,-10.56461328125,0.537585937499999,-1.64474609375,-4.533171875,-9.5690625,-4.43398046875,-4.70065625,-11.81876953125,2.15787109375,-11.402453125,-6.9438671875,-8.90282421875,-8.0917109375,-4.9176484375,2.45468359375,-5.4720078125,-3.40012109375,-6.3613359375,-5.09929296875
1.99641796875,1.54183203125,10.9451875,-8.1243671875,-4.05487109375,1.0580546875,-10.17426953125,2.08937890625,-6.463,1.915484375,-3.63990234375,-7.69561328125,-0.415414062500001,-1.81874609375,-3.202171875,-6.4920625,-1.07398046875,-7.73165625,-12.42276953125,4.87887109375,-8.778453125,-14.6618671875,-10.77082421875,-8.1087109375,-3.6456484375,3.14168359375,-5.9350078125,-10.58012109375,-10.3753359375,-7.76029296875
6.68241796875,3.49983203125,12.1521875,-8.0403671875,-4.99987109375,1.7070546875,-6.63626953125,5.99637890625,-8.383,1.912484375,-0.523902343749999,-3.37261328125,-1.4244140625,-1.97674609375,-2.069171875,-2.7440625,1.38701953125,-10.17565625,-12.62376953125,7.53287109375,-5.965453125,-22.1498671875,-11.80782421875,-7.8147109375,-1.9426484375,4.10568359375,-5.7040078125,-16.05712109375,-13.1373359375,-8.75329296875
10.49041796875,4.68683203125,10.9321875,-7.5633671875,-7.23887109375,2.1450546875,-0.870269531250001,8.08737890625,-9.471,1.162484375,2.45009765625,1.54938671875,-3.0594140625,-1.81174609375,-1.239171875,1.1539375,2.93401953125,-11.55065625,-12.04876953125,9.97987109375,-3.111453125,-28.4328671875,-11.68582421875,-6.9957109375,0.2113515625,5.59868359375,-4.7500078125,-18.79812109375,-14.1583359375,-7.82429296875
11.76741796875,4.92883203125,8.1441875,-7.2723671875,-10.36887109375,1.9240546875,5.04073046875,7.30237890625,-9.535,-0.328515624999998,4.47809765625,5.87438671875,-5.4384140625,-1.20574609375,-0.884171874999999,4.5109375,4.05301953125,-11.54965625,-10.64076953125,12.09687109375,-0.402453125,-32.6108671875,-10.25482421875,-5.5817109375,2.7583515625,7.75868359375,-3.0060078125,-18.28612109375,-13.2493359375,-5.07229296875
9.64341796875,4.12283203125,5.1911875,-7.6153671875,-13.70587109375,0.607054687500002,8.87473046875,3.52837890625,-8.825,-2.496515625,4.89209765625,8.46638671875,-8.0744140625,-0.25174609375,-1.196171875,6.6919375,5.32701953125,-10.09965625,-8.66976953125,13.76187109375,1.963546875,-33.9948671875,-7.55882421875,-3.6407109375,5.5643515625,10.49868359375,-0.3670078125,-14.58412109375,-10.5233359375,-0.90529296875
4.50041796875,2.27383203125,3.4451875,-8.7773671875,-16.62087109375,-2.1009453125,9.08473046875,-2.28562109375,-7.952,-5.249515625,3.36509765625,8.64438671875,-10.1574140625,0.74825390625,-2.337171875,7.3139375,6.95401953125,-7.41965625,-6.65276953125,14.82887109375,3.785546875,-32.3298671875,-3.88382421875,-1.3697109375,8.3993515625,13.45968359375,3.1839921875,-8.33112109375,-6.3833359375,4.00370703125
-2.07658203125,-0.40816796875,3.6061875,-10.6973671875,-18.86787109375,-6.2199453125,5.29773046875,-8.47762109375,-7.648,-8.499515625,0.0160976562500004,6.41838671875,-11.0334140625,1.36825390625,-4.368171875,6.3619375,8.52401953125,-4.00765625,-5.16776953125,15.14087109375,4.874546875,-27.9648671875,0.24017578125,0.9352890625,10.9583515625,16.06668359375,7.4249921875,-0.620121093749999,-1.4623359375,8.79670703125
-7.82358203125,-3.43616796875,5.3161875,-13.1083671875,-20.63587109375,-11.3879453125,-1.55426953125,-13.33862109375,-8.434,-12.089515625,-4.56690234375,2.52238671875,-10.4954140625,1.24125390625,-7.156171875,4.2209375,9.19301953125,-0.50765625,-4.60976953125,14.62687109375,5.129546875,-21.7888671875,4.16817578125,2.9752890625,12.9643515625,17.72668359375,11.8829921875,7.24487890625,3.5186640625,12.62070703125
-10.64958203125,-6.11316796875,7.3081875,-15.5983671875,-22.31287109375,-16.8379453125,-9.50126953125,-15.79862109375,-10.342,-15.671515625,-9.38990234375,-1.80461328125,-8.7584140625,0.29225390625,-10.282171875,1.6149375,8.15901953125,2.52034375,-4.98676953125,13.41487109375,4.645546875,-14.9588671875,7.36217578125,4.5652890625,14.3093515625,18.08568359375,15.9789921875,14.07887890625,7.9596640625,14.88670703125
-9.54958203125,-7.76616796875,8.0441875,-17.7203671875,-24.11687109375,-21.5419453125,-16.22726953125,-15.81362109375,-12.869,-18.701515625,-13.29890234375,-5.28561328125,-6.2684140625,-1.18274609375,-13.090171875,-0.6280625,5.20601953125,4.76434375,-5.90876953125,11.87287109375,3.748546875,-8.5638671875,9.55017578125,5.7042890625,15.0953515625,17.19868359375,19.2269921875,19.09887890625,11.5286640625,15.47070703125
-5.13358203125,-8.04516796875,6.5411875,-19.1413671875,-25.90187109375,-24.5569453125,-19.97326953125,-14.27062109375,-15.216,-20.623515625,-15.36890234375,-7.13861328125,-3.5014140625,-2.64374609375,-14.888171875,-1.8940625,0.999019531250001,6.18034375,-6.77576953125,10.49487109375,2.883546875,-3.3698671875,10.73917578125,6.5352890625,15.5453515625,15.53268359375,21.3729921875,22.05987890625,14.1856640625,14.75370703125
0.636417968749999,-7.08716796875,2.9481875,-19.7773671875,-27.25587109375,-25.4089453125,-20.21626953125,-12.48062109375,-16.711,-21.120515625,-15.24490234375,-7.35661328125,-0.861414062500001,-3.57474609375,-15.216171875,-2.0050625,-3.09998046875,6.89734375,-7.06876953125,9.68487109375,2.434546875,0.306132812500001,11.11817578125,7.2352890625,15.8613515625,13.80268359375,22.4249921875,23.22887890625,16.1176640625,13.48970703125
5.35841796875,-5.46516796875,-1.4688125,-19.8423671875,-27.79687109375,-24.2989453125,-17.77126953125,-11.54162109375,-17.144,-20.287515625,-13.25890234375,-6.57661328125,1.2955859375,-3.71874609375,-14.046171875,-1.2570625,-5.64198046875,7.07734375,-6.57576953125,9.53587109375,2.547546875,2.5811328125,10.91717578125,7.8832890625,16.1103515625,12.71468359375,22.5809921875,23.21187890625,17.5966640625,12.53570703125
7.19241796875,-3.96516796875,-4.9468125,-19.7743671875,-27.40287109375,-21.9669453125,-14.26726953125,-11.93062109375,-16.819,-18.637515625,-10.29790234375,-5.68161328125,2.5735859375,-3.19974609375,-11.845171875,-0.2770625,-5.81798046875,6.79034375,-5.44876953125,9.76287109375,3.052546875,3.8651328125,10.28517578125,8.3832890625,16.1783515625,12.67768359375,22.0869921875,22.68387890625,18.8516640625,12.52670703125
5.43541796875,-3.30716796875,-6.1158125,-20.0123671875,-26.22887109375,-19.3169453125,-11.31126953125,-13.42962109375,-16.288,-16.916515625,-7.45890234375,-5.38061328125,2.5375859375,-2.45574609375,-9.413171875,0.2189375,-3.85398046875,6.00234375,-4.07876953125,9.84587109375,3.534546875,4.6531328125,9.26117578125,8.4822890625,15.8193515625,13.63468359375,21.1239921875,22.16487890625,19.9906640625,13.64370703125
0.60241796875,-3.88416796875,-4.6178125,-20.7153671875,-24.51487109375,-16.9929453125,-9.72926953125,-15.33162109375,-15.984,-15.741515625,-5.60490234375,-5.92261328125,0.9315859375,-1.99674609375,-7.545171875,-0.284062499999999,-0.86198046875,4.67034375,-2.84576953125,9.30587109375,3.544546875,5.3731328125,7.87817578125,7.9312890625,14.8133515625,15.11468359375,19.8139921875,21.94987890625,21.0406640625,15.60170703125
-5.81058203125,-5.61216796875,-1.1748125,-21.5973671875,-22.39687109375,-15.1709453125,-9.28026953125,-16.74262109375,-16.002,-15.259515625,-5.01790234375,-7.04561328125,-2.0154140625,-2.11374609375,-6.646171875,-1.8710625,1.75001953125,2.87834375,-1.92276953125,7.94987109375,2.829546875,6.3101328125,6.32317578125,6.6762890625,13.1373515625,16.47568359375,18.2999921875,22.19087890625,22.0146640625,17.84570703125
-11.76158203125,-7.94316796875,2.8231875,-22.0363671875,-19.85787109375,-13.6199453125,-9.00726953125,-16.87862109375,-16.149,-15.057515625,-5.32790234375,-8.19261328125,-5.4834140625,-2.71574609375,-6.533171875,-4.1750625,2.93901953125,0.85834375,-1.23776953125,5.94287109375,1.441546875,7.5531328125,4.96617578125,4.9342890625,11.0003515625,17.17568359375,16.7719921875,22.96787890625,22.8976640625,19.77970703125
-15.25658203125,-10.05016796875,5.9261875,-21.4013671875,-16.82387109375,-11.9739453125,-7.98126953125,-15.31462109375,-16.126,-14.408515625,-5.78190234375,-8.86561328125,-8.3484140625,-3.41274609375,-6.565171875,-6.5910625,2.44001953125,-1.11465625,-0.580769531249999,3.70287109375,-0.357453125,8.9761328125,4.23317578125,3.0882890625,8.7163515625,16.90368359375,15.3909921875,24.26187890625,23.5486640625,20.91170703125
-14.99458203125,-11.11516796875,7.1521875,-19.3883671875,-13.32487109375,-9.9839453125,-5.92626953125,-12.15462109375,-15.697,-12.660515625,-5.63790234375,-8.90061328125,-9.7294140625,-3.71674609375,-5.981171875,-8.5630625,0.737019531250001,-2.81665625,0.263230468750002,1.70887109375,-2.274453125,10.2871328125,4.40417578125,1.5112890625,6.5283515625,15.58668359375,14.1949921875,25.88687890625,23.6276640625,20.91270703125
-10.87358203125,-10.63016796875,6.3021875,-16.1473671875,-9.59687109375,-7.6289453125,-3.36126953125,-8.07462109375,-14.736,-9.534515625,-4.46490234375,-8.49361328125,-9.4504140625,-3.23174609375,-4.255171875,-9.7890625,-1.32898046875,-4.07565625,1.43323046875,0.31187109375,-4.142453125,11.1711328125,5.50117578125,0.4262890625,4.5303515625,13.33468359375,13.1029921875,27.47487890625,22.6996640625,19.65370703125
-4.14858203125,-8.61516796875,3.9251875,-12.1743671875,-6.04687109375,-5.0459453125,-1.22826953125,-4.17462109375,-13.202,-5.214515625,-2.25990234375,-8.04061328125,-8.1044140625,-1.77774609375,-1.340171875,-10.2980625,-3.06298046875,-4.71965625,2.95123046875,-0.38012890625,-5.990453125,11.4401328125,7.27617578125,-0.1417109375,2.6903515625,10.37968359375,11.9929921875,28.54387890625,20.4476640625,17.22970703125
2.84441796875,-5.67516796875,0.9481875,-8.0873671875,-3.07587109375,-2.4119453125,-0.322269531250001,-1.66162109375,-11.122,-0.296515624999998,0.590097656250001,-7.95061328125,-6.6624140625,0.521253906250001,2.274828125,-10.4270625,-4.22998046875,-4.58165625,4.68023046875,-0.524128906250001,-8.013453125,11.0681328125,9.24517578125,-0.3647109375,0.9083515625,7.00668359375,10.7799921875,28.60087890625,16.8746640625,13.92970703125
7.46841796875,-2.83116796875,-1.7828125,-4.4393671875,-0.893871093750001,0.131054687500001,-0.837269531250001,-1.41262109375,-8.635,4.374484375,3.45009765625,-8.50261328125,-5.8694140625,3.24025390625,5.700828125,-10.6830625,-5.01398046875,-3.61065625,6.30423046875,-0.471128906250001,-10.437453125,10.1041328125,10.77217578125,-0.5467109375,-0.9216484375,3.50768359375,9.4499921875,27.25087890625,12.3676640625,10.17970703125
7.83541796875,-1.15716796875,-3.7838125,-1.6463671875,0.539128906249999,2.4380546875,-2.25926953125,-3.56362109375,-6.047,7.949484375,5.66909765625,-9.71361328125,-5.8274140625,5.75625390625,7.967828125,-11.5070625,-5.73898046875,-2.01265625,7.37323046875,-0.625128906250001,-13.329453125,8.5561328125,11.22417578125,-1.0207109375,-2.8476484375,0.17968359375,8.0479921875,24.31587890625,7.6046640625,6.47770703125
3.66041796875,-1.33916796875,-4.9228125,0.0136328125000027,1.41912890625,4.3070546875,-3.66926953125,-7.37062109375,-3.817,9.824484375,6.79009765625,-11.30261328125,-6.0574140625,7.46525390625,8.373828125,-13.0290625,-6.61998046875,-0.29165625,7.40623046875,-1.31412890625,-16.447453125,6.3151328125,10.14917578125,-2.0477109375,-4.8346484375,-2.68531640625,6.6089921875,19.87787890625,3.3176640625,3.29770703125
-3.56658203125,-3.37016796875,-5.2828125,0.393632812500002,1.93812890625,5.4880546875,-4.29526953125,-11.46562109375,-2.406,9.799484375,6.65809765625,-12.77961328125,-5.9524140625,7.97625390625,6.745828125,-14.9740625,-7.66598046875,0.86534375,6.04523046875,-2.67012890625,-19.248453125,3.1861328125,7.41617578125,-3.7637109375,-6.7996484375,-4.86331640625,5.0579921875,14.22387890625,-0.0203359375000001,0.94270703125
-11.15758203125,-6.51316796875,-5.0408125,-0.468367187499997,2.17112890625,5.7670546875,-3.92626953125,-14.42962109375,-2.054,8.115484375,5.41209765625,-13.64761328125,-5.2344140625,7.25125390625,3.504828125,-16.7630625,-8.69998046875,0.88134375,3.23723046875,-4.54612890625,-21.067453125,-0.952867187499999,3.29017578125,-6.1297109375,-8.6566484375,-6.26731640625,3.1839921875,7.76787890625,-2.3753359375,-0.58129296875
-16.22858203125,-9.55216796875,-4.3618125,-2.2643671875,2.09312890625,5.1070546875,-2.89526953125,-15.34662109375,-2.608,5.425484375,3.45309765625,-13.55661328125,-4.0394140625,5.68325390625,-0.421171874999999,-17.7160625,-9.40198046875,-0.36665625,-0.616769531249997,-6.48012890625,-21.347453125,-5.9038671875,-1.52282421875,-8.8597109375,-10.2756484375,-6.94231640625,0.7979921875,1.06087890625,-4.0573359375,-1.52229296875
-16.69558203125,-11.23616796875,-3.2888125,-4.3803671875,1.68012890625,3.7270546875,-1.75026953125,-14.04262109375,-3.516,2.675484375,1.36909765625,-12.37761328125,-2.6434140625,4.03225390625,-3.850171875,-17.2720625,-9.37498046875,-2.35965625,-4.64676953125,-7.75612890625,-19.826453125,-10.9768671875,-5.92782421875,-11.3637109375,-11.3866484375,-6.95931640625,-2.0150078125,-5.11612109375,-5.3933359375,-2.16529296875
-11.99158203125,-10.73516796875,-1.6738125,-6.0443671875,1.02612890625,2.0850546875,-0.927269531250001,-10.96562109375,-4.045,0.834484375000002,-0.21490234375,-10.24061328125,-1.1474140625,3.16625390625,-5.730171875,-15.1770625,-8.26598046875,-4.10465625,-7.73276953125,-7.60812890625,-16.623453125,-15.1068671875,-8.68182421875,-12.8367109375,-11.5616484375,-6.32631640625,-4.7570078125,-9.76712109375,-6.4243359375,-2.60929296875
-3.29858203125,-7.94216796875,0.699187499999999,-6.6673671875,0.382128906249999,0.724054687500001,-0.64026953125,-6.90662109375,-3.609,0.526484375000001,-0.86490234375,-7.55061328125,0.590585937499999,3.68125390625,-5.539171875,-11.6220625,-5.91998046875,-4.59565625,-8.90076953125,-5.52512890625,-12.222453125,-17.2428671875,-8.82582421875,-12.5267109375,-10.3566484375,-4.99131640625,-6.6390078125,-11.90412109375,-6.8523359375,-2.71229296875
6.84141796875,-3.50216796875,3.8411875,-6.1553671875,0.0521289062499992,0.0540546875000008,-0.907269531250002,-2.77762109375,-2.062,1.777484375,-0.49590234375,-4.89061328125,2.7525859375,5.61825390625,-3.489171875,-7.2030625,-2.54498046875,-3.30465625,-7.70776953125,-1.50012890625,-7.348453125,-16.8038671875,-6.07582421875,-10.0647109375,-7.5506484375,-2.93731640625,-6.8920078125,-10.92012109375,-6.2483359375,-2.22729296875
15.44641796875,1.43883203125,7.3481875,-4.9383671875,0.226128906249999,0.1800546875,-1.58226953125,0.51637890625,0.214,4.037484375,0.648097656250001,-2.83261328125,5.2925859375,8.46825390625,-0.414171874999999,-2.7160625,1.24001953125,-0.40765625,-4.42576953125,3.88787109375,-2.768453125,-13.9128671875,-0.97282421875,-5.6677109375,-3.3126484375,-0.27631640625,-5.0960078125,-6.88612109375,-4.3383359375,-0.99529296875
20.19341796875,5.63683203125,10.4561875,-3.6483671875,0.860128906249999,0.868054687500001,-2.39926953125,2.20737890625,2.499,6.440484375,2.13709765625,-1.72861328125,7.8295859375,11.43025390625,2.599828125,1.1239375,4.54401953125,3.34134375,0.0562304687500017,9.66787109375,0.907546875,-9.3198671875,5.30017578125,-0.1127109375,1.7943515625,2.71368359375,-1.3590078125,-0.61912109375,-1.1963359375,0.93770703125
20.23341796875,8.16983203125,12.4281875,-2.6733671875,1.72912890625,1.6950546875,-3.08126953125,1.86037890625,4.141,8.168484375,3.54309765625,-1.61861328125,9.8145859375,13.75725390625,4.667828125,3.9099375,6.53801953125,6.96934375,4.57523046875,14.84287109375,3.378546875,-4.0688671875,11.33617578125,5.5032890625,6.9863515625,5.66568359375,3.7119921875,6.54987890625,2.7546640625,3.34870703125
16.44441796875,8.74883203125,13.0111875,-1.9183671875,2.60312890625,2.2770546875,-3.43726953125,-0.37562109375,4.917,8.762484375,4.59009765625,-2.22861328125,10.8875859375,15.03525390625,5.423828125,5.6399375,6.81301953125,9.68334375,8.10823046875,18.75687109375,4.718546875,0.921132812500002,15.96617578125,10.1352890625,11.5213515625,8.28868359375,9.2199921875,13.20287890625,6.9126640625,5.96070703125
11.04541796875,7.81683203125,12.6381875,-0.910367187499997,3.36512890625,2.4450546875,-3.36326953125,-3.65562109375,5.11,8.271484375,5.25509765625,-3.02561328125,11.1585859375,15.29125390625,5.099828125,6.6779375,5.52501953125,11.13134375,10.08623046875,21.26587109375,5.325546875,5.1461328125,18.60217578125,13.0982890625,14.9223515625,10.50068359375,14.2649921875,18.28287890625,10.6946640625,8.55570703125
6.68441796875,6.35383203125,12.1891875,0.856632812500003,4.02012890625,2.3010546875,-2.78526953125,-6.63862109375,5.265,7.185484375,5.75909765625,-3.36361328125,11.1875859375,14.88625390625,4.322828125,7.5649375,3.25701953125,11.41534375,10.46823046875,22.62987109375,5.733546875,8.5321328125,19.27917578125,14.1842890625,17.0263515625,12.41368359375,18.1399921875,21.33687890625,13.6546640625,10.95470703125
5.35541796875,5.43983203125,12.4651875,3.6306328125,4.64712890625,2.1610546875,-1.61026953125,-7.99262109375,5.836,6.178484375,6.44609765625,-2.71661328125,11.6565859375,14.29325390625,3.762828125,8.7429375,0.76701953125,10.91934375,9.61023046875,23.26687109375,6.377546875,11.2091328125,18.44917578125,13.5822890625,17.8903515625,14.16168359375,20.4049921875,22.46987890625,15.5026640625,12.92370703125
7.60041796875,5.76483203125,13.7721875,7.2986328125,5.38712890625,2.4250546875,0.305730468749999,-6.99362109375,6.959,5.833484375,7.62509765625,-0.885613281250001,12.9935859375,13.88425390625,3.842828125,10.3589375,-1.22798046875,10.09834375,8.05523046875,23.52587109375,7.430546875,13.2621328125,16.69317578125,11.7122890625,17.6623515625,15.74568359375,20.8939921875,22.14287890625,16.1196640625,14.16070703125
12.37141796875,7.34483203125,15.8591875,11.4326328125,6.41012890625,3.3870546875,3.11373046875,-3.88562109375,8.431,6.468484375,9.44009765625,1.94338671875,15.1615859375,13.84325390625,4.643828125,12.2469375,-2.21198046875,9.32634375,6.32323046875,23.59087109375,8.801546875,14.6401328125,14.51917578125,9.0882890625,16.5483515625,17.05368359375,19.7279921875,20.95187890625,15.6156640625,14.44870703125
17.55041796875,9.57083203125,18.1421875,15.3906328125,7.82012890625,5.0570546875,6.81473046875,0.215378906250001,9.821,8.064484375,11.78809765625,5.28638671875,17.6435859375,14.15725390625,5.963828125,14.0409375,-2.01298046875,8.79434375,4.77223046875,23.47487109375,10.226546875,15.2111328125,12.28317578125,6.2172890625,14.8073515625,17.97568359375,17.2929921875,19.43787890625,14.3416640625,13.82270703125
20.90441796875,11.55283203125,19.9821875,18.4406328125,9.52512890625,7.0920546875,11.02973046875,3.82337890625,10.631,10.245484375,14.27309765625,8.48538671875,19.5915859375,14.61425390625,7.429828125,15.3069375,-0.90698046875,8.46634375,3.53923046875,23.08387109375,11.338546875,14.8531328125,10.16217578125,3.5002890625,12.6963515625,18.46368359375,14.1339921875,17.95887890625,12.7646640625,12.56970703125
21.09241796875,12.54783203125,20.8811875,19.9756328125,11.19112890625,8.9210546875,14.91973046875,5.76037890625,10.461,12.362484375,16.28009765625,10.85738671875,20.1145859375,14.84825390625,8.626828125,15.6669375,0.442019531250001,8.12434375,2.59823046875,22.31287109375,11.736546875,13.5311328125,8.17417578125,1.2032890625,10.3883515625,18.47568359375,10.8069921875,16.63887890625,11.2466640625,11.04270703125
18.29441796875,12.24883203125,20.6071875,19.7486328125,12.32512890625,9.9810546875,17.42073046875,5.65537890625,9.156,13.719484375,17.20209765625,11.85938671875,18.6475859375,14.48025390625,9.255828125,14.9249375,1.22101953125,7.51834375,1.87423046875,21.13287109375,11.083546875,11.3581328125,6.28717578125,-0.5037109375,7.9773515625,17.90668359375,7.7529921875,15.41687890625,9.9086640625,9.47370703125
14.10841796875,10.83683203125,19.2651875,17.9996328125,12.43412890625,9.9270546875,17.70073046875,4.02737890625,6.889,13.864484375,16.72009765625,11.25538671875,15.2265859375,13.31125390625,9.261828125,13.1629375,0.794019531250001,6.52434375,1.34623046875,19.62287109375,9.251546875,8.6101328125,4.52117578125,-1.4867109375,5.5443515625,16.59968359375,5.2439921875,14.14687890625,8.6396640625,7.89970703125
10.65741796875,8.80883203125,17.2421875,15.3726328125,11.19312890625,8.7150546875,15.51873046875,1.93037890625,4.115,12.738484375,14.92709765625,9.16338671875,10.4625859375,11.42625390625,8.828828125,10.6999375,-1.02898046875,5.19234375,1.06323046875,17.92687109375,6.404546875,5.6591328125,2.98317578125,-1.6767109375,3.2013515625,14.44268359375,3.3619921875,12.66887890625,7.2206640625,6.21070703125
9.40441796875,6.73383203125,15.0391875,12.6696328125,8.60412890625,6.5800546875,11.30673046875,0.385378906250001,1.428,10.657484375,12.26309765625,5.98738671875,5.2675859375,9.16325390625,8.262828125,7.9309375,-3.84998046875,3.66934375,1.11323046875,16.19387109375,2.981546875,2.8571328125,1.80417578125,-1.1477109375,1.0703515625,11.50468359375,2.0439921875,10.86087890625,5.4866640625,4.28170703125
10.43041796875,5.07783203125,13.0801875,10.5926328125,5.11312890625,3.9810546875,6.03173046875,-0.0656210937499999,-0.65,8.185484375,9.35409765625,2.33038671875,0.515585937499999,7.00325390625,7.863828125,5.1999375,-6.76798046875,2.12234375,1.60023046875,14.55687109375,-0.418453125,0.4531328125,1.07717578125,-0.1427109375,-0.7276484375,8.13868359375,1.1919921875,8.72387890625,3.4936640625,2.13370703125
12.63641796875,4.12183203125,11.5631875,9.5656328125,1.56112890625,1.5340546875,0.965730468749999,0.529378906250001,-1.842,5.996484375,6.87409765625,-1.09561328125,-3.1804140625,5.43225390625,7.847828125,2.7619375,-8.70598046875,0.70534375,2.61123046875,13.12787109375,-3.177453125,-1.3998671875,0.85417578125,1.0092890625,-2.0666484375,4.97068359375,0.7769921875,6.46987890625,1.5926640625,0.0407070312499997
14.58441796875,3.93883203125,10.4011875,9.6256328125,-1.07487109375,-0.115945312499999,-2.64526953125,1.72937890625,-2.19,4.687484375,5.38509765625,-3.62561328125,-5.5394140625,4.78025390625,8.285828125,0.7899375,-8.90198046875,-0.43965625,4.12423046875,11.96087109375,-4.854453125,-2.6458671875,1.11617578125,1.9772890625,-2.8476484375,2.69168359375,0.8189921875,4.48787890625,0.3146640625,-1.55729296875
15.27341796875,4.33983203125,9.2671875,10.3716328125,-2.09987109375,-0.5319453125,-3.99226953125,2.99437890625,-2.033,4.506484375,5.10109765625,-4.89461328125,-6.5824140625,5.04425390625,8.995828125,-0.7120625,-7.31498046875,-1.23665625,5.87323046875,10.94787109375,-5.380453125,-3.3788671875,1.69117578125,2.4392890625,-3.1316484375,1.71368359375,1.2159921875,3.13787890625,0.0496640624999998,-2.32929296875
14.35841796875,4.84083203125,7.7661875,11.0116328125,-1.48087109375,0.2180546875,-3.11426953125,3.88637890625,-1.909,5.139484375,5.67509765625,-5.07461328125,-6.5614140625,5.79325390625,9.469828125,-2.0210625,-4.72198046875,-1.74965625,7.27123046875,9.73187109375,-5.183453125,-3.8828671875,2.17417578125,2.0422890625,-3.2566484375,1.87968359375,1.5869921875,2.50187890625,0.7216640625,-2.32629296875
11.90141796875,4.71983203125,5.6361875,10.5836328125,0.00312890624999973,1.3850546875,-1.02026953125,4.11437890625,-2.429,5.730484375,6.18909765625,-4.88761328125,-5.8764140625,6.25025390625,8.927828125,-3.7170625,-2.43198046875,-2.22065625,7.48923046875,7.71287109375,-5.101453125,-4.6128671875,1.96917578125,0.4012890625,-3.8176484375,2.44868359375,1.2919921875,2.25387890625,1.6816640625,-2.03529296875
8.05241796875,3.22983203125,2.8491875,8.3256328125,0.995128906249999,1.7110546875,0.640730468749998,3.48337890625,-4.128,5.172484375,5.44809765625,-5.33261328125,-5.0304140625,5.55425390625,6.557828125,-6.5060625,-1.73298046875,-3.02065625,5.71923046875,4.24487109375,-6.083453125,-6.0748671875,0.45217578125,-2.8247109375,-5.4636484375,2.38668359375,-0.3550078125,1.71787890625,1.9256640625,-2.16629296875
2.97141796875,-0.0631679687499993,-0.432812500000001,4.0526328125,0.12112890625,-0.0229453124999992,0.264730468749999,1.91537890625,-7.259,2.559484375,2.47109765625,-7.22461328125,-4.5784140625,3.07625390625,1.853828125,-10.8980625,-3.30498046875,-4.52265625,1.51723046875,-1.03412890625,-8.786453125,-8.6788671875,-2.79882421875,-7.7787109375,-8.6276484375,0.81768359375,-3.8180078125,0.0858789062500005,0.5166640625,-3.33829296875
-3.00958203125,-4.98616796875,-3.9268125,-1.6543671875,-3.33687109375,-4.3189453125,-2.94526953125,-0.44062109375,-11.601,-2.375515625,-3.00390234375,-10.73861328125,-5.0014140625,-1.30174609375,-5.068171875,-16.8890625,-6.84998046875,-6.90465625,-4.90976953125,-7.91412890625,-13.243453125,-12.5758671875,-7.78882421875,-14.2457109375,-13.3066484375,-2.57831640625,-9.1120078125,-3.25112109375,-2.9593359375,-5.80329296875
-9.18258203125,-10.68816796875,-7.2278125,-7.5893671875,-9.03787109375,-10.5939453125,-8.53926953125,-3.05962109375,-16.408,-9.034515625,-10.27990234375,-15.20661328125,-6.4684140625,-7.04774609375,-13.337171875,-23.8000625,-11.14498046875,-9.97565625,-12.64376953125,-15.55612890625,-18.798453125,-17.5268671875,-13.97782421875,-21.5587109375,-18.9836484375,-7.38831640625,-15.7230078125,-8.37512109375,-8.1243359375,-9.31329296875
-14.46458203125,-15.92016796875,-9.8198125,-12.3853671875,-15.69087109375,-17.3789453125,-14.97126953125,-5.08862109375,-20.59,-16.100515625,-17.89390234375,-19.32861328125,-8.6394140625,-13.09774609375,-21.536171875,-30.4400625,-14.56498046875,-13.17965625,-20.31276953125,-22.77012890625,-24.346453125,-22.8998671875,-20.36282421875,-28.6807109375,-24.7676484375,-12.62731640625,-22.7190078125,-14.69212109375,-13.8763359375,-13.19129296875
-17.72858203125,-19.54416796875,-11.2418125,-15.0623671875,-21.60587109375,-22.9729453125,-20.31426953125,-5.65862109375,-23.12,-22.053515625,-24.20590234375,-21.77061328125,-10.7404140625,-18.24074609375,-28.197171875,-35.5560625,-15.83798046875,-15.80265625,-26.58276953125,-28.47512890625,-28.812453125,-27.8438671875,-25.77682421875,-34.5067109375,-29.7276484375,-17.16731640625,-29.0330078125,-21.07612109375,-18.8283359375,-16.60729296875
-18.29758203125,-21.01516796875,-11.3528125,-15.3563671875,-25.36687109375,-26.1599453125,-23.11426953125,-4.32762109375,-23.443,-25.799515625,-28.07490234375,-21.81161328125,-11.9304140625,-21.59374609375,-32.355171875,-38.3360625,-14.61098046875,-17.27265625,-30.60876953125,-32.07412890625,-31.566453125,-31.5568671875,-29.29682421875,-38.2277109375,-33.2256484375,-20.19431640625,-33.7740078125,-26.24612109375,-21.8733359375,-18.89329296875
-16.28858203125,-20.53416796875,-10.4758125,-13.7173671875,-26.29587109375,-26.5789453125,-22.88526953125,-1.38562109375,-21.694,-27.016515625,-29.18690234375,-19.61961328125,-11.7244140625,-22.87974609375,-33.793171875,-38.6270625,-11.49398046875,-17.31665625,-32.20276953125,-33.52612890625,-32.533453125,-33.4498671875,-30.48082421875,-39.5167109375,-35.0316484375,-21.42931640625,-36.3790078125,-29.14312109375,-22.5373359375,-19.70729296875
-12.56258203125,-18.84116796875,-9.2718125,-11.0423671875,-24.56787109375,-24.6309453125,-20.04726953125,2.19437890625,-18.643,-26.084515625,-27.92390234375,-16.01461328125,-10.2174140625,-22.39174609375,-32.906171875,-36.7830625,-7.62798046875,-15.92265625,-31.68476953125,-33.16012890625,-31.981453125,-33.1558671875,-29.36482421875,-38.4747109375,-35.1856484375,-21.06031640625,-36.5800078125,-29.16412109375,-20.9903359375,-18.99529296875
-8.36258203125,-16.77316796875,-8.3938125,-8.3623671875,-21.02087109375,-21.1059453125,-15.54826953125,5.15137890625,-15.379,-23.730515625,-24.98090234375,-11.97561328125,-7.9964140625,-20.73374609375,-30.355171875,-33.3510625,-4.10998046875,-13.23865625,-29.57576953125,-31.39612890625,-30.218453125,-30.5098671875,-26.31482421875,-35.4437109375,-33.7956484375,-19.51131640625,-34.3380078125,-26.25812109375,-17.8053359375,-16.88229296875
-4.88158203125,-14.87216796875,-8.1218125,-6.5783671875,-16.78287109375,-16.7929453125,-10.50426953125,6.49537890625,-12.863,-20.674515625,-21.03590234375,-8.21661328125,-5.8474140625,-18.53674609375,-26.779171875,-28.8510625,-1.61698046875,-9.51865625,-26.35976953125,-28.55112890625,-27.432453125,-25.5928671875,-21.88582421875,-30.8417109375,-30.9636484375,-17.24331640625,-29.8450078125,-20.92012109375,-13.6913359375,-13.62029296875
-2.93958203125,-13.21916796875,-8.1588125,-6.2373671875,-12.84087109375,-12.2769453125,-5.92726953125,5.96137890625,-11.535,-17.391515625,-16.60490234375,-5.04361328125,-4.4044140625,-16.23074609375,-22.650171875,-23.7360625,-0.30998046875,-5.13065625,-22.40076953125,-24.80412890625,-23.717453125,-18.8088671875,-16.71782421875,-25.0817109375,-26.8456484375,-14.62631640625,-23.5730078125,-14.03312109375,-9.2813359375,-9.55929296875
-2.81658203125,-11.56216796875,-7.7348125,-7.3763671875,-9.70387109375,-7.9129453125,-2.50926953125,4.11737890625,-11.157,-14.047515625,-12.04990234375,-2.44261328125,-3.9224140625,-13.93674609375,-18.269171875,-18.4380625,0.0480195312500005,-0.54465625,-17.99776953125,-20.27712890625,-19.226453125,-10.8888671875,-11.44382421875,-18.5767109375,-21.7526484375,-11.88131640625,-16.2680078125,-6.62812109375,-5.0253359375,-5.12629296875
-4.25858203125,-9.61516796875,-6.0458125,-9.5143671875,-7.30887109375,-3.9319453125,-0.461269531250002,2.05837890625,-11.022,-10.620515625,-7.66390234375,-0.303613281250001,-4.2874140625,-11.53274609375,-13.834171875,-13.4210625,-0.10798046875,3.70734375,-13.48376953125,-15.17212890625,-14.313453125,-2.7848671875,-6.62882421875,-11.8047109375,-16.2376484375,-9.13731640625,-8.8740078125,0.338878906250001,-1.2023359375,-0.81429296875
-6.61658203125,-7.33216796875,-2.8278125,-11.8673671875,-5.23187109375,-0.5439453125,0.486730468749998,0.85037890625,-10.366,-7.134515625,-3.76090234375,1.36238671875,-5.2224140625,-8.88274609375,-9.544171875,-9.1710625,-0.339980468749999,7.09834375,-9.27976953125,-9.86112890625,-9.577453125,4.4931328125,-2.75682421875,-5.3907109375,-11.0816484375,-6.54331640625,-2.4000078125,6.07887890625,1.9776640625,2.82370703125
-9.00058203125,-4.95716796875,1.2971875,-13.7013671875,-3.06587109375,2.0140546875,0.93973046875,1.01037890625,-8.762,-3.813515625,-0.676902343749999,2.39238671875,-6.5214140625,-6.04474609375,-5.626171875,-6.0940625,-0.31998046875,9.20934375,-5.82576953125,-4.86912890625,-5.740453125,10.0741328125,-0.21882421875,-0.0517109374999998,-7.1326484375,-4.34931640625,2.2719921875,10.01187890625,4.2946640625,5.23570703125
-10.42058203125,-2.85416796875,5.0121875,-14.6513671875,-0.735871093750001,3.5420546875,1.58473046875,2.31937890625,-6.276,-1.019515625,1.37709765625,2.67338671875,-8.1654140625,-3.31274609375,-2.277171875,-4.3390625,0.0940195312499998,9.85034375,-3.42476953125,-0.745128906250001,-3.386453125,13.4041328125,0.76617578125,3.5822890625,-5.0256484375,-2.85331640625,4.5819921875,11.82387890625,5.5106640625,6.00270703125
-9.98258203125,-1.25216796875,7.0091875,-14.8423671875,1.44412890625,3.9990546875,2.90773046875,4.06837890625,-3.357,0.958484375000001,2.47209765625,2.37238671875,-10.2864140625,-1.09174609375,0.430828125000001,-3.6830625,0.817019531250001,9.12734375,-2.13476953125,2.11787109375,-2.712453125,14.3211328125,0.214175781250001,5.2022890625,-4.9406484375,-2.28231640625,4.3969921875,11.52087890625,5.4126640625,4.96970703125
-7.24658203125,-0.12516796875,6.8001875,-14.7623671875,2.97812890625,3.5910546875,4.95173046875,5.56237890625,-0.607,2.051484375,2.97309765625,1.95538671875,-13.0074140625,0.25625390625,2.572828125,-3.5910625,1.56801953125,7.39534375,-1.77776953125,3.61187109375,-3.435453125,12.9911328125,-1.63282421875,4.9182890625,-6.5606484375,-2.72431640625,1.9659921875,9.39987890625,3.8486640625,2.26070703125
-2.58558203125,0.73283203125,5.1201875,-14.9543671875,3.48012890625,2.7120546875,7.26673046875,6.54237890625,1.443,2.409484375,3.37709765625,1.97738671875,-16.2104140625,0.525253906250001,4.316828125,-3.4230625,2.00501953125,5.13534375,-2.03976953125,3.98187109375,-4.894453125,9.7681328125,-4.37882421875,3.2312890625,-9.2056484375,-4.11331640625,-2.1940078125,5.93987890625,0.8096640625,-1.76129296875
2.79741796875,1.55883203125,3.6111875,-15.6443671875,2.88312890625,1.7730546875,9.14873046875,7.23437890625,2.475,2.324484375,4.11609765625,2.82538671875,-19.3524140625,-0.24574609375,5.871828125,-2.6260625,1.94301953125,2.86434375,-2.56076953125,3.78687109375,-6.247453125,5.1301328125,-7.50582421875,0.9252890625,-12.0266484375,-6.21631640625,-7.3650078125,1.72187890625,-3.4333359375,-6.53129296875
7.35041796875,2.52083203125,3.8951875,-16.5293671875,1.50612890625,1.0630546875,10.05373046875,8.05037890625,2.445,2.158484375,5.44809765625,4.59638671875,-21.5144140625,-1.70274609375,7.469828125,-0.8310625,1.48501953125,1.08134375,-2.98276953125,3.75487109375,-6.710453125,-0.309867187499998,-10.38382421875,-1.0847109375,-14.1986484375,-8.65731640625,-12.6720078125,-2.61912109375,-8.2553359375,-11.32429296875
9.85441796875,3.69783203125,6.5801875,-16.8653671875,-0.00187109375000105,0.7440546875,9.91573046875,9.19837890625,1.606,2.275484375,7.42209765625,7.09238671875,-21.7964140625,-3.21574609375,9.322828125,2.0639375,0.96301953125,0.19834375,-2.98676953125,4.54087109375,-5.794453125,-5.8238671875,-12.35282421875,-1.9677109375,-15.1266484375,-11.01331640625,-17.2040078125,-6.47412109375,-12.8033359375,-15.42129296875
9.89241796875,5.07883203125,10.8471875,-15.8463671875,-0.825871093750001,0.941054687500001,9.16273046875,10.50737890625,0.463,2.960484375,9.87609765625,9.83738671875,-19.8514140625,-4.05974609375,11.541828125,5.8309375,0.727019531250001,0.44734375,-2.33876953125,6.46487109375,-3.493453125,-10.6908671875,-12.91082421875,-1.2437109375,-14.6476484375,-12.99031640625,-20.2510078125,-9.38712109375,-16.3173359375,-18.36129296875
7.90341796875,6.52183203125,14.9341875,-13.0703671875,-0.27987109375,1.7940546875,8.46873046875,11.54137890625,-0.373,4.345484375,12.47209765625,12.15638671875,-16.1834140625,-3.67374609375,14.061828125,9.9019375,0.90401953125,1.80434375,-0.954769531249998,9.35787109375,-0.303453125,-14.3748671875,-11.91282421875,1.0522890625,-13.0846484375,-14.53931640625,-21.5220078125,-11.17212109375,-18.4303359375,-20.11029296875
4.89841796875,7.72883203125,17.1801875,-8.8283671875,1.84712890625,3.3750546875,8.40773046875,11.86137890625,-0.414,6.369484375,14.78309765625,13.38038671875,-11.9584140625,-1.87674609375,16.632828125,13.5179375,1.29501953125,3.97934375,1.08323046875,12.59987109375,2.952546875,-16.6588671875,-9.63582421875,4.4072890625,-11.0806484375,-15.82431640625,-21.2030078125,-11.92612109375,-19.2503359375,-21.00729296875
2.01341796875,8.30683203125,16.9081875,-4.0723671875,5.10112890625,5.5640546875,9.21773046875,11.27437890625,0.481,8.766484375,16.42509765625,13.13738671875,-8.4424140625,1.03325390625,18.900828125,15.9819375,1.46701953125,6.49434375,3.54123046875,15.37287109375,5.435546875,-17.6868671875,-6.67882421875,8.0522890625,-9.3006484375,-17.08131640625,-19.8220078125,-11.95312109375,-19.2063359375,-21.54329296875
0.0774179687500016,7.95283203125,14.6201875,-0.0403671874999976,8.52112890625,7.9980546875,10.73273046875,9.93937890625,2.049,11.091484375,17.17609765625,11.56838671875,-6.4664140625,4.36825390625,20.520828125,16.9129375,1.01901953125,8.81634375,6.10923046875,17.02987109375,6.598546875,-17.9088671875,-3.74782421875,11.2712890625,-8.1606484375,-18.46631640625,-17.9790078125,-11.63512109375,-18.7633359375,-22.10429296875
-0.635582031249999,6.67083203125,11.5161875,2.2916328125,11.08812890625,10.1460546875,12.50273046875,8.31737890625,3.78,12.844484375,17.04509765625,9.30438671875,-6.2024140625,7.30925390625,21.298828125,16.3789375,-0.151980468750001,10.52934375,8.47923046875,17.40387109375,6.370546875,-17.8878671875,-1.39482421875,13.6602890625,-7.7036484375,-19.94931640625,-16.0860078125,-11.26212109375,-18.1673359375,-22.80029296875
-0.37758203125,4.83783203125,8.7561875,2.6226328125,12.17512890625,11.4700546875,13.99573046875,6.98637890625,5.186,13.653484375,16.26009765625,7.18838671875,-7.3204140625,9.24425390625,21.268828125,14.8459375,-1.77198046875,11.46534375,10.40323046875,16.84887109375,5.155546875,-18.0648671875,0.166175781250001,15.2202890625,-7.6536484375,-21.31431640625,-14.2320078125,-10.91912109375,-17.3643359375,-23.47229296875
0.302417968749999,3.04383203125,6.9151875,1.3876328125,11.75612890625,11.5970546875,14.77073046875,6.38637890625,6.01,13.396484375,15.14809765625,5.85538671875,-9.3544140625,9.95925390625,20.649828125,12.9349375,-3.35798046875,11.70734375,11.68923046875,16.00487109375,3.612546875,-18.6238671875,1.03717578125,16.2262890625,-7.6466484375,-22.27931640625,-12.3000078125,-10.53812109375,-16.1623359375,-23.87429296875
0.838417968750001,1.79783203125,5.8841875,-0.538367187499997,10.33512890625,10.4740546875,14.57673046875,6.62037890625,6.305,12.211484375,13.97609765625,5.42538671875,-11.9634140625,9.61825390625,19.723828125,11.1279375,-4.50398046875,11.45834375,12.19523046875,15.42487109375,2.350546875,-19.5248671875,1.42817578125,16.9532890625,-7.4836484375,-22.66731640625,-10.2590078125,-10.11212109375,-14.5193359375,-23.92429296875
0.894417968750002,1.31283203125,5.2141875,-2.2763671875,8.72012890625,8.4430546875,13.40173046875,7.43337890625,6.371,10.455484375,12.87809765625,5.52538671875,-14.9274140625,8.60425390625,18.752828125,9.6009375,-5.01598046875,10.90634375,11.86823046875,15.32987109375,1.711546875,-20.6298671875,1.43317578125,17.4852890625,-7.2496484375,-22.50331640625,-8.3860078125,-9.87412109375,-12.7173359375,-23.78829296875
0.531417968750002,1.51583203125,4.5881875,-3.2473671875,7.73612890625,6.1750546875,11.53773046875,8.37837890625,6.602,8.676484375,11.92809765625,5.64038671875,-17.9224140625,7.37725390625,17.983828125,8.3089375,-4.83298046875,10.18734375,10.84523046875,15.59987109375,1.766546875,-21.7688671875,0.99917578125,17.7182890625,-7.1656484375,-21.91431640625,-7.2290078125,-10.27412109375,-11.2373359375,-23.68729296875
0.20941796875,2.19883203125,4.0871875,-3.2493671875,7.95212890625,4.4330546875,9.58473046875,9.05637890625,7.287,7.536484375,11.25409765625,5.52938671875,-20.4054140625,6.38925390625,17.698828125,7.2129375,-3.85898046875,9.42434375,9.49223046875,15.94587109375,2.456546875,-22.7288671875,0.0511757812500004,17.5412890625,-7.3126484375,-20.93731640625,-7.3240078125,-11.73412109375,-10.4413359375,-23.58429296875
0.571417968750001,3.17283203125,4.0611875,-2.3493671875,9.48712890625,3.7840546875,8.29173046875,9.26337890625,8.461,7.603484375,11.05509765625,5.37338671875,-21.7874140625,5.98525390625,18.148828125,6.4249375,-1.92498046875,8.75134375,8.30823046875,16.11987109375,3.731546875,-23.2538671875,-1.35082421875,16.9982890625,-7.4676484375,-19.42431640625,-8.8820078125,-14.39312109375,-10.3313359375,-23.03529296875
2.11141796875,4.31383203125,4.7711875,-0.767367187499998,11.94312890625,4.3850546875,8.22773046875,8.98837890625,9.889,9.068484375,11.47209765625,5.57238671875,-21.7854140625,6.29625390625,19.412828125,6.1519375,1.04101953125,8.29034375,7.71923046875,16.03687109375,5.572546875,-23.0998671875,-2.96782421875,16.3182890625,-7.1866484375,-17.14931640625,-11.6290078125,-17.99112109375,-10.5473359375,-21.37529296875
4.83941796875,5.50383203125,6.1251875,1.1636328125,14.49212890625,5.9330546875,9.43173046875,8.30537890625,11.167,11.562484375,12.43909765625,6.35438671875,-20.6284140625,7.16225390625,21.264828125,6.4919375,4.74001953125,8.10434375,7.86523046875,15.76287109375,7.901546875,-22.0868671875,-4.45482421875,15.8032890625,-6.0926484375,-14.05531640625,-14.8680078125,-21.90912109375,-10.5803359375,-18.12529296875
8.03241796875,6.53283203125,7.6761875,2.9586328125,16.12712890625,7.7910546875,11.20873046875,7.24937890625,11.88,14.181484375,13.58109765625,7.46538671875,-18.9684140625,8.12625390625,23.130828125,7.2279375,8.35401953125,8.16834375,8.48623046875,15.37487109375,10.450546875,-20.1558671875,-5.51182421875,15.6212890625,-4.1936484375,-10.48731640625,-17.7220078125,-25.34112109375,-10.0553359375,-13.37829296875
10.15841796875,7.05283203125,8.7881875,3.9826328125,16.01212890625,9.2410546875,12.21073046875,5.74637890625,11.751,15.701484375,14.21909765625,8.09838671875,-17.6034140625,8.51425390625,24.169828125,7.7159375,10.73101953125,8.34534375,8.96523046875,14.82987109375,12.678546875,-17.4048671875,-6.05182421875,15.6382890625,-2.0526484375,-7.25131640625,-19.4690078125,-27.53512109375,-8.9403359375,-7.92229296875
9.19541796875,6.65783203125,8.8361875,3.5916328125,13.78512890625,9.7510546875,10.84973046875,3.62937890625,10.706,14.920484375,13.52909765625,7.13638671875,-17.2244140625,7.59825390625,23.489828125,7.0149375,10.83901953125,8.39734375,8.55423046875,13.94287109375,13.868546875,-14.1068671875,-6.28582421875,15.4142890625,-0.6556484375,-5.39231640625,-19.8040078125,-28.03512109375,-7.5653359375,-2.99529296875
3.48141796875,5.06883203125,7.4031875,1.3836328125,9.63512890625,9.1390546875,5.96073046875,0.739378906250001,8.862,11.098484375,10.88009765625,3.67438671875,-18.2294140625,4.86825390625,20.491828125,4.3019375,8.22901953125,8.07834375,6.71623046875,12.50887109375,13.429546875,-10.6168671875,-6.60382421875,14.4392890625,-0.9406484375,-5.73331640625,-18.8780078125,-26.81612109375,-6.4253359375,0.28770703125
-7.21158203125,2.33383203125,4.4931875,-2.5473671875,4.13912890625,7.5900546875,-2.50726953125,-2.91862109375,6.453,4.366484375,6.22209765625,-2.41661328125,-20.5764140625,0.342253906250001,15.238828125,-0.601062499999999,3.23601953125,7.28734375,3.41423046875,10.48187109375,11.278546875,-7.2028671875,-7.29282421875,12.4912890625,-3.2146484375,-8.37831640625,-17.1220078125,-24.25512109375,-5.8403359375,1.54670703125
-21.11958203125,-1.10616796875,0.641187499999999,-7.5163671875,-1.98987109375,5.5410546875,-13.23926953125,-7.08062109375,3.772,-4.139515625,0.284097656250001,-10.22061328125,-23.7444140625,-5.30274609375,8.590828125,-6.9450625,-3.12598046875,6.16734375,-0.813769531249996,8.06187109375,8.025546875,-3.9158671875,-8.32482421875,9.8472890625,-6.8476484375,-12.50631640625,-15.0170078125,-20.99612109375,-5.7333359375,1.41370703125
-21.11958203125,-1.10616796875,0.641187499999999,-7.5163671875,-1.98987109375,5.5410546875,-13.23926953125,-7.08062109375,3.772,-4.139515625,0.284097656250001,-10.22061328125,-23.7444140625,-5.30274609375,8.590828125,-6.9450625,-3.12598046875,6.16734375,-0.813769531249996,8.06187109375,8.025546875,-3.9158671875,-8.32482421875,9.8472890625,-6.8476484375,-12.50631640625,-15.0170078125,-20.99612109375,-5.7333359375,1.41370703125
