"Fp1","Fpz","Fp2","F7","F3","Fz","F4","F8","FC5","FC1","FC2","FC6","T7","C3","Cz","C4","T8","CP5","CP1","CP2","CP6","P7","P3","Pz","P4","P8","POz","O1","Oz","O2"
-12.63976171875,-8.620875,-12.97051953125,-2.95288671875,-9.9766171875,-6.87910546875,-4.7677421875,-9.12144921875,-11.57421484375,-2.41374609375,-8.92778515625,-3.07793359375,-6.5111796875,-0.33511328125,-2.8741484375,-4.38396484375,-2.13783203125,-6.6967890625,-5.70326171875,-5.85990625,-4.2469140625,2.56244921875,-1.11091015625,-3.57075,-2.141328125,-2.3372734375,-2.2448828125,6.298375,7.4416953125,6.504828125
-13.03476171875,-7.403875,-11.85551953125,-0.99088671875,-7.1636171875,-6.47910546875,-3.0587421875,-6.33544921875,-8.88221484375,-2.71374609375,-8.70578515625,-4.61793359375,-3.0461796875,0.0558867187500001,-3.2631484375,-5.44196484375,-2.65883203125,-4.8657890625,-5.02526171875,-7.50790625,-4.6949140625,5.67644921875,-1.68991015625,-4.74875,-3.941328125,-5.7462734375,-4.1908828125,5.802375,4.9136953125,1.614828125
-13.28976171875,-7.075875,-11.64351953125,-0.55388671875,-5.6976171875,-6.59110546875,-2.6817421875,-5.49844921875,-7.24021484375,-3.13474609375,-9.02878515625,-6.18593359375,-1.0641796875,-0.0661132812499998,-4.0921484375,-6.58396484375,-3.41883203125,-3.9387890625,-5.32726171875,-8.87590625,-5.5759140625,7.96144921875,-2.34491015625,-5.92375,-5.821328125,-8.6852734375,-5.9568828125,5.205375,2.7486953125,-2.427171875
-13.71576171875,-8.083875,-12.81851953125,-1.66388671875,-5.7366171875,-7.53210546875,-3.8957421875,-6.78444921875,-6.92421484375,-4.01774609375,-10.21478515625,-8.07993359375,-0.7581796875,-1.00611328125,-5.7131484375,-8.11596484375,-4.58283203125,-4.2397890625,-6.88826171875,-10.27190625,-7.0949140625,8.95044921875,-3.41391015625,-7.37175,-8.024328125,-11.3742734375,-7.7768828125,4.324375,0.7806953125,-5.730171875
-14.59076171875,-10.489875,-15.48951953125,-3.77888671875,-6.9726171875,-9.33910546875,-6.4447421875,-9.66044921875,-7.82221484375,-5.54674609375,-12.28878515625,-10.42193359375,-1.8021796875,-2.82711328125,-8.2061484375,-10.16496484375,-6.11183203125,-5.7557890625,-9.54026171875,-11.94990625,-9.1779140625,8.48244921875,-5.06991015625,-9.21775,-10.570328125,-13.9512734375,-9.7418828125,3.204375,-1.0213046875,-8.378171875
-15.87376171875,-13.730875,-19.13151953125,-6.01488671875,-8.7276171875,-11.59410546875,-9.5557421875,-13.05944921875,-9.41221484375,-7.48774609375,-14.79978515625,-12.88493359375,-3.4761796875,-5.18511328125,-11.1521484375,-12.42096484375,-7.64783203125,-8.0527890625,-12.60226171875,-13.78990625,-11.3609140625,6.89044921875,-7.07591015625,-11.20975,-13.047328125,-16.1592734375,-11.5758828125,2.206375,-2.3753046875,-10.173171875
-17.15576171875,-16.732875,-22.65751953125,-7.50688671875,-10.1806171875,-13.53010546875,-12.1537421875,-15.75144921875,-10.95121484375,-9.22874609375,-16.91978515625,-14.74193359375,-4.9641796875,-7.42211328125,-13.7201484375,-14.19296484375,-8.61183203125,-10.4537890625,-15.12926171875,-15.27890625,-12.9429140625,4.84244921875,-8.88191015625,-12.79075,-14.748328125,-17.3862734375,-12.7708828125,1.747375,-2.8613046875,-10.755171875
-17.91776171875,-18.401875,-24.88851953125,-7.77988671875,-10.6946171875,-14.41710546875,-13.2967421875,-16.82144921875,-11.83321484375,-10.13674609375,-17.83578515625,-15.26793359375,-5.7341796875,-8.92011328125,-15.0791484375,-14.77496484375,-8.51383203125,-12.4017890625,-16.37426171875,-15.83090625,-13.3399140625,2.89744921875,-10.00791015625,-13.44575,-15.090328125,-17.0572734375,-12.9658828125,1.889375,-2.3383046875,-9.965171875
-17.91376171875,-18.209875,-25.14951953125,-6.99288671875,-10.1406171875,-13.97310546875,-12.6217421875,-16.04644921875,-11.92221484375,-9.94874609375,-17.19678515625,-14.18393359375,-5.7741796875,-9.46111328125,-14.8581484375,-13.88896484375,-7.26583203125,-13.7727890625,-16.18726171875,-15.19390625,-12.4189140625,1.11044921875,-10.39991015625,-13.05975,-14.021328125,-15.0682734375,-12.2638828125,2.155375,-1.1863046875,-8.121171875
-17.35776171875,-16.482875,-23.60551953125,-5.87288671875,-8.9616171875,-12.52310546875,-10.5277421875,-13.96944921875,-11.59421484375,-8.93274609375,-15.31878515625,-11.85093359375,-5.5301796875,-9.33511328125,-13.3491484375,-11.87396484375,-5.30783203125,-14.8717890625,-15.06026171875,-13.65190625,-10.5969140625,-0.92455078125,-10.46891015625,-12.01475,-12.115328125,-11.9512734375,-11.2308828125,1.771375,-0.1753046875,-5.952171875
-16.78376171875,-14.205875,-21.13551953125,-5.33088671875,-7.8926171875,-10.80510546875,-7.9487421875,-11.59344921875,-11.44821484375,-7.72174609375,-13.01978515625,-9.10193359375,-5.5871796875,-9.11311328125,-11.3411484375,-9.53596484375,-3.44083203125,-16.1077890625,-13.82026171875,-11.88090625,-8.6459140625,-3.60655078125,-10.79791015625,-10.97075,-10.302328125,-8.6942734375,-10.5978828125,0.196375,-0.0293046874999999,-4.287171875
-16.71776171875,-12.493875,-18.85651953125,-5.97788671875,-7.5476171875,-9.60510546875,-5.9177421875,-9.91644921875,-11.90721484375,-6.97674609375,-11.23678515625,-6.86093359375,-6.3031796875,-9.29411328125,-9.7441484375,-7.78196484375,-2.47183203125,-17.6217890625,-13.18726171875,-10.63490625,-7.3689140625,-6.83955078125,-11.76391015625,-10.52775,-9.448328125,-6.3592734375,-10.9028828125,-2.484625,-1.0583046875,-3.734171875
-17.41776171875,-12.092875,-17.65451953125,-7.82088671875,-8.1746171875,-9.43810546875,-5.1917421875,-9.56744921875,-13.02021484375,-7.09974609375,-10.66978515625,-5.82393359375,-7.6281796875,-10.06111328125,-9.2291484375,-7.27196484375,-2.86683203125,-19.1697890625,-13.50126171875,-10.43790625,-7.3179140625,-9.93155078125,-13.34891015625,-10.97275,-10.021328125,-5.7082734375,-12.2778828125,-5.604625,-3.0673046875,-4.532171875
-18.80376171875,-13.142875,-17.90951953125,-10.28488671875,-9.6446171875,-10.40510546875,-6.0657421875,-10.65944921875,-14.50021484375,-8.12274609375,-11.57578515625,-6.27393359375,-9.1721796875,-11.26111328125,-10.0301484375,-8.21296484375,-4.55683203125,-20.2807890625,-14.67626171875,-11.41890625,-8.6149140625,-11.95555078125,-15.18691015625,-12.20575,-11.954328125,-6.9492734375,-14.4398828125,-8.296625,-5.5303046875,-6.534171875
-20.50976171875,-15.190875,-19.42551953125,-12.46988671875,-11.5326171875,-12.18710546875,-8.3197421875,-12.79244921875,-15.88321484375,-9.71474609375,-13.69678515625,-8.03593359375,-10.4001796875,-12.51311328125,-11.8861484375,-10.29396484375,-6.96783203125,-20.5247890625,-16.30026171875,-13.26690625,-10.8869140625,-12.24155078125,-16.74791015625,-13.79075,-14.686328125,-9.6352734375,-16.7848828125,-9.885625,-7.7853046875,-9.213171875
-21.96476171875,-17.367875,-21.50351953125,-13.54588671875,-13.2376171875,-14.13310546875,-11.2497421875,-15.16444921875,-16.68321484375,-11.30474609375,-16.30678515625,-10.51093359375,-10.8671796875,-13.36211328125,-14.1231484375,-12.75196484375,-9.22083203125,-19.7027890625,-17.77826171875,-15.29490625,-13.3229140625,-10.69855078125,-17.52591015625,-15.07475,-17.311328125,-12.7762734375,-18.5478828125,-10.049625,-9.1833046875,-11.713171875
-22.53476171875,-18.682875,-23.16351953125,-13.12688671875,-14.1676171875,-15.46110546875,-13.8577421875,-16.82744921875,-16.57121484375,-12.24874609375,-18.41578515625,-12.81393359375,-10.4061796875,-13.43711328125,-15.8511484375,-14.59296484375,-10.44683203125,-17.9407890625,-18.51726171875,-16.64690625,-14.9219140625,-7.84455078125,-17.19691015625,-15.39775,-18.852328125,-15.1632734375,-19.0168828125,-8.792625,-9.2183046875,-13.082171875
-21.72876171875,-18.388875,-23.50851953125,-11.44788671875,-13.9806171875,-15.52610546875,-15.1787421875,-17.03344921875,-15.53721484375,-12.06274609375,-19.09378515625,-14.03493359375,-9.2211796875,-12.59911328125,-16.2711484375,-14.92896484375,-10.10083203125,-15.6667890625,-18.12426171875,-16.59890625,-14.8769140625,-4.60055078125,-15.73791015625,-14.34475,-18.591328125,-15.8292734375,-17.7948828125,-6.392625,-7.7013046875,-12.645171875
-19.42076171875,-16.282875,-22.07851953125,-9.23588671875,-12.7306171875,-14.07610546875,-14.6227421875,-15.53544921875,-13.93121484375,-10.61574609375,-17.83378515625,-13.56893359375,-7.8451796875,-11.01711328125,-14.9711484375,-13.32196484375,-8.13683203125,-13.4887890625,-16.56226171875,-14.85790625,-12.9069140625,-1.96455078125,-13.46891015625,-11.94175,-16.348328125,-14.4162734375,-15.0028828125,-3.373625,-4.9013046875,-10.356171875
-15.95076171875,-12.783875,-19.02951953125,-7.34288671875,-10.8006171875,-11.35810546875,-12.1917421875,-12.66844921875,-12.32121484375,-8.19574609375,-14.74978515625,-11.36693359375,-6.9401796875,-9.10511328125,-12.0901484375,-9.97996484375,-4.99183203125,-11.9767890625,-14.15626171875,-11.69590625,-9.3919140625,-0.67155078125,-10.96091015625,-8.65975,-12.567328125,-11.2692734375,-11.2918828125,-0.446625,-1.5223046875,-6.872171875
-12.00176171875,-8.724875,-15.03251953125,-6.35088671875,-8.7006171875,-8.01310546875,-8.4797421875,-9.18044921875,-11.21121484375,-5.38674609375,-10.53978515625,-7.96393359375,-7.0121796875,-7.32511328125,-8.2741484375,-5.69196484375,-1.39683203125,-11.4167890625,-11.44426171875,-7.84290625,-5.2189140625,-0.94555078125,-8.79991015625,-5.22475,-8.143328125,-7.2382734375,-7.5988828125,1.669375,1.5436953125,-3.278171875
-8.31576171875,-4.975875,-10.95751953125,-6.37988671875,-6.8436171875,-4.79910546875,-4.4587421875,-5.89244921875,-10.77121484375,-2.79974609375,-6.21178515625,-4.26493359375,-8.1641796875,-5.94811328125,-4.4161484375,-1.50496484375,1.87516796875,-11.6717890625,-8.92526171875,-4.17590625,-1.4239140625,-2.45555078125,-7.32491015625,-2.30975,-4.079328125,-3.3132734375,-4.7518828125,2.513375,3.5766953125,-0.600171874999999
-5.36876171875,-2.092875,-7.50951953125,-7.09188671875,-5.4026171875,-2.28610546875,-1.1107421875,-3.34644921875,-10.73121484375,-0.80974609375,-2.70378515625,-1.17893359375,-10.0041796875,-4.90611328125,-1.3111484375,1.69903515625,4.23016796875,-12.2307890625,-6.87026171875,-1.37190625,1.2120859375,-4.48055078125,-6.48891015625,-0.26975,-1.116328125,-0.2712734375,-3.1438828125,2.093375,4.3286953125,0.621828125
-3.18676171875,-0.157874999999999,-4.97451953125,-7.87588671875,-4.2716171875,-0.68610546875,0.9472578125,-1.63344921875,-10.50921484375,0.54225390625,-0.55778515625,0.705066406249999,-11.7621796875,-3.84311328125,0.619851562500001,3.51503515625,5.36616796875,-12.4177890625,-5.26026171875,0.31109375,2.4330859375,-6.19855078125,-5.92791015625,0.940249999999999,0.485671875,1.5207265625,-2.6368828125,0.900375,4.0786953125,0.504828125
-1.43076171875,1.142125,-3.19751953125,-8.11888671875,-3.1986171875,0.135894531250001,1.6432578125,-0.47344921875,-9.56521484375,1.45825390625,0.21021484375,1.27706640625,-12.5961796875,-2.36211328125,1.4068515625,4.08803515625,5.29716796875,-11.6987890625,-3.88926171875,1.03509375,2.5150859375,-6.96455078125,-5.18791015625,1.64425,0.955671875,2.1117265625,-2.7208828125,-0.291625,3.4516953125,-0.337171874999999
0.317238281249999,2.252125,-1.77551953125,-7.51488671875,-2.0186171875,0.48089453125,1.3452578125,0.49455078125,-7.78921484375,2.18425390625,0.00521484375000014,0.839066406249999,-11.9511796875,-0.334113281250001,1.4058515625,3.93503515625,4.28116796875,-9.9417890625,-2.55226171875,1.21009375,2.0550859375,-6.46755078125,-3.95991015625,2.22025,0.824671875,1.8397265625,-2.8008828125,-0.726625,3.1086953125,-1.118171875
2.26623828125,3.477125,-0.342519531249998,-6.21388671875,-0.813617187500001,0.615894531250001,0.593257812500001,1.43955078125,-5.64921484375,2.84125390625,-0.59478515625,-0.0969335937500011,-9.8201796875,1.95488671875,1.0868515625,3.63703515625,2.73816796875,-7.4857890625,-1.19626171875,1.27409375,1.6640859375,-4.74855078125,-2.21691015625,2.89525,0.667671875,1.1627265625,-2.4638828125,0.0423750000000001,3.4776953125,-1.221171875
4.35223828125,4.846125,1.23148046875,-4.70888671875,0.166382812499998,0.68489453125,-0.1317421875,2.27855078125,-3.92121484375,3.39725390625,-1.08378515625,-1.03093359375,-6.7411796875,3.93888671875,0.8618515625,3.57503515625,1.17016796875,-4.9707890625,0.0607382812499999,1.51809375,1.7350859375,-2.11755078125,-0.20491015625,3.67725,0.873671874999999,0.521726562500001,-1.6088828125,2.001375,4.6286953125,-0.384171874999999
6.39923828125,6.192125,2.83648046875,-3.51388671875,0.7283828125,0.724894531250001,-0.521742187499999,2.82055078125,-3.17621484375,3.76425390625,-1.16878515625,-1.62493359375,-3.5461796875,5.11888671875,0.988851562500001,3.82403515625,0.08116796875,-3.0087890625,1.03373828125,2.01309375,2.3720859375,0.96044921875,1.69408984375,4.42725,1.560671875,0.249726562500001,-0.4208828125,4.701375,6.3196953125,1.288828125
8.30223828125,7.314125,4.24748046875,-2.87588671875,0.883382812499999,0.738894531250001,-0.462742187499999,2.95255078125,-3.44421484375,3.92225390625,-0.80578515625,-1.76793359375,-0.9971796875,5.34888671875,1.5368515625,4.20803515625,-0.14583203125,-1.9067890625,1.59073828125,2.64009375,3.4400859375,3.99544921875,3.13808984375,4.97825,2.601671875,0.5107265625,0.7811171875,7.460375,8.1586953125,3.444828125
10.04923828125,8.092125,5.25648046875,-2.68888671875,0.7883828125,0.725894531250001,-0.0137421874999992,2.75455078125,-4.27021484375,3.94425390625,-0.153785156250001,-1.54593359375,0.4918203125,4.87588671875,2.3888515625,4.47103515625,0.60516796875,-1.5877890625,1.71473828125,3.19109375,4.6580859375,6.56644921875,3.94408984375,5.23125,3.728671875,1.2577265625,1.7131171875,9.633375,9.7646953125,5.627828125
11.58523828125,8.482125,5.74248046875,-2.62788671875,0.605382812499998,0.67989453125,0.661257812500001,2.48655078125,-5.08921484375,3.91225390625,0.52421484375,-1.13593359375,0.912820312499999,4.12588671875,3.2828515625,4.42803515625,2.12416796875,-1.7197890625,1.47873828125,3.46409375,5.6980859375,8.37344921875,4.09908984375,5.17725,4.645671875,2.2237265625,2.2121171875,10.827375,10.8566953125,7.375828125
12.68023828125,8.448125,5.66848046875,-2.36788671875,0.393382812499999,0.567894531250001,1.3742578125,2.48955078125,-5.58121484375,3.81125390625,0.969214843750001,-0.696933593750001,0.5418203125,3.43488671875,3.9108515625,4.04203515625,3.94816796875,-1.9617890625,0.991738281250001,3.33009375,6.2750859375,9.20544921875,3.67308984375,4.85625,5.110671875,2.9947265625,2.2091171875,10.943375,11.2436953125,8.264828125
12.96823828125,7.949125,5.09048046875,-1.77288671875,0.104382812499999,0.33989453125,1.9682578125,3.00955078125,-5.77121484375,3.52825390625,1.01321484375,-0.311933593750001,-0.281179687500001,2.89988671875,4.0298515625,3.41903515625,5.54616796875,-2.1737890625,0.35273828125,2.77009375,6.2300859375,8.88244921875,2.74608984375,4.30325,4.994671875,3.1897265625,1.6961171875,10.078375,10.7936953125,7.994828125
12.16823828125,7.006125,4.16548046875,-0.93488671875,-0.314617187500001,-0.0191054687500003,2.3282578125,4.05955078125,-5.86721484375,2.95925390625,0.63621484375,-0.00793359375000069,-1.3011796875,2.43988671875,3.5668515625,2.76103515625,6.52116796875,-2.4617890625,-0.344261718749999,1.90609375,5.6100859375,7.30044921875,1.41508984375,3.55025,4.342671875,2.6817265625,0.744117187499999,8.430375,9.4816953125,6.523828125
10.37623828125,5.820125,3.18848046875,-0.0708867187499997,-0.779617187500001,-0.418105468749999,2.4212578125,5.41655078125,-5.97821484375,2.17125390625,0.00621484374999959,0.226066406249999,-2.3601796875,1.97988671875,2.6798515625,2.34203515625,6.74116796875,-3.0007890625,-0.94826171875,1.02609375,4.6940859375,4.60744921875,-0.109910156250001,2.69325,3.402671875,1.7037265625,-0.4308828125,6.300375,7.5106953125,4.197828125
8.21623828125,4.821125,2.58648046875,0.63711328125,-0.986617187500001,-0.618105468749999,2.3652578125,6.76755078125,-5.95421484375,1.46925390625,-0.531785156250001,0.44306640625,-3.3151796875,1.62588671875,1.7438515625,2.46803515625,6.36716796875,-3.7947890625,-1.21226171875,0.54809375,3.9370859375,1.38244921875,-1.45091015625,1.95625,2.597671875,0.754726562500002,-1.4378828125,4.154375,5.3866953125,1.721828125
6.66123828125,4.553125,2.79748046875,1.11011328125,-0.520617187500001,-0.29510546875,2.4302578125,7.87655078125,-5.47021484375,1.30625390625,-0.530785156249999,0.762066406249999,-3.9871796875,1.66788671875,1.2388515625,3.39703515625,5.76016796875,-4.5787890625,-0.83326171875,0.89409375,3.8020859375,-1.42455078125,-2.11491015625,1.67525,2.402671875,0.358726562500001,-1.8038828125,2.602375,3.8166953125,-0.065171874999999
6.54523828125,5.386125,4.04248046875,1.33211328125,0.852382812499998,0.798894531250001,2.9092578125,8.64655078125,-4.30021484375,2.05825390625,0.36821484375,1.34206640625,-4.2171796875,2.40788671875,1.5638515625,5.21103515625,5.33316796875,-4.9597890625,0.388738281250001,2.30009375,4.5520859375,-2.87755078125,-1.69791015625,2.15025,3.144671875,0.823726562500001,-1.1818828125,2.194375,3.4176953125,-0.525171874999999
8.05323828125,7.219125,6.11248046875,1.29011328125,2.9553828125,2.65889453125,3.9452578125,9.07455078125,-2.55521484375,3.78125390625,2.23721484375,2.28606640625,-3.9711796875,3.92588671875,2.8508515625,7.71103515625,5.37316796875,-4.6767890625,2.38773828125,4.65209375,6.0980859375,-2.53555078125,-0.124910156249999,3.45025,4.821671875,2.1167265625,0.4281171875,3.111375,4.3746953125,0.491828125000001
10.54423828125,9.422125,8.36048046875,0.98411328125,5.2363828125,4.95189453125,5.4242578125,9.18855078125,-0.699214843750001,6.11225390625,4.76621484375,3.54406640625,-3.4171796875,5.96888671875,4.8728515625,10.39703515625,5.91916796875,-3.7937890625,4.76573828125,7.43309375,8.0010859375,-0.73955078125,2.22308984375,5.29025,7.026671875,3.8717265625,2.5811171875,4.957375,6.2656953125,2.551828125
12.84723828125,11.086125,9.93148046875,0.46711328125,7.0203828125,7.08489453125,6.9932578125,8.98855078125,0.645785156249998,8.36125390625,7.32121484375,4.86606640625,-2.8951796875,8.00188671875,7.0768515625,12.59603515625,6.71416796875,-2.6907890625,6.88873828125,9.84609375,9.6090859375,1.51244921875,4.59108984375,7.07225,9.042671875,5.4917265625,4.4991171875,6.845375,8.1856953125,4.780828125
13.83423828125,11.437125,10.09748046875,-0.16588671875,7.7633828125,8.40089453125,8.1532578125,8.40855078125,0.943785156249998,9.76725390625,9.15021484375,5.84306640625,-2.7991796875,9.39588671875,8.7398515625,13.66803515625,7.25016796875,-1.8947890625,8.09673828125,11.07209375,10.2620859375,3.02644921875,6.12308984375,8.08225,10.081671875,6.3097265625,5.3701171875,7.755375,9.1276953125,6.191828125
12.92223828125,10.168125,8.53248046875,-0.82288671875,7.2373828125,8.41189453125,8.4142578125,7.32755078125,-0.0672148437500013,9.78125390625,9.64921484375,6.05206640625,-3.4001796875,9.65188671875,9.2208515625,13.22803515625,6.94416796875,-1.8447890625,7.93373828125,10.57509375,9.5180859375,2.98044921875,6.20408984375,7.78525,9.579671875,5.7827265625,4.6891171875,7.016375,8.4296953125,6.061828125
10.28523828125,7.549125,5.44048046875,-1.41288671875,5.6153828125,7.01489453125,7.5092578125,5.67255078125,-2.23921484375,8.28725390625,8.61021484375,5.24506640625,-4.6751796875,8.61288671875,8.2188515625,11.30003515625,5.41216796875,-2.6717890625,6.34973828125,8.35409375,7.3560859375,1.31244921875,4.73808984375,6.09425,7.453671875,3.7517265625,2.5121171875,4.664375,6.1006953125,4.262828125
6.73823828125,4.317125,1.50948046875,-1.77888671875,3.4723828125,4.58589453125,5.5622578125,3.57855078125,-4.99521484375,5.69025390625,6.35121484375,3.49806640625,-6.2651796875,6.57388671875,5.9438515625,8.34503515625,2.73716796875,-4.1077890625,3.76573828125,5.00409375,4.2730859375,-1.25355078125,2.22508984375,3.49025,4.232671875,0.656726562500001,-0.499882812500001,1.488375,2.8796953125,1.394828125
3.37323828125,1.404125,-2.29351953125,-1.69388671875,1.5893828125,1.86489453125,3.0842578125,1.43855078125,-7.50221484375,2.78925390625,3.60721484375,1.21906640625,-7.5951796875,4.21488671875,3.0748515625,5.12403515625,-0.43983203125,-5.6067890625,0.95073828125,1.54009375,1.1860859375,-3.57155078125,-0.413910156250001,0.876250000000001,0.931671875000001,-2.4602734375,-3.2888828125,-1.286625,-0.0453046874999999,-1.370171875
1.07623828125,-0.419874999999999,-5.07051953125,-0.96988671875,0.626382812499999,-0.326105468749999,0.776257812500001,-0.21044921875,-9.01721484375,0.47825390625,1.24121484375,-0.988933593750001,-8.1281796875,2.33188671875,0.481851562500001,2.43803515625,-3.13083203125,-6.6167890625,-1.27626171875,-0.98490625,-0.8839140625,-4.64455078125,-2.21991015625,-0.794750000000001,-1.316328125,-4.3082734375,-4.8248828125,-2.553625,-1.5363046875,-2.767171875
0.154238281249999,-0.842874999999999,-6.32751953125,0.37311328125,0.8563828125,-1.41510546875,-0.753742187499999,-0.930449218749999,-9.20221484375,-0.62374609375,-0.11278515625,-2.54493359375,-7.6181796875,1.49988671875,-1.1331484375,0.85603515625,-4.43483203125,-6.8607890625,-2.36726171875,-1.91390625,-1.2349140625,-4.10755078125,-2.62591015625,-0.94775,-1.754328125,-3.9362734375,-4.5588828125,-1.834625,-1.0283046875,-2.047171875
0.290238281249998,-0.0848749999999985,-6.14051953125,2.04211328125,2.1023828125,-1.27410546875,-1.1967421875,-0.599449218749999,-8.22121484375,-0.41374609375,-0.265785156250001,-3.09193359375,-6.2321796875,1.83588671875,-1.5081484375,0.540035156250001,-3.96683203125,-6.4577890625,-2.23826171875,-1.24390625,0.1990859375,-2.35855078125,-1.70091015625,0.357250000000001,-0.352328125,-1.2602734375,-2.7008828125,0.499375,1.1826953125,0.577828125000001
0.857238281249998,1.297125,-5.04051953125,3.54511328125,3.8603828125,-0.216105468749999,-0.6157421875,0.525550781250001,-6.60821484375,0.70725390625,0.533214843750001,-2.62293359375,-4.4901796875,2.98188671875,-0.866148437499999,1.22703515625,-2.03683203125,-5.8247890625,-1.23926171875,0.41009375,2.7960859375,-0.29755078125,-0.0809101562500008,2.47325,2.154671875,2.7857265625,-0.140882812500001,3.412375,4.0346953125,3.935828125
1.34523828125,2.739125,-3.69551953125,4.41211328125,5.5303828125,1.20289453125,0.6312578125,1.93155078125,-5.00321484375,2.10325390625,1.79021484375,-1.46293359375,-3.0351796875,4.31288671875,0.273851562500001,2.36803515625,0.50916796875,-5.4297890625,0.0557382812500009,2.13709375,5.5170859375,1.17944921875,1.38608984375,4.49825,4.602671875,6.6067265625,1.9581171875,5.685375,6.1686953125,6.418828125
1.60823828125,3.917125,-2.57651953125,4.42511328125,6.6643828125,2.46089453125,2.0962578125,3.10255078125,-3.88221484375,3.23625390625,3.03621484375,-0.111933593750001,-2.3181796875,5.27588671875,1.3998515625,3.37703515625,2.70216796875,-5.5117890625,1.14273828125,3.18309375,7.3640859375,1.63444921875,2.07408984375,5.70925,5.940671875,8.6567265625,2.7101171875,6.494375,6.5856953125,6.788828125
1.78223828125,4.772125,-1.82951953125,3.73111328125,7.1423828125,3.27289453125,3.4522578125,3.73855078125,-3.42521484375,3.88425390625,4.01221484375,0.97806640625,-2.3761796875,5.63688671875,2.2368515625,3.85503515625,3.85616796875,-5.9477890625,1.80173828125,3.26109375,7.8030859375,1.27844921875,1.85908984375,5.86425,5.697671875,8.1337265625,1.8911171875,5.773375,5.1476953125,4.821828125
1.99523828125,5.344125,-1.39151953125,2.73511328125,7.1323828125,3.62489453125,4.5592578125,3.80355078125,-3.54021484375,4.11425390625,4.66621484375,1.56806640625,-2.8211796875,5.51388671875,2.7878515625,3.71003515625,3.77816796875,-6.3577890625,2.10973828125,2.58209375,6.9030859375,0.76944921875,1.08308984375,5.20425,4.113671875,5.2957265625,-0.0358828125000006,4.173375,2.5996953125,1.369828125
2.13523828125,5.594125,-1.21651953125,1.86311328125,6.8863828125,3.64689453125,5.3562578125,3.41455078125,-4.03221484375,4.09725390625,5.01721484375,1.63806640625,-3.0761796875,5.19088671875,3.1788515625,3.10903515625,2.70516796875,-6.3947890625,2.26173828125,1.61209375,5.1740859375,0.76444921875,0.26008984375,4.21325,1.911671875,1.2627265625,-2.2338828125,2.623375,0.0906953125000001,-2.163171875
1.89423828125,5.368125,-1.37951953125,1.37711328125,6.5403828125,3.45289453125,5.7462578125,2.71655078125,-4.73421484375,3.92025390625,5.03321484375,1.31406640625,-2.6921796875,4.87088671875,3.4748515625,2.35303515625,1.08216796875,-6.0067890625,2.35773828125,0.76909375,3.2700859375,1.51044921875,-0.253910156250001,3.32625,-0.102328125,-2.5282734375,-3.9348828125,1.800375,-1.4673046875,-4.574171875
1.09323828125,4.589125,-1.94251953125,1.34411328125,6.1023828125,3.07989453125,5.6152578125,1.87255078125,-5.52521484375,3.54225390625,4.64521484375,0.78006640625,-1.5521796875,4.56688671875,3.6148515625,1.74803515625,-0.64283203125,-5.4587890625,2.34373828125,0.257093749999999,1.7570859375,2.73344921875,-0.413910156250001,2.78925,-1.350328125,-4.8782734375,-4.7218828125,1.845375,-1.7713046875,-5.316171875
0.022238281249999,3.485125,-2.71351953125,1.72011328125,5.5923828125,2.55289453125,4.9582578125,1.11955078125,-6.25621484375,2.90725390625,3.87821484375,0.24106640625,0.128820312499999,4.17388671875,3.4908515625,1.55103515625,-2.10683203125,-5.1357890625,2.11273828125,0.0930937499999995,1.0280859375,3.86044921875,-0.397910156250001,2.68025,-1.581328125,-5.1672734375,-4.5408828125,2.471375,-1.0693046875,-4.494171875
-0.548761718750001,2.626125,-3.19551953125,2.43711328125,5.1353828125,1.95489453125,3.9532578125,0.765550781250001,-6.72221484375,2.09425390625,2.93221484375,-0.129933593750001,1.9388203125,3.62388671875,3.0828515625,1.91803515625,-3.04083203125,-5.2837890625,1.67073828125,0.222093749999999,1.2700859375,4.37944921875,-0.37391015625,2.99025,-0.825328125,-3.4422734375,-3.5398828125,3.280375,0.1616953125,-2.554171875
0.213238281249998,2.642125,-2.83251953125,3.43011328125,4.9163828125,1.43789453125,2.8852578125,1.06055078125,-6.72721484375,1.34625390625,2.11721484375,-0.261933593750001,3.4318203125,2.97888671875,2.5048515625,2.83703515625,-3.27983203125,-5.8877890625,1.18973828125,0.59809375,2.4210859375,4.08244921875,-0.35791015625,3.62825,0.665671875000001,-0.347273437499998,-1.9228828125,4.018375,1.5076953125,0.00282812500000063
2.59423828125,3.791125,-1.41451953125,4.60611328125,5.0553828125,1.13389453125,1.9972578125,2.00355078125,-6.18421484375,0.934253906249999,1.67621484375,-0.238933593750001,4.2568203125,2.39988671875,1.9438515625,4.05503515625,-2.81983203125,-6.7247890625,0.91673828125,1.14409375,4.1190859375,3.05744921875,-0.24491015625,4.38825,2.462671875,3.0687265625,0.0521171874999986,4.602375,2.6926953125,2.705828125
5.96623828125,5.688125,0.668480468750001,5.78211328125,5.4953828125,1.03989453125,1.3722578125,3.23055078125,-5.20921484375,0.95825390625,1.61821484375,-0.28393359375,4.2498203125,2.01988671875,1.5098515625,5.08003515625,-1.87183203125,-7.5447890625,0.982738281250001,1.68709375,5.7370859375,1.52844921875,0.0320898437500006,4.94025,4.004671875,5.6577265625,2.0271171875,5.004375,3.5116953125,5.071828125
8.93523828125,7.407125,2.53148046875,6.64211328125,5.9663828125,0.97389453125,0.901257812500001,4.07255078125,-4.13221484375,1.24025390625,1.67621484375,-0.652933593750001,3.4378203125,1.81288671875,1.1338515625,5.31603515625,-0.85583203125,-8.2277890625,1.28273828125,1.93709375,6.5620859375,-0.31555078125,0.378089843750001,4.93425,4.744671875,6.5907265625,3.5501171875,5.151375,3.7776953125,6.612828125
9.99923828125,7.935125,3.23548046875,6.81611328125,6.0753828125,0.660894531250001,0.358257812500001,3.84955078125,-3.39221484375,1.40525390625,1.45421484375,-1.49793359375,1.9978203125,1.59788671875,0.612851562500001,4.33503515625,-0.25683203125,-8.8257890625,1.52073828125,1.59109375,6.0850859375,-2.35155078125,0.55608984375,4.17825,4.358671875,5.7007265625,4.2201171875,4.927375,3.3776953125,6.997828125
8.35123828125,6.733125,2.31048046875,6.08911328125,5.5383828125,-0.0771054687500001,-0.4167421875,2.28855078125,-3.32021484375,1.12325390625,0.69221484375,-2.75193359375,0.1748203125,1.17788671875,-0.2181484375,2.15803515625,-0.41283203125,-9.4427890625,1.41973828125,0.52809375,4.2570859375,-4.45855078125,0.349089843750001,2.78325,2.922671875,3.5687265625,3.8791171875,4.258375,2.3716953125,6.223828125
4.36923828125,4.088125,0.0674804687500021,4.60511328125,4.4073828125,-1.14910546875,-1.3397421875,-0.19744921875,-3.94521484375,0.33725390625,-0.527785156249999,-4.09093359375,-1.7601796875,0.51988671875,-1.2871484375,-0.641964843749999,-1.31183203125,-10.0887890625,0.946738281250001,-1.03990625,1.5660859375,-6.47155078125,-0.282910156250001,1.17025,0.935671875000001,1.2407265625,2.7181171875,3.160375,1.0066953125,4.654828125
-0.493761718750001,1.020125,-2.51451953125,2.86811328125,3.0983828125,-2.17810546875,-2.0657421875,-2.63344921875,-4.99621484375,-0.67074609375,-1.76678515625,-5.04293359375,-3.5401796875,-0.17511328125,-2.2471484375,-3.11496484375,-2.55583203125,-10.6097890625,0.38773828125,-2.57690625,-1.1299140625,-8.22355078125,-1.15091015625,-0.0917500000000011,-0.861328125,-0.2522734375,1.2141171875,1.720375,-0.3903046875,2.846828125
-4.38576171875,-1.204875,-4.26551953125,1.49811328125,2.1573828125,-2.69810546875,-2.1997421875,-3.97444921875,-6.08521484375,-1.43274609375,-2.46278515625,-5.20093359375,-4.9341796875,-0.58511328125,-2.6421484375,-4.35096484375,-3.49683203125,-10.7747890625,0.17973828125,-3.44490625,-2.9629140625,-9.63355078125,-1.92591015625,-0.55175,-1.802328125,-0.344273437499998,-0.0818828125000017,0.0623750000000001,-1.5713046875,1.293828125
-5.92076171875,-1.702875,-4.38751953125,0.92611328125,1.9663828125,-2.42710546875,-1.5697421875,-3.66344921875,-6.91721484375,-1.57574609375,-2.25278515625,-4.45493359375,-5.8151796875,-0.47611328125,-2.1841484375,-3.92696484375,-3.53683203125,-10.4487890625,0.61773828125,-3.24390625,-3.4279140625,-10.76155078125,-2.34591015625,-0.12175,-1.611328125,0.833726562500001,-0.822882812500001,-1.699625,-2.4883046875,0.195828125000001
-4.75476171875,-0.353874999999999,-2.80051953125,1.22611328125,2.5943828125,-1.45310546875,-0.361742187499999,-1.89844921875,-7.36921484375,-1.05074609375,-1.20078515625,-3.07293359375,-6.2131796875,0.11888671875,-0.974148437499999,-2.10496484375,-2.42783203125,-9.7207890625,1.62073828125,-2.06790625,-2.6089140625,-11.76755078125,-2.39791015625,0.840249999999999,-0.562328125000001,2.4967265625,-1.0498828125,-3.488625,-3.3293046875,-0.631171875
-1.59576171875,2.255125,-0.10251953125,2.14911328125,3.8173828125,-0.197105468749999,0.959257812500001,0.528550781250001,-7.43321484375,-0.14974609375,0.238214843750001,-1.58293359375,-6.3021796875,0.90688671875,0.5218515625,0.32303515625,-0.43383203125,-8.8657890625,2.74873828125,-0.48390625,-1.1049140625,-12.77055078125,-2.33091015625,1.68925,0.652671874999999,3.5687265625,-1.1478828125,-5.226625,-4.3883046875,-1.599171875
2.27523828125,5.214125,2.77548046875,3.28711328125,5.2513828125,0.82589453125,1.8892578125,2.67755078125,-7.14221484375,0.69825390625,1.46521484375,-0.505933593750001,-6.2721796875,1.51688671875,1.7208515625,2.46303515625,1.77216796875,-8.1677890625,3.45573828125,0.779093749999999,0.2960859375,-13.67055078125,-2.45291015625,1.83725,1.310671875,3.2317265625,-1.5508828125,-6.737625,-5.7953046875,-2.976171875
5.61323828125,7.732125,4.99948046875,4.26311328125,6.5083828125,1.27589453125,2.1362578125,3.90455078125,-6.53721484375,1.18525390625,2.04621484375,-0.106933593750001,-6.1641796875,1.72988671875,2.2368515625,3.73903515625,3.42516796875,-7.7177890625,3.41773828125,1.23309375,1.0150859375,-14.05755078125,-2.86791015625,1.08625,1.064671875,1.3967265625,-2.3988828125,-7.654625,-7.2783046875,-4.562171875
7.63923828125,9.353125,6.10848046875,4.85911328125,7.3253828125,1.11489453125,1.7392578125,4.06255078125,-5.70021484375,1.23225390625,1.88021484375,-0.317933593750001,-5.7971796875,1.57788671875,2.0278515625,4.05203515625,4.01716796875,-7.3627890625,2.69573828125,0.84809375,0.9200859375,-13.34555078125,-3.37491015625,-0.28775,0.111671875000001,-1.2102734375,-3.4198828125,-7.487625,-8.1913046875,-5.685171875
8.11823828125,9.927125,6.03248046875,5.01711328125,7.5923828125,0.49989453125,0.962257812500001,3.35955078125,-4.82621484375,0.89325390625,1.13221484375,-0.870933593750001,-4.9001796875,1.23988671875,1.2968515625,3.63103515625,3.46816796875,-6.8537890625,1.61673828125,-0.0579062500000003,0.2400859375,-11.09355078125,-3.62291015625,-1.75375,-1.013328125,-3.4562734375,-4.1308828125,-5.884625,-7.8693046875,-5.601171875
7.17923828125,9.434125,4.90148046875,4.72911328125,7.2553828125,-0.422105468749999,0.0352578125000003,2.04955078125,-4.27121484375,0.17525390625,0.0162148437499994,-1.55493359375,-3.3761796875,0.84488671875,0.246851562500002,2.72403515625,2.04216796875,-6.0927890625,0.48773828125,-1.13290625,-0.7139140625,-7.33955078125,-3.39491015625,-2.89275,-1.843328125,-4.4362734375,-4.1908828125,-2.943625,-6.0993046875,-4.031171875
5.06623828125,7.867125,2.84948046875,3.94911328125,6.2453828125,-1.65610546875,-1.0517421875,0.22255078125,-4.48121484375,-1.03274609375,-1.38778515625,-2.40493359375,-1.5071796875,0.33488671875,-1.0971484375,1.39403515625,0.12616796875,-5.2777890625,-0.620261718749999,-2.25490625,-1.8179140625,-2.74355078125,-2.79591015625,-3.63975,-2.297328125,-3.9612734375,-3.6598828125,0.660375,-3.3783046875,-1.457171875
2.04723828125,5.268125,-0.0155195312499998,2.62311328125,4.5603828125,-3.29210546875,-2.4977421875,-2.11244921875,-5.75321484375,-2.85074609375,-3.12378515625,-3.66293359375,0.0938203124999992,-0.45611328125,-2.8241484375,-0.441964843749999,-1.94683203125,-4.8027890625,-1.85326171875,-3.54690625,-3.1619140625,1.59544921875,-2.20791015625,-4.24075,-2.676328125,-2.5852734375,-2.9738828125,3.862375,-0.7383046875,1.057828125
-1.50576171875,1.900125,-3.45051953125,0.84211328125,2.4483828125,-5.29110546875,-4.4277421875,-4.75344921875,-7.96321484375,-5.18174609375,-5.17378515625,-5.52393359375,0.791820312499999,-1.59511328125,-4.9191484375,-2.78896484375,-3.92783203125,-4.9807890625,-3.33326171875,-5.16390625,-4.8519140625,4.57244921875,-2.03491015625,-4.96775,-3.376328125,-1.2122734375,-2.6558828125,5.664375,0.7596953125,2.427828125
-4.99676171875,-1.646875,-6.92551953125,-1.06388671875,0.464382812499998,-7.33110546875,-6.6497421875,-7.16244921875,-10.48921484375,-7.57174609375,-7.27978515625,-7.85293359375,0.301820312499999,-2.87611328125,-7.0691484375,-5.36296484375,-5.57883203125,-5.7887890625,-4.93726171875,-7.03790625,-6.7619140625,5.56244921875,-2.41291015625,-5.84075,-4.528328125,-0.535273437499999,-2.9768828125,5.600375,0.5606953125,2.124828125
-7.65576171875,-4.562875,-9.68051953125,-2.58788671875,-0.728617187500001,-8.85610546875,-8.6667421875,-8.61444921875,-12.45521484375,-9.31274609375,-8.94578515625,-10.11093359375,-1.1351796875,-3.85611328125,-8.6891484375,-7.59296484375,-6.61183203125,-6.8437890625,-6.27626171875,-8.78790625,-8.4659140625,4.68044921875,-3.11091015625,-6.55875,-5.840328125,-0.678273437499999,-3.7838828125,3.946375,-1.1283046875,0.429828125000001
-8.80376171875,-6.131875,-11.01051953125,-3.23288671875,-0.6886171875,-9.33810546875,-9.9007421875,-8.56544921875,-13.14821484375,-9.77674609375,-9.64678515625,-11.56793359375,-2.8731796875,-4.07911328125,-9.1841484375,-8.84996484375,-6.75083203125,-7.6097890625,-6.90026171875,-9.87390625,-9.4079140625,2.70044921875,-3.66091015625,-6.70275,-6.726328125,-1.2332734375,-4.6068828125,1.575375,-3.4913046875,-1.770171875
-8.15076171875,-6.043875,-10.59751953125,-2.71688671875,0.5873828125,-8.55610546875,-9.9827421875,-6.97044921875,-12.34921484375,-8.74474609375,-9.09478515625,-11.67693359375,-4.1631796875,-3.33411328125,-8.2661484375,-8.75096484375,-5.88083203125,-7.6927890625,-6.55526171875,-9.87390625,-9.1869140625,0.67344921875,-3.64191015625,-6.01975,-6.630328125,-1.6082734375,-4.9308828125,-0.443625,-5.5003046875,-3.465171875
-5.92976171875,-4.487875,-8.64051953125,-1.08688671875,2.6983828125,-6.70310546875,-8.8967421875,-4.33144921875,-10.38121484375,-6.51174609375,-7.37778515625,-10.35693359375,-4.4711796875,-1.76911328125,-6.1141484375,-7.33096484375,-4.17583203125,-7.0147890625,-5.31626171875,-8.69190625,-7.7729140625,-0.53055078125,-2.89491015625,-4.59075,-5.309328125,-1.4332734375,-4.4418828125,-1.295625,-6.3393046875,-3.982171875
-2.74776171875,-1.973875,-5.72651953125,1.29911328125,5.0973828125,-4.24110546875,-6.9257421875,-1.43644921875,-7.86121484375,-3.67574609375,-4.88078515625,-7.98193359375,-3.6471796875,0.21688671875,-3.2631484375,-4.97096484375,-2.08583203125,-5.7947890625,-3.50226171875,-6.56990625,-5.5119140625,-0.53655078125,-1.53891015625,-2.74875,-2.927328125,-0.740273437499999,-3.0998828125,-0.666625,-5.6433046875,-3.164171875
0.714238281249999,0.974125000000001,-2.51651953125,3.94011328125,7.4313828125,-1.62110546875,-4.4267421875,1.06755078125,-5.33021484375,-0.78874609375,-2.05078515625,-5.12893359375,-1.9101796875,2.22788671875,-0.303148437499999,-2.16196484375,-0.13283203125,-4.3587890625,-1.45226171875,-3.92290625,-2.9369140625,0.50444921875,0.169089843749999,-0.84675,0.0936718750000001,0.159726562500001,-1.0578828125,1.261375,-3.5133046875,-1.274171875
3.96323828125,4.018125,0.517480468750001,6.40111328125,9.7203828125,0.924894531250001,-1.6327421875,2.97255078125,-2.99821484375,1.88125390625,0.80421484375,-2.28193359375,0.274820312499999,4.06688671875,2.4038515625,0.723035156250001,1.33316796875,-2.9457890625,0.654738281250001,-1.14590625,-0.520914062499999,2.12844921875,2.01208984375,0.95025,3.282671875,0.9627265625,1.4551171875,3.992375,-0.3963046875,1.222828125
6.72123828125,6.976125,3.14748046875,8.42511328125,12.2053828125,3.37389453125,1.3542578125,4.49255078125,-0.788214843750001,4.32825390625,3.54521484375,0.307066406249999,2.3698203125,5.74688671875,4.7778515625,3.48103515625,2.26416796875,-1.6437890625,2.80073828125,1.48009375,1.4670859375,3.79444921875,3.86508984375,2.68125,6.258671875,1.5807265625,4.1651171875,6.881375,3.0406953125,3.814828125
8.79023828125,9.632125,5.24148046875,9.88711328125,14.9743828125,5.72889453125,4.3812578125,5.94855078125,1.38078515625,6.58825390625,6.06621484375,2.54406640625,3.9078203125,7.30188671875,6.8688515625,5.98103515625,2.83516796875,-0.495789062499998,4.95373828125,3.75009375,2.9400859375,5.01244921875,5.61308984375,4.41825,8.728671875,2.1707265625,6.7311171875,9.241375,6.0426953125,6.007828125
9.96023828125,11.613125,6.61248046875,10.73411328125,17.6913828125,7.86089453125,7.0992578125,7.43755078125,3.36478515625,8.56325390625,8.18221484375,4.37306640625,4.6148203125,8.62888671875,8.6688515625,8.06203515625,3.25516796875,0.395210937500002,6.93373828125,5.50309375,3.9080859375,5.39344921875,7.07808984375,6.10425,10.464671875,2.9927265625,8.7701171875,10.475375,7.9406953125,7.403828125
10.11023828125,12.507125,7.05648046875,11.00111328125,19.7283828125,9.52889453125,9.0552578125,8.75355078125,4.84078515625,10.03225390625,9.67521484375,5.72806640625,4.4878203125,9.50788671875,10.0828515625,9.55403515625,3.62916796875,0.899210937500001,8.45673828125,6.64909375,4.4360859375,4.76344921875,8.05908984375,7.54625,11.358671875,4.2617265625,9.9891171875,10.284375,8.4136953125,7.849828125
9.40223828125,12.141125,6.54148046875,10.84011328125,20.5473828125,10.53889453125,9.9402578125,9.54955078125,5.55378515625,10.82325390625,10.44621484375,6.58606640625,3.7778203125,9.77688671875,11.0268515625,10.37703515625,3.96116796875,0.9872109375,9.32873828125,7.24009375,4.6550859375,3.31244921875,8.47408984375,8.54325,11.523671875,6.0417265625,10.3561171875,8.863375,7.6706953125,7.555828125
8.28123828125,10.755125,5.34248046875,10.41711328125,20.0033828125,10.86589453125,9.7582578125,9.57755078125,5.47778515625,10.94325390625,10.59221484375,7.00506640625,2.8208203125,9.45388671875,11.5038515625,10.59803515625,4.22716796875,0.790210937500001,9.56273828125,7.45609375,4.7390859375,1.56544921875,8.43708984375,9.00325,11.283671875,8.2127265625,10.1241171875,6.860375,6.3846953125,7.034828125
7.19523828125,8.859125,3.91548046875,9.73511328125,18.3413828125,10.62689453125,8.7762578125,8.82455078125,4.75878515625,10.54825390625,10.33121484375,7.08106640625,1.8248203125,8.69888671875,11.5738515625,10.37603515625,4.42616796875,0.4812109375,9.32473828125,7.47809375,4.8240859375,0.0874492187499998,8.15308984375,8.93525,11.005671875,10.4707265625,9.6551171875,5.036375,5.3076953125,6.795828125
6.23623828125,6.883125,2.59648046875,8.60811328125,16.0103828125,9.95889453125,7.3472578125,7.49055078125,3.56178515625,9.78725390625,9.81921484375,6.85606640625,0.778820312499999,7.67288671875,11.2638515625,9.83103515625,4.53916796875,0.108210937500001,8.75973828125,7.34209375,4.9050859375,-0.87355078125,7.72508984375,8.35525,10.858671875,12.3667265625,9.1491171875,3.826375,4.8186953125,6.971828125
5.02723828125,4.898125,1.37148046875,6.86011328125,13.4683828125,8.93089453125,5.7552578125,5.87455078125,2.02878515625,8.68725390625,9.04821484375,6.25706640625,-0.422179687500001,6.44888671875,10.5108515625,8.95803515625,4.47216796875,-0.442789062499999,7.87573828125,6.89309375,4.7950859375,-1.49755078125,7.05808984375,7.22625,10.703671875,13.4047265625,8.5041171875,3.128375,4.7076953125,7.170828125
3.01723828125,2.659125,-0.0905195312499991,4.60611328125,11.0863828125,7.55589453125,4.1462578125,4.24855078125,0.372785156249998,7.20525390625,7.88221484375,5.14206640625,-1.7291796875,5.05488671875,9.2218515625,7.64903515625,4.08016796875,-1.3007890625,6.60273828125,5.90209375,4.2030859375,-2.16755078125,5.97908984375,5.50125,10.213671875,13.2307265625,7.4461171875,2.474375,4.3806953125,6.703828125
-0.0267617187500004,-0.067874999999999,-2.14551953125,2.37011328125,9.1443828125,5.90789453125,2.5712578125,2.79055078125,-1.01421484375,5.40125390625,6.23021484375,3.44206640625,-2.8111796875,3.60388671875,7.3988515625,5.83203515625,3.27716796875,-2.4197890625,4.94673828125,4.27909375,2.9300859375,-3.11755078125,4.47408984375,3.27025,9.157671875,11.8447265625,5.8361171875,1.448375,3.3656953125,5.112828125
-3.65376171875,-3.155875,-4.82251953125,0.94811328125,7.9043828125,4.22789453125,1.0912578125,1.60655078125,-1.57021484375,3.57525390625,4.23821484375,1.32506640625,-3.1551796875,2.38088671875,5.2708515625,3.65603515625,2.15016796875,-3.4757890625,3.14773828125,2.25209375,1.0870859375,-4.23255078125,2.84908984375,0.87425,7.672671875,9.7287265625,3.9351171875,0.0613750000000001,1.7516953125,2.636828125
-6.77976171875,-5.974875,-7.62751953125,1.05011328125,7.6423828125,2.92789453125,-0.1107421875,0.79855078125,-0.754214843750001,2.23325390625,2.35021484375,-0.741933593750001,-2.3341796875,1.79288671875,3.3058515625,1.55803515625,0.97516796875,-3.9537890625,1.67673828125,0.37709375,-0.821914062499999,-5.10355078125,1.66408984375,-1.11575,6.295671875,7.7537265625,2.3931171875,-1.190625,0.2426953125,0.263828125000001
-8.14676171875,-7.588875,-9.64751953125,2.92011328125,8.5413828125,2.43289453125,-0.760742187499999,0.47855078125,1.64878515625,1.84825390625,1.15021484375,-2.13793359375,-0.2821796875,2.16988671875,2.0658515625,0.143035156250001,0.0941679687500003,-3.3777890625,1.05073828125,-0.68690625,-2.0799140625,-5.26655078125,1.46708984375,-2.11475,5.706671875,6.8207265625,1.9531171875,-1.610625,-0.2543046875,-0.766171874999999
-6.95176171875,-7.209875,-9.97251953125,6.12111328125,10.4593828125,2.93389453125,-0.673742187499999,0.71255078125,5.26278515625,2.58625390625,1.04921484375,-2.40693359375,2.6138203125,3.52388671875,1.9398515625,-0.117964843749999,-0.25883203125,-1.5687890625,1.54073828125,-0.524906250000001,-2.1439140625,-4.44955078125,2.48508984375,-1.83475,6.311671875,7.3867265625,3.0141171875,-0.741625,0.7766953125,0.276828125000001
-3.29476171875,-4.659875,-8.18551953125,9.68411328125,12.8393828125,4.23989453125,0.0792578125000007,1.45355078125,9.16378515625,4.16525390625,2.03321484375,-1.51693359375,5.6608203125,5.46988671875,2.9338515625,0.828035156250001,-0.08383203125,1.2302109375,2.98473828125,0.76609375,-0.9959140625,-2.68455078125,4.47308984375,-0.478750000000001,7.931671875,9.1347265625,5.3301171875,1.323375,3.0576953125,3.057828125
1.79123828125,-0.569875,-4.64151953125,12.54511328125,14.9223828125,5.84389453125,1.1852578125,2.55055078125,12.29078515625,5.97325390625,3.64921484375,0.112066406249999,8.1788203125,7.37188671875,4.6528515625,2.53203515625,0.37716796875,4.4472109375,4.82973828125,2.56809375,0.789085937499999,-0.24655078125,6.80308984375,1.30625,9.811671875,11.0537265625,8.0611171875,3.957375,5.6036953125,6.254828125
6.70723828125,3.802125,-0.39051953125,13.99711328125,16.1313828125,7.16289453125,2.2392578125,3.75755078125,13.94878515625,7.36225390625,5.21921484375,1.82106640625,9.7898203125,8.64388671875,6.4828515625,4.21803515625,0.73916796875,7.4072109375,6.38773828125,4.00809375,2.2990859375,2.47444921875,8.73708984375,2.72425,10.958671875,11.9127265625,10.1311171875,6.300375,7.2036953125,8.209828125
9.84023828125,7.014125,3.18948046875,13.86911328125,16.2853828125,7.76189453125,2.8682578125,4.71255078125,14.03178515625,7.90325390625,6.11721484375,2.96706640625,10.4978203125,8.95688671875,7.8118515625,5.09403515625,0.59116796875,9.5322109375,7.08673828125,4.33509375,2.6970859375,5.05344921875,9.68708984375,3.14025,10.575671875,10.8877265625,10.7081171875,7.608375,7.0006953125,7.781828125
10.06723828125,7.914125,4.83548046875,12.39211328125,15.5193828125,7.42189453125,2.7572578125,4.90955078125,12.85978515625,7.44925390625,5.93521484375,3.08706640625,10.5238203125,8.24788671875,8.1628515625,4.61103515625,-0.38683203125,10.4122109375,6.60773828125,3.16909375,1.5350859375,7.01044921875,9.34208984375,2.25025,8.366671875,7.9607265625,9.4921171875,7.448375,4.8166953125,4.849828125
7.09623828125,5.978125,3.78848046875,9.97811328125,14.0623828125,6.10389453125,1.6662578125,3.80455078125,10.86178515625,6.04325390625,4.52921484375,1.96606640625,10.0648203125,6.60988671875,7.2438515625,2.60103515625,-2.33983203125,9.8412109375,4.89573828125,0.56109375,-1.1489140625,7.84744921875,7.65108984375,0.0882500000000004,4.577671875,3.8587265625,6.7121171875,5.712375,1.0936953125,0.230828125
1.57623828125,1.458125,0.0354804687500021,7.09511328125,12.1143828125,3.90789453125,-0.491742187499999,1.06355078125,8.40678515625,3.84225390625,2.03021484375,-0.326933593750001,9.1728203125,4.23088671875,4.9958515625,-0.696964843749999,-5.16083203125,7.8802109375,2.15373828125,-3.08490625,-4.9159140625,7.23144921875,4.81608984375,-3.03475,-0.132328124999999,-0.366273437499999,2.9471171875,2.600375,-3.3653046875,-4.832171875
-5.08676171875,-4.691875,-5.65651953125,4.24511328125,9.8443828125,1.10589453125,-3.5227421875,-3.15544921875,5.81478515625,1.13225390625,-1.16578515625,-3.39693359375,7.8138203125,1.41388671875,1.6768515625,-4.67396484375,-8.43683203125,4.9502109375,-1.14526171875,-7.12290625,-9.0649140625,5.25244921875,1.33008984375,-6.58075,-4.876328125,-3.8102734375,-1.0508828125,-1.352625,-7.6523046875,-9.197171875
-11.22776171875,-11.128875,-11.97851953125,1.91611328125,7.4283828125,-1.86710546875,-6.9267421875,-8.10244921875,3.39978515625,-1.66274609375,-4.48478515625,-6.57793359375,5.9938203125,-1.42111328125,-2.1331484375,-8.50096484375,-11.48783203125,1.7772109375,-4.34026171875,-10.79890625,-12.7969140625,2.50144921875,-2.07191015625,-9.88175,-8.758328125,-5.9792734375,-4.5168828125,-5.314625,-10.9413046875,-12.131171875
-15.57976171875,-16.574875,-17.53151953125,0.40611328125,5.0303828125,-4.53810546875,-10.0457421875,-12.62544921875,1.38578515625,-4.10674609375,-7.36978515625,-9.15493359375,3.8098203125,-3.87511328125,-5.7051484375,-11.39896484375,-13.56183203125,-0.870789062499998,-6.82326171875,-13.46990625,-15.4149140625,-0.21455078125,-4.66391015625,-12.36375,-11.131328125,-6.8252734375,-6.8628828125,-8.435625,-12.6913046875,-13.394171875
-17.74476171875,-20.229875,-21.30151953125,-0.34188671875,2.7503828125,-6.59310546875,-12.3067421875,-15.60144921875,-0.214214843750002,-5.96074609375,-9.49478515625,-10.66193359375,1.4328203125,-5.75811328125,-8.4481484375,-12.93096484375,-14.13483203125,-2.5307890625,-8.31626171875,-14.81890625,-16.5279140625,-2.33455078125,-6.08391015625,-13.79175,-11.813328125,-6.6302734375,-7.8928828125,-10.251625,-12.8483046875,-13.209171875
-18.22376171875,-21.933875,-22.94551953125,-0.73888671875,0.601382812499999,-7.98310546875,-13.4277421875,-16.38644921875,-1.61421484375,-7.27874609375,-10.83778515625,-11.04893359375,-0.9051796875,-7.16711328125,-10.1281484375,-13.12396484375,-13.12383203125,-3.2247890625,-8.97726171875,-14.92890625,-16.1439140625,-3.79555078125,-6.48791015625,-14.34975,-11.109328125,-5.8402734375,-7.8498828125,-10.878625,-11.8523046875,-12.108171875
-18.00976171875,-22.058875,-22.77351953125,-1.29988671875,-1.4336171875,-8.83710546875,-13.4587421875,-15.06944921875,-3.09121484375,-8.28774609375,-11.55678515625,-10.58193359375,-2.8981796875,-8.34911328125,-10.8601484375,-12.34396484375,-10.90283203125,-3.3397890625,-9.23626171875,-14.15690625,-14.5959140625,-4.88055078125,-6.35591015625,-14.47475,-9.593328125,-4.8752734375,-7.2228828125,-10.809625,-10.3903046875,-10.672171875
-17.98376171875,-21.221875,-21.48051953125,-2.29388671875,-3.2756171875,-9.27710546875,-12.6327421875,-12.36644921875,-4.71621484375,-9.15874609375,-11.76278515625,-9.56193359375,-4.1871796875,-9.46911328125,-10.9241484375,-11.01396484375,-8.10383203125,-3.3227890625,-9.47626171875,-12.89290625,-12.3379140625,-5.89155078125,-6.14791015625,-14.53675,-7.809328125,-3.9762734375,-6.4518828125,-10.509625,-9.0333046875,-9.292171875
-18.42176171875,-19.956875,-19.76251953125,-3.54688671875,-4.6176171875,-9.26510546875,-11.1577421875,-9.23044921875,-6.17021484375,-9.83374609375,-11.38978515625,-8.09893359375,-4.4791796875,-10.44711328125,-10.5411484375,-9.37696484375,-5.34983203125,-3.4217890625,-9.78326171875,-11.37390625,-9.7429140625,-6.92355078125,-6.05591015625,-14.61575,-6.059328125,-3.1292734375,-5.7208828125,-10.150625,-8.0043046875,-8.044171875
-18.84976171875,-18.493875,-18.00651953125,-4.53488671875,-4.9766171875,-8.62310546875,-9.1287421875,-6.41044921875,-6.81621484375,-10.03274609375,-10.24778515625,-6.12993359375,-3.6861796875,-10.99311328125,-9.7811484375,-7.44996484375,-3.05483203125,-3.5987890625,-9.91626171875,-9.65390625,-7.0189140625,-7.87055078125,-5.99391015625,-14.48275,-4.387328125,-2.1092734375,-4.9468828125,-9.617625,-7.1753046875,-6.728171875
-18.37576171875,-16.782875,-16.25751953125,-4.73088671875,-3.9796171875,-7.23510546875,-6.6567421875,-4.26144921875,-6.07821484375,-9.46374609375,-8.26778515625,-3.66693359375,-2.0181796875,-10.81211328125,-8.6321484375,-5.21396484375,-1.36883203125,-3.6617890625,-9.53326171875,-7.73690625,-4.2989140625,-8.54755078125,-5.75891015625,-13.79875,-2.731328125,-0.663273437499999,-3.9308828125,-8.687625,-6.2413046875,-5.035171875
-16.35176171875,-14.743875,-14.45951953125,-3.96288671875,-1.7446171875,-5.29310546875,-4.0687421875,-2.86644921875,-3.88321484375,-8.11174609375,-5.76078515625,-1.05993359375,0.0638203124999999,-9.87311328125,-7.1911484375,-2.88896484375,-0.27083203125,-3.4877890625,-8.51426171875,-5.77890625,-1.8119140625,-8.84855078125,-5.27391015625,-12.42575,-1.147328125,1.2297265625,-2.5968828125,-7.272625,-4.9833046875,-2.813171875
-12.94276171875,-12.566875,-12.76351953125,-2.56488671875,0.957382812499999,-3.40310546875,-1.9787421875,-2.27444921875,-0.854214843750002,-6.42874609375,-3.49178515625,0.97206640625,1.9818203125,-8.54411328125,-5.8021484375,-1.08596484375,0.29616796875,-3.1997890625,-7.18426171875,-4.22190625,-0.00591406249999959,-8.83555078125,-4.74991015625,-10.64475,0.0266718749999999,3.1667265625,-1.1968828125,-5.585625,-3.5113046875,-0.307171874999999
-9.21976171875,-10.783875,-11.62451953125,-1.22688671875,2.9183828125,-2.41410546875,-1.1057421875,-2.62544921875,1.90178515625,-5.24074609375,-2.43278515625,1.61406640625,3.2388203125,-7.49611328125,-5.0281484375,-0.646964843749999,0.31316796875,-3.1537890625,-6.24926171875,-3.71590625,0.5120859375,-8.72455078125,-4.66691015625,-9.14375,0.206671875,4.3567265625,-0.322882812500001,-4.163625,-2.3493046875,1.751828125
-6.67376171875,-10.054875,-11.61651953125,-0.66188671875,2.9973828125,-3.02110546875,-1.9287421875,-4.06744921875,3.30178515625,-5.35874609375,-3.30778515625,0.388066406249998,3.5798203125,-7.37911328125,-5.3981484375,-2.21996484375,-0.31583203125,-3.7287890625,-6.44626171875,-4.82590625,-0.757914062499999,-8.77355078125,-5.51791015625,-8.72875,-1.174328125,3.9327265625,-0.669882812500001,-3.655625,-2.2413046875,2.383828125
-6.46976171875,-10.823875,-13.09251953125,-1.25988671875,0.681382812499999,-5.36410546875,-4.3947421875,-6.57444921875,2.80478515625,-7.11974609375,-6.17578515625,-2.54493359375,3.0808203125,-8.46811328125,-7.0781484375,-5.81796484375,-1.67483203125,-5.0567890625,-8.12126171875,-7.67590625,-3.8939140625,-9.11455078125,-7.47791015625,-9.91375,-4.314328125,1.4207265625,-2.6308828125,-4.480625,-3.7313046875,0.853828125000001
-8.86476171875,-13.065875,-15.95051953125,-2.89988671875,-3.6216171875,-8.89410546875,-7.8687421875,-9.81844921875,0.644785156249998,-10.16374609375,-10.32678515625,-6.41593359375,2.1158203125,-10.50011328125,-9.7021484375,-10.68796484375,-3.71583203125,-6.8567890625,-10.97826171875,-11.75990625,-8.3779140625,-9.65855078125,-10.21791015625,-12.61875,-8.812328125,-2.9062734375,-6.0018828125,-6.524625,-6.7473046875,-2.817171875
-13.10776171875,-16.292875,-19.62851953125,-5.02888671875,-8.7326171875,-12.60910546875,-11.4037421875,-13.23344921875,-2.36621484375,-13.59974609375,-14.59078515625,-10.22393359375,1.1918203125,-12.81311328125,-12.4971484375,-15.60996484375,-6.19983203125,-8.5177890625,-14.17926171875,-16.07990625,-13.2109140625,-10.11855078125,-13.00191015625,-16.16475,-13.732328125,-8.0262734375,-9.9858828125,-9.106625,-10.4993046875,-7.698171875
-17.82776171875,-19.753875,-23.34451953125,-6.98188671875,-13.2736171875,-15.53910546875,-14.1907421875,-16.24544921875,-5.32421484375,-16.45674609375,-17.87578515625,-13.20693359375,0.7198203125,-14.69411328125,-14.6621484375,-19.44596484375,-8.75983203125,-9.3857890625,-16.74326171875,-19.55890625,-17.2879140625,-10.13755078125,-15.00491015625,-19.57075,-17.952328125,-12.5642734375,-13.5158828125,-11.261625,-13.7883046875,-12.289171875
-21.65176171875,-22.736875,-26.40551953125,-8.33788671875,-16.2916171875,-17.16210546875,-15.9127421875,-18.52044921875,-7.67421484375,-18.11174609375,-19.62778515625,-15.12293359375,0.8308203125,-15.71911328125,-15.7431484375,-21.59996484375,-11.05983203125,-9.0807890625,-17.98726171875,-21.47390625,-19.8289140625,-9.44655078125,-15.67191015625,-21.95775,-20.597328125,-15.3612734375,-15.7078828125,-12.185625,-15.5633046875,-15.188171875
-23.72276171875,-24.775875,-28.41951953125,-9.07788671875,-17.5406171875,-17.52010546875,-16.7437421875,-20.05544921875,-9.29921484375,-18.46074609375,-19.94178515625,-16.20193359375,1.3238203125,-15.85611328125,-15.7661484375,-22.13996484375,-12.93683203125,-7.6397890625,-17.77026171875,-21.68690625,-20.6129140625,-7.98355078125,-14.91891015625,-22.86475,-21.334328125,-15.9312734375,-16.1988828125,-11.612625,-15.3953046875,-15.683171875
-23.89576171875,-25.722875,-29.32351953125,-9.47188671875,-17.3336171875,-17.03110546875,-17.0677421875,-21.06544921875,-10.30321484375,-17.80274609375,-19.33078515625,-16.85093359375,1.7698203125,-15.34111328125,-15.0981484375,-21.57696484375,-14.41383203125,-5.4397890625,-16.42926171875,-20.56590625,-19.9419140625,-5.94455078125,-13.10091015625,-22.32675,-20.387328125,-14.5912734375,-15.2098828125,-9.915625,-13.6173046875,-13.968171875
-22.60376171875,-25.680875,-29.27351953125,-9.83788671875,-16.1826171875,-16.16010546875,-17.1527421875,-21.77644921875,-10.76121484375,-16.55974609375,-18.35278515625,-17.33493359375,1.7028203125,-14.44311328125,-14.1621484375,-20.50296484375,-15.58783203125,-2.9887890625,-14.52226171875,-18.71190625,-18.3839140625,-3.73555078125,-10.80391015625,-20.74075,-18.327328125,-12.2132734375,-13.3468828125,-7.887625,-11.0943046875,-10.916171875
-20.56276171875,-24.890875,-28.50051953125,-10.35788671875,-14.5346171875,-15.17610546875,-17.0187421875,-22.24944921875,-10.63621484375,-15.03074609375,-17.33278515625,-17.62693359375,0.823820312499999,-13.30811328125,-13.1971484375,-19.30496484375,-16.45083203125,-0.716789062499998,-12.53026171875,-16.65190625,-16.4679140625,-1.82955078125,-8.55391015625,-18.60975,-15.759328125,-9.7722734375,-11.2548828125,-6.305625,-8.7493046875,-7.600171875
-18.46676171875,-23.627875,-27.19551953125,-10.99288671875,-12.6526171875,-14.07710546875,-16.4857421875,-22.32844921875,-9.85421484375,-13.31674609375,-16.28378515625,-17.44593359375,-0.840179687500001,-11.92411328125,-12.1771484375,-18.06096484375,-16.79983203125,1.1602109375,-10.67226171875,-14.64290625,-14.4829140625,-0.55655078125,-6.60691015625,-16.30175,-13.094328125,-7.9162734375,-9.3348828125,-5.536625,-7.1433046875,-4.848171875
-16.78076171875,-22.131875,-25.47251953125,-11.51788671875,-10.6276171875,-12.68810546875,-15.3247421875,-21.72344921875,-8.40621484375,-11.38774609375,-15.00878515625,-16.44293359375,-2.9151796875,-10.21411328125,-10.9061484375,-16.64196484375,-16.31783203125,2.6572109375,-8.90126171875,-12.66890625,-12.4509140625,0.0374492187499997,-4.91591015625,-13.95775,-10.496328125,-6.7902734375,-7.6538828125,-5.432625,-6.3253046875,-3.031171875
-15.64476171875,-20.556875,-23.37751953125,-11.63188671875,-8.4566171875,-10.83810546875,-13.4157421875,-20.23244921875,-6.40621484375,-9.22574609375,-13.29578515625,-14.41793359375,-4.8141796875,-8.16911328125,-9.1901484375,-14.88296484375,-14.76283203125,3.9362109375,-7.03226171875,-10.57690625,-10.2469140625,0.17944921875,-3.27791015625,-11.54675,-7.988328125,-6.1322734375,-6.0478828125,-5.518625,-5.9733046875,-2.133171875
-14.88376171875,-18.925875,-20.92251953125,-11.10188671875,-6.1546171875,-8.49010546875,-10.8447421875,-17.93444921875,-4.06021484375,-6.88774609375,-11.06678515625,-11.45893359375,-6.0121796875,-5.91211328125,-6.9821484375,-12.71396484375,-12.14283203125,5.1752109375,-4.92326171875,-8.23090625,-7.7639140625,0.22844921875,-1.50391015625,-8.99075,-5.582328125,-5.5072734375,-4.2898828125,-5.294625,-5.6573046875,-1.900171875
-14.10476171875,-17.136875,-18.12151953125,-9.86488671875,-3.8006171875,-5.76210546875,-7.8987421875,-15.22044921875,-1.58221484375,-4.48474609375,-8.41078515625,-7.90693359375,-6.3001796875,-3.64111328125,-4.3951484375,-10.17696484375,-8.75683203125,6.4632109375,-2.57026171875,-5.59490625,-5.0039140625,0.49044921875,0.461089843749999,-6.25175,-3.320328125,-4.5322734375,-2.2158828125,-4.445625,-5.0253046875,-1.966171875
-12.87376171875,-15.038875,-15.02851953125,-8.03188671875,-1.5076171875,-2.85910546875,-4.9437421875,-12.62044921875,0.894785156249998,-2.11174609375,-5.52478515625,-4.22393359375,-5.8301796875,-1.50311328125,-1.6211484375,-7.37596484375,-5.11383203125,7.7862109375,-0.0992617187500002,-2.73090625,-2.0959140625,1.10944921875,2.53008984375,-3.36275,-1.251328125,-3.0312734375,0.2071171875,-2.910625,-3.8923046875,-1.943171875
-10.91976171875,-12.555875,-11.77451953125,-5.83188671875,0.618382812499998,0.0018945312500005,-2.2947421875,-10.57544921875,3.32178515625,0.165253906249999,-2.63478515625,-0.875933593750001,-4.9241796875,0.47288671875,1.1408515625,-4.45796484375,-1.80083203125,9.0622109375,2.29573828125,0.21409375,0.7140859375,2.03544921875,4.51308984375,-0.443750000000001,0.578671875,-1.1212734375,2.8271171875,-0.882625,-2.2873046875,-1.546171875
-8.27176171875,-9.786875,-8.59751953125,-3.54088671875,2.4363828125,2.59489453125,-0.180742187499999,-9.32044921875,5.63378515625,2.26625390625,0.0262148437500009,1.71606640625,-3.7931796875,2.33188671875,3.6858515625,-1.62896484375,0.63516796875,10.1672109375,4.40673828125,3.00509375,3.0810859375,3.06444921875,6.17408984375,2.26825,2.094671875,0.799726562500002,5.3241171875,1.245375,-0.4493046875,-0.704171874999999
-5.23376171875,-6.991875,-5.80651953125,-1.40988671875,3.7143828125,4.67189453125,1.2412578125,-8.92044921875,7.64678515625,4.04625390625,2.21921484375,3.19806640625,-2.3851796875,4.07588671875,5.7778515625,0.81703515625,1.81216796875,10.9772109375,6.04973828125,5.32909375,4.6290859375,3.94744921875,7.30708984375,4.44925,3.176671875,2.2027265625,7.2881171875,3.002375,1.2656953125,0.421828125000001
-2.19276171875,-4.463875,-3.66251953125,0.41611328125,4.1983828125,5.98789453125,1.8902578125,-9.32344921875,9.10978515625,5.31325390625,3.71821484375,3.36706640625,-0.456179687500001,5.59888671875,7.1678515625,2.54103515625,1.63916796875,11.4202109375,7.10473828125,6.87009375,5.0800859375,4.54444921875,7.81108984375,5.79425,3.690671875,2.6547265625,8.3751171875,4.017375,2.5396953125,1.546828125
0.618238281249999,-2.355875,-2.21951953125,1.93211328125,3.7823828125,6.39889453125,1.8102578125,-10.34844921875,9.87378515625,5.91725390625,4.39621484375,2.28006640625,2.2038203125,6.73188671875,7.6978515625,3.25403515625,0.39916796875,11.5362109375,7.56273828125,7.42909375,4.4020859375,4.93044921875,7.72608984375,6.17825,3.568671875,2.0397265625,8.4601171875,4.161375,3.2236953125,2.422828125
3.22323828125,-0.592874999999999,-1.25651953125,3.21911328125,2.6313828125,5.95889453125,1.2002578125,-11.62344921875,10.03678515625,5.86425390625,4.29521484375,0.320066406249999,5.5538203125,7.34288671875,7.3948515625,2.85503515625,-1.28683203125,11.4682109375,7.52773828125,7.02309375,2.8650859375,5.35144921875,7.21808984375,5.74725,2.873671875,0.6387265625,7.6931171875,3.554375,3.3606953125,2.941828125
5.76023828125,1.031125,-0.38951953125,4.33111328125,1.1343828125,4.94189453125,0.3652578125,-12.57144921875,9.89778515625,5.34425390625,3.63321484375,-1.86093359375,9.2188203125,7.39988671875,6.4888515625,1.51203515625,-2.66883203125,11.3682109375,7.15873828125,5.90309375,0.976085937500001,6.02644921875,6.50108984375,4.85725,1.786671875,-0.969273437499999,6.4241171875,2.449375,3.0836953125,3.129828125
8.23323828125,2.653125,0.70248046875,5.21611328125,-0.279617187500001,3.74789453125,-0.358742187499999,-12.53644921875,9.76578515625,4.64125390625,2.74521484375,-3.51193359375,12.5768203125,6.97088671875,5.3248515625,-0.337964843749999,-3.16383203125,11.2942109375,6.59173828125,4.47209375,-0.6679140625,6.94544921875,5.73508984375,3.89725,0.554671875,-2.1262734375,5.0451171875,1.097375,2.5076953125,3.076828125
10.36623828125,4.202125,2.09848046875,5.73411328125,-1.3136171875,2.75889453125,-0.676742187499999,-11.02544921875,9.75778515625,3.98425390625,1.98021484375,-3.99193359375,14.9798203125,6.18088671875,4.2318515625,-2.10296484375,-2.58083203125,11.2002109375,5.90073828125,3.15909375,-1.5559140625,7.83944921875,4.98308984375,3.12425,-0.576328125,-2.3302734375,3.8271171875,-0.306625,1.6906953125,2.861828125
11.68823828125,5.418125,3.61348046875,5.74611328125,-1.8936171875,2.20089453125,-0.427742187499999,-7.99744921875,9.76078515625,3.45525390625,1.58921484375,-2.99993359375,15.9888203125,5.18288671875,3.4018515625,-3.25096484375,-1.15983203125,11.0082109375,5.12073828125,2.29709375,-1.4139140625,8.34544921875,4.23908984375,2.60325,-1.397328125,-1.4112734375,2.8801171875,-1.569625,0.7096953125,2.552828125
11.79623828125,6.005125,4.90148046875,5.21311328125,-2.1416171875,2.08189453125,0.3122578125,-3.99744921875,9.55178515625,2.99625390625,1.62621484375,-0.729933593750001,15.5508203125,4.14788671875,2.8528515625,-3.51696484375,0.57516796875,10.7312109375,4.29573828125,2.02409375,-0.318914062499999,8.28944921875,3.52408984375,2.26825,-1.769328125,0.421726562500002,2.2141171875,-2.417625,-0.2413046875,2.243828125
10.63023828125,5.812125,5.63348046875,4.26611328125,-2.2476171875,2.22889453125,1.2332578125,0.0225507812500005,9.01078515625,2.50625390625,1.93621484375,2.16506640625,14.0398203125,3.25388671875,2.4648515625,-3.00796484375,2.04816796875,10.5252109375,3.51273828125,2.25009375,1.3190859375,7.86244921875,2.95708984375,2.04225,-1.651328125,2.6547265625,1.8471171875,-2.476625,-0.8143046875,2.115828125
8.60223828125,4.964125,5.67548046875,3.21411328125,-2.2986171875,2.40289453125,1.9572578125,3.13655078125,8.23878515625,1.93325390625,2.25021484375,4.82206640625,12.1298203125,2.66288671875,2.0888515625,-2.09996484375,2.85616796875,10.6482109375,2.91173828125,2.73109375,2.9260859375,7.55444921875,2.75208984375,1.94825,-1.095328125,4.6607265625,1.8641171875,-1.385625,-0.5913046875,2.437828125
6.47823828125,3.851125,5.17548046875,2.42311328125,-2.2366171875,2.42589453125,2.2542578125,4.83355078125,7.49578515625,1.31825390625,2.34721484375,6.51306640625,10.5228203125,2.46788671875,1.6558515625,-1.21896484375,2.88116796875,11.3002109375,2.65373828125,3.20309375,4.0210859375,7.82944921875,3.10908984375,2.10825,-0.226328125,5.9517265625,2.3851171875,0.971375,0.7176953125,3.475828125
5.01723828125,2.938125,4.46848046875,2.09311328125,-1.9796171875,2.22789453125,2.1182578125,5.09955078125,6.96478515625,0.75725390625,2.14921484375,6.87906640625,9.6378203125,2.60988671875,1.1918515625,-0.65096484375,2.26616796875,12.4332109375,2.80173828125,3.48909375,4.3800859375,8.73444921875,4.04508984375,2.62025,0.772671875,6.3287265625,3.4271171875,4.208375,3.0226953125,5.293828125
4.56423828125,2.493125,3.86348046875,2.09311328125,-1.5876171875,1.80789453125,1.6822578125,4.22455078125,6.58078515625,0.29925390625,1.70421484375,5.95906640625,9.4078203125,2.83788671875,0.746851562500002,-0.502964843749999,1.26416796875,13.6662109375,3.22073828125,3.50609375,4.0290859375,9.73644921875,5.25508984375,3.38725,1.655671875,5.8637265625,4.7601171875,7.360375,5.7136953125,7.556828125
4.86523828125,2.439125,3.45748046875,2.01011328125,-1.2546171875,1.20289453125,1.1172578125,2.56055078125,6.08478515625,-0.0917460937500003,1.12721484375,4.10906640625,9.3458203125,2.79888671875,0.3258515625,-0.75196484375,0.10016796875,14.4282109375,3.57973828125,3.22509375,3.1290859375,9.97944921875,6.17808984375,4.07125,2.143671875,4.7497265625,5.8911171875,9.161375,7.7846953125,9.514828125
5.25123828125,2.454125,3.14048046875,1.39611328125,-1.1496171875,0.50589453125,0.5962578125,0.431550781250001,5.25778515625,-0.48774609375,0.584214843750001,1.87106640625,8.8328203125,2.24188671875,-0.0851484374999991,-1.28496484375,-1.08983203125,14.2782109375,3.52773828125,2.66509375,1.8880859375,8.84844921875,6.26208984375,4.25925,2.039671875,3.1787265625,6.2761171875,8.642375,8.2576953125,10.276828125
5.03723828125,2.195125,2.72148046875,0.0171132812500003,-1.3026171875,-0.11310546875,0.300257812500001,-1.83744921875,4.08478515625,-0.90774609375,0.28521484375,-0.156933593750001,7.4578203125,1.17488671875,-0.457148437499999,-1.91196484375,-2.22783203125,13.1602109375,2.90173828125,1.93109375,0.530085937500001,6.40544921875,5.28808984375,3.73325,1.348671875,1.3317265625,5.6121171875,5.684375,6.6566953125,9.238828125
3.84123828125,1.469125,2.04648046875,-2.06488671875,-1.6606171875,-0.46510546875,0.364257812500001,-3.89144921875,2.68578515625,-1.30274609375,0.40221484375,-1.48693359375,5.2038203125,-0.15311328125,-0.709148437499999,-2.39296484375,-3.23483203125,11.3922109375,1.81173828125,1.20709375,-0.6979140625,3.36144921875,3.49608984375,2.62025,0.323671875,-0.545273437499999,4.0251171875,1.129375,3.2626953125,6.418828125
1.69623828125,0.251125,1.04748046875,-4.53188671875,-2.1926171875,-0.45510546875,0.8282578125,-5.36244921875,1.16178515625,-1.61774609375,0.975214843750001,-1.86993359375,2.4298203125,-1.40411328125,-0.764148437499999,-2.50296484375,-3.95983203125,9.4482109375,0.571738281250001,0.700093749999999,-1.5369140625,0.62144921875,1.45608984375,1.33725,-0.610328125000001,-2.0872734375,2.0311171875,-3.597625,-0.9753046875,2.539828125
-1.01876171875,-1.336875,-0.211519531250001,-6.86788671875,-2.8646171875,-0.101105468749999,1.6572578125,-5.89944921875,-0.422214843750002,-1.80674609375,1.89621484375,-1.29793359375,-0.273179687500001,-2.27811328125,-0.566148437499999,-2.09396484375,-4.13783203125,7.7612109375,-0.422261718749999,0.58309375,-1.7529140625,-1.19755078125,-0.183910156250001,0.411249999999999,-0.997328124999999,-2.8472734375,0.328117187499998,-7.072625,-4.7893046875,-1.191171875
-3.73176171875,-3.034875,-1.49351953125,-8.45388671875,-3.5196171875,0.54789453125,2.8082578125,-5.23644921875,-1.90121484375,-1.77374609375,3.00521484375,0.0930664062499993,-2.2691796875,-2.55111328125,-0.0511484374999984,-1.10796484375,-3.43583203125,6.6552109375,-0.77226171875,0.985093749999999,-1.1899140625,-1.93155078125,-0.90591015625,0.28825,-0.492328125,-2.4412734375,-0.429882812500001,-8.345625,-7.0323046875,-3.513171875
-5.86676171875,-4.465875,-2.42151953125,-8.76588671875,-3.8136171875,1.50589453125,4.2382578125,-3.31444921875,-2.91621484375,-1.30874609375,4.17821484375,2.11506640625,-3.1081796875,-2.07211328125,0.8808515625,0.40703515625,-1.61983203125,6.3482109375,-0.172261718749999,1.98709375,0.1350859375,-1.75955078125,-0.45491015625,1.18925,1.015671875,-0.744273437499999,0.148117187499999,-7.173625,-7.0613046875,-3.589171875
-7.00076171875,-5.239875,-2.62951953125,-7.61988671875,-3.3356171875,2.81989453125,5.8522578125,-0.42244921875,-3.00521484375,-0.17874609375,5.34621484375,4.51806640625,-2.7401796875,-0.81811328125,2.3008515625,2.27303515625,1.23416796875,6.9122109375,1.46973828125,3.56609375,1.9770859375,-1.01255078125,1.07008984375,3.01625,3.320671875,1.9527265625,2.0341171875,-4.032625,-4.9763046875,-1.363171875
-6.96276171875,-5.096875,-1.95051953125,-5.30888671875,-1.8386171875,4.44989453125,7.4452578125,2.78455078125,-1.88421484375,1.68425390625,6.43321484375,6.93806640625,-1.5861796875,1.02888671875,4.1228515625,4.15803515625,4.64716796875,8.1812109375,3.91073828125,5.53109375,3.8900859375,-0.0625507812500004,3.19708984375,5.34325,5.916671875,4.9517265625,4.7221171875,0.0413750000000001,-1.5963046875,2.385828125
-5.85776171875,-4.023875,-0.53051953125,-2.50488671875,0.5223828125,6.16389453125,8.7072578125,5.45255078125,0.297785156249999,4.01825390625,7.31121484375,8.92906640625,-0.376179687500001,3.05088671875,6.0338515625,5.65003515625,7.86116796875,9.7262109375,6.57273828125,7.50209375,5.3760859375,0.73144921875,5.19208984375,7.53525,8.156671875,7.3607265625,7.3701171875,3.772375,1.8406953125,6.334828125
-4.00676171875,-2.263875,1.22448046875,0.0261132812499998,3.1273828125,7.57789453125,9.3202578125,6.86155078125,2.91078515625,6.26925390625,7.82721484375,10.09706640625,0.215820312499999,4.71288671875,7.5708515625,6.41803515625,10.13116796875,10.9832109375,8.72173828125,9.03009375,6.0890859375,1.08944921875,6.34308984375,8.98925,9.505671875,8.4627265625,9.1221171875,6.065375,4.1706953125,9.156828125
-1.83776171875,-0.225874999999998,2.83548046875,1.75311328125,5.1263828125,8.33589453125,9.1282578125,6.75555078125,5.11978515625,7.82825390625,7.90121484375,10.28906640625,-0.0341796875000009,5.58388671875,8.3438515625,6.39203515625,11.06016796875,11.5222109375,9.77873828125,9.79509375,6.0080859375,0.94244921875,6.27808984375,9.37925,9.776671875,8.0587265625,9.4871171875,6.398375,4.7936953125,10.092828125
0.231238281249999,1.673125,3.98248046875,2.58911328125,5.8673828125,8.30689453125,8.2592578125,5.46855078125,6.33578515625,8.31225390625,7.60621484375,9.68006640625,-0.7211796875,5.56488671875,8.2308515625,5.80603515625,10.77916796875,11.2772109375,9.58273828125,9.75809375,5.4410859375,0.52344921875,5.14308984375,8.79825,9.192671875,6.5657265625,8.5391171875,4.985375,3.8826953125,9.237828125
1.87323828125,3.107125,4.58448046875,2.83811328125,5.2333828125,7.64689453125,7.0832578125,3.72355078125,6.51578515625,7.72225390625,7.13021484375,8.68406640625,-0.975179687500001,4.93188671875,7.4188515625,5.05803515625,9.86216796875,10.5622109375,8.42373828125,9.14409375,4.8400859375,0.25844921875,3.50508984375,7.65625,8.232671875,4.7797265625,6.8181171875,2.588375,2.1996953125,7.384828125
2.84823828125,3.861125,4.68848046875,2.95411328125,3.6403828125,6.68189453125,5.9802578125,2.20755078125,6.11178515625,6.39625390625,6.64221484375,7.71506640625,0.0458203124999992,4.17088671875,6.2518515625,4.46103515625,9.01816796875,9.8422109375,6.83973828125,8.27909375,4.5360859375,0.46444921875,2.02908984375,6.43025,7.352671875,3.4587265625,5.0021171875,0.087375,0.6076953125,5.522828125
3.00423828125,3.802125,4.29248046875,3.27011328125,1.7783828125,5.71089453125,5.1012578125,1.21455078125,5.71878515625,4.81425390625,6.16421484375,6.95406640625,2.6068203125,3.70188671875,5.0448515625,4.05803515625,8.74916796875,9.4222109375,5.33073828125,7.41109375,4.5670859375,1.07444921875,1.14508984375,5.41425,6.765671875,2.9787265625,3.5711171875,-1.896625,-0.3693046875,4.322828125
2.31723828125,2.910125,3.30048046875,3.86511328125,0.299382812499999,4.88089453125,4.3172578125,0.617550781250001,5.71578515625,3.39125390625,5.56421484375,6.27206640625,6.1398203125,3.67888671875,3.9708515625,3.63503515625,9.15216796875,9.2942109375,4.17373828125,6.63109375,4.7170859375,1.64144921875,0.90108984375,4.65325,6.408671875,3.2387265625,2.6651171875,-3.112625,-0.6843046875,3.895828125
0.993238281249999,1.364125,1.68848046875,4.58211328125,-0.379617187500001,4.18889453125,3.3872578125,0.111550781250001,6.09978515625,2.35025390625,4.68721484375,5.36406640625,9.5018203125,3.96888671875,3.0868515625,2.92403515625,9.94816796875,9.2042109375,3.42273828125,5.92709375,4.6970859375,1.65844921875,1.06408984375,4.04325,6.066671875,3.8317265625,2.1671171875,-3.532625,-0.5983046875,3.916828125
-0.487761718750001,-0.412875,-0.28851953125,5.12811328125,-0.183617187500001,3.56889453125,2.1592578125,-0.513449218749999,6.55378515625,1.71025390625,3.49721484375,4.00506640625,11.5648203125,4.26788671875,2.4138515625,1.83303515625,10.66316796875,8.8542109375,3.00473828125,5.28909375,4.3300859375,0.94744921875,1.34608984375,3.51825,5.566671875,4.3077265625,1.9141171875,-3.179625,-0.3753046875,3.945828125
-1.47976171875,-1.862875,-2.07251953125,5.21911328125,0.597382812499999,2.96089453125,0.6762578125,-1.26044921875,6.65778515625,1.35425390625,2.13621484375,2.23306640625,11.7568203125,4.28088671875,1.9738515625,0.540035156250001,10.85016796875,8.0842109375,2.80473828125,4.75809375,3.6320859375,-0.17155078125,1.57908984375,3.12925,4.885671875,4.3857265625,1.8451171875,-2.071625,-0.0903046874999999,3.713828125
-1.40776171875,-2.513875,-3.00851953125,4.73311328125,1.4183828125,2.34689453125,-0.8557421875,-1.98644921875,6.14878515625,1.11625390625,0.86421484375,0.34706640625,10.2308203125,3.86088671875,1.7828515625,-0.61896484375,10.25516796875,6.9492109375,2.71673828125,4.39409375,2.7710859375,-1.06455078125,1.74408984375,2.99025,4.147671875,4.0187265625,1.9911171875,-0.331625,0.3436953125,3.219828125
-0.0307617187500018,-2.176875,-2.64551953125,3.79911328125,1.7343828125,1.73789453125,-2.1617421875,-2.50744921875,5.08978515625,0.851253906249999,-0.0587851562499999,-1.24593359375,7.6508203125,3.06188671875,1.7948515625,-1.34996484375,8.90116796875,5.6722109375,2.65273828125,4.20509375,1.9720859375,-1.17955078125,1.87008984375,3.14925,3.519671875,3.3417265625,2.3641171875,1.700375,1.0046953125,2.645828125
2.42623828125,-0.993874999999999,-0.95751953125,2.74211328125,1.2483828125,1.16889453125,-2.9957421875,-2.68844921875,3.85778515625,0.48825390625,-0.467785156250001,-2.20093359375,4.7748203125,2.09088671875,1.8958515625,-1.54396484375,7.06216796875,4.5232109375,2.55073828125,4.11709375,1.4180859375,-0.38255078125,1.93608984375,3.49625,3.091671875,2.5597265625,2.8591171875,3.478375,1.8036953125,2.193828125
5.30923828125,0.625125000000001,1.59848046875,1.87811328125,0.00338281249999994,0.67889453125,-3.2367421875,-2.50744921875,2.91078515625,0.0312539062499999,-0.355785156250001,-2.35993359375,2.1228203125,1.20088671875,1.9448515625,-1.29596484375,5.15116796875,3.6972109375,2.37073828125,3.99609375,1.1840859375,1.00344921875,1.86108984375,3.80325,2.823671875,1.8397265625,3.2551171875,4.424375,2.4636953125,1.948828125
7.73623828125,2.127125,4.22948046875,1.31411328125,-1.7056171875,0.27789453125,-2.9397421875,-2.07344921875,2.49478515625,-0.48974609375,0.100214843750001,-1.79993359375,-0.1201796875,0.55988671875,1.8298515625,-0.824964843749999,3.55116796875,3.2492109375,2.08873828125,3.70409375,1.2150859375,2.44944921875,1.56108984375,3.83425,2.568671875,1.2367265625,3.3001171875,4.174375,2.6296953125,1.827828125
8.88923828125,2.974125,6.10348046875,0.88011328125,-3.4986171875,-0.0861054687499987,-2.3217421875,-1.57944921875,2.48578515625,-1.09274609375,0.59521484375,-0.806933593750001,-1.9511796875,0.17888671875,1.5098515625,-0.388964843749999,2.47316796875,3.1132109375,1.68273828125,3.16009375,1.3450859375,3.52744921875,1.01108984375,3.44725,2.149671875,0.685726562500001,2.8251171875,2.745375,2.0566953125,1.626828125
8.31123828125,2.822125,6.69248046875,0.26611328125,-5.0646171875,-0.502105468749999,-1.6747421875,-1.19544921875,2.46178515625,-1.84674609375,0.811214843749999,0.229066406249999,-3.3221796875,-0.0671132812500002,1.0048515625,-0.19596484375,1.90316796875,3.1622109375,1.13373828125,2.36709375,1.3740859375,4.05944921875,0.259089843749999,2.63125,1.469671875,0.0487265625000006,1.8151171875,0.529375,0.7496953125,1.135828125
6.07523828125,1.656125,5.96948046875,-0.77288671875,-6.2496171875,-1.03410546875,-1.2577421875,-0.977449218749999,1.94978515625,-2.77874609375,0.56721484375,0.980066406249999,-4.0361796875,-0.358113281250001,0.378851562500001,-0.33996484375,1.66716796875,3.2482109375,0.453738281250001,1.42809375,1.1450859375,4.01444921875,-0.59591015625,1.48425,0.576671875000001,-0.790273437499999,0.4411171875,-1.871625,-1.0003046875,0.287828125000001
2.74723828125,-0.214874999999999,4.35748046875,-2.23888671875,-7.0416171875,-1.64310546875,-1.1927421875,-0.83944921875,0.698785156249999,-3.77274609375,-0.0837851562500003,1.30806640625,-3.8871796875,-0.81511328125,-0.278148437499999,-0.76496484375,1.56616796875,3.2442109375,-0.29926171875,0.530093749999999,0.617085937500001,3.36344921875,-1.43791015625,0.17625,-0.339328125,-1.8442734375,-0.9848828125,-3.876625,-2.7243046875,-0.781171874999999
-0.826761718750001,-2.291875,2.46748046875,-3.86288671875,-7.4656171875,-2.16110546875,-1.3987421875,-0.62344921875,-1.16721484375,-4.56074609375,-0.85678515625,1.28306640625,-2.9291796875,-1.42311328125,-0.832148437499999,-1.26096484375,1.50516796875,3.0972109375,-0.995261718749999,-0.110906250000001,-0.103914062499999,2.08544921875,-2.14491015625,-1.06775,-1.021328125,-2.9852734375,-2.1008828125,-5.084625,-3.9493046875,-1.786171875
-3.82376171875,-4.064875,0.826480468749999,-5.21188671875,-7.4976171875,-2.34210546875,-1.6057421875,-0.212449218749999,-3.19621484375,-4.81174609375,-1.33778515625,1.09706640625,-1.6341796875,-2.03211328125,-1.1111484375,-1.51896484375,1.54316796875,2.8862109375,-1.44826171875,-0.306906250000001,-0.8019140625,0.31044921875,-2.58991015625,-1.98575,-1.260328125,-3.9622734375,-2.6088828125,-5.341625,-4.3783046875,-2.445171875
-5.70376171875,-5.179875,-0.29151953125,-5.89988671875,-7.0846171875,-1.96910546875,-1.4807421875,0.36655078125,-4.83421484375,-4.29174609375,-1.16378515625,0.961066406249999,-0.757179687500001,-2.44111328125,-0.9401484375,-1.22396484375,1.83816796875,2.7642109375,-1.49126171875,0.0290937499999995,-1.2179140625,-1.64855078125,-2.67491015625,-2.33875,-0.981328124999999,-4.4762734375,-2.3868828125,-4.776625,-3.9973046875,-2.626171875
-6.30876171875,-5.508875,-0.86151953125,-5.76488671875,-6.2316171875,-0.964105468749999,-0.777742187499999,0.95855078125,-5.66421484375,-2.99974609375,-0.16678515625,1.05706640625,-0.9681796875,-2.51311328125,-0.214148437499999,-0.17496484375,2.54016796875,2.8482109375,-1.05926171875,0.86509375,-1.1379140625,-3.44455078125,-2.38691015625,-1.98975,-0.256328125,-4.2702734375,-1.5238828125,-3.778625,-3.0703046875,-2.371171875
-5.77176171875,-5.102875,-0.96351953125,-4.87288671875,-5.0116171875,0.59289453125,0.603257812500001,1.45255078125,-5.51221484375,-1.16474609375,1.59821484375,1.57906640625,-2.4741796875,-2.22011328125,1.0618515625,1.65403515625,3.70816796875,3.1452109375,-0.19226171875,2.09509375,-0.4379140625,-4.85155078125,-1.80391015625,-0.94175,0.771671875000001,-3.2112734375,-0.255882812500001,-2.828625,-1.9593046875,-1.785171875
-4.29476171875,-4.030875,-0.577519531249999,-3.41588671875,-3.5036171875,2.53389453125,2.6732578125,1.96855078125,-4.41921484375,0.87425390625,3.94521484375,2.76806640625,-4.8801796875,-1.57511328125,2.8058515625,4.13103515625,5.29216796875,3.6212109375,1.04773828125,3.63009375,0.9060859375,-5.73755078125,-0.98991015625,0.71625,2.022671875,-1.3332734375,1.2131171875,-2.195625,-0.8643046875,-0.891171874999999
-1.99876171875,-2.270875,0.479480468750001,-1.62588671875,-1.7496171875,4.70589453125,5.3942578125,2.87855078125,-2.57721484375,2.85425390625,6.66721484375,4.87006640625,-7.3701796875,-0.55411328125,4.9028515625,7.04403515625,7.14616796875,4.3202109375,2.65773828125,5.45609375,2.8280859375,-5.92455078125,0.11608984375,2.89525,3.542671875,1.1627265625,2.8381171875,-1.713625,0.3106953125,0.420828125000001
1.01023828125,0.215125,2.40348046875,0.17911328125,0.177382812499999,6.97589453125,8.6062578125,4.55155078125,-0.321214843750001,4.65025390625,9.55221484375,7.94806640625,-9.0981796875,0.87788671875,7.1988515625,10.13303515625,9.03216796875,5.3562109375,4.65973828125,7.57009375,5.1400859375,-5.18855078125,1.67008984375,5.49525,5.423671875,3.9267265625,4.6971171875,-0.902625,1.8306953125,2.241828125
4.42123828125,3.264125,5.12448046875,1.51311328125,2.0673828125,9.14689453125,11.9182578125,7.00755078125,1.85478515625,6.19925390625,12.29221484375,11.65706640625,-9.5731796875,2.63988671875,9.4398515625,13.03003515625,10.62416796875,6.7742109375,6.94973828125,9.83509375,7.4970859375,-3.46755078125,3.72008984375,8.32225,7.606671875,6.4867265625,6.7701171875,0.610375,3.8156953125,4.437828125
7.59123828125,6.376125,8.18548046875,1.78311328125,3.5593828125,10.89189453125,14.7002578125,9.73255078125,3.37578515625,7.37025390625,14.44521484375,15.16706640625,-8.8031796875,4.44588671875,11.2418515625,15.24103515625,11.54416796875,8.4042109375,9.19973828125,11.89509375,9.4170859375,-1.07555078125,6.01408984375,11.01225,9.757671875,8.3387265625,8.7651171875,2.700375,6.0056953125,6.580828125
9.72223828125,8.859125,10.91148046875,0.54111328125,4.2583828125,11.82489453125,16.2622578125,11.85355078125,3.77778515625,7.96425390625,15.53321484375,17.38806640625,-7.1491796875,5.86188671875,12.1968515625,16.26403515625,11.47716796875,9.8702109375,10.93973828125,13.27109375,10.4280859375,1.33144921875,8.01008984375,13.08925,11.351671875,9.1117265625,10.1741171875,4.746375,7.8366953125,8.127828125
10.30523828125,10.207125,12.79548046875,-2.17488671875,3.9263828125,11.68589453125,16.1342578125,12.55155078125,2.94178515625,7.84825390625,15.25321484375,17.44906640625,-5.0181796875,6.51588671875,12.0618515625,15.83603515625,10.31516796875,10.7832109375,11.76573828125,13.60209375,10.2630859375,3.07344921875,9.13308984375,14.14925,11.919671875,8.7367265625,10.5421171875,6.010375,8.7516953125,8.695828125
9.51423828125,10.429125,13.77248046875,-5.63788671875,2.6463828125,10.49789453125,14.2912578125,11.46655078125,1.23278515625,7.07825390625,13.65721484375,15.14406640625,-2.6501796875,6.28688671875,10.8918515625,14.11303515625,8.23616796875,10.9552109375,11.53773828125,12.84109375,9.0040859375,3.78144921875,9.06208984375,14.02325,11.295671875,7.4907265625,9.7381171875,6.094375,8.5226953125,8.241828125
8.23323828125,10.063125,14.19148046875,-8.58488671875,0.851382812499999,8.56689453125,11.1682578125,8.84955078125,-0.573214843750002,5.88325390625,11.13321484375,11.04406640625,-0.1391796875,5.34988671875,9.0118515625,11.61003515625,5.64516796875,10.4932109375,10.39973828125,11.24909375,7.0510859375,3.50644921875,7.85608984375,12.82125,9.672671875,5.8697265625,8.0131171875,5.133375,7.3366953125,7.013828125
7.60723828125,9.842125,14.48848046875,-9.71888671875,-0.868617187500001,6.30389453125,7.4382578125,5.38355078125,-1.60021484375,4.50725390625,8.20621484375,6.21706640625,2.4008203125,4.04388671875,6.7968515625,8.92003515625,3.00716796875,9.6912109375,8.64873828125,9.21809375,4.9260859375,2.58144921875,5.87608984375,10.83425,7.466671875,4.3477265625,5.8501171875,3.646375,5.6466953125,5.367828125
8.36023828125,10.206125,14.80548046875,-8.34188671875,-2.0936171875,4.00589453125,3.6792578125,1.82555078125,-1.29621484375,3.04625390625,5.27021484375,1.71906640625,4.7328203125,2.67388671875,4.4528515625,6.38203515625,0.64816796875,8.8292109375,6.54473828125,7.03809375,3.0270859375,1.38844921875,3.58408984375,8.38725,5.091671875,3.1557265625,3.7161171875,2.191375,3.8826953125,3.566828125
10.30823828125,10.977125,14.82148046875,-4.70188671875,-2.8066171875,1.74589453125,0.159257812500001,-1.28344921875,0.291785156249999,1.41425390625,2.43421484375,-1.77193359375,6.5458203125,1.37988671875,1.9248515625,3.95103515625,-1.32683203125,8.0222109375,4.23273828125,4.79309375,1.4740859375,0.20144921875,1.37208984375,5.73625,2.794671875,2.2337265625,1.8931171875,1.075375,2.2656953125,1.729828125
12.42923828125,11.447125,13.96048046875,0.14911328125,-3.3346171875,-0.557105468749999,-3.1057421875,-3.70044921875,2.56478515625,-0.53874609375,-0.39578515625,-4.04493359375,7.5978203125,0.15388671875,-0.967148437499999,1.35203515625,-2.97183203125,7.2312109375,1.80173828125,2.43609375,0.1390859375,-0.82355078125,-0.49591015625,3.07825,0.653671875000001,1.3537265625,0.4601171875,0.300375,0.8256953125,-0.0831718749999997
13.49223828125,10.871125,11.87048046875,4.86211328125,-4.0486171875,-2.94010546875,-6.1247421875,-5.36344921875,4.71978515625,-2.81774609375,-3.29078515625,-5.20293359375,7.7878203125,-1.01811328125,-4.2671484375,-1.59196484375,-4.34883203125,6.4062109375,-0.576261718750001,-0.0289062500000004,-1.1899140625,-1.58855078125,-1.85591015625,0.61125,-1.324328125,0.332726562500001,-0.612882812500001,-0.268625,-0.4233046875,-1.740171875
12.84323828125,9.031125,8.82648046875,8.32211328125,-5.0776171875,-5.22310546875,-8.7427421875,-6.23444921875,6.16278515625,-5.12874609375,-6.07778515625,-5.46793359375,7.1338203125,-2.02911328125,-7.6801484375,-4.68896484375,-5.40983203125,5.6112109375,-2.57126171875,-2.39590625,-2.6189140625,-1.98355078125,-2.58391015625,-1.40875,-3.075328125,-0.849273437499999,-1.3408828125,-0.706625,-1.3703046875,-3.040171875
10.82823828125,6.495125,5.76648046875,9.94511328125,-6.2096171875,-6.99010546875,-10.6157421875,-6.22844921875,6.76078515625,-6.91174609375,-8.29978515625,-5.03393359375,5.7338203125,-2.65111328125,-10.5721484375,-7.35796484375,-6.00583203125,5.0372109375,-3.77826171875,-4.25990625,-4.0399140625,-1.91555078125,-2.60091015625,-2.70975,-4.451328125,-2.0772734375,-1.6898828125,-0.963625,-1.8513046875,-3.819171875
8.58523828125,4.361125,3.89648046875,9.70111328125,-7.0296171875,-7.74810546875,-11.3227421875,-5.24444921875,6.79778515625,-7.59074609375,-9.36578515625,-4.02493359375,3.7898203125,-2.67011328125,-12.2041484375,-8.85796484375,-5.99883203125,4.8832109375,-3.90026171875,-5.16890625,-5.1479140625,-1.36855078125,-1.93891015625,-3.08875,-5.252328125,-3.1692734375,-1.6188828125,-0.955625,-1.7863046875,-4.048171875
7.37923828125,3.674125,4.10048046875,7.97811328125,-7.1816171875,-7.18410546875,-10.5637421875,-3.22844921875,6.70178515625,-6.88474609375,-8.83778515625,-2.52293359375,1.6838203125,-2.06711328125,-12.0661484375,-8.64096484375,-5.35283203125,5.2342109375,-2.92326171875,-4.83390625,-5.5549140625,-0.41655078125,-0.781910156249999,-2.49875,-5.306328125,-3.9212734375,-1.1358828125,-0.650625,-1.2453046875,-3.793171875
7.89923828125,4.867125,6.51248046875,5.39711328125,-6.6386171875,-5.38110546875,-8.3557421875,-0.263449218749999,6.71978515625,-5.01074609375,-6.69778515625,-0.654933593750001,-0.0431796875000003,-1.09511328125,-10.1611484375,-6.63896484375,-4.14583203125,6.0182109375,-1.16826171875,-3.29890625,-4.9789140625,0.85744921875,0.576089843749999,-1.08375,-4.549328125,-4.1002734375,-0.312882812500002,-0.0756249999999999,-0.3973046875,-3.111171875
9.90023828125,7.530125,10.42448046875,2.65911328125,-5.7866171875,-2.86510546875,-5.1507421875,3.36155078125,6.76778515625,-2.64174609375,-3.46578515625,1.35406640625,-0.9041796875,-0.20111328125,-7.0761484375,-3.37096484375,-2.52183203125,7.0392109375,0.79073828125,-0.98790625,-3.4069140625,2.43044921875,1.83108984375,0.837249999999999,-3.100328125,-3.5062734375,0.718117187499999,0.726375,0.5786953125,-2.021171875
12.36423828125,10.605125,14.59148046875,0.42411328125,-5.2316171875,-0.448105468749999,-1.7537421875,7.14555078125,6.56078515625,-0.64474609375,-0.0767851562500006,3.17706640625,-0.7721796875,0.17288671875,-3.8001484375,0.209035156250001,-0.64783203125,8.0312109375,2.30773828125,1.40509375,-1.1499140625,4.26444921875,2.73808984375,2.81825,-1.286328125,-2.1022734375,1.7621171875,1.682375,1.5226953125,-0.586171874999999
14.05723828125,12.886125,17.76048046875,-0.79188671875,-5.4246171875,1.08389453125,0.977257812500001,10.49055078125,5.90578515625,0.26725390625,2.46221484375,4.48306640625,-0.00917968750000053,-0.21211328125,-1.3591484375,3.05503515625,1.29216796875,8.7172109375,2.88973828125,3.15509375,1.2660859375,6.12444921875,3.12608984375,4.39225,0.416671875,-0.137273437499999,2.5731171875,2.642375,2.2756953125,0.989828125000001
14.19523828125,13.585125,19.18348046875,-0.76888671875,-6.3936171875,1.30989453125,2.4802578125,12.88655078125,4.89478515625,-0.16274609375,3.49121484375,5.09006640625,0.764820312499999,-1.28311328125,-0.4071484375,4.44203515625,3.08116796875,8.8552109375,2.37673828125,3.79909375,3.3060859375,7.49344921875,2.91108984375,5.21725,1.549671875,1.8607265625,2.9191171875,3.349375,2.6806953125,2.375828125
12.82523828125,12.661125,18.90048046875,0.23611328125,-7.7636171875,0.356894531250001,2.7172578125,14.09255078125,3.86178515625,-1.62274609375,2.98821484375,5.07006640625,1.1238203125,-2.70011328125,-0.957148437499999,4.25603515625,4.47316796875,8.3182109375,1.01473828125,3.34909375,4.6350859375,7.75244921875,2.13508984375,5.20725,1.879671875,3.2857265625,2.7021171875,3.524375,2.6396953125,3.245828125
10.76423828125,10.797125,17.67748046875,1.45711328125,-8.9896171875,-1.13610546875,2.1702578125,14.23055078125,3.18478515625,-3.35574609375,1.57921484375,4.76106640625,1.1208203125,-3.98511328125,-2.3651484375,3.02403515625,5.25716796875,7.1822109375,-0.627261718749999,2.30409375,5.2170859375,6.56144921875,1.00908984375,4.58825,1.515671875,3.7327265625,2.0431171875,3.028375,2.2096953125,3.459828125
9.14423828125,9.055125,16.67248046875,1.90711328125,-9.5816171875,-2.28510546875,1.6412578125,13.78455078125,3.11878515625,-4.46174609375,0.269214843749999,4.63406640625,1.1878203125,-4.67411328125,-3.6031484375,1.67403515625,5.35816796875,5.7672109375,-1.84826171875,1.43509375,5.2930859375,4.18144921875,-0.10191015625,3.82225,0.876671875,3.2057265625,1.2611171875,1.972375,1.6286953125,3.160828125
8.82623828125,8.401125,16.94148046875,0.95011328125,-9.2226171875,-2.31510546875,1.9182578125,13.45755078125,3.74478515625,-4.23774609375,0.0162148437499994,5.11006640625,1.7038203125,-4.43711328125,-3.6851484375,1.13203515625,4.92216796875,4.5492109375,-2.06726171875,1.44909375,5.2520859375,1.45344921875,-0.77391015625,3.42625,0.488671875,2.1027265625,0.750117187499999,0.703375,1.2196953125,2.705828125
9.95323828125,9.276125,18.96248046875,-1.19688671875,-7.8166171875,-0.87310546875,3.4252578125,13.90555078125,4.99578515625,-2.43474609375,1.33321484375,6.36906640625,2.6248203125,-3.17011328125,-2.0941484375,1.93003515625,4.30416796875,3.9602109375,-1.02626171875,2.68509375,5.4440859375,-0.57655078125,-0.67891015625,3.76225,0.740671875,1.0077265625,0.8001171875,-0.363625,1.2096953125,2.461828125
11.85623828125,11.386125,22.37348046875,-3.43288671875,-5.5216171875,1.83489453125,6.0332578125,15.42455078125,6.67278515625,0.65625390625,4.08621484375,8.26406640625,3.4508203125,-1.05011328125,1.0008515625,4.01303515625,3.90916796875,4.1762109375,1.10573828125,4.97509375,6.0230859375,-1.16455078125,0.26008984375,4.86725,1.688671875,0.395726562500002,1.4481171875,-0.958625,1.5836953125,2.588828125
13.36523828125,13.801125,26.07848046875,-4.34388671875,-2.7496171875,5.13989453125,9.1422578125,17.78555078125,8.46678515625,4.29625390625,7.58821484375,10.37206640625,3.5568203125,1.46788671875,4.8108515625,6.79203515625,3.99816796875,5.0412109375,3.78073828125,7.72809375,6.8770859375,-0.21855078125,1.79908984375,6.42425,3.029671875,0.419726562500001,2.4541171875,-1.105625,2.0876953125,2.950828125
13.40323828125,15.370125,28.71448046875,-3.06288671875,-0.0836171875000016,8.18789453125,11.9842578125,20.32555078125,10.00178515625,7.55225390625,10.91921484375,12.18506640625,2.6578203125,3.78388671875,8.2788515625,9.43803515625,4.56416796875,6.1772109375,6.27773828125,10.19009375,7.6980859375,1.71044921875,3.46908984375,7.90625,4.262671875,0.861726562500001,3.4161171875,-1.072625,2.3666953125,3.202828125
11.56323828125,15.286125,29.29848046875,0.13511328125,1.8783828125,10.28589453125,13.9712578125,22.25855078125,10.94578515625,9.66025390625,13.30921484375,13.32606640625,1.0708203125,5.37988671875,10.5248515625,11.25103515625,5.35716796875,7.2092109375,7.99173828125,11.76109375,8.1370859375,3.76844921875,4.81108984375,8.82425,4.944671875,1.2617265625,3.9921171875,-1.169625,2.1726953125,2.989828125
8.35123828125,13.494125,27.69948046875,3.90811328125,2.7433828125,11.14789453125,14.8832578125,23.02855078125,11.15578515625,10.31725390625,14.39921484375,13.66006640625,-0.3941796875,6.05388671875,11.1928515625,11.91903515625,6.04316796875,7.9752109375,8.68373828125,12.22009375,7.9740859375,5.27444921875,5.62808984375,8.97525,4.906671875,1.1597265625,4.1011171875,-1.493625,1.5036953125,2.148828125
4.96523828125,10.736125,24.70348046875,6.55311328125,2.5113828125,10.94789453125,14.8652578125,22.52155078125,10.79778515625,9.76925390625,14.28221484375,13.27006640625,-0.860179687500001,6.00988671875,10.5308515625,11.56403515625,6.39316796875,8.5652109375,8.55673828125,11.76109375,7.2290859375,6.02644921875,6.06608984375,8.53725,4.319671875,0.348726562500001,3.9681171875,-1.846625,0.6246953125,0.827828125000001
2.71123828125,8.181125,21.63348046875,6.87511328125,1.6273828125,10.16489453125,14.2932578125,21.03955078125,10.31278515625,8.63525390625,13.36721484375,12.37106640625,0.130820312499999,5.71788671875,9.1978515625,10.60403515625,6.41216796875,9.1782109375,8.12673828125,10.85009375,6.1790859375,6.26044921875,6.47808984375,7.95225,3.605671875,-0.963273437499999,3.9961171875,-1.872625,-0.0493046874999999,-0.525171874999999
2.35823828125,6.838125,19.69648046875,4.72911328125,0.743382812499998,9.30489453125,13.5532578125,19.08255078125,10.16478515625,7.56525390625,12.13721484375,11.21006640625,2.3758203125,5.61588671875,7.9108515625,9.52403515625,6.32716796875,9.8692109375,7.92673828125,9.98209375,5.2600859375,6.30344921875,7.14308984375,7.68225,3.236671875,-2.1962734375,4.5311171875,-1.350625,-0.1593046875,-1.321171875
3.75623828125,7.032125,19.39448046875,1.03911328125,0.3213828125,8.64089453125,12.8242578125,17.09355078125,10.50578515625,6.90925390625,10.91221484375,9.97706640625,5.1368203125,5.80588671875,7.0988515625,8.65303515625,6.43116796875,10.4002109375,8.20473828125,9.45809375,4.8650859375,6.22244921875,8.04608984375,7.94225,3.508671875,-2.6792734375,5.6481171875,-0.410625,0.3886953125,-1.113171875
5.88523828125,8.233125,20.29648046875,-2.61288671875,0.3493828125,8.09689453125,11.9932578125,15.29055078125,11.02478515625,6.57825390625,9.71921484375,8.73106640625,7.5288203125,5.96788671875,6.7458515625,8.00903515625,6.85416796875,10.3132109375,8.78573828125,9.26509375,5.1390859375,5.75444921875,8.83908984375,8.56225,4.375671875,-2.0212734375,7.0691171875,0.481375,1.3396953125,0.126828125
7.34623828125,9.338125,21.29348046875,-4.65488671875,0.419382812499999,7.35289453125,10.7712578125,13.65955078125,11.13778515625,6.15425390625,8.36121484375,7.40806640625,8.8958203125,5.55988671875,6.4818515625,7.33303515625,7.43716796875,9.1942109375,9.18273828125,9.12009375,5.8920859375,4.53044921875,9.02108984375,9.07425,5.449671875,-0.3612734375,8.2661171875,0.789375,2.2076953125,1.930828125
7.05623828125,9.271125,21.20148046875,-4.23288671875,0.0553828124999995,6.09889453125,8.9292578125,12.07455078125,10.39878515625,5.20625390625,6.61621484375,5.92906640625,8.9718203125,4.17488671875,5.8558515625,6.28603515625,7.78116796875,6.9632109375,8.87273828125,8.65609375,6.6830859375,2.41044921875,8.21908984375,8.94925,6.176671875,1.6947265625,8.7011171875,0.251375,2.5296953125,3.530828125
4.81323828125,7.581125,19.38748046875,-1.61488671875,-0.9446171875,4.28889453125,6.4952578125,10.44655078125,8.83078515625,3.59225390625,4.46321484375,4.34706640625,7.8578203125,1.84088671875,4.6108515625,4.72003515625,7.47516796875,3.9632109375,7.58873828125,7.64209375,7.0400859375,-0.33055078125,6.41808984375,7.87625,6.108671875,3.3957265625,8.0961171875,-0.948625,2.1176953125,4.233828125
1.43623828125,4.702125,16.09548046875,1.97011328125,-2.3686171875,2.21289453125,3.8022578125,8.84955078125,6.96678515625,1.58625390625,2.16421484375,2.91206640625,5.9148203125,-0.92611328125,2.8338515625,2.79803515625,6.36416796875,0.849210937500001,5.46673828125,6.11609375,6.7100859375,-3.08355078125,4.00408984375,5.92625,5.111671875,4.2347265625,6.5521171875,-2.284625,1.1426953125,3.760828125
-1.62576171875,1.754125,12.33248046875,5.04011328125,-3.6956171875,0.36789453125,1.3882578125,7.53555078125,5.56478515625,-0.26474609375,0.17521484375,1.99906640625,3.6848203125,-3.34211328125,0.9068515625,0.919035156250001,4.68216796875,-1.6667890625,2.99373828125,4.36709375,5.7740859375,-5.17155078125,1.60608984375,3.51725,3.415671875,4.1667265625,4.4901171875,-3.208625,0.0286953125000001,2.352828125
-2.97876171875,-0.00287499999999952,9.39948046875,6.63211328125,-4.3866171875,-0.79610546875,-0.237742187499999,6.79055078125,5.19278515625,-1.43874609375,-1.06478515625,1.90306640625,1.8188203125,-4.72011328125,-0.688148437499999,-0.50496484375,2.92616796875,-3.0657890625,0.78773828125,2.77809375,4.5820859375,-6.13755078125,-0.18791015625,1.22325,1.467671875,3.5457265625,2.4251171875,-3.463625,-0.8063046875,0.581828125
-1.93676171875,0.249125000000001,8.31848046875,6.66511328125,-4.1866171875,-1.09910546875,-0.827742187499999,6.71855078125,5.93478515625,-1.69774609375,-1.34278515625,2.62906640625,0.9308203125,-4.77511328125,-1.6031484375,-1.24496484375,1.55616796875,-3.1887890625,-0.659261718749999,1.64309375,3.5340859375,-5.87955078125,-1.04591015625,-0.486750000000001,-0.293328125,2.8317265625,0.751117187499998,-3.196625,-1.1823046875,-0.999171874999999
1.22623828125,2.544125,9.41748046875,5.74011328125,-3.2576171875,-0.678105468749999,-0.508742187499999,7.13655078125,7.40578515625,-1.16874609375,-0.758785156249999,3.82906640625,1.3888203125,-3.71511328125,-1.7531484375,-1.33196484375,0.71416796875,-2.2417890625,-1.13526171875,1.06309375,2.8610859375,-4.58755078125,-0.96991015625,-1.40575,-1.624328125,2.2917265625,-0.376882812500002,-2.822625,-1.2303046875,-2.118171875
5.46523828125,6.167125,12.27048046875,4.62611328125,-2.0526171875,0.11089453125,0.3122578125,7.67155078125,9.00678515625,-0.24274609375,0.33221484375,4.93406640625,3.0838203125,-2.08411328125,-1.3091484375,-1.00596484375,0.16516796875,-0.674789062499999,-0.729261718749999,0.95709375,2.5420859375,-2.59755078125,-0.22091015625,-1.59775,-2.518328125,1.8727265625,-1.0038828125,-2.727625,-1.2373046875,-2.821171875
9.44323828125,9.981125,15.91148046875,3.75811328125,-1.0746171875,0.86789453125,1.1652578125,7.97755078125,10.19778515625,0.62225390625,1.47221484375,5.41206640625,5.3128203125,-0.51411328125,-0.5891484375,-0.59296484375,-0.51583203125,0.976210937500001,0.248738281250001,1.14009375,2.3710859375,-0.29555078125,0.80208984375,-1.29475,-3.119328125,1.3167265625,-1.2688828125,-3.032625,-1.4123046875,-3.285171875
12.01423828125,12.853125,19.18848046875,3.03911328125,-0.6856171875,1.28789453125,1.7032578125,7.87355078125,10.64178515625,1.06725390625,2.26821484375,4.99206640625,6.9468203125,0.48788671875,0.0578515625000016,-0.367964843749999,-1.66683203125,2.2132109375,1.36473828125,1.40609375,2.1160859375,1.88644921875,1.67808984375,-0.78875,-3.587328125,0.418726562500002,-1.3038828125,-3.548625,-1.7293046875,-3.611171875
12.52923828125,13.993125,21.09548046875,2.03611328125,-1.0326171875,1.23289453125,1.7882578125,7.33955078125,10.22978515625,0.94925390625,2.51021484375,3.76806640625,6.8838203125,0.65588671875,0.349851562500001,-0.45696484375,-3.32183203125,2.6542109375,2.17473828125,1.57409375,1.6550859375,3.50644921875,2.06208984375,-0.353750000000001,-4.000328125,-0.783273437499999,-1.2018828125,-3.909625,-1.9623046875,-3.756171875
10.97623828125,13.138125,21.04848046875,0.43711328125,-2.0326171875,0.76189453125,1.4922578125,6.44755078125,9.09478515625,0.35525390625,2.22921484375,2.15406640625,4.6458203125,0.000886718750000348,0.153851562500002,-0.79196484375,-5.16383203125,2.1312109375,2.35573828125,1.52609375,1.0340859375,4.25044921875,1.77808984375,-0.19375,-4.347328125,-2.0102734375,-1.0368828125,-3.812625,-1.8903046875,-3.635171875
7.97323828125,10.607125,19.07848046875,-1.57388671875,-3.3836171875,0.0958945312499999,1.0572578125,5.33455078125,7.60778515625,-0.45274609375,1.68621484375,0.72806640625,0.768820312499999,-1.21111328125,-0.4651484375,-1.14996484375,-6.66683203125,0.7732109375,1.85373828125,1.23909375,0.4420859375,4.10844921875,0.887089843749999,-0.38475,-4.556328125,-2.9102734375,-0.886882812500001,-3.193625,-1.4763046875,-3.271171875
4.59923828125,7.213125,15.85248046875,-3.32288671875,-4.6626171875,-0.450105468749999,0.792257812500001,4.20655078125,6.31178515625,-1.13474609375,1.26921484375,0.00306640624999943,-3.2881796875,-2.54111328125,-1.2601484375,-1.26696484375,-7.32883203125,-0.991789062499999,0.936738281250001,0.80009375,0.128085937500001,3.43844921875,-0.295910156250001,-0.83375,-4.536328125,-3.2442734375,-0.800882812500001,-2.235625,-0.9033046875,-2.825171875
2.02023828125,4.010125,12.43448046875,-4.04188671875,-5.4636171875,-0.57410546875,0.9342578125,3.31155078125,5.74078515625,-1.38174609375,1.33021484375,0.236066406249999,-5.7561796875,-3.51211328125,-1.8731484375,-0.97296484375,-6.88883203125,-2.5677890625,0.10273828125,0.39609375,0.2920859375,2.80844921875,-1.28891015625,-1.29575,-4.194328125,-2.9682734375,-0.742882812500001,-1.227625,-0.4333046875,-2.489171875
1.00223828125,1.892125,9.83748046875,-3.34788671875,-5.5026171875,-0.0961054687500003,1.5512578125,2.86655078125,6.21078515625,-1.00474609375,2.03821484375,1.35106640625,-5.4251796875,-3.76211328125,-1.9731484375,-0.28596484375,-5.41783203125,-3.4157890625,-0.13526171875,0.232093749999999,0.9970859375,2.73344921875,-1.62191015625,-1.47975,-3.475328125,-2.1982734375,-0.588882812500001,-0.398625,-0.2183046875,-2.333171875
1.58723828125,1.242125,8.57548046875,-1.47488671875,-4.6396171875,0.975894531250001,2.5492578125,2.96055078125,7.67878515625,-0.00674609375000035,3.30621484375,3.00006640625,-2.2911796875,-3.15911328125,-1.3821484375,0.58103515625,-3.27283203125,-3.2537890625,0.50573828125,0.42909375,2.1360859375,3.44544921875,-1.04291015625,-1.18775,-2.417328125,-1.1332734375,-0.208882812500001,0.150375,-0.2313046875,-2.256171875
3.14823828125,1.798125,8.48048046875,0.84111328125,-2.8826171875,2.43489453125,3.7282578125,3.47955078125,9.73278515625,1.41825390625,4.83421484375,4.69906640625,2.3828203125,-1.84111328125,-0.1571484375,1.33703515625,-0.97283203125,-2.1557890625,1.94373828125,0.96009375,3.4550859375,4.81044921875,0.35408984375,-0.42475,-1.182328125,0.00472656250000192,0.410117187499999,0.388375,-0.3383046875,-2.085171875
4.79123828125,2.858125,8.89148046875,2.71511328125,-0.415617187500001,3.94589453125,4.8392578125,4.11855078125,11.73478515625,2.95125390625,6.23821484375,5.98706640625,6.6708203125,-0.17311328125,1.4288515625,1.76403515625,0.95016796875,-0.513789062499999,3.74873828125,1.66109375,4.6260859375,6.39044921875,2.14908984375,0.60525,-0.0363281250000007,0.9787265625,1.1011171875,0.251375,-0.4643046875,-1.748171875
5.82323828125,3.692125,9.10248046875,3.48511328125,2.3773828125,5.18289453125,5.6572578125,4.54255078125,13.06478515625,4.27625390625,7.21821484375,6.58706640625,8.9028203125,1.38288671875,2.9978515625,1.85603515625,2.08516796875,1.0982109375,5.34573828125,2.33209375,5.3790859375,7.56144921875,3.76908984375,1.60625,0.763671875,1.5697265625,1.5961171875,-0.379625,-0.6753046875,-1.353171875
5.99723828125,3.920125,8.80048046875,3.00311328125,4.9533828125,5.98189453125,6.0862578125,4.60155078125,13.36378515625,5.20125390625,7.72021484375,6.56506640625,8.3978203125,2.41688671875,4.2348515625,1.87303515625,2.26316796875,2.1092109375,6.27873828125,2.86609375,5.6240859375,7.68044921875,4.72108984375,2.35925,1.107671875,1.6537265625,1.7091171875,-1.583625,-1.0983046875,-1.112171875
5.46623828125,3.662125,8.24148046875,1.72911328125,6.6773828125,6.41289453125,6.2152578125,4.45555078125,12.60578515625,5.70725390625,7.98721484375,6.41106640625,5.6428203125,2.68188671875,5.0228515625,2.29203515625,1.60916796875,2.1012109375,6.42173828125,3.33809375,5.5100859375,6.24644921875,4.79808984375,2.84525,1.127671875,1.2637265625,1.4981171875,-3.253625,-1.7733046875,-1.177171875
4.54023828125,3.389125,8.06348046875,0.52411328125,6.9013828125,6.71589453125,6.2562578125,4.47155078125,10.97078515625,5.92225390625,8.43921484375,6.91006640625,1.8548203125,2.11388671875,5.4428515625,3.63703515625,0.47816796875,0.884210937500001,5.97573828125,3.96709375,5.3440859375,3.02744921875,4.13008984375,3.25025,1.140671875,0.576726562500001,1.2721171875,-5.085625,-2.5813046875,-1.537171875
3.47523828125,3.606125,8.87648046875,0.20011328125,5.1373828125,7.13589453125,6.3892578125,4.97055078125,8.65578515625,6.02125390625,9.43921484375,8.76306640625,-1.7341796875,0.79488671875,5.6718515625,6.23803515625,-0.72683203125,-1.5087890625,5.28273828125,4.97809375,5.4170859375,-1.88455078125,3.05008984375,3.82425,1.474671875,-0.192273437499999,1.4081171875,-6.733625,-3.3273046875,-2.057171875
2.40023828125,4.539125,10.87548046875,1.07111328125,1.3783828125,7.78289453125,6.6722578125,6.03555078125,5.83078515625,6.13225390625,11.08821484375,12.16106640625,-4.4691796875,-1.08811328125,5.8608515625,10.03903515625,-1.75583203125,-4.8317890625,4.61173828125,6.44509375,5.8460859375,-8.09855078125,1.87608984375,4.70825,2.273671875,-0.902273437499999,2.0941171875,-8.021625,-3.8923046875,-2.599171875
1.37923828125,6.025125,13.71248046875,2.79511328125,-3.6486171875,8.60789453125,7.0552578125,7.48155078125,2.72778515625,6.29625390625,13.17521484375,16.58406640625,-6.4371796875,-3.25711328125,6.0808515625,14.57303515625,-2.60183203125,-8.6477890625,4.05073828125,8.22909375,6.5310859375,-14.99555078125,0.76308984375,5.84225,3.408671875,-1.5382734375,3.1891171875,-9.042625,-4.3133046875,-3.115171875
1.37923828125,6.025125,13.71248046875,2.79511328125,-3.6486171875,8.60789453125,7.0552578125,7.48155078125,2.72778515625,6.29625390625,13.17521484375,16.58406640625,-6.4371796875,-3.25711328125,6.0808515625,14.57303515625,-2.60183203125,-8.6477890625,4.05073828125,8.22909375,6.5310859375,-14.99555078125,0.76308984375,5.84225,3.408671875,-1.5382734375,3.1891171875,-9.042625,-4.3133046875,-3.115171875
