"Fp1","Fpz","Fp2","F7","F3","Fz","F4","F8","FC5","FC1","FC2","FC6","T7","C3","Cz","C4","T8","CP5","CP1","CP2","CP6","P7","P3","Pz","P4","P8","POz","O1","Oz","O2"
0.79658984375,3.490890625,3.30812890625,7.61663671875,9.4145078125,12.020921875,9.3172890625,0.6721015625,10.23770703125,13.17196875,9.59491796875,3.7161875,-4.89140625,12.35588671875,10.9966015625,6.182578125,-0.69745703125,7.84556640625,3.02976953125,6.88239453125,2.08520703125,3.41390625,7.74116015625,18.72901953125,1.02365234375,-5.19161328125,0.549140625,1.53778125,0.9853984375,-1.36770703125
0.48558984375,1.338890625,2.81912890625,6.01563671875,10.0335078125,11.785921875,9.2092890625,0.3471015625,10.93170703125,12.65696875,9.77091796875,3.8661875,0.15659375,11.77988671875,11.0926015625,6.980578125,-0.46645703125,7.57156640625,5.37976953125,7.19639453125,3.68520703125,3.81390625,8.04916015625,19.40401953125,1.92265234375,-2.04661328125,1.918140625,1.67778125,2.8053984375,0.74329296875
1.03658984375,0.217890624999999,2.42112890625,4.77463671875,9.9735078125,11.092921875,8.8802890625,0.4121015625,10.88770703125,11.67396875,9.34591796875,3.6861875,2.27359375,10.52088671875,10.5626015625,7.186578125,0.59854296875,6.67456640625,6.00476953125,6.94339453125,4.69320703125,3.23090625,7.30416015625,19.25701953125,2.16165234375,-0.0266132812499995,2.158140625,0.63578125,3.2313984375,1.85029296875
2.53558984375,0.333890625,2.18512890625,4.03363671875,9.3155078125,10.066921875,8.5192890625,0.9401015625,10.15970703125,10.30996875,8.37891796875,3.2561875,1.66859375,8.68488671875,9.4376015625,6.799578125,2.23154296875,5.19956640625,4.99876953125,6.12139453125,4.98120703125,1.65490625,5.57416015625,18.31801953125,1.65465234375,0.67038671875,1.240140625,-1.44621875,2.2713984375,1.80029296875
4.74458984375,1.579890625,2.15712890625,3.81863671875,8.3355078125,8.979921875,8.3752890625,1.7781015625,9.00170703125,8.80996875,7.11591796875,2.7351875,-0.39240625,6.62488671875,7.9396015625,5.983578125,3.82454296875,3.43556640625,2.98676953125,4.89539453125,4.56220703125,-0.57009375,3.31416015625,16.89601953125,0.49565234375,0.126386718750001,-0.509859375,-4.03921875,0.3423984375,0.71329296875
7.14858984375,3.553890625,2.31512890625,3.99263671875,7.3175078125,8.080921875,8.5602890625,2.5291015625,7.68670703125,7.43296875,5.84391796875,2.2381875,-2.31240625,4.76288671875,6.3636015625,4.963578125,4.75754296875,1.80256640625,0.76676953125,3.51039453125,3.58120703125,-2.85009375,1.17416015625,15.43801953125,-1.05934765625,-1.33861328125,-2.548859375,-6.43721875,-1.9006015625,-1.04070703125
9.15458984375,5.681890625,2.55812890625,4.28363671875,6.4045078125,7.465921875,8.9642890625,2.7131015625,6.38870703125,6.32096875,4.75291796875,1.7811875,-2.92440625,3.40388671875,4.9556015625,3.937578125,4.70354296875,0.69156640625,-1.01123046875,2.20239453125,2.30820703125,-4.50709375,-0.24283984375,14.36501953125,-2.63834765625,-3.21261328125,-4.270859375,-7.93221875,-3.7236015625,-2.88870703125
10.32958984375,7.410890625,2.75212890625,4.38263671875,5.5775078125,7.066921875,9.3222890625,2.0351015625,5.18070703125,5.44896875,3.88891796875,1.3221875,-1.88140625,2.64288671875,3.8366015625,3.032578125,3.73554296875,0.32256640625,-2.02623046875,1.14039453125,1.07620703125,-5.00509375,-0.58783984375,13.92701953125,-3.85134765625,-4.90861328125,-5.178859375,-7.97921875,-4.4826015625,-4.19470703125
10.55958984375,8.390890625,2.78412890625,4.08063671875,4.7205078125,6.718921875,9.3602890625,0.5851015625,4.08670703125,4.67196875,3.19091796875,0.8291875,0.43759375,2.37288671875,2.9866015625,2.310578125,2.21054296875,0.66856640625,-2.32723046875,0.40339453125,0.18520703125,-4.16209375,0.11416015625,14.13001953125,-4.42634765625,-5.93761328125,-5.041859375,-6.39921875,-3.8306015625,-4.47370703125
10.02758984375,8.543890625,2.61412890625,3.35863671875,3.7295078125,6.243921875,8.9142890625,-1.1708984375,3.13170703125,3.82596875,2.56191796875,0.3211875,3.25459375,2.36788671875,2.2876015625,1.785578125,0.55054296875,1.47656640625,-2.23223046875,-0.01760546875,-0.19479296875,-2.25509375,1.48716015625,14.77601953125,-4.30634765625,-6.06561328125,-3.967859375,-3.51921875,-1.8756015625,-3.59570703125
9.02158984375,7.981890625,2.25512890625,2.38263671875,2.5755078125,5.516921875,7.9652890625,-2.6108984375,2.33970703125,2.82296875,1.92191796875,-0.1418125,5.67359375,2.38288671875,1.5926015625,1.448578125,-0.94345703125,2.36056640625,-2.10723046875,-0.18560546875,-0.0727929687500002,0.0699062500000001,2.95116015625,15.57901953125,-3.64934765625,-5.36361328125,-2.331859375,-0.11321875,0.8443984375,-1.82570703125
7.67058984375,6.831890625,1.73312890625,1.40563671875,1.3275078125,4.492921875,6.6132890625,-3.2828984375,1.72270703125,1.68596875,1.23391796875,-0.5068125,6.82559375,2.22488671875,0.8116015625,1.294578125,-2.15145703125,2.93956640625,-2.16123046875,-0.17060546875,0.39820703125,2.03490625,3.95216015625,16.31501953125,-2.72034765625,-4.11661328125,-0.600859375,2.87578125,3.5753984375,0.31829296875
5.82358984375,5.113890625,1.04212890625,0.61463671875,0.1255078125,3.222921875,5.0352890625,-3.1288984375,1.26870703125,0.54496875,0.51391796875,-0.7588125,6.01159375,1.79988671875,-0.0373984374999998,1.326578125,-3.06445703125,2.96156640625,-2.37723046875,-0.01360546875,1.01720703125,3.02090625,4.16516015625,16.89801953125,-1.76334765625,-2.65961328125,0.848140625,4.67678125,5.6333984375,2.30129296875
3.18758984375,2.794890625,0.16812890625,0.0366367187500001,-0.8644921875,1.858921875,3.4492890625,-2.4868984375,0.95470703125,-0.41603125,-0.16908203125,-0.9258125,2.96259375,1.13188671875,-0.8173984375,1.551578125,-3.69745703125,2.37556640625,-2.58523046875,0.27939453125,1.61320703125,2.77490625,3.57816015625,17.35301953125,-0.93134765625,-1.27261328125,1.797140625,4.92278125,6.6013984375,3.73429296875
-0.33041015625,-0.0221093750000003,-0.84987109375,-0.44136328125,-1.5224921875,0.627921875,2.1002890625,-1.8508984375,0.75370703125,-1.02803125,-0.70908203125,-1.0568125,-1.84940625,0.33488671875,-1.3413984375,1.946578125,-4.04745703125,1.32456640625,-2.60623046875,0.68239453125,2.07620703125,1.46490625,2.43816015625,17.71501953125,-0.30934765625,-0.17061328125,2.166140625,3.69078125,6.3653984375,4.40129296875
-4.30741015625,-2.942109375,-1.86287109375,-0.95936328125,-1.8344921875,-0.226078124999999,1.2382890625,-1.5658984375,0.62770703125,-1.22203125,-1.00308203125,-1.1938125,-7.09840625,-0.43411328125,-1.4833984375,2.421578125,-4.12445703125,0.0735664062500001,-2.36423046875,1.10239453125,2.32820703125,-0.42809375,1.10716015625,17.95201953125,0.0226523437499999,0.44338671875,1.940140625,1.42278125,5.0873984375,4.20429296875
-7.79241015625,-5.292109375,-2.62787109375,-1.53936328125,-1.9124921875,-0.534078125,1.0702890625,-1.6518984375,0.50970703125,-1.06203125,-0.99208203125,-1.3528125,-10.95640625,-1.05811328125,-1.2573984375,2.821578125,-3.97945703125,-1.09843359375,-1.94023046875,1.37939453125,2.30720703125,-2.32609375,-0.10383984375,17.96301953125,-0.02434765625,0.392386718750001,1.155140625,-1.23121875,3.1263984375,3.15429296875
-9.67941015625,-6.353109375,-2.89487109375,-2.03836328125,-1.9394921875,-0.276078125,1.6582890625,-1.8538984375,0.31270703125,-0.72903125,-0.68808203125,-1.5088125,-11.89540625,-1.50211328125,-0.8223984375,2.989578125,-3.68245703125,-1.99843359375,-1.54323046875,1.36039453125,1.99120703125,-3.76509375,-1.02383984375,17.65201953125,-0.49534765625,-0.38361328125,-0.0678593750000002,-3.59521875,0.9603984375,1.42229296875
-9.26741015625,-5.696109375,-2.53387109375,-2.27036328125,-2.0454921875,0.396921875,2.8492890625,-1.8408984375,-0.0152929687499999,-0.43203125,-0.16808203125,-1.5968125,-9.49340625,-1.79211328125,-0.3883984375,2.861578125,-3.24845703125,-2.56043359375,-1.38423046875,0.99739453125,1.45820703125,-4.51209375,-1.62083984375,17.03301953125,-1.30034765625,-1.71161328125,-1.473859375,-5.14821875,-0.9246015625,-0.62570703125
-6.60641015625,-3.421109375,-1.59987109375,-2.19236328125,-2.1884921875,1.248921875,4.3042890625,-1.4048984375,-0.41429296875,-0.29903125,0.45591796875,-1.5228125,-4.71340625,-1.94511328125,-0.1053984375,2.518578125,-2.59045703125,-2.79843359375,-1.54023046875,0.40239453125,0.89920703125,-4.54609375,-1.92183984375,16.27101953125,-2.19534765625,-3.17761328125,-2.680859375,-5.63021875,-2.1336015625,-2.47370703125
-2.43041015625,-0.164109375000001,-0.32287109375,-2.01836328125,-2.1644921875,2.054921875,5.6122890625,-0.5758984375,-0.69429296875,-0.31403125,1.06291796875,-1.2248125,0.61859375,-1.92111328125,0.00160156249999988,2.150578125,-1.58045703125,-2.72743359375,-1.89423046875,-0.19560546875,0.55520703125,-3.96409375,-1.93183984375,15.63801953125,-2.86034765625,-4.25961328125,-3.284859375,-5.03521875,-2.4306015625,-3.59370703125
2.21358984375,3.132890625,0.97612890625,-2.11436328125,-1.7584921875,2.652921875,6.4102890625,0.3791015625,-0.63329296875,-0.36503125,1.52091796875,-0.7448125,4.76459375,-1.64611328125,-0.00839843749999991,1.921578125,-0.18845703125,-2.31843359375,-2.23323046875,-0.57860546875,0.58620703125,-2.90309375,-1.61083984375,15.37501953125,-3.05434765625,-4.52861328125,-3.024859375,-3.55021875,-1.7776015625,-3.62770703125
6.34358984375,5.565890625,1.98212890625,-2.75836328125,-0.9574921875,2.917921875,6.4352890625,1.0591015625,-0.13029296875,-0.34703125,1.67491796875,-0.2758125,6.80859375,-1.09211328125,-0.0763984375,1.850578125,1.38554296875,-1.55243359375,-2.38623046875,-0.67560546875,0.95920703125,-1.53009375,-0.93183984375,15.56301953125,-2.74634765625,-3.83361328125,-1.922859375,-1.49221875,-0.3356015625,-2.52970703125
9.24858984375,6.591890625,2.47112890625,-3.90036328125,-0.00849218749999991,2.757921875,5.5882890625,1.1181015625,0.71670703125,-0.24403125,1.37991796875,-0.1018125,6.78559375,-0.34011328125,-0.2043984375,1.773578125,2.72054296875,-0.49643359375,-2.29923046875,-0.62160546875,1.43320703125,-0.06809375,0.0431601562499999,16.07301953125,-2.14034765625,-2.39361328125,-0.317859375,0.74478125,1.5543984375,-0.61870703125
10.53958984375,6.185890625,2.36512890625,-5.08936328125,0.7125078125,2.163921875,3.9972890625,0.4671015625,1.65670703125,-0.12503125,0.58391796875,-0.4328125,5.31359375,0.44588671875,-0.4433984375,1.448578125,3.32554296875,0.66156640625,-2.02623046875,-0.68260546875,1.65920703125,1.21790625,1.13516015625,16.62801953125,-1.59934765625,-0.76061328125,1.248140625,2.74178125,3.4413984375,1.49729296875
10.13158984375,4.769890625,1.73512890625,-5.67436328125,0.9465078125,1.272921875,2.0402890625,-0.6488984375,2.41570703125,-0.06203125,-0.59608203125,-1.2558125,3.14059375,1.09588671875,-0.8103984375,0.730578124999999,2.85754296875,1.66156640625,-1.67623046875,-1.08460546875,1.34520703125,2.08690625,2.09816015625,16.93901953125,-1.48034765625,0.36538671875,2.236140625,4.12978125,4.8613984375,3.10429296875
8.19858984375,2.937890625,0.76312890625,-5.14236328125,0.6825078125,0.342921875000001,0.2272890625,-1.7808984375,2.81070703125,-0.0760312499999998,-1.86208203125,-2.3078125,0.89559375,1.51588671875,-1.2313984375,-0.309421875000001,1.29054296875,2.27556640625,-1.36123046875,-1.86660546875,0.40520703125,2.41890625,2.71316015625,16.83401953125,-1.97434765625,0.42238671875,2.324140625,4.68578125,5.4743984375,3.65229296875
5.12758984375,1.134890625,-0.33487109375,-3.41136328125,0.1145078125,-0.365078124999999,-1.0057109375,-2.5338984375,2.79770703125,-0.12903125,-2.84008203125,-3.2308125,-0.94040625,1.69188671875,-1.5573984375,-1.385421875,-1.04245703125,2.39556640625,-1.14723046875,-2.83560546875,-0.97779296875,2.26290625,2.86516015625,16.31901953125,-2.99534765625,-0.72261328125,1.544140625,4.41478125,5.2053984375,2.99629296875
1.49358984375,-0.522109375,-1.38787109375,-0.86136328125,-0.5054921875,-0.691078125,-1.4667109375,-2.7838984375,2.45470703125,-0.17003125,-3.22608203125,-3.7628125,-2.00840625,1.66388671875,-1.6353984375,-2.117421875,-3.53545703125,2.05056640625,-1.03523046875,-3.65760546875,-2.40579296875,1.80090625,2.57316015625,15.54601953125,-4.20834765625,-2.68661328125,0.248140625,3.56778125,4.2973984375,1.47829296875
-1.94241015625,-2.119109375,-2.28787109375,1.88163671875,-0.9694921875,-0.595078125,-1.2207109375,-2.6838984375,1.94370703125,-0.15003125,-2.89808203125,-3.8458125,-2.12740625,1.48388671875,-1.3933984375,-2.196421875,-5.51645703125,1.37956640625,-0.99923046875,-4.02560546875,-3.42779296875,1.24290625,1.95616015625,14.71001953125,-5.18434765625,-4.74661328125,-1.083859375,2.52478125,3.1853984375,-0.23870703125
-4.33641015625,-3.646109375,-2.95987109375,4.26263671875,-1.1214921875,-0.110078124999999,-0.4907109375,-2.4708984375,1.46270703125,-0.0190312499999998,-1.94508203125,-3.5858125,-1.40340625,1.22188671875,-0.8743984375,-1.528421875,-6.49145703125,0.57556640625,-1.04623046875,-3.81560546875,-3.74579296875,0.73090625,1.17116015625,13.95701953125,-5.61934765625,-6.22361328125,-2.090859375,1.61578125,2.2583984375,-1.52570703125
-5.01841015625,-4.776109375,-3.31487109375,5.99263671875,-0.8334921875,0.709921875000001,0.4822890625,-2.2448984375,1.20270703125,0.27996875,-0.62308203125,-3.1498125,-0.23940625,0.97288671875,-0.2063984375,-0.280421875,-6.29245703125,-0.15643359375,-1.21123046875,-3.14360546875,-3.34079296875,0.30690625,0.36016015625,13.34301953125,-5.47234765625,-6.80961328125,-2.658859375,0.99478125,1.6883984375,-2.08270703125
-3.81341015625,-4.955109375,-3.24887109375,7.02663671875,-0.0144921875000001,1.783921875,1.5122890625,-1.9038984375,1.29270703125,0.79096875,0.72791796875,-2.6688125,0.80159375,0.85288671875,0.4526015625,1.184578125,-5.07745703125,-0.63843359375,-1.49423046875,-2.28660546875,-2.44179296875,-0.03509375,-0.35683984375,12.88301953125,-4.93434765625,-6.61561328125,-2.861859375,0.66978125,1.4493984375,-1.98770703125
-1.21541015625,-3.778109375,-2.71087109375,7.42063671875,1.3125078125,2.962921875,2.4682890625,-1.2838984375,1.75270703125,1.49896875,1.78791796875,-2.2298125,1.22059375,0.95288671875,0.9786015625,2.460578125,-3.21645703125,-0.75343359375,-1.81823046875,-1.52860546875,-1.37279296875,-0.29609375,-0.86783984375,12.61601953125,-4.25534765625,-5.95961328125,-2.793859375,0.62878125,1.4783984375,-1.48270703125
1.72058984375,-1.381109375,-1.79387109375,7.20063671875,2.9275078125,4.000921875,3.2102890625,-0.3798984375,2.45670703125,2.29396875,2.32691796875,-1.9118125,0.77659375,1.27888671875,1.3096015625,3.238578125,-1.18445703125,-0.49043359375,-2.07023046875,-1.03560546875,-0.39279296875,-0.46009375,-1.07683984375,12.62301953125,-3.59234765625,-5.10161328125,-2.457859375,0.93478125,1.7923984375,-0.73570703125
3.79558984375,1.448890625,-0.77387109375,6.31963671875,4.4085078125,4.592921875,3.5652890625,0.5411015625,3.14370703125,2.98096875,2.25391796875,-1.8288125,-0.43340625,1.71688671875,1.4376015625,3.395578125,0.51854296875,0.0125664062500002,-2.18023046875,-0.83060546875,0.34320703125,-0.53509375,-0.96083984375,12.96801953125,-2.97234765625,-4.16561328125,-1.807859375,1.65178125,2.4493984375,0.20429296875
4.20758984375,3.610890625,-0.00987109374999995,4.71163671875,5.2595078125,4.504921875,3.3952890625,1.0501015625,3.50170703125,3.33196875,1.63691796875,-2.0768125,-2.01640625,2.05988671875,1.3946015625,2.993578125,1.48254296875,0.49056640625,-2.15923046875,-0.83960546875,0.76220703125,-0.60609375,-0.61583984375,13.61401953125,-2.37734765625,-3.23261328125,-0.887859375,2.68278125,3.3843984375,1.27229296875
2.94958984375,4.290890625,0.24812890625,2.38763671875,5.1375078125,3.740921875,2.7542890625,0.8151015625,3.29570703125,3.20396875,0.70591796875,-2.6328125,-3.43340625,2.10188671875,1.2446015625,2.251578125,1.53454296875,0.65556640625,-2.09423046875,-0.95360546875,0.85620703125,-0.83009375,-0.25583984375,14.38201953125,-1.83834765625,-2.45361328125,0.0691406249999998,3.67678125,4.3083984375,2.25029296875
0.82858984375,3.444890625,0.0141289062500001,-0.46136328125,4.0435078125,2.611921875,1.9492890625,-0.1628984375,2.47970703125,2.62996875,-0.19108203125,-3.2768125,-4.21740625,1.74988671875,1.0726015625,1.474578125,0.83854296875,0.34856640625,-2.10423046875,-1.06560546875,0.70220703125,-1.33309375,-0.11683984375,15.00001953125,-1.45134765625,-2.02961328125,0.678140625,4.13278125,4.7833984375,2.79429296875
-0.91641015625,1.822890625,-0.43587109375,-3.40136328125,2.3545078125,1.617921875,1.4252890625,-1.5148984375,1.23570703125,1.82196875,-0.70508203125,-3.6568125,-4.17740625,1.07588671875,0.9506015625,0.958578124999999,-0.18245703125,-0.36543359375,-2.29623046875,-1.10960546875,0.45520703125,-2.10209375,-0.33883984375,15.20501953125,-1.31734765625,-2.08761328125,0.578140625,3.67478125,4.4663984375,2.61929296875
-1.25541015625,0.483890624999999,-0.75387109375,-5.83336328125,0.6405078125,1.179921875,1.5032890625,-2.6898984375,-0.0992929687499999,1.05796875,-0.65708203125,-3.4798125,-3.46640625,0.27288671875,0.8886015625,0.866578124999999,-1.07045703125,-1.23243359375,-2.70323046875,-1.08560546875,0.28920703125,-2.94509375,-0.89483984375,14.86701953125,-1.47234765625,-2.58361328125,-0.361859375,2.31778125,3.3463984375,1.70029296875
0.0585898437500001,0.109890624999999,-0.75187109375,-7.19236328125,-0.6074921875,1.402921875,2.1572890625,-3.2468984375,-1.16729296875,0.53796875,-0.14408203125,-2.7208125,-2.46440625,-0.45911328125,0.8066015625,1.155578125,-1.57245703125,-1.93643359375,-3.26623046875,-1.06660546875,0.29320703125,-3.55809375,-1.59883984375,14.05301953125,-1.84934765625,-3.31461328125,-1.932859375,0.52678125,1.8303984375,0.31529296875
2.27158984375,0.597890624999999,-0.51887109375,-7.20036328125,-1.1814921875,2.017921875,2.9962890625,-3.0828984375,-1.71729296875,0.29696875,0.49991796875,-1.6668125,-1.56440625,-0.99611328125,0.5906015625,1.618578125,-1.71445703125,-2.24343359375,-3.85023046875,-1.14060546875,0.43620703125,-3.67209375,-2.17883984375,13.03001953125,-2.29734765625,-4.00761328125,-3.632859375,-0.98421875,0.5673984375,-1.06670703125
3.99258984375,1.182890625,-0.33287109375,-5.97436328125,-1.1814921875,2.541921875,3.4692890625,-2.4618984375,-1.67529296875,0.23696875,0.88791796875,-0.7748125,-0.94940625,-1.29711328125,0.1826015625,2.017578125,-1.71745703125,-2.06843359375,-4.28623046875,-1.32860546875,0.60720703125,-3.17909375,-2.38183984375,12.19301953125,-2.61534765625,-4.43161328125,-4.854859375,-1.61121875,0.1343984375,-1.99170703125
3.99458984375,1.039890625,-0.43487109375,-3.91336328125,-0.8684921875,2.581921875,3.2012890625,-1.8288984375,-1.12229296875,0.23696875,0.80791796875,-0.4348125,-0.47540625,-1.34911328125,-0.3433984375,2.219578125,-1.80445703125,-1.46043359375,-4.39223046875,-1.52660546875,0.70320703125,-2.17209375,-2.04883984375,11.94001953125,-2.62634765625,-4.46361328125,-5.136859375,-1.16221875,0.7543984375,-2.19970703125
2.01258984375,-0.0981093750000004,-0.83587109375,-1.47536328125,-0.4714921875,2.068921875,2.2392890625,-1.5148984375,-0.21829296875,0.24096875,0.32791796875,-0.7848125,0.23259375,-1.12111328125,-0.8073984375,2.241578125,-2.04445703125,-0.54243359375,-4.00423046875,-1.55460546875,0.68220703125,-0.90709375,-1.17583984375,12.50701953125,-2.25734765625,-4.12061328125,-4.352859375,0.08078125,2.1983984375,-1.69370703125
-1.00041015625,-1.729109375,-1.29087109375,0.99163671875,-0.0784921875000002,1.301921875,1.0382890625,-1.5418984375,0.86470703125,0.28296875,-0.25308203125,-1.6538125,1.47459375,-0.57611328125,-1.0183984375,2.192578125,-2.29445703125,0.54656640625,-3.04423046875,-1.25360546875,0.57720703125,0.29390625,0.0891601562499997,13.82801953125,-1.58934765625,-3.53161328125,-2.764859375,1.53578125,3.9123984375,-0.69670703125
-3.36141015625,-2.922109375,-1.45887109375,3.24763671875,0.3415078125,0.750921875,0.1972890625,-1.6768984375,1.97170703125,0.44496875,-0.59308203125,-2.6748125,3.11759375,0.27588671875,-0.8793984375,2.183578125,-2.28745703125,1.65956640625,-1.60423046875,-0.59460546875,0.47120703125,1.14390625,1.48316015625,15.48501953125,-0.83134765625,-2.85261328125,-0.907859375,2.63178125,5.2893984375,0.48429296875
-3.55941015625,-2.888109375,-1.12287109375,5.08663671875,0.8505078125,0.783921875000001,0.1322890625,-1.6368984375,2.97370703125,0.78096875,-0.48808203125,-3.4618125,4.47159375,1.32388671875,-0.4373984375,2.252578125,-1.81245703125,2.63956640625,0.0457695312500001,0.28539453125,0.44320703125,1.47990625,2.71316015625,16.78101953125,-0.23334765625,-2.20561328125,0.620140625,3.04178125,5.9333984375,1.58729296875
-1.04441015625,-1.407109375,-0.32187109375,6.31163671875,1.4525078125,1.468921875,0.9062890625,-1.2958984375,3.76670703125,1.26196875,0.0289179687500001,-3.7748125,4.56159375,2.35088671875,0.1286015625,2.365578125,-0.87945703125,3.30656640625,1.52876953125,1.12939453125,0.52020703125,1.28690625,3.52616015625,16.93301953125,0.01365234375,-1.67961328125,1.375140625,2.76978125,5.7773984375,2.44329296875
3.50358984375,1.115890625,0.68312890625,6.77563671875,2.0705078125,2.570921875,2.2522890625,-0.7318984375,4.27870703125,1.77896875,0.72991796875,-3.5848125,2.71659375,3.08988671875,0.5856015625,2.448578125,0.24654296875,3.50656640625,2.48076953125,1.67139453125,0.65220703125,0.68790625,3.77516015625,15.32301953125,-0.16934765625,-1.36861328125,1.196140625,2.07378125,5.0333984375,2.96329296875
8.46658984375,3.860890625,1.55012890625,6.40163671875,2.5615078125,3.670921875,3.7192890625,-0.1648984375,4.45770703125,2.18096875,1.31991796875,-3.0358125,-0.87940625,3.31188671875,0.7386015625,2.456578125,1.17154296875,3.18356640625,2.67376953125,1.75639453125,0.76020703125,-0.08809375,3.46316015625,11.75101953125,-0.70834765625,-1.34561328125,0.232140625,1.32178125,4.0563984375,3.12129296875
11.96358984375,5.927890625,2.01712890625,5.17263671875,2.7755078125,4.353921875,4.8282890625,0.1511015625,4.27070703125,2.33596875,1.57591796875,-2.3408125,-5.04640625,2.92388671875,0.5236015625,2.415578125,1.56454296875,2.43756640625,2.11476953125,1.42139453125,0.81020703125,-0.74609375,2.75416015625,6.58401953125,-1.38134765625,-1.56561328125,-1.110859375,0.84878125,3.1833984375,2.96629296875
12.64458984375,6.682890625,2.00312890625,3.15263671875,2.6325078125,4.380921875,5.2292890625,0.0331015625,3.72770703125,2.19296875,1.44991796875,-1.6908125,-8.07640625,2.02388671875,0.0436015625000001,2.427578125,1.29354296875,1.52156640625,1.08976953125,0.88639453125,0.85920703125,-1.00909375,1.93616015625,0.712019531250002,-1.85634765625,-1.79661328125,-2.317859375,0.84778125,2.6473984375,2.64329296875
10.26958984375,6.010890625,1.62412890625,0.60563671875,2.2065078125,3.792921875,4.8452890625,-0.5548984375,2.94270703125,1.81696875,1.08191796875,-1.1798125,-8.58140625,0.88688671875,-0.4653984375,2.623578125,0.47654296875,0.75156640625,0.0797695312500001,0.46839453125,1.03320703125,-0.72009375,1.33516015625,-4.73098046875,-1.81134765625,-1.68561328125,-2.955859375,1.32278125,2.5303984375,2.35729296875
5.83758984375,4.383890625,1.14012890625,-1.91536328125,1.7305078125,2.896921875,3.9192890625,-1.4518984375,2.13570703125,1.38796875,0.74291796875,-0.7898125,-6.22840625,-0.12011328125,-0.7303984375,3.108578125,-0.55745703125,0.38856640625,-0.44123046875,0.45139453125,1.44720703125,0.0789062500000001,1.18816015625,-8.77198046875,-1.07534765625,-0.94961328125,-2.839859375,2.08478125,2.7643984375,2.29429296875
1.11358984375,2.619890625,0.83412890625,-3.67736328125,1.5035078125,2.116921875,2.9152890625,-2.3388984375,1.56670703125,1.12596875,0.70991796875,-0.4128125,-1.91740625,-0.66811328125,-0.5543984375,3.893578125,-1.39745703125,0.52956640625,-0.21623046875,0.96239453125,2.12820703125,1.13490625,1.54716015625,-10.94698046875,0.27565234375,0.44238671875,-2.091859375,2.81878125,3.1643984375,2.51029296875
-2.22141015625,1.423890625,0.86412890625,-4.14936328125,1.7135078125,1.777921875,2.2952890625,-2.8648984375,1.39570703125,1.17096875,1.12091796875,0.0551875000000001,2.68359375,-0.61011328125,0.0796015625000002,4.860578125,-1.74545703125,1.06756640625,0.70176953125,1.90839453125,2.98720703125,2.07190625,2.25216015625,-11.40698046875,1.92565234375,2.19138671875,-1.067859375,3.19478125,3.5023984375,2.88029296875
-3.31341015625,0.995890624999999,1.17412890625,-3.41236328125,2.3015078125,1.942921875,2.3042890625,-2.8028984375,1.59170703125,1.48296875,1.88091796875,0.6221875,5.92559375,-0.0411132812499999,0.9846015625,5.775578125,-1.57445703125,1.73456640625,2.00376953125,2.99139453125,3.82520703125,2.52490625,2.98616015625,-10.76198046875,3.42165234375,3.76638671875,-0.210859375,2.97778125,3.5733984375,3.11429296875
-2.31141015625,0.980890625,1.54512890625,-2.20236328125,2.9675078125,2.408921875,2.8642890625,-2.1498984375,1.93770703125,1.85196875,2.69791796875,1.1831875,6.86759375,0.75488671875,1.8306015625,6.356578125,-1.10345703125,2.23056640625,3.27376953125,3.83339453125,4.41520703125,2.28290625,3.41816015625,-9.77298046875,4.33965234375,4.61638671875,0.116140625,2.11578125,3.2503984375,2.89129296875
0.0165898437500003,0.840890624999999,1.75412890625,-1.44036328125,3.3415078125,2.868921875,3.6612890625,-1.0978984375,2.16070703125,2.04296875,3.25291796875,1.6001875,5.56359375,1.46988671875,2.3136015625,6.415578125,-0.58445703125,2.37856640625,4.17976953125,4.16239453125,4.61120703125,1.37990625,3.35816015625,-9.02698046875,4.46465234375,4.45438671875,-0.224859375,0.75878125,2.5393984375,2.05129296875
2.75858984375,0.288890625,1.74612890625,-1.55936328125,3.2225078125,3.128921875,4.3632890625,0.0771015625,2.09670703125,1.97696875,3.40491796875,1.8261875,2.89359375,1.93888671875,2.3276015625,5.980578125,-0.05845703125,2.20656640625,4.64776953125,3.97039453125,4.46820703125,0.11090625,2.87616015625,-8.72698046875,3.91865234375,3.45138671875,-1.060859375,-0.75621875,1.6343984375,0.76529296875
5.07158984375,-0.526109375,1.66412890625,-2.19536328125,2.7145078125,3.226921875,4.8112890625,1.1221015625,1.79970703125,1.81596875,3.28291796875,1.9591875,0.05859375,2.21388671875,2.0386015625,5.331578125,0.70554296875,1.93156640625,4.90176953125,3.54139453125,4.26520703125,-1.07909375,2.28316015625,-8.69698046875,3.13465234375,2.19438671875,-1.952859375,-1.99921875,0.8943984375,-0.47670703125
6.20258984375,-1.192109375,1.75112890625,-2.47236328125,2.1695078125,3.381921875,5.0752890625,1.8721015625,1.51370703125,1.87896875,3.21491796875,2.1971875,-1.97540625,2.50688671875,1.8016015625,4.892578125,2.03454296875,1.83156640625,5.30776953125,3.31739453125,4.37920703125,-1.78409375,1.97316015625,-8.56798046875,2.66465234375,1.37938671875,-2.391859375,-2.60321875,0.6993984375,-1.10970703125
5.66958984375,-1.292109375,2.19712890625,-1.64336328125,1.9835078125,3.829921875,5.3602890625,2.2981015625,1.54470703125,2.45296875,3.53691796875,2.7321875,-2.83740625,3.03688671875,1.9706015625,5.051578125,4.03254296875,2.08956640625,6.11576953125,3.67139453125,5.07320703125,-1.82709375,2.21216015625,-8.03798046875,2.90565234375,1.40838671875,-2.054859375,-2.43321875,1.2153984375,-0.83370703125
3.60958984375,-0.576109375000001,3.05612890625,0.41863671875,2.3805078125,4.696921875,5.8612890625,2.5281015625,2.09870703125,3.61596875,4.41291796875,3.6621875,-2.71640625,3.89488671875,2.7196015625,5.983578125,6.37254296875,2.70656640625,7.29076953125,4.72539453125,6.32720703125,-1.32409375,3.00616015625,-7.03598046875,3.90265234375,2.14938671875,-0.981859375,-1.66321875,2.2623984375,0.18729296875
0.95758984375,0.986890625,4.22812890625,3.14063671875,3.3205078125,5.959921875,6.6672890625,2.8271015625,3.17470703125,5.19996875,5.76691796875,4.9381875,-2.02840625,4.99888671875,3.9606015625,7.581578125,8.35954296875,3.50556640625,8.55176953125,6.31039453125,7.82720703125,-0.60509375,4.12216015625,-5.72698046875,5.35265234375,3.02738671875,0.462140625,-0.68121875,3.3883984375,1.42229296875
-0.86141015625,3.197890625,5.51312890625,5.56763671875,4.5585078125,7.491921875,7.7412890625,3.4861015625,4.56170703125,6.87896875,7.32591796875,6.3801875,-1.03640625,6.14488671875,5.3996015625,9.494578125,9.28554296875,4.24756640625,9.54876953125,8.05639453125,9.11520703125,-0.02609375,5.24016015625,-4.38298046875,6.78265234375,3.38338671875,1.779140625,0.13978125,4.1333984375,2.29729296875
-0.63041015625,5.633890625,6.67612890625,6.83263671875,5.7815078125,9.100921875,8.9412890625,4.6481015625,5.93170703125,8.31696875,8.74891796875,7.7201875,0.24559375,7.11088671875,6.6696015625,11.251578125,8.82854296875,4.74656640625,10.01676953125,9.55839453125,9.80920703125,0.19590625,6.11316015625,-3.23598046875,7.78565234375,2.85538671875,2.580140625,0.64578125,4.2903984375,2.51629296875
2.01358984375,7.741890625,7.49812890625,6.53663671875,6.7335078125,10.558921875,10.0382890625,6.1691015625,6.96470703125,9.27996875,9.73891796875,8.6751875,1.83059375,7.72888671875,7.4716015625,12.393578125,7.24954296875,4.92856640625,9.85676953125,10.49839453125,9.73520703125,0.04290625,6.62916015625,-2.41898046875,8.17365234375,1.54838671875,2.726140625,0.93578125,3.9803984375,2.16329296875
6.34258984375,9.019890625,7.81312890625,4.90963671875,7.2825078125,11.633921875,10.7872890625,7.6071015625,7.45770703125,9.67096875,10.12091796875,9.0221875,3.44159375,7.91388671875,7.6526015625,12.594578125,5.25854296875,4.80056640625,9.12776953125,10.69339453125,8.95120703125,-0.37009375,6.77116015625,-1.99098046875,7.98565234375,-0.0866132812499996,2.325140625,1.19178125,3.5043984375,1.56229296875
10.83058984375,9.175890625,7.52712890625,2.67563671875,7.4185078125,12.148921875,11.0072890625,8.3631015625,7.38170703125,9.49696875,9.85891796875,8.6571875,4.49859375,7.64688671875,7.2156015625,11.738578125,3.63154296875,4.39156640625,7.99176953125,10.10339453125,7.65720703125,-0.90309375,6.54416015625,-1.98598046875,7.38265234375,-1.54361328125,1.667140625,1.47478125,3.1193984375,1.03829296875
13.77358984375,8.175890625,6.62512890625,0.68463671875,7.1905078125,12.021921875,10.6462890625,7.9231015625,6.83770703125,8.82496875,9.04791796875,7.6181875,4.52059375,6.94988671875,6.2826015625,9.948578125,2.80254296875,3.74056640625,6.62776953125,8.81839453125,6.09420703125,-1.44809375,5.95316015625,-2.41898046875,6.54665234375,-2.51661328125,1.137140625,1.66078125,2.9053984375,0.77529296875
13.96558984375,6.155890625,5.18012890625,-0.49736328125,6.6435078125,11.267921875,9.7632890625,6.0821015625,5.98070703125,7.75696875,7.86191796875,6.0661875,3.60259375,5.89788671875,5.0446015625,7.557578125,2.64154296875,2.91356640625,5.19776953125,7.04639453125,4.46320703125,-1.89509375,5.04516015625,-3.23198046875,5.62965234375,-2.96061328125,1.162140625,1.57878125,2.8103984375,0.80729296875
11.16058984375,3.334890625,3.35612890625,-0.80636328125,5.7955078125,9.977921875,8.4792890625,3.0771015625,4.94770703125,6.42296875,6.50291796875,4.2251875,2.49559375,4.63088671875,3.7156015625,5.017578125,2.56454296875,2.03856640625,3.85476953125,5.08039453125,2.90020703125,-2.10209375,3.96716015625,-4.24898046875,4.77065234375,-3.00561328125,2.111140625,1.21078125,2.7953984375,1.10229296875
6.12658984375,0.0148906249999996,1.38612890625,-0.58536328125,4.6805078125,8.288921875,6.9262890625,-0.4628984375,3.84470703125,4.97896875,5.13891796875,2.3191875,2.12659375,3.33388671875,2.4846015625,2.764578125,1.90554296875,1.27356640625,2.75276953125,3.23739453125,1.48320703125,-1.94009375,2.94216015625,-5.21298046875,4.09465234375,-2.83761328125,4.117140625,0.76478125,2.9003984375,1.58729296875
0.29658984375,-3.371109375,-0.47087109375,-0.25136328125,3.3955078125,6.369921875,5.2302890625,-3.7308984375,2.75770703125,3.58196875,3.85791796875,0.5061875,2.92559375,2.18688671875,1.4696015625,1.084578125,0.32354296875,0.73356640625,1.98076953125,1.76939453125,0.25220703125,-1.39209375,2.18116015625,-5.90598046875,3.66965234375,-2.62661328125,6.905140625,0.53978125,3.1823984375,2.12029296875
-4.75241015625,-6.240109375,-1.98587109375,0.0346367187500001,2.1105078125,4.415921875,3.5072890625,-6.0158984375,1.77670703125,2.35496875,2.66491796875,-1.1138125,4.46959375,1.29788671875,0.7046015625,0.0475781249999994,-1.97345703125,0.42556640625,1.49076953125,0.78939453125,-0.77579296875,-0.62509375,1.77016015625,-6.27198046875,3.46365234375,-2.50661328125,9.788140625,0.70278125,3.5923984375,2.47829296875
-7.75141015625,-7.947109375,-2.99587109375,0.43563671875,1.0425078125,2.655921875,1.8982890625,-6.9178984375,1.01170703125,1.37996875,1.53891796875,-2.4538125,5.70759375,0.69088671875,0.1516015625,-0.468421875000001,-4.32145703125,0.25456640625,1.11776953125,0.25839453125,-1.56579296875,0.0679062500000001,1.63616015625,-6.42498046875,3.36365234375,-2.51061328125,11.924140625,1.17478125,3.9653984375,2.46729296875
-8.00841015625,-7.986109375,-3.41387109375,1.18763671875,0.4005078125,1.340921875,0.6012890625,-6.4218984375,0.58370703125,0.70096875,0.51191796875,-3.3908125,5.59059375,0.33588671875,-0.2513984375,-0.669421875000001,-5.94245703125,0.0855664062500001,0.68476953125,0.0413945312499999,-2.05379296875,0.40790625,1.61216015625,-6.56298046875,3.25965234375,-2.51761328125,12.728140625,1.70878125,4.1403984375,2.08929296875
-5.50641015625,-6.209109375,-3.23587109375,2.26863671875,0.3205078125,0.692921875000001,-0.1507109375,-4.8598984375,0.56970703125,0.34796875,-0.30608203125,-3.7828125,3.68559375,0.17288671875,-0.5463984375,-0.730421875000001,-6.35645703125,-0.18143359375,0.0997695312500001,-0.01760546875,-2.16279296875,0.26790625,1.53016015625,-6.83798046875,3.11765234375,-2.27561328125,12.142140625,2.05378125,4.0933984375,1.60329296875
-0.90441015625,-2.979109375,-2.55987109375,3.29263671875,0.7845078125,0.794921875000001,-0.2037109375,-2.7898984375,0.94270703125,0.31996875,-0.77308203125,-3.5678125,0.43759375,0.14088671875,-0.7473984375,-0.743421875000001,-5.59645703125,-0.56343359375,-0.63223046875,-0.04160546875,-1.87379296875,-0.27909375,1.30716015625,-7.29298046875,2.97765234375,-1.54761328125,10.621140625,2.09378125,3.9463984375,1.39429296875
4.56358984375,0.819890625,-1.59587109375,3.72463671875,1.5935078125,1.504921875,0.3832890625,-0.8338984375,1.54670703125,0.56096875,-0.80708203125,-2.8378125,-3.04640625,0.17788671875,-0.8503984375,-0.716421875000001,-4.11445703125,-0.99443359375,-1.43223046875,-0.10760546875,-1.26479296875,-1.00709375,0.96016015625,-7.86398046875,2.90865234375,-0.28561328125,8.855140625,1.88678125,3.8883984375,1.71329296875
9.25958984375,3.962890625,-0.64787109375,3.21463671875,2.4265078125,2.454921875,1.3042890625,0.4811015625,2.15570703125,0.94296875,-0.45408203125,-1.8308125,-5.58040625,0.24088671875,-0.8443984375,-0.610421875000001,-2.47545703125,-1.36143359375,-2.17223046875,-0.23060546875,-0.48779296875,-1.63509375,0.58916015625,-8.42298046875,2.95465234375,1.31238671875,7.444140625,1.62978125,4.0673984375,2.50929296875
11.50458984375,5.277890625,-0.03987109375,1.81463671875,2.9775078125,3.182921875,2.1122890625,0.8731015625,2.57470703125,1.29596875,0.11291796875,-0.8498125,-6.48340625,0.30688671875,-0.7273984375,-0.383421875000001,-1.06945703125,-1.55643359375,-2.72123046875,-0.37660546875,0.30020703125,-1.93809375,0.30816015625,-8.83898046875,3.12265234375,2.87538671875,6.669140625,1.57778125,4.5293984375,3.45229296875
10.20058984375,4.190890625,0.0111289062500002,0.00963671874999994,3.0995078125,3.329921875,2.4212890625,0.3741015625,2.71570703125,1.46696875,0.67791796875,-0.1378125,-5.80540625,0.37388671875,-0.5133984375,-0.0254218750000006,-0.01445703125,-1.52443359375,-3.01623046875,-0.46660546875,0.99620703125,-1.82509375,0.18016015625,-9.03298046875,3.38365234375,4.05038671875,6.456140625,1.92978125,5.2043984375,4.14229296875
5.53858984375,1.150890625,-0.46487109375,-1.42936328125,2.8645078125,2.815921875,2.1092890625,-0.6658984375,2.61470703125,1.38796875,1.08591796875,0.2231875,-4.07040625,0.44888671875,-0.2293984375,0.436578124999999,0.76454296875,-1.29743359375,-3.10023046875,-0.40960546875,1.58520703125,-1.36209375,0.17716015625,-9.00098046875,3.70365234375,4.67238671875,6.493140625,2.70178125,5.9183984375,4.33129296875
-0.71641015625,-2.415109375,-1.16187109375,-1.72836328125,2.5085078125,1.879921875,1.4012890625,-1.6848984375,2.39970703125,1.10896875,1.30891796875,0.3461875,-1.82640625,0.54488671875,0.0976015625,0.966578124999999,1.39554296875,-0.98343359375,-3.08823046875,-0.12760546875,2.11320703125,-0.74109375,0.19616015625,-8.80298046875,4.05865234375,4.81238671875,6.423140625,3.65478125,6.4333984375,4.02529296875
-5.85141015625,-4.768109375,-1.63087109375,-0.48636328125,2.2895078125,0.951921875,0.7462890625,-2.1388984375,2.21670703125,0.77996875,1.42291796875,0.4731875,0.61259375,0.67188671875,0.4316015625,1.531578125,1.95554296875,-0.72443359375,-3.09123046875,0.39439453125,2.63120703125,-0.21709375,0.11216015625,-8.53798046875,4.42365234375,4.66538671875,5.992140625,4.34078125,6.5013984375,3.40529296875
-7.54141015625,-4.801109375,-1.53487109375,2.03663671875,2.3325078125,0.409921875,0.5542890625,-1.7558984375,2.15370703125,0.57296875,1.51091796875,0.8181875,3.07159375,0.83088671875,0.7296015625,2.092578125,2.43254296875,-0.63943359375,-3.17623046875,1.08939453125,3.11820703125,-0.01609375,-0.15283984375,-8.30998046875,4.73665234375,4.39538671875,5.113140625,4.28378125,5.9503984375,2.68829296875
-5.13041015625,-2.639109375,-0.84587109375,4.92763671875,2.5665078125,0.375921875,0.9352890625,-0.6828984375,2.19370703125,0.60396875,1.59591796875,1.4141875,5.25159375,1.00988671875,0.9386015625,2.584578125,2.76254296875,-0.76243359375,-3.34523046875,1.81539453125,3.47520703125,-0.23009375,-0.57583984375,-8.20098046875,4.91365234375,4.08238671875,3.867140625,3.25278125,4.8063984375,2.03329296875
-0.0194101562499998,0.463890624999999,0.14412890625,6.98563671875,2.7945078125,0.694921875,1.6602890625,0.6031015625,2.23070703125,0.89396875,1.63691796875,2.0851875,6.59259375,1.18288671875,1.0426015625,2.933578125,2.89254296875,-1.02543359375,-3.53223046875,2.40539453125,3.58920703125,-0.75909375,-1.02883984375,-8.22698046875,4.90565234375,3.79438671875,2.468140625,1.45178125,3.3443984375,1.55029296875
5.10258984375,2.859890625,0.98012890625,7.27363671875,2.8605078125,1.095921875,2.3392890625,1.5531015625,2.13870703125,1.39396875,1.60591796875,2.5591875,6.41459375,1.33588671875,1.0806015625,3.092578125,2.80554296875,-1.29443359375,-3.62523046875,2.74339453125,3.42020703125,-1.35409375,-1.32283984375,-8.32998046875,4.74765234375,3.63838671875,1.172140625,-0.52821875,2.0163984375,1.30129296875
7.73058984375,3.375890625,1.28912890625,5.56063671875,2.7705078125,1.398921875,2.6812890625,1.8201015625,1.84470703125,2.02896875,1.54791796875,2.6541875,4.28559375,1.46688671875,1.1476015625,3.072578125,2.50754296875,-1.43243359375,-3.53123046875,2.80339453125,3.03020703125,-1.75209375,-1.29683984375,-8.40998046875,4.54265234375,3.70938671875,0.155140625,-2.01421875,1.2163984375,1.26029296875
6.82858984375,1.861890625,0.95312890625,2.39163671875,2.6825078125,1.598921875,2.6342890625,1.3971015625,1.36470703125,2.71996875,1.56291796875,2.3811875,0.40459375,1.59488671875,1.3256015625,2.937578125,1.98554296875,-1.36743359375,-3.25123046875,2.64539453125,2.54920703125,-1.82009375,-0.90183984375,-8.37398046875,4.39065234375,3.98338671875,-0.567859375,-2.60821875,1.0543984375,1.27329296875
3.23658984375,-0.853109375,0.16212890625,-1.20436328125,2.7475078125,1.772921875,2.3302890625,0.5711015625,0.79070703125,3.36296875,1.71391796875,1.9091875,-4.25940625,1.74588671875,1.6096015625,2.750578125,1.22354296875,-1.11043359375,-2.86423046875,2.37039453125,2.09320703125,-1.60409375,-0.22983984375,-8.17498046875,4.32865234375,4.31138671875,-1.131859375,-2.37121875,1.3083984375,1.11829296875
-0.967410156249999,-3.499109375,-0.69887109375,-4.18636328125,2.9395078125,1.920921875,1.9242890625,-0.2398984375,0.24770703125,3.79396875,1.92891796875,1.4291875,-8.20240625,1.91888671875,1.8606015625,2.528578125,0.25654296875,-0.73943359375,-2.46223046875,2.05839453125,1.72520703125,-1.27909375,0.51216015625,-7.82698046875,4.32665234375,4.52838671875,-1.720859375,-1.75021875,1.5773984375,0.65329296875
-3.69241015625,-5.063109375,-1.25787109375,-5.89336328125,2.9955078125,1.865921875,1.4512890625,-0.7078984375,-0.17329296875,3.79596875,1.97991796875,1.0191875,-9.98540625,2.06988671875,1.8306015625,2.209578125,-0.77045703125,-0.35243359375,-2.10923046875,1.72139453125,1.45720703125,-1.03609375,1.07316015625,-7.41098046875,4.31165234375,4.60638671875,-2.473859375,-1.32621875,1.5203984375,-0.05370703125
-3.92041015625,-5.262109375,-1.34587109375,-6.18636328125,2.5525078125,1.317921875,0.8012890625,-0.7298984375,-0.45529296875,3.17196875,1.58391796875,0.6341875,-8.89940625,2.11088671875,1.2716015625,1.686578125,-1.60745703125,-0.0414335937499999,-1.86223046875,1.30439453125,1.27820703125,-0.98509375,1.24716015625,-7.06498046875,4.20465234375,4.68838671875,-3.437859375,-1.53021875,1.0183984375,-0.75070703125
-2.08341015625,-4.550109375,-1.06187109375,-5.36136328125,1.3995078125,0.0699218750000004,-0.1607109375,-0.4288984375,-0.64429296875,1.87696875,0.57891796875,0.1971875,-5.32840625,1.94788671875,0.0876015625000002,0.875578124999999,-1.97745703125,0.13456640625,-1.78823046875,0.73839453125,1.18620703125,-1.10309375,0.95416015625,-6.93598046875,3.95165234375,4.98638671875,-4.562859375,-2.45721875,0.1853984375,-1.14870703125
0.39958984375,-3.693109375,-0.66387109375,-3.93236328125,-0.2994921875,-1.778078125,-1.3997109375,-0.0128984375,-0.78429296875,0.11196875,-0.92508203125,-0.2788125,-0.53140625,1.54888671875,-1.5603984375,-0.186421875000001,-1.69745703125,0.16556640625,-1.93323046875,0.0133945312499999,1.18820703125,-1.25409375,0.28916015625,-7.11298046875,3.53465234375,5.58738671875,-5.741859375,-3.84721875,-0.7356015625,-1.12670703125
2.03858984375,-3.232109375,-0.37687109375,-2.40836328125,-1.9914921875,-3.747078125,-2.6067109375,0.3881015625,-0.86229296875,-1.68503125,-2.51308203125,-0.6338125,3.98859375,0.98888671875,-3.2673984375,-1.296421875,-0.76445703125,0.10356640625,-2.28123046875,-0.75860546875,1.27320703125,-1.26809375,-0.50583984375,-7.57598046875,2.96965234375,6.31338671875,-6.858859375,-5.22921875,-1.5346015625,-0.84070703125
2.05958984375,-3.197109375,-0.25487109375,-1.12536328125,-2.9914921875,-5.170078125,-3.3187109375,0.7681015625,-0.82129296875,-2.99503125,-3.62908203125,-0.6328125,7.08859375,0.42488671875,-4.5423984375,-2.137421875,0.62554296875,0.0455664062500001,-2.76323046875,-1.37260546875,1.38920703125,-1.03109375,-1.13983984375,-8.19998046875,2.29865234375,6.76438671875,-7.826859375,-6.13921875,-2.1426015625,-0.65970703125
0.63458984375,-3.228109375,-0.20187109375,-0.19636328125,-2.8704921875,-5.542078125,-3.1967109375,1.1561015625,-0.62929296875,-3.46003125,-3.84308203125,-0.1428125,8.26159375,0.01188671875,-5.0163984375,-2.406421875,2.13254296875,0.08656640625,-3.27323046875,-1.61760546875,1.46020703125,-0.53409375,-1.39083984375,-8.79898046875,1.59965234375,6.55838671875,-8.574859375,-6.29821875,-2.5996015625,-0.93070703125
-1.39941015625,-2.937109375,-0.0878710937499998,0.43263671875,-1.7224921875,-4.820078125,-2.2557109375,1.4931015625,-0.35429296875,-3.07003125,-3.08208203125,0.7321875,7.56359375,-0.18511328125,-4.6193984375,-1.961421875,3.35554296875,0.25856640625,-3.68423046875,-1.39160546875,1.44020703125,0.13190625,-1.18683984375,-9.17998046875,1.01265234375,5.61338671875,-9.009859375,-5.66221875,-2.9356015625,-1.71470703125
-3.04941015625,-2.203109375,0.13012890625,0.83663671875,-0.1394921875,-3.453078125,-0.8667109375,1.5951015625,-0.17329296875,-2.18303125,-1.67808203125,1.6551875,5.40659375,-0.24211328125,-3.6133984375,-0.900421875000001,3.94554296875,0.50156640625,-3.85823046875,-0.74660546875,1.36520703125,0.82290625,-0.60983984375,-9.20098046875,0.72065234375,4.27138671875,-9.011859375,-4.38621875,-3.0676015625,-2.69070703125
-3.59441015625,-1.233109375,0.37212890625,1.00663671875,1.0895078125,-2.151078125,0.4262890625,1.2431015625,-0.30829296875,-1.36303125,-0.22008203125,2.2211875,2.35459375,-0.33611328125,-2.4873984375,0.465578125,3.70154296875,0.69256640625,-3.71023046875,0.11939453125,1.33020703125,1.38290625,0.14416015625,-8.81598046875,0.87165234375,3.13038671875,-8.497859375,-2.75321875,-2.8356015625,-3.31570703125
-2.81641015625,-0.441109375,0.47612890625,0.84363671875,1.3435078125,-1.557078125,1.1362890625,0.3111015625,-0.93229296875,-1.12303125,0.69291796875,2.1531875,-1.02340625,-0.65311328125,-1.7463984375,1.706578125,2.63554296875,0.69656640625,-3.27123046875,0.92739453125,1.40420703125,1.67990625,0.85016015625,-8.10398046875,1.45465234375,2.69738671875,-7.517859375,-1.13521875,-2.1346015625,-3.17170703125
-1.06841015625,-0.296109375,0.27012890625,0.24663671875,0.4105078125,-2.002078125,0.9742890625,-1.1308984375,-2.08129296875,-1.72103125,0.67791796875,1.4191875,-4.24140625,-1.29511328125,-1.7143984375,2.412578125,1.00054296875,0.43356640625,-2.68223046875,1.41439453125,1.54620703125,1.64790625,1.33016015625,-7.24198046875,2.24865234375,3.09538671875,-6.272859375,0.0917812499999999,-1.0356015625,-2.23670703125
0.83258984375,-1.188109375,-0.35687109375,-0.82636328125,-1.4864921875,-3.411078125,-0.0817109374999996,-2.8178984375,-3.61229296875,-3.06803125,-0.30108203125,0.2071875,-6.89940625,-2.22111328125,-2.3883984375,2.330578125,-0.75145703125,-0.0904335937499998,-2.10123046875,1.42839453125,1.60420703125,1.31990625,1.52416015625,-6.42298046875,2.91165234375,4.02538671875,-5.035859375,0.66778125,0.2403984375,-0.89270703125
1.90358984375,-3.274109375,-1.37687109375,-2.33836328125,-3.8214921875,-5.357078125,-1.7957109375,-4.3718984375,-5.23029296875,-4.77603125,-1.91708203125,-1.1738125,-8.63040625,-3.25111328125,-3.4343984375,1.469578125,-2.10445703125,-0.77443359375,-1.60723046875,1.01139453125,1.41920703125,0.83090625,1.51016015625,-5.75798046875,3.15665234375,4.99138671875,-4.008859375,0.57078125,1.4363984375,0.33129296875
1.43958984375,-6.300109375,-2.59287109375,-4.16936328125,-5.9544921875,-7.225078125,-3.7097109375,-5.4108984375,-6.57529296875,-6.30703125,-3.58608203125,-2.3998125,-9.09740625,-4.12711328125,-4.3183984375,0.122578125,-2.67845703125,-1.46143359375,-1.18923046875,0.39139453125,0.93720703125,0.37690625,1.44616015625,-5.24498046875,2.90165234375,5.57638671875,-3.254859375,0.0197812499999999,2.3553984375,1.04029296875
-0.63341015625,-9.521109375,-3.67587109375,-6.07336328125,-7.3174921875,-8.413078125,-5.2587109375,-5.6568984375,-7.33829296875,-7.17403125,-4.67308203125,-3.2118125,-8.15940625,-4.62811328125,-4.5403984375,-1.222421875,-2.39945703125,-2.02243359375,-0.79323046875,-0.11860546875,0.25220703125,0.10690625,1.45916015625,-4.81398046875,2.28865234375,5.60238671875,-2.732859375,-0.66121875,2.8743984375,1.09029296875
-3.72541015625,-11.898109375,-4.28887109375,-7.67436328125,-7.5514921875,-8.523078125,-5.9187109375,-5.0098984375,-7.36429296875,-7.11303125,-4.73508203125,-3.4498125,-6.11040625,-4.66411328125,-3.8673984375,-2.061421875,-1.51345703125,-2.43143359375,-0.40223046875,-0.27260546875,-0.43679296875,0.02590625,1.54016015625,-4.41898046875,1.57565234375,5.11138671875,-2.410859375,-1.22821875,2.9083984375,0.53929296875
-6.87341015625,-12.546109375,-4.24487109375,-8.56536328125,-6.5914921875,-7.489078125,-5.4057109375,-3.5858984375,-6.71229296875,-6.16403125,-3.68908203125,-3.0728125,-3.72940625,-4.33411328125,-2.4413984375,-2.052421875,-0.43245703125,-2.78643359375,-0.09123046875,-0.0026054687499999,-0.91779296875,-0.02309375,1.53216015625,-4.10798046875,0.99565234375,4.26538671875,-2.344859375,-1.62821875,2.4033984375,-0.45270703125
-9.15841015625,-11.186109375,-3.59687109375,-8.50136328125,-4.7124921875,-5.597078125,-3.8257109375,-1.7108984375,-5.65329296875,-4.64103125,-1.85008203125,-2.1588125,-1.97340625,-3.88311328125,-0.7163984375,-1.145421875,0.48654296875,-3.23743359375,-0.0302304687499999,0.56639453125,-1.04079296875,-0.25909375,1.20716015625,-4.00798046875,0.66965234375,3.27038671875,-2.660859375,-1.97521875,1.3803984375,-1.68270703125
-10.01041015625,-8.329109375,-2.62487109375,-7.57236328125,-2.4764921875,-3.391078125,-1.6807109375,0.1591015625,-4.60029296875,-3.00203125,0.20291796875,-0.9088125,-1.48140625,-3.59911328125,0.7506015625,0.400578125,1.08754296875,-3.88843359375,-0.38823046875,1.18239453125,-0.78379296875,-0.80309375,0.41116015625,-4.26098046875,0.59165234375,2.34338671875,-3.460859375,-2.43421875,-0.0146015625,-2.90770703125
-9.33441015625,-5.053109375,-1.71387109375,-6.22536328125,-0.5584921875,-1.494078125,0.3112890625,1.5691015625,-3.95929296875,-1.70303125,1.82691796875,0.3751875,-2.25140625,-3.68811328125,1.5176015625,2.087578125,1.38654296875,-4.72743359375,-1.19923046875,1.55839453125,-0.27779296875,-1.57609375,-0.84283984375,-4.95398046875,0.65365234375,1.66238671875,-4.725859375,-3.08121875,-1.4996015625,-3.88770703125
-7.48241015625,-2.499109375,-1.21487109375,-5.06236328125,0.5085078125,-0.386078124999999,1.5172890625,2.2021015625,-3.97129296875,-1.05003125,2.51791796875,1.3251875,-3.68940625,-4.18911328125,1.3896015625,3.307578125,1.44154296875,-5.62943359375,-2.31823046875,1.43739453125,0.19420703125,-2.33609375,-2.36383984375,-6.08698046875,0.65365234375,1.30238671875,-6.303859375,-3.84821875,-2.7516015625,-4.46770703125
-5.09641015625,-1.346109375,-1.33287109375,-4.51236328125,0.5355078125,-0.267078124999999,1.6232890625,1.9621015625,-4.60229296875,-1.14003125,2.02991796875,1.5931875,-5.02840625,-4.97211328125,0.4276015625,3.506578125,1.20654296875,-6.42143359375,-3.50623046875,0.64439453125,0.26320703125,-2.83209375,-3.87983984375,-7.59898046875,0.32365234375,1.17738671875,-7.988859375,-4.56321875,-3.5406015625,-4.64970703125
-2.87441015625,-1.581109375,-2.08887109375,-4.60636328125,-0.2794921875,-1.042078125,0.6832890625,0.9771015625,-5.56829296875,-1.86403125,0.40991796875,0.9691875,-5.82340625,-5.79511328125,-1.1413984375,2.351578125,0.49654296875,-6.96643359375,-4.58023046875,-0.88360546875,-0.39279296875,-2.96009375,-5.14983984375,-9.39098046875,-0.59834765625,1.08638671875,-9.613859375,-5.06621875,-3.8406015625,-4.59570703125
-1.33341015625,-2.640109375,-3.33187109375,-5.01936328125,-1.4954921875,-2.410078125,-0.9827109375,-0.4718984375,-6.46829296875,-2.98503125,-2.03208203125,-0.5088125,-6.21540625,-6.41611328125,-3.0093984375,-0.124421875000001,-0.88645703125,-7.21743359375,-5.48123046875,-3.05060546875,-1.89079296875,-2.82009375,-6.05083984375,-11.32098046875,-2.23034765625,0.84338671875,-11.088859375,-5.30321875,-3.8236015625,-4.53170703125
-0.67741015625,-3.783109375,-4.78287109375,-5.30636328125,-2.6454921875,-3.995078125,-2.9417109375,-2.0618984375,-6.96329296875,-4.22403125,-4.79408203125,-2.5238125,-6.74340625,-6.68111328125,-4.8653984375,-3.472421875,-2.92545703125,-7.21343359375,-6.23723046875,-5.56360546875,-4.02079296875,-2.64709375,-6.57583984375,-13.18898046875,-4.40934765625,0.43438671875,-12.358859375,-5.35321875,-3.7416015625,-4.59370703125
-0.81241015625,-4.467109375,-6.09787109375,-5.18036328125,-3.4074921875,-5.442078125,-4.7837109375,-3.5288984375,-6.91629296875,-5.32103125,-7.28708203125,-4.5548125,-7.83540625,-6.56611328125,-6.4253984375,-6.903421875,-5.20545703125,-7.02443359375,-6.87223046875,-7.93660546875,-6.23879296875,-2.65809375,-6.78983984375,-14.72698046875,-6.65634765625,0.0733867187500001,-13.347859375,-5.35421875,-3.7726015625,-4.73970703125
-1.46441015625,-4.532109375,-6.93987109375,-4.65536328125,-3.6824921875,-6.501078125,-6.2237109375,-4.7288984375,-6.41729296875,-6.07703125,-8.97908203125,-6.0658125,-9.35540625,-6.15411328125,-7.4603984375,-9.517421875,-6.95745703125,-6.69743359375,-7.35423046875,-9.59060546875,-7.82879296875,-2.91709375,-6.76083984375,-15.65098046875,-8.29234765625,0.12038671875,-13.928859375,-5.38921875,-3.9156015625,-4.76070703125
-2.32041015625,-4.175109375,-7.08687109375,-4.01036328125,-3.5764921875,-7.053078125,-7.1247109375,-5.6088984375,-5.71629296875,-6.38803125,-9.54208203125,-6.7018125,-10.58340625,-5.59511328125,-7.8363984375,-10.600421875,-7.38145703125,-6.26243359375,-7.59423046875,-10.04560546875,-8.18479296875,-3.31309375,-6.54883984375,-15.75598046875,-8.70234765625,0.872386718750001,-13.969859375,-5.41021875,-4.0006015625,-4.42870703125
-3.16441015625,-3.790109375,-6.53387109375,-3.60636328125,-3.2984921875,-7.096078125,-7.4737109375,-6.1548984375,-5.08729296875,-6.26303125,-8.94708203125,-6.4108125,-10.67740625,-5.06611328125,-7.5433984375,-9.884421875,-6.10845703125,-5.77943359375,-7.49123046875,-9.11860546875,-7.08679296875,-3.65609375,-6.21983984375,-15.00598046875,-7.62834765625,2.35438671875,-13.410859375,-5.28221875,-3.8186015625,-3.66770703125
-3.96141015625,-3.756109375,-5.52487109375,-3.66236328125,-3.0254921875,-6.693078125,-7.3167109375,-6.3348984375,-4.70229296875,-5.79203125,-7.45308203125,-5.4298125,-9.30940625,-4.72411328125,-6.7013984375,-7.629421875,-3.46845703125,-5.37843359375,-7.02423046875,-7.00960546875,-4.82079296875,-3.81609375,-5.86783984375,-13.55998046875,-5.31734765625,4.23538671875,-12.332859375,-4.91821875,-3.2886015625,-2.65070703125
-4.81941015625,-4.233109375,-4.44587109375,-4.12636328125,-2.7674921875,-5.908078125,-6.7017109375,-6.0908984375,-4.55429296875,-5.07203125,-5.46108203125,-4.1318125,-6.96440625,-4.64211328125,-5.4833984375,-4.475421875,-0.36045703125,-5.22643359375,-6.27823046875,-4.21160546875,-2.04679296875,-3.79709375,-5.57783984375,-11.69498046875,-2.41934765625,5.96538671875,-10.940859375,-4.38721875,-2.5496015625,-1.73270703125
-5.77741015625,-5.016109375,-3.60987109375,-4.72136328125,-2.3374921875,-4.762078125,-5.6567109375,-5.3638984375,-4.44929296875,-4.12403125,-3.33208203125,-2.8258125,-4.61840625,-4.74411328125,-4.0343984375,-1.163421875,2.23054296875,-5.42343359375,-5.38623046875,-1.29160546875,0.52020703125,-3.69109375,-5.36283984375,-9.66798046875,0.33365234375,7.07138671875,-9.464859375,-3.90021875,-1.8736015625,-1.22370703125
-6.60141015625,-5.594109375,-3.07987109375,-5.10336328125,-1.4714921875,-3.259078125,-4.1997109375,-4.1498984375,-4.10229296875,-2.90103125,-1.27208203125,-1.6458125,-3.05540625,-4.80811328125,-2.4303984375,1.739578125,3.73054296875,-5.89643359375,-4.42323046875,1.31739453125,2.42620703125,-3.56909375,-5.11483984375,-7.61798046875,2.45465234375,7.43138671875,-8.038859375,-3.66921875,-1.4656015625,-1.16870703125
-6.81741015625,-5.444109375,-2.67187109375,-5.03236328125,-0.0634921875000001,-1.471078125,-2.4077109375,-2.5778984375,-3.31029296875,-1.38003125,0.64891796875,-0.5768125,-2.42240625,-4.57611328125,-0.7343984375,3.951578125,4.16554296875,-6.39243359375,-3.39523046875,3.39839453125,3.60820703125,-3.42309375,-4.65083984375,-5.57998046875,3.84365234375,7.32138671875,-6.674859375,-3.76421875,-1.3206015625,-1.28270703125
-6.05141015625,-4.406109375,-2.14787109375,-4.45036328125,1.6525078125,0.356921875,-0.5197109375,-0.9428984375,-2.11129296875,0.31696875,2.36491796875,0.4091875,-2.34440625,-3.91211328125,0.9146015625,5.415578125,3.97154296875,-6.59343359375,-2.33323046875,4.89939453125,4.26320703125,-3.18809375,-3.83683984375,-3.59198046875,4.66765234375,7.18638671875,-5.341859375,-4.07221875,-1.2556015625,-1.15070703125
-4.38641015625,-2.849109375,-1.41487109375,-3.50136328125,3.1295078125,1.815921875,1.0712890625,0.3571015625,-0.79729296875,1.88996875,3.73991796875,1.2611875,-2.42240625,-2.90011328125,2.2716015625,6.181578125,3.62654296875,-6.27743359375,-1.37723046875,5.82539453125,4.62420703125,-2.81409375,-2.69583984375,-1.79098046875,5.13665234375,7.33538671875,-4.075859375,-4.38721875,-1.0796015625,-0.52070703125
-2.36341015625,-1.424109375,-0.56887109375,-2.49436328125,3.7975078125,2.533921875,1.9992890625,1.0001015625,0.24870703125,2.99196875,4.60991796875,1.8761875,-2.56440625,-1.79611328125,3.0906015625,6.338578125,3.35254296875,-5.42243359375,-0.73323046875,6.19139453125,4.79020703125,-2.30709375,-1.42183984375,-0.412980468749996,5.33365234375,7.75538671875,-3.013859375,-4.53121875,-0.7546015625,0.50829296875
-0.55441015625,-0.598109375,0.21912890625,-1.76636328125,3.4215078125,2.440921875,2.1942890625,0.9301015625,0.79170703125,3.44096875,4.92691796875,2.2211875,-2.87740625,-0.85511328125,3.2796015625,6.026578125,3.05154296875,-4.16943359375,-0.53523046875,6.05439453125,4.72820703125,-1.71109375,-0.26683984375,0.319019531250003,5.21565234375,8.17338671875,-2.333859375,-4.42521875,-0.4036015625,1.53629296875
0.90058984375,-0.326109375000001,0.85712890625,-1.48536328125,2.2865078125,1.895921875,1.9832890625,0.4031015625,0.88670703125,3.36596875,4.84891796875,2.4041875,-3.30640625,-0.16111328125,3.0006015625,5.458578125,2.45954296875,-2.70643359375,-0.73723046875,5.57039453125,4.37220703125,-1.05409375,0.60016015625,0.342019531250003,4.72565234375,8.26738671875,-2.131859375,-4.07121875,-0.1946015625,2.11329296875
2.33458984375,-0.147109375,1.38812890625,-1.53036328125,1.0565078125,1.508921875,1.8912890625,-0.1688984375,0.82670703125,3.16096875,4.68591796875,2.6071875,-3.43340625,0.43288671875,2.6256015625,4.886578125,1.42354296875,-1.15443359375,-1.08823046875,4.99239453125,3.74120703125,-0.32209375,1.18916015625,-0.166980468749998,3.92265234375,7.87938671875,-2.334859375,-3.48221875,-0.1836015625,1.99729296875
4.15458984375,0.428890624999999,1.92412890625,-1.56136328125,0.4485078125,1.796921875,2.2792890625,-0.4618984375,0.97270703125,3.28196875,4.73091796875,2.9441875,-2.68140625,1.21888671875,2.5666015625,4.515578125,0.12154296875,0.45456640625,-1.21523046875,4.60039453125,2.97920703125,0.52990625,1.67416015625,-0.826980468749998,3.02865234375,7.10438671875,-2.693859375,-2.64521875,-0.2426015625,1.28429296875
6.36458984375,1.571890625,2.54212890625,-1.25036328125,0.9155078125,2.897921875,3.1072890625,-0.3878984375,1.57270703125,4.00596875,5.09791796875,3.3631875,-0.79040625,2.44788671875,3.0766015625,4.407578125,-0.92245703125,2.11156640625,-0.77123046875,4.58139453125,2.30720703125,1.49790625,2.27716015625,-1.19698046875,2.35765234375,6.21838671875,-2.893859375,-1.56421875,-0.1346015625,0.33929296875
8.41558984375,3.072890625,3.21412890625,-0.50836328125,2.4845078125,4.529921875,3.9852890625,-0.0798984375,2.64070703125,5.30396875,5.67791796875,3.6751875,1.85859375,4.15488671875,4.1246015625,4.460578125,-1.10345703125,3.74156640625,0.37876953125,4.94639453125,1.91920703125,2.46990625,3.11216015625,-0.989980468749998,2.17265234375,5.51438671875,-2.715859375,-0.35421875,0.3033984375,-0.40570703125
9.48958984375,4.554890625,3.83212890625,0.48463671875,4.7655078125,6.166921875,4.4422890625,0.2171015625,3.95070703125,6.86796875,6.22291796875,3.6791875,4.40759375,6.08588671875,5.4156015625,4.455578125,-0.11745703125,5.16556640625,2.04676953125,5.52139453125,1.88420703125,3.25590625,4.10816015625,-0.197980468749996,2.54865234375,5.16738671875,-2.156859375,0.73378125,1.0293984375,-0.66070703125
9.01658984375,5.715890625,4.27312890625,1.46963671875,7.0855078125,7.309921875,4.2282890625,0.2851015625,5.11570703125,8.25696875,6.50091796875,3.3061875,6.08559375,7.78488671875,6.5346015625,4.180578125,1.80254296875,6.15156640625,3.78276953125,6.02239453125,2.11620703125,3.69090625,5.04916015625,0.920019531250002,3.33265234375,5.17538671875,-1.418859375,1.41878125,1.8183984375,-0.39770703125
7.07558984375,6.429890625,4.46012890625,2.34663671875,8.7235078125,7.700921875,3.4602890625,0.0221015625,5.76370703125,9.08496875,6.42891796875,2.6681875,6.70459375,8.78388671875,7.1556015625,3.553578125,3.96554296875,6.52856640625,5.08776953125,6.19539453125,2.42320703125,3.74490625,5.70816015625,1.99201953125,4.21665234375,5.39438671875,-0.775859375,1.56578125,2.4163984375,0.17429296875
4.38358984375,6.670890625,4.38512890625,3.19063671875,9.1615078125,7.391921875,2.5252890625,-0.5268984375,5.68770703125,9.16196875,6.11591796875,2.0151875,6.64859375,8.82388671875,7.1846015625,2.689578125,5.56654296875,6.28556640625,5.64876953125,5.95039453125,2.62020703125,3.55290625,5.98916015625,2.73701953125,4.88865234375,5.62638671875,-0.410859375,1.29478125,2.7023984375,0.75029296875
1.87258984375,6.372890625,4.08012890625,4.03663671875,8.2605078125,6.643921875,1.8162890625,-1.2158984375,4.92170703125,8.54996875,5.77891796875,1.6001875,6.43059375,7.96288671875,6.7856015625,1.870578125,6.05154296875,5.59856640625,5.45976953125,5.42139453125,2.63220703125,3.36890625,5.97916015625,3.09901953125,5.18765234375,5.73738671875,-0.309859375,0.95478125,2.7623984375,1.12429296875
0.15458984375,5.407890625,3.59712890625,4.65863671875,6.2815078125,5.745921875,1.4952890625,-1.8608984375,3.69070703125,7.49896875,5.61191796875,1.5381875,6.22359375,6.53888671875,6.2686015625,1.424578125,5.32754296875,4.75856640625,4.80376953125,4.90739453125,2.53720703125,3.45690625,5.89916015625,3.25901953125,5.18665234375,5.75538671875,-0.264859375,0.97178125,2.8463984375,1.32929296875
-0.719410156249999,3.697890625,2.98912890625,4.65363671875,3.7495078125,4.875921875,1.4352890625,-2.3038984375,2.29370703125,6.32496875,5.67491796875,1.7451875,5.76059375,5.00788671875,5.9216015625,1.570578125,3.73454296875,4.05056640625,4.11976953125,4.73539453125,2.52420703125,3.98090625,5.97216015625,3.51101953125,5.14265234375,5.85738671875,0.0051406249999999,1.65978125,3.2433984375,1.61929296875
-1.06541015625,1.393890625,2.32512890625,3.78963671875,1.2605078125,4.067921875,1.3642890625,-2.4658984375,0.98270703125,5.28196875,5.87591796875,1.9931875,4.63759375,3.74088671875,5.8706015625,2.317578125,1.86254296875,3.62556640625,3.78376953125,5.09239453125,2.77020703125,4.92190625,6.28716015625,4.07801953125,5.34065234375,6.22938671875,0.667140625,3.05578125,4.1033984375,2.28129296875
-1.15741015625,-1.046109375,1.69312890625,2.28763671875,-0.7164921875,3.279921875,1.0682890625,-2.3868984375,-0.11729296875,4.48696875,6.04391796875,2.0481875,2.72959375,2.89888671875,6.0576015625,3.476578125,0.31554296875,3.44856640625,3.92876953125,5.94339453125,3.33720703125,6.05390625,6.74516015625,4.96401953125,5.91465234375,6.92138671875,1.644140625,4.85878125,5.3133984375,3.42429296875
-0.98041015625,-2.980109375,1.19312890625,0.75663671875,-1.9514921875,2.459921875,0.5012890625,-2.2108984375,-1.01929296875,3.91596875,6.02591796875,1.7941875,0.39159375,2.41688671875,6.3026015625,4.745578125,-0.48545703125,3.33156640625,4.38676953125,7.05439453125,4.13320703125,7.02190625,7.10816015625,5.94001953125,6.78165234375,7.81038671875,2.628140625,6.52178125,6.5183984375,4.87329296875
-0.33941015625,-3.874109375,0.89412890625,-0.23236328125,-2.4644921875,1.604921875,-0.2227109375,-2.1188984375,-1.80629296875,3.46296875,5.74991796875,1.2581875,-1.71240625,2.09188671875,6.4156015625,5.824578125,-0.42745703125,3.02456640625,4.82276953125,8.09639453125,4.95220703125,7.47090625,7.11916015625,6.64901953125,7.68065234375,8.66738671875,3.235140625,7.47578125,7.2793984375,6.23629296875
0.79158984375,-3.616109375,0.77112890625,-0.56036328125,-2.4494921875,0.762921875000001,-0.9457109375,-2.2488984375,-2.54129296875,3.01596875,5.21591796875,0.5361875,-3.01240625,1.70388671875,6.2596015625,6.467578125,0.24854296875,2.34356640625,4.93076953125,8.75539453125,5.53220703125,7.17890625,6.61116015625,6.76901953125,8.27865234375,9.23838671875,3.191140625,7.36178125,7.2673984375,7.06829296875
1.97858984375,-2.678109375,0.66312890625,-0.65436328125,-2.1874921875,-0.0130781249999989,-1.5907109375,-2.6658984375,-3.23729296875,2.50096875,4.44591796875,-0.3118125,-3.34640625,1.11288671875,5.7676015625,6.494578125,1.00854296875,1.25456640625,4.56076953125,8.80139453125,5.61520703125,6.13390625,5.56716015625,6.13901953125,8.28065234375,9.31338671875,2.433140625,6.16378125,6.3823984375,7.04229296875
2.37758984375,-1.971109375,0.30712890625,-1.17736328125,-1.9714921875,-0.717078125,-2.2337109375,-3.3808984375,-3.86929296875,1.88996875,3.44891796875,-1.2938125,-2.96640625,0.30388671875,4.9296015625,5.794578125,1.22454296875,-0.10343359375,3.75876953125,8.14139453125,5.03020703125,4.55990625,4.11916015625,4.83001953125,7.54065234375,8.78438671875,1.125140625,4.21478125,4.7983984375,6.09029296875
1.17858984375,-2.376109375,-0.50287109375,-2.54336328125,-2.0264921875,-1.392078125,-3.0147109375,-4.3198984375,-4.40629296875,1.18596875,2.23891796875,-2.4068125,-2.27040625,-0.62011328125,3.7866015625,4.381578125,0.49954296875,-1.46143359375,2.73976953125,6.83239453125,3.78220703125,2.85890625,2.52916015625,3.14301953125,6.13765234375,7.72338671875,-0.403859375,2.09378125,2.9203984375,4.47029296875
-1.80041015625,-4.178109375,-1.73087109375,-4.58336328125,-2.4324921875,-2.060078125,-3.9667109375,-5.2548984375,-4.80629296875,0.42296875,0.89091796875,-3.5278125,-1.50940625,-1.47111328125,2.4356015625,2.460578125,-1.04145703125,-2.50643359375,1.79776953125,5.08339453125,2.10420703125,1.47490625,1.11016015625,1.50301953125,4.37065234375,6.40238671875,-1.763859375,0.44578125,1.2803984375,2.69829296875
-5.77841015625,-6.761109375,-3.01787109375,-6.55336328125,-3.0804921875,-2.651078125,-4.9027109375,-5.7898984375,-5.01029296875,-0.33203125,-0.42708203125,-4.3618125,-0.69740625,-2.06111328125,1.0206015625,0.422578124999999,-2.71245703125,-2.99643359375,1.17476953125,3.20039453125,0.40120703125,0.71290625,0.12916015625,0.299019531250003,2.63465234375,5.19638671875,-2.649859375,-0.25921875,0.3333984375,1.32929296875
-9.21941015625,-8.822109375,-3.80387109375,-7.50736328125,-3.7174921875,-3.021078125,-5.4807109375,-5.4728984375,-4.95229296875,-0.98703125,-1.49908203125,-4.5598125,0.31259375,-2.27211328125,-0.2933984375,-1.261421875,-3.58945703125,-2.83543359375,0.95876953125,1.49939453125,-0.90279296875,0.62190625,-0.29083984375,-0.273980468749997,1.24765234375,4.40038671875,-2.954859375,0.08078125,0.2553984375,0.69729296875
-10.46441015625,-8.990109375,-3.59287109375,-6.79836328125,-4.0514921875,-3.027078125,-5.4037109375,-4.0018984375,-4.57429296875,-1.44403125,-2.14108203125,-3.9018125,1.68059375,-2.10311328125,-1.3623984375,-2.215421875,-3.02045703125,-2.10043359375,1.08776953125,0.20639453125,-1.53879296875,1.00990625,-0.20083984375,-0.261980468749996,0.33365234375,4.09638671875,-2.788859375,1.16378125,0.8693984375,0.76429296875
-8.50441015625,-6.532109375,-2.22187109375,-4.41936328125,-3.8884921875,-2.621078125,-4.5897109375,-1.4358984375,-3.84929296875,-1.64503125,-2.28608203125,-2.4698125,3.42859375,-1.66211328125,-2.0913984375,-2.316421875,-1.03745703125,-0.99743359375,1.45876953125,-0.58560546875,-1.49079296875,1.58090625,0.23416015625,0.117019531250001,-0.17534765625,4.13638671875,-2.384859375,2.44878125,1.7543984375,1.19429296875
-3.51941015625,-1.801109375,0.00012890625000006,-0.98636328125,-3.2384921875,-1.901078125,-3.2497109375,1.7041015625,-2.82229296875,-1.61503125,-2.03008203125,-0.6748125,5.33059375,-1.11911328125,-2.4663984375,-1.756421875,1.62854296875,0.21756640625,1.99176953125,-0.91960546875,-0.97579296875,2.10790625,0.82616015625,0.607019531250003,-0.43834765625,4.25438671875,-1.962859375,3.43978125,2.4823984375,1.59929296875
3.02658984375,3.812890625,2.35612890625,2.53963671875,-2.3474921875,-1.129078125,-1.8587109375,4.5121015625,-1.65829296875,-1.48503125,-1.62808203125,0.8511875,6.87459375,-0.65811328125,-2.5693984375,-0.994421875,3.89954296875,1.30456640625,2.60476953125,-0.94960546875,-0.34379296875,2.52490625,1.42516015625,0.999019531250003,-0.61234765625,4.20938671875,-1.666859375,3.90478125,2.8273984375,1.76629296875
8.82658984375,8.424890625,3.97912890625,5.20463671875,-1.6194921875,-0.677078125,-1.0057109375,5.9821015625,-0.63829296875,-1.48003125,-1.44408203125,1.4751875,7.38859375,-0.44511328125,-2.5843984375,-0.605421875000001,4.85954296875,2.07056640625,3.15676953125,-0.92660546875,0.0332070312499999,2.89390625,1.90716015625,1.15101953125,-0.82034765625,3.85338671875,-1.584859375,3.90278125,2.8093984375,1.69229296875
11.59858984375,10.477890625,4.20912890625,6.32463671875,-1.4384921875,-0.893078125,-1.1617109375,5.4441015625,-0.06229296875,-1.84003125,-1.83408203125,0.7951875,6.33359375,-0.60111328125,-2.7703984375,-1.084421875,4.13654296875,2.36556640625,3.42976953125,-1.16560546875,-0.14779296875,3.27690625,2.13116015625,0.942019531250002,-1.18534765625,3.11238671875,-1.822859375,3.61678125,2.5613984375,1.44829296875
10.08458984375,9.426890625,2.88512890625,5.64763671875,-1.9924921875,-1.943078125,-2.4507109375,2.9141015625,-0.12329296875,-2.72003125,-3.01108203125,-1.1788125,3.65959375,-1.18911328125,-3.3903984375,-2.670421875,2.00754296875,2.09656640625,3.17976953125,-1.96660546875,-1.06079296875,3.61590625,1.92316015625,0.240019531250002,-1.85934765625,1.94538671875,-2.538859375,3.12978125,2.1473984375,1.02129296875
4.64858984375,5.900890625,0.40512890625,3.38463671875,-3.2154921875,-3.745078125,-4.5977109375,-0.8508984375,-0.83129296875,-4.13303125,-4.95208203125,-4.0018125,0.01959375,-2.21811328125,-4.6233984375,-5.245421875,-0.76045703125,1.24156640625,2.21876953125,-3.49860546875,-2.67779296875,3.71290625,1.12516015625,-1.07598046875,-2.98134765625,0.36538671875,-3.872859375,2.32578125,1.4753984375,0.30629296875
-2.90541015625,1.257890625,-2.47687109375,0.10163671875,-4.8944921875,-6.046078125,-7.0887109375,-4.6878984375,-2.06929296875,-5.97303125,-7.41008203125,-6.9528125,-3.38340625,-3.64711328125,-6.4933984375,-8.368421875,-3.27645703125,-0.13343359375,0.49476953125,-5.70660546875,-4.74779296875,3.32290625,-0.33283984375,-3.04598046875,-4.56934765625,-1.48461328125,-5.821859375,0.99478125,0.3893984375,-0.77670703125
-10.22641015625,-3.168109375,-5.00887109375,-3.48336328125,-6.8404921875,-8.592078125,-9.4407109375,-7.5408984375,-3.68229296875,-8.09703125,-10.03208203125,-9.3118125,-5.31840625,-5.40311328125,-8.8633984375,-11.426421875,-4.88945703125,-1.88843359375,-1.84923046875,-8.30060546875,-6.84779296875,2.29190625,-2.36283984375,-5.54398046875,-6.45434765625,-3.32361328125,-8.158859375,-0.94721875,-1.1666015625,-2.17870703125
-15.43241015625,-6.613109375,-6.73487109375,-6.68636328125,-8.9594921875,-11.219078125,-11.3857109375,-8.8838984375,-5.52529296875,-10.37503125,-12.49508203125,-10.6248125,-5.17140625,-7.36811328125,-11.4793984375,-13.844421875,-5.40845703125,-3.83343359375,-4.48723046875,-10.84160546875,-8.51979296875,0.64690625,-4.72983984375,-8.25298046875,-8.30434765625,-4.80861328125,-10.482859375,-3.30721875,-3.0356015625,-3.70170703125
-17.66741015625,-8.917109375,-7.57887109375,-8.94136328125,-11.1964921875,-13.831078125,-12.8947109375,-8.8268984375,-7.43129296875,-12.67303125,-14.58108203125,-10.8218125,-3.30940625,-9.36711328125,-14.0443984375,-15.253421875,-5.06645703125,-5.75343359375,-7.02023046875,-12.87760546875,-9.42479296875,-1.39309375,-7.09283984375,-10.72698046875,-9.74734765625,-5.67061328125,-12.378859375,-5.62521875,-4.8736015625,-5.07870703125
-17.05041015625,-10.184109375,-7.71787109375,-9.82336328125,-13.4164921875,-16.295078125,-14.0727109375,-7.9128984375,-9.16929296875,-14.80503125,-16.17708203125,-10.1658125,-0.88940625,-11.16911328125,-16.2773984375,-15.562421875,-4.28945703125,-7.42143359375,-9.11023046875,-14.07960546875,-9.44179296875,-3.47009375,-9.08683984375,-12.52198046875,-10.50134765625,-5.80561328125,-13.577859375,-7.34421875,-6.2856015625,-6.04870703125
-14.26241015625,-10.435109375,-7.38987109375,-9.13136328125,-15.3364921875,-18.377078125,-15.0237109375,-6.7738984375,-10.44829296875,-16.52203125,-17.22808203125,-9.0858125,0.78059375,-12.52211328125,-17.9383984375,-14.928421875,-3.44445703125,-8.63843359375,-10.55023046875,-14.32660546875,-8.67479296875,-5.19009375,-10.41783984375,-13.35198046875,-10.46034765625,-5.30361328125,-14.029859375,-8.03321875,-6.9756015625,-6.44470703125
-10.14141015625,-9.555109375,-6.76587109375,-7.03736328125,-16.5954921875,-19.769078125,-15.7457109375,-5.8368984375,-11.01829296875,-17.57103125,-17.69508203125,-7.9908125,0.90359375,-13.23311328125,-18.8533984375,-13.661421875,-2.71845703125,-9.27843359375,-11.26623046875,-13.71360546875,-7.39979296875,-6.24709375,-10.93483984375,-13.18398046875,-9.71834765625,-4.43161328125,-13.868859375,-7.57021875,-6.8636015625,-6.25670703125
-5.48441015625,-7.526109375,-5.93787109375,-4.16836328125,-16.8894921875,-20.199078125,-16.1247109375,-5.2118984375,-10.78129296875,-17.77903125,-17.53908203125,-7.1308125,-0.48540625,-13.23611328125,-18.9153984375,-12.091421875,-2.15045703125,-9.32343359375,-11.27723046875,-12.47860546875,-5.96279296875,-6.52109375,-10.66783984375,-12.22298046875,-8.51334765625,-3.53461328125,-13.296859375,-6.19521875,-6.1206015625,-5.63270703125
-1.02541015625,-4.684109375,-4.96787109375,-1.46536328125,-16.1244921875,-19.571078125,-16.0127109375,-4.7558984375,-9.86529296875,-17.11203125,-16.73108203125,-6.5518125,-2.64640625,-12.60111328125,-18.0883984375,-10.445421875,-1.69745703125,-8.85943359375,-10.65223046875,-10.87060546875,-4.64179296875,-6.08609375,-9.78483984375,-10.78898046875,-7.09734765625,-2.87261328125,-12.426859375,-4.41121875,-5.0866015625,-4.77770703125
2.52758984375,-1.773109375,-3.93387109375,0.14063671875,-14.4954921875,-18.046078125,-15.3457109375,-4.2578984375,-8.59529296875,-15.68503125,-15.28708203125,-6.1338125,-4.60140625,-11.50511328125,-16.4133984375,-8.798421875,-1.25945703125,-8.04743359375,-9.46023046875,-9.05060546875,-3.54779296875,-5.14909375,-8.51483984375,-9.15198046875,-5.61834765625,-2.47861328125,-11.172859375,-2.77021875,-4.0986015625,-3.82670703125
4.51158984375,0.256890625,-2.94587109375,0.0526367187500001,-12.4394921875,-16.022078125,-14.2167109375,-3.6288984375,-7.37429296875,-13.73403125,-13.31908203125,-5.7028125,-5.67440625,-10.16411328125,-14.0373984375,-7.114421875,-0.68345703125,-7.08343359375,-7.76223046875,-7.08960546875,-2.61779296875,-3.97009375,-7.05383984375,-7.44998046875,-4.09434765625,-2.17761328125,-9.275859375,-1.63321875,-3.3426015625,-2.80570703125
4.46258984375,0.649890624999999,-2.13087109375,-1.80436328125,-10.4774921875,-13.992078125,-12.8247109375,-2.9938984375,-6.53429296875,-11.56903125,-11.04708203125,-5.1318125,-5.83740625,-8.79511328125,-11.2343984375,-5.365421875,0.16854296875,-6.16143359375,-5.68023046875,-5.03760546875,-1.73379296875,-2.78809375,-5.54283984375,-5.72398046875,-2.51834765625,-1.75161328125,-6.475859375,-1.05521875,-2.8136015625,-1.69970703125
2.35758984375,-0.734109375000001,-1.57687109375,-4.95436328125,-8.9964921875,-12.334078125,-11.3527109375,-2.6098984375,-6.20729296875,-9.48703125,-8.74708203125,-4.3748125,-5.61840625,-7.55611328125,-8.3733984375,-3.623421875,1.30254296875,-5.42143359375,-3.47323046875,-3.01460546875,-0.84579296875,-1.77909375,-4.07883984375,-4.01998046875,-0.98234765625,-1.11761328125,-2.745859375,-0.83021875,-2.3906015625,-0.55870703125
-1.20941015625,-3.192109375,-1.25487109375,-8.49536328125,-8.0694921875,-11.132078125,-9.8517109375,-2.6728984375,-6.28129296875,-7.67003125,-6.64008203125,-3.4378125,-5.64440625,-6.51411328125,-5.8183984375,-2.067421875,2.48954296875,-4.90443359375,-1.51023046875,-1.22560546875,-0.0467929687500002,-1.03509375,-2.74683984375,-2.46798046875,0.28865234375,-0.37161328125,1.557140625,-0.66521875,-1.9606015625,0.48329296875
-5.14641015625,-5.400109375,-1.00487109375,-11.37736328125,-7.4394921875,-10.157078125,-8.2317109375,-3.1418984375,-6.45029296875,-6.13103125,-4.81408203125,-2.3438125,-6.14440625,-5.62311328125,-3.8133984375,-0.909421875,3.29354296875,-4.54043359375,-0.11023046875,0.09139453125,0.47020703125,-0.57209375,-1.62683984375,-1.26698046875,1.03465234375,0.29838671875,5.748140625,-0.34321875,-1.4716015625,1.28429296875
-8.27941015625,-6.076109375,-0.62387109375,-12.76636328125,-6.6804921875,-9.025078125,-6.3957109375,-3.7198984375,-6.35129296875,-4.74003125,-3.22908203125,-1.1468125,-6.78540625,-4.75511328125,-2.4203984375,-0.307421875000001,3.25454296875,-4.18043359375,0.62376953125,0.77039453125,0.52220703125,-0.34109375,-0.78483984375,-0.600980468749999,1.10865234375,0.739386718750001,9.069140625,0.20078125,-0.9286015625,1.78229296875
-9.80041015625,-4.672109375,-0.00787109374999995,-12.33136328125,-5.4534921875,-7.454078125,-4.4027109375,-4.0148984375,-5.71629296875,-3.32603125,-1.81608203125,0.0371875,-6.93540625,-3.77111328125,-1.5333984375,-0.316421875000001,2.15154296875,-3.66743359375,0.83376953125,0.78239453125,0.0352070312499999,-0.27109375,-0.24983984375,-0.546980468749997,0.55765234375,0.89738671875,10.983140625,0.89878125,-0.3806015625,2.01829296875
-9.47841015625,-1.658109375,0.75812890625,-10.29536328125,-3.6974921875,-5.442078125,-2.5267109375,-3.7458984375,-4.48129296875,-1.80603125,-0.58608203125,1.0131875,-6.12140625,-2.60111328125,-0.9683984375,-0.896421875000001,0.17354296875,-2.92843359375,0.78276953125,0.23539453125,-0.91979296875,-0.30809375,-0.0318398437500003,-1.05898046875,-0.40834765625,0.77438671875,11.348140625,1.57078125,0.0363984375,2.04129296875
-7.60141015625,1.771890625,1.42412890625,-7.22836328125,-1.6654921875,-3.286078125,-1.1477109375,-2.9038984375,-2.79029296875,-0.25803125,0.32591796875,1.5511875,-4.31640625,-1.31711328125,-0.5873984375,-1.967421875,-2.12045703125,-2.04743359375,0.67976953125,-0.71760546875,-2.17379296875,-0.46509375,-0.16683984375,-2.02598046875,-1.55234765625,0.36338671875,10.380140625,1.94578125,0.0613984375,1.79729296875
-4.82641015625,4.293890625,1.66912890625,-3.75036328125,0.1955078125,-1.447078125,-0.5827109375,-1.7648984375,-0.93429296875,1.07096875,0.69891796875,1.4381875,-1.88340625,-0.14311328125,-0.3823984375,-3.459421875,-4.04745703125,-1.26243359375,0.55676953125,-1.96360546875,-3.55779296875,-0.83209375,-0.73783984375,-3.34998046875,-2.73734765625,-0.39161328125,8.493140625,1.70678125,-0.6276015625,1.11829296875
-2.00741015625,5.010890625,1.24912890625,-0.32936328125,1.4415078125,-0.343078124999999,-0.9377109375,-0.7638984375,0.75370703125,1.87496875,0.34891796875,0.5581875,0.72459375,0.61788671875,-0.4633984375,-5.319421875,-5.12945703125,-0.87043359375,0.27276953125,-3.46160546875,-4.97979296875,-1.50109375,-1.81783984375,-4.96598046875,-3.96134765625,-1.53861328125,6.142140625,0.61778125,-2.2316015625,-0.13770703125
0.0285898437500003,3.770890625,0.12112890625,2.72763671875,1.8375078125,-0.150078124999999,-2.0667109375,-0.2658984375,2.01770703125,1.96996875,-0.72208203125,-1.0248125,3.16759375,0.74288671875,-0.9333984375,-7.431421875,-5.28445703125,-1.06843359375,-0.34523046875,-5.16860546875,-6.41779296875,-2.46209375,-3.36283984375,-6.77798046875,-5.28234765625,-3.04561328125,3.763140625,-1.30521875,-4.6346015625,-1.93070703125
0.80058984375,1.185890625,-1.47487109375,5.20563671875,1.4945078125,-0.677078125,-3.5687109375,-0.3568984375,2.79070703125,1.45496875,-2.21808203125,-2.9978125,5.20659375,0.24888671875,-1.7223984375,-9.533421875,-4.77045703125,-1.81443359375,-1.30323046875,-6.93260546875,-7.84979296875,-3.51509375,-5.11883984375,-8.57198046875,-6.70134765625,-4.77361328125,1.760140625,-3.69321875,-7.3436015625,-3.97370703125
0.405589843750001,-1.661109375,-3.06787109375,6.95263671875,0.8575078125,-1.399078125,-4.8557109375,-0.7998984375,3.22570703125,0.72896875,-3.58108203125,-4.8258125,6.58459375,-0.55111328125,-2.5223984375,-11.206421875,-3.94845703125,-2.80643359375,-2.33323046875,-8.44460546875,-9.16079296875,-4.31109375,-6.63983984375,-10.00098046875,-8.08134765625,-6.49961328125,0.491140625,-5.89321875,-9.6526015625,-5.84070703125
-0.54841015625,-3.704109375,-4.14687109375,7.90063671875,0.5005078125,-1.669078125,-5.3377109375,-1.2028984375,3.59470703125,0.32196875,-4.18708203125,-5.9208125,7.00559375,-1.16311328125,-2.8793984375,-12.006421875,-3.08445703125,-3.57743359375,-2.99523046875,-9.31460546875,-10.12679296875,-4.47809375,-7.42383984375,-10.67398046875,-9.17034765625,-7.96261328125,0.209140625,-7.19721875,-10.9226015625,-7.11270703125
-1.32241015625,-4.377109375,-4.37987109375,8.07863671875,0.8175078125,-1.052078125,-4.6877109375,-1.2778984375,4.10170703125,0.62796875,-3.63308203125,-5.9038125,6.27159375,-1.14511328125,-2.4303984375,-11.667421875,-2.30945703125,-3.68243359375,-2.90423046875,-9.23060546875,-10.48979296875,-3.78909375,-7.11483984375,-10.31298046875,-9.69034765625,-8.89361328125,0.985140625,-7.12521875,-10.8286015625,-7.49570703125
-1.48441015625,-3.817109375,-3.76687109375,7.58963671875,1.8005078125,0.423921875,-3.0497109375,-0.9978984375,4.73870703125,1.67996875,-1.95408203125,-4.7928125,4.44959375,-0.31711328125,-1.1063984375,-10.254421875,-1.69345703125,-2.88343359375,-1.92423046875,-8.12860546875,-10.09179296875,-2.27109375,-5.65683984375,-8.88498046875,-9.45134765625,-9.07361328125,2.681140625,-5.63121875,-9.4566015625,-6.88770703125
-1.08441015625,-2.698109375,-2.59387109375,6.56963671875,3.0605078125,2.289921875,-0.9857109375,-0.5608984375,5.30370703125,3.14596875,0.39291796875,-2.9888125,1.95359375,1.17488671875,0.8126015625,-8.138421875,-1.27445703125,-1.25243359375,-0.20223046875,-6.23260546875,-8.95479296875,-0.22109375,-3.32383984375,-6.63798046875,-8.40534765625,-8.40661328125,4.978140625,-3.11521875,-7.2326015625,-5.39470703125
-0.45641015625,-1.753109375,-1.24187109375,5.16963671875,4.0875078125,3.922921875,0.8292890625,-0.1948984375,5.56170703125,4.52496875,2.75591796875,-1.0418125,-0.50140625,2.95388671875,2.8466015625,-5.806421875,-1.00645703125,0.86956640625,1.92476953125,-3.94860546875,-7.24879296875,1.89290625,-0.60983984375,-4.01698046875,-6.65434765625,-6.98261328125,7.454140625,-0.24421875,-4.7416015625,-3.30970703125
0.15058984375,-1.299109375,0.0321289062500001,3.54263671875,4.5505078125,4.892921875,1.9612890625,-0.00189843750000002,5.42670703125,5.42396875,4.59591796875,0.6331875,-2.09340625,4.60688671875,4.5486015625,-3.641421875,-0.72745703125,3.03056640625,4.06076953125,-1.68360546875,-5.19179296875,3.61190625,1.94816015625,-1.51298046875,-4.39734765625,-5.05361328125,9.709140625,2.32178125,-2.5186015625,-1.03170703125
0.77758984375,-1.076109375,1.18012890625,1.84763671875,4.4425078125,5.146921875,2.3672890625,0.0721015625,5.00770703125,5.72296875,5.68091796875,1.8861875,-2.19840625,5.84388671875,5.6736015625,-1.810421875,-0.24845703125,4.83856640625,5.87676953125,0.29039453125,-2.96879296875,4.66390625,3.94316015625,0.496019531250003,-1.87534765625,-2.95061328125,11.470140625,4.16978125,-0.8916015625,1.06029296875
1.59958984375,-0.561109375,2.25512890625,0.25163671875,4.0035078125,4.920921875,2.2912890625,0.1171015625,4.51870703125,5.55396875,6.06591796875,2.7681875,-0.68840625,6.54788671875,6.2016015625,-0.317421875000001,0.48654296875,6.06156640625,7.17976953125,1.85039453125,-0.73479296875,5.03490625,5.17116015625,1.82101953125,0.65465234375,-0.99661328125,12.631140625,5.20578125,0.0713984375,2.68329296875
2.57758984375,0.501890625,3.22112890625,-1.06036328125,3.5015078125,4.510921875,2.0152890625,0.1231015625,4.10470703125,5.12996875,5.92991796875,3.3511875,1.95559375,6.71488671875,6.2356015625,0.848578125,1.29454296875,6.61956640625,7.90976953125,2.95939453125,1.31220703125,4.90090625,5.60516015625,2.46301953125,2.91265234375,0.51638671875,13.216140625,5.55778125,0.4833984375,3.65529296875
3.27558984375,1.830890625,3.86112890625,-1.89136328125,3.0805078125,4.083921875,1.6782890625,-0.0568984375,3.73570703125,4.60396875,5.42291796875,3.6061875,4.80059375,6.38188671875,5.8886015625,1.617578125,1.81254296875,6.52656640625,8.08776953125,3.59139453125,2.89920703125,4.47690625,5.33016015625,2.54701953125,4.60765234375,1.33138671875,13.297140625,5.40678125,0.4903984375,3.87129296875
3.09758984375,2.872890625,3.91212890625,-2.08536328125,2.7405078125,3.657921875,1.2712890625,-0.5928984375,3.23570703125,4.01996875,4.62591796875,3.4341875,6.82459375,5.59988671875,5.2416015625,1.863578125,1.70154296875,5.86356640625,7.77776953125,3.73139453125,3.75320703125,3.91190625,4.49716015625,2.26301953125,5.50465234375,1.28238671875,12.958140625,4.87378125,0.1773984375,3.34229296875
1.81058984375,3.368890625,3.31012890625,-1.61036328125,2.4455078125,3.217921875,0.7692890625,-1.4818984375,2.41870703125,3.37596875,3.61991796875,2.8041875,7.32759375,4.47488671875,4.3806015625,1.539578125,0.85854296875,4.77856640625,7.10976953125,3.43239453125,3.75220703125,3.28190625,3.32016015625,1.82701953125,5.55465234375,0.43738671875,12.305140625,4.03178125,-0.3966015625,2.27729296875
-0.13441015625,3.673890625,2.33212890625,-0.63136328125,2.2205078125,2.825921875,0.2672890625,-2.4298984375,1.24170703125,2.71096875,2.56191796875,1.8761875,6.21959375,3.19588671875,3.4386015625,0.796578124999999,-0.48845703125,3.49956640625,6.30376953125,2.87039453125,3.04320703125,2.64490625,2.06016015625,1.43501953125,4.96265234375,-0.82561328125,11.491140625,2.96978125,-1.1236015625,1.11729296875
-1.77341015625,4.484890625,1.49512890625,0.49263671875,2.1385078125,2.619921875,-0.0337109374999995,-2.9468984375,-0.14229296875,2.12796875,1.69491796875,0.9921875,4.04159375,2.00988671875,2.6086015625,-0.0134218750000006,-1.86545703125,2.30156640625,5.61376953125,2.32639453125,2.00620703125,2.08190625,0.98816015625,1.21301953125,4.12265234375,-1.92161328125,10.690140625,1.85978125,-1.8126015625,0.39329296875
-2.18641015625,6.216890625,1.27512890625,1.32363671875,2.2245078125,2.697921875,0.0442890624999999,-2.6128984375,-1.45229296875,1.75396875,1.26591796875,0.5431875,1.68059375,1.15188671875,2.0986015625,-0.459421875000001,-2.74545703125,1.42856640625,5.23276953125,2.08239453125,1.09120703125,1.69590625,0.31016015625,1.18801953125,3.44965234375,-2.33061328125,10.051140625,0.94878125,-2.2476015625,0.46429296875
-0.98841015625,8.546890625,1.83912890625,1.55063671875,2.3815078125,3.031921875,0.5492890625,-1.3378984375,-2.38629296875,1.66996875,1.43391796875,0.8081875,-0.0644062500000001,0.76488671875,2.0766015625,-0.215421875000001,-2.76345703125,1.02656640625,5.23676953125,2.31639453125,0.63020703125,1.57090625,0.11916015625,1.30301953125,3.20665234375,-1.86461328125,9.653140625,0.50178125,-2.2756015625,1.31129296875
1.50858984375,10.501890625,2.97412890625,1.14063671875,2.4255078125,3.488921875,1.4012890625,0.5911015625,-2.72729296875,1.87696875,2.19991796875,1.8551875,-0.83340625,0.87088671875,2.6106015625,0.810578124999999,-1.86645703125,1.09556640625,5.58976953125,3.02739453125,0.73320703125,1.71590625,0.37716015625,1.47401953125,3.43865234375,-0.74161328125,9.495140625,0.68278125,-1.8826015625,2.54529296875
4.43158984375,11.003890625,4.20612890625,0.32463671875,2.2065078125,3.913921875,2.4432890625,2.6721015625,-2.41029296875,2.28896875,3.38391796875,3.5231875,-0.78440625,1.37688671875,3.6236015625,2.432578125,-0.32745703125,1.50556640625,6.15476953125,4.04339453125,1.29320703125,2.02690625,0.93116015625,1.64501953125,4.00165234375,0.55338671875,9.508140625,1.42278125,-1.2246015625,3.61129296875
6.63458984375,9.448890625,5.02412890625,-0.58136328125,1.6875078125,4.168921875,3.4472890625,4.4151015625,-1.55929296875,2.74396875,4.64691796875,5.4581875,-0.41140625,2.10288671875,4.8666015625,4.237578125,1.37854296875,2.03456640625,6.70576953125,5.07839453125,2.07020703125,2.32490625,1.55316015625,1.79801953125,4.65965234375,1.53738671875,9.574140625,2.39778125,-0.5806015625,4.08629296875
7.05858984375,5.975890625,5.07312890625,-1.37436328125,0.9295078125,4.102921875,4.0882890625,5.4871015625,-0.48029296875,3.01996875,5.54091796875,7.1771875,-0.22240625,2.81288671875,5.9526015625,5.704578125,2.77054296875,2.45456640625,6.98176953125,5.82239453125,2.79220703125,2.45490625,2.03016015625,1.94501953125,5.18165234375,1.95638671875,9.587140625,3.18078125,-0.2156015625,3.87829296875
5.12958984375,1.348890625,4.25912890625,-2.05836328125,0.0125078125,3.513921875,3.9772890625,5.7291015625,0.42970703125,2.86396875,5.62691796875,8.1711875,-0.45440625,3.26588671875,6.4486015625,6.351578125,3.53354296875,2.60256640625,6.77876953125,6.00739453125,3.22120703125,2.38790625,2.23416015625,2.09301953125,5.39865234375,1.84338671875,9.489140625,3.47578125,-0.2286015625,3.23529296875
1.06958984375,-3.352109375,2.76012890625,-2.78236328125,-1.0284921875,2.203921875,2.7982890625,5.1431015625,0.80870703125,2.05896875,4.60791796875,8.0521875,-0.96840625,3.25988671875,6.0096015625,5.869578125,3.59154296875,2.42656640625,6.01276953125,5.46439453125,3.18720703125,2.22890625,2.15216015625,2.19901953125,5.20565234375,1.38738671875,9.270140625,3.26478125,-0.5146015625,2.55129296875
-4.05841015625,-7.014109375,0.95812890625,-3.68736328125,-2.1984921875,0.110921875000001,0.5032890625,3.8871015625,0.47470703125,0.51096875,2.46591796875,6.7101875,-1.35340625,2.68888671875,4.5126015625,4.213578125,3.09154296875,1.97456640625,4.70376953125,4.14739453125,2.58620703125,2.12590625,1.83416015625,2.14701953125,4.53165234375,0.73838671875,8.912140625,2.74878125,-0.8776015625,2.10029296875
-8.67041015625,-8.722109375,-0.66887109375,-4.76236328125,-3.4724921875,-2.567078125,-2.5767109375,2.2851015625,-0.50629296875,-1.69003125,-0.49708203125,4.3961875,-1.17840625,1.57188671875,2.1176015625,1.618578125,2.30454296875,1.33356640625,2.92876953125,2.13739453125,1.40620703125,2.14490625,1.31416015625,1.76701953125,3.33865234375,-0.0936132812499997,8.343140625,2.14178125,-1.2056015625,1.86729296875
-11.31541015625,-7.978109375,-1.72487109375,-5.79836328125,-4.7574921875,-5.363078125,-5.7647109375,0.7721015625,-1.85529296875,-4.26703125,-3.72908203125,1.6741875,-0.27740625,0.0388867187500002,-0.7753984375,-1.472421875,1.48754296875,0.56956640625,0.80576953125,-0.35960546875,-0.25279296875,2.20790625,0.56416015625,0.896019531250003,1.64565234375,-1.18161328125,7.437140625,1.50778125,-1.5666015625,1.58529296875
-11.35341015625,-4.921109375,-2.04787109375,-6.47336328125,-5.9044921875,-7.694078125,-8.2467109375,-0.2218984375,-3.22029296875,-6.85003125,-6.60808203125,-0.7738125,1.11959375,-1.72311328125,-3.6553984375,-4.554421875,0.74554296875,-0.30043359375,-1.50623046875,-3.03860546875,-2.17179296875,2.13090625,-0.48483984375,-0.522980468749996,-0.43134765625,-2.55361328125,6.102140625,0.75278125,-2.1496015625,0.94229296875
-9.23641015625,-0.387109375000001,-1.77187109375,-6.53636328125,-6.7934921875,-9.098078125,-9.3827109375,-0.4328984375,-4.33329296875,-9.09103125,-8.64708203125,-2.4048125,2.48159375,-3.53911328125,-6.0623984375,-7.202421875,-0.01245703125,-1.28543359375,-3.81323046875,-5.54960546875,-4.07479296875,1.73090625,-1.85383984375,-2.37298046875,-2.67034765625,-4.11361328125,4.372140625,-0.22421875,-3.1026015625,-0.19270703125
-6.23841015625,4.267890625,-1.24687109375,-5.95736328125,-7.4264921875,-9.448078125,-8.9967109375,0.1281015625,-5.12729296875,-10.76303125,-9.63108203125,-3.0078125,3.27659375,-5.26311328125,-7.6893984375,-9.170421875,-0.96445703125,-2.35843359375,-5.88923046875,-7.55260546875,-5.71779296875,0.95090625,-3.43583984375,-4.34298046875,-4.77034765625,-5.63861328125,2.480140625,-1.38421875,-4.3666015625,-1.65270703125
-3.81641015625,7.567890625,-0.86887109375,-4.93236328125,-7.9454921875,-9.011078125,-7.4837109375,1.1631015625,-5.70629296875,-11.80003125,-9.64908203125,-2.7498125,3.23159375,-6.76811328125,-8.4203984375,-10.394421875,-2.18245703125,-3.40943359375,-7.48823046875,-8.79360546875,-6.95579296875,-0.08709375,-4.97783984375,-5.99998046875,-6.41234765625,-6.86161328125,0.814140625,-2.49121875,-5.6376015625,-3.03670703125
-3.00841015625,8.408890625,-0.91587109375,-3.74136328125,-8.5434921875,-8.305078125,-5.6527109375,2.2161015625,-6.21129296875,-12.25503125,-9.01308203125,-2.0698125,2.43459375,-7.91111328125,-8.3073984375,-10.946421875,-3.50745703125,-4.24743359375,-8.38023046875,-9.17260546875,-7.76879296875,-1.12809375,-6.16483984375,-6.93698046875,-7.35034765625,-7.58061328125,-0.220859375,-3.21621875,-6.4896015625,-3.90870703125
-4.11041015625,6.474890625,-1.44387109375,-2.58436328125,-9.2804921875,-7.816078125,-4.3707109375,2.8641015625,-6.65529296875,-12.19903125,-8.10608203125,-1.4758125,1.28759375,-8.52411328125,-7.5183984375,-10.956421875,-4.60145703125,-4.64743359375,-8.45723046875,-8.78060546875,-8.23379296875,-1.88009375,-6.74383984375,-6.95198046875,-7.50234765625,-7.74861328125,-0.385859375,-3.30421875,-6.5956015625,-4.00770703125
-6.67241015625,2.413890625,-2.28287109375,-1.51136328125,-9.9624921875,-7.757078125,-4.1807109375,2.8911015625,-6.84629296875,-11.65003125,-7.23508203125,-1.3428125,0.37459375,-8.44511328125,-6.2833984375,-10.574421875,-5.14345703125,-4.42543359375,-7.82923046875,-7.88160546875,-8.49179296875,-2.12609375,-6.63583984375,-6.15098046875,-7.00134765625,-7.50761328125,0.262140625,-2.73121875,-5.9246015625,-3.38070703125
-9.69641015625,-2.346109375,-3.11187109375,-0.44936328125,-10.1784921875,-7.990078125,-5.0997109375,2.3491015625,-6.46929296875,-10.58103125,-6.55208203125,-1.8118125,0.28959375,-7.58811328125,-4.8593984375,-9.959421875,-5.03745703125,-3.52043359375,-6.82923046875,-6.84960546875,-8.71279296875,-1.80609375,-5.98583984375,-4.94398046875,-6.17534765625,-7.14861328125,1.359140625,-1.74821875,-4.8026015625,-2.37970703125
-11.96041015625,-6.109109375,-3.60087109375,0.72663671875,-9.5104921875,-8.155078125,-6.6527109375,1.4931015625,-5.27929296875,-9.00903125,-6.06408203125,-2.7828125,1.37559375,-6.02911328125,-3.5123984375,-9.295421875,-4.49445703125,-2.04243359375,-5.87423046875,-6.07260546875,-9.05679296875,-1.05309375,-5.10683984375,-3.90098046875,-5.46434765625,-7.01861328125,2.360140625,-0.79221875,-3.7926015625,-1.54370703125
-12.39541015625,-7.540109375,-3.53387109375,2.10863671875,-7.8024921875,-7.893078125,-8.1227109375,0.6361015625,-3.29729296875,-7.08903125,-5.69008203125,-3.9828125,3.46859375,-4.04111328125,-2.4863984375,-8.770421875,-3.92145703125,-0.26343359375,-5.27323046875,-5.83060546875,-9.61379296875,-0.14709375,-4.36383984375,-3.53598046875,-5.26434765625,-7.37761328125,2.741140625,-0.29121875,-3.4456015625,-1.37770703125
-10.49741015625,-6.170109375,-2.88787109375,3.68563671875,-5.2944921875,-7.052078125,-8.8917109375,0.00410156249999999,-0.86929296875,-5.11803125,-5.32908203125,-5.0668125,5.80759375,-2.02611328125,-1.9413984375,-8.506421875,-3.70845703125,1.47056640625,-5.04423046875,-6.18860546875,-10.33079296875,0.59790625,-4.00983984375,-4.09698046875,-5.75434765625,-8.25761328125,2.227140625,-0.46021875,-4.0436015625,-2.11570703125
-6.64441015625,-2.583109375,-1.83287109375,5.32763671875,-2.5574921875,-5.758078125,-8.7007109375,-0.3258984375,1.45470703125,-3.43703125,-4.90208203125,-5.7338125,7.30459375,-0.37311328125,-1.8953984375,-8.498421875,-4.02945703125,2.86356640625,-4.83623046875,-6.97460546875,-10.98579296875,0.98090625,-4.08383984375,-5.45098046875,-6.79834765625,-9.38961328125,0.925140625,-1.19221875,-5.4486015625,-3.56970703125
-2.05541015625,1.817890625,-0.67087109375,6.85663671875,-0.2394921875,-4.329078125,-7.7057109375,-0.4118984375,3.15870703125,-2.28403125,-4.37508203125,-5.8238125,7.13759375,0.68988671875,-2.2043984375,-8.595421875,-4.76745703125,3.75856640625,-4.03823046875,-7.83860546875,-11.26379296875,1.00690625,-4.40583984375,-7.13898046875,-7.98134765625,-10.29961328125,-0.716859375,-2.11321875,-7.1466015625,-5.19570703125
1.70258984375,5.406890625,0.29212890625,8.13163671875,1.2305078125,-3.092078125,-6.3117109375,-0.3508984375,3.98370703125,-1.68403125,-3.76208203125,-5.3388125,5.32859375,1.15688671875,-2.6143984375,-8.568421875,-5.56945703125,4.17056640625,-2.08823046875,-8.39860546875,-10.88579296875,0.85490625,-4.68083984375,-8.57698046875,-8.80134765625,-10.53861328125,-2.117859375,-2.76321875,-8.4946015625,-6.35470703125
3.50858984375,7.089890625,0.90212890625,9.05463671875,1.8095078125,-2.206078125,-4.9147109375,-0.1698984375,4.00270703125,-1.44003125,-3.08708203125,-4.3768125,2.88859375,1.20788671875,-2.8553984375,-8.203421875,-5.97945703125,4.24256640625,1.14576953125,-8.37960546875,-9.73879296875,0.75890625,-4.64883984375,-9.29398046875,-8.89334765625,-9.91261328125,-2.839859375,-2.80521875,-9.0236015625,-6.63670703125
3.29558984375,6.806890625,1.24812890625,9.49763671875,1.8135078125,-1.592078125,-3.6927109375,0.2321015625,3.53670703125,-1.22603125,-2.35108203125,-3.0408125,1.30659375,1.10288671875,-2.7263984375,-7.389421875,-5.60745703125,4.16656640625,5.18776953125,-7.69160546875,-7.89779296875,0.87990625,-4.19983984375,-9.09298046875,-8.15434765625,-8.54361328125,-2.762859375,-2.15821875,-8.6316015625,-6.03770703125
2.10558984375,5.482890625,1.60912890625,9.29863671875,1.7125078125,-1.007078125,-2.5817109375,1.0641015625,2.98270703125,-0.74903125,-1.51708203125,-1.3808125,1.66359375,1.07188671875,-2.1413984375,-6.141421875,-4.29245703125,4.10056640625,9.13776953125,-6.41760546875,-5.57579296875,1.22790625,-3.39883984375,-8.05698046875,-6.71734765625,-6.74361328125,-2.060859375,-0.99121875,-7.5476015625,-4.86770703125
1.51358984375,4.414890625,2.27312890625,8.39463671875,1.8825078125,-0.206078124999999,-1.3897109375,2.5061015625,2.64870703125,0.11496875,-0.54008203125,0.5651875,3.94759375,1.24088671875,-1.1393984375,-4.587421875,-2.18145703125,4.12156640625,12.09476953125,-4.74660546875,-3.03379296875,1.69390625,-2.42483984375,-6.44398046875,-4.84334765625,-4.81461328125,-1.040859375,0.39278125,-6.1366015625,-3.50370703125
2.70658984375,4.490890625,3.31512890625,7.01163671875,2.4265078125,0.881921875000001,-0.00871093750000007,4.5441015625,2.65170703125,1.26796875,0.56691796875,2.6831875,7.08459375,1.60688671875,0.1426015625,-2.929421875,0.30354296875,4.22156640625,13.53376953125,-2.90760546875,-0.53479296875,2.13290625,-1.46783984375,-4.55998046875,-2.82034765625,-2.94161328125,0.0281406249999998,1.69778125,-4.7096015625,-2.16670703125
5.73258984375,5.700890625,4.50412890625,5.67263671875,3.1615078125,2.070921875,1.4152890625,6.8411015625,2.88970703125,2.43196875,1.67491796875,4.7111875,9.61259375,2.05788671875,1.4946015625,-1.396421875,2.61454296875,4.33056640625,13.43076953125,-1.11960546875,1.65520703125,2.46090625,-0.66483984375,-2.67398046875,-0.92134765625,-1.23561328125,0.998140625,2.73278125,-3.4546015625,-0.89070703125
9.38158984375,7.216890625,5.38712890625,4.90863671875,3.7365078125,2.976921875,2.4752890625,8.7981015625,3.10070703125,3.25696875,2.54091796875,6.2541875,10.49659375,2.40888671875,2.6736015625,-0.205421875000001,4.24454296875,4.33956640625,12.15176953125,0.40839453125,3.26520703125,2.66990625,-0.0778398437500001,-1.00998046875,0.60165234375,0.15538671875,1.824140625,3.42378125,-2.4776015625,0.33129296875
11.81258984375,7.945890625,5.52112890625,4.88163671875,3.8395078125,3.217921875,2.7092890625,9.7901015625,2.97870703125,3.46496875,2.89691796875,6.9321875,9.53859375,2.45688671875,3.4566015625,0.499578124999999,4.87854296875,4.12656640625,10.22176953125,1.50139453125,4.05820703125,2.77990625,0.27816015625,0.263019531250002,1.54465234375,0.993386718750001,2.502140625,3.77778125,-1.8636015625,1.39529296875
11.58058984375,7.177890625,4.71512890625,5.24563671875,3.3455078125,2.628921875,1.8832890625,9.4691015625,2.29570703125,2.95096875,2.59091796875,6.5841875,7.26659375,2.05388671875,3.7146015625,0.709578124999999,4.50654296875,3.60156640625,8.09476953125,2.06539453125,3.94020703125,2.77190625,0.41716015625,1.05701953125,1.80865234375,1.04238671875,3.032140625,3.82678125,-1.6726015625,2.07629296875
8.43658984375,4.969890625,3.16512890625,5.42963671875,2.3705078125,1.362921875,0.1992890625,7.9681015625,1.01070703125,1.83496875,1.71891796875,5.4211875,4.54859375,1.17388671875,3.4746015625,0.593578124999999,3.48354296875,2.76856640625,6.05076953125,2.14939453125,3.06720703125,2.59490625,0.39316015625,1.42201953125,1.47565234375,0.28338671875,3.441140625,3.63378125,-1.8746015625,2.18829296875
3.43158984375,2.076890625,1.39112890625,5.10863671875,1.1965078125,-0.151078125,-1.7307109375,5.9001015625,-0.68529296875,0.42696875,0.62591796875,3.9921875,2.21159375,-0.0391132812500001,2.9446015625,0.456578124999999,2.46554296875,1.76556640625,4.21776953125,1.96539453125,1.86020703125,2.23790625,0.31416015625,1.55301953125,0.81965234375,-0.94761328125,3.810140625,3.31078125,-2.2936015625,1.77329296875
-1.72341015625,-0.503109375000001,-0.00187109374999994,4.46163671875,0.1425078125,-1.404078125,-3.1287109375,4.1281015625,-2.42529296875,-0.89103125,-0.23808203125,2.9591875,0.80259375,-1.31011328125,2.4246015625,0.599578124999999,2.15154296875,0.83356640625,2.65976953125,1.79639453125,0.86020703125,1.78390625,0.31316015625,1.70901953125,0.21065234375,-2.06661328125,4.251140625,3.01878125,-2.6416015625,1.12329296875
-5.59341015625,-2.108109375,-0.63787109375,3.96163671875,-0.5654921875,-2.045078125,-3.4297109375,3.3921015625,-3.80429296875,-1.82403125,-0.55308203125,2.7751875,0.44959375,-2.34711328125,2.1536015625,1.127578125,2.90854296875,0.20356640625,1.40276953125,1.83139453125,0.46220703125,1.37090625,0.45016015625,2.04401953125,-0.0803476562500001,-2.56261328125,4.806140625,2.91078125,-2.6606015625,0.60429296875
-7.63041015625,-2.735109375,-0.55687109375,3.90263671875,-0.8784921875,-2.039078125,-2.5747109375,3.9681015625,-4.55629296875,-2.27503125,-0.31608203125,3.4531875,0.80259375,-2.97411328125,2.1736015625,1.851578125,4.51354296875,-0.0294335937499999,0.39376953125,2.03039453125,0.70120703125,1.08690625,0.63916015625,2.48401953125,-0.0353476562499999,-2.30561328125,5.365140625,3.03778125,-2.2696015625,0.41129296875
-8.08941015625,-2.881109375,-0.14887109375,4.10863671875,-0.9064921875,-1.651078125,-1.0467109375,5.5571015625,-4.64129296875,-2.35403125,0.16091796875,4.6011875,1.12759375,-3.19711328125,2.3146015625,2.357578125,6.19954296875,0.0285664062500002,-0.50423046875,2.12739453125,1.23720703125,0.88690625,0.65616015625,2.75301953125,0.12265234375,-1.59661328125,5.685140625,3.32078125,-1.6046015625,0.46729296875
-7.46641015625,-3.007109375,0.13012890625,4.13063671875,-0.8034921875,-1.237078125,0.4232890625,7.4911015625,-4.20829296875,-2.25603125,0.45591796875,5.6741875,0.62159375,-3.13811328125,2.3166015625,2.244578125,7.02354296875,0.14256640625,-1.40723046875,1.79839453125,1.57220703125,0.61790625,0.26716015625,2.54901953125,0.10165234375,-0.93561328125,5.524140625,3.60078125,-0.9186015625,0.53129296875
-5.99741015625,-3.075109375,0.06112890625,3.74263671875,-0.6274921875,-0.981078125,1.2972890625,9.1081015625,-3.45229296875,-2.10203125,0.30091796875,6.2891875,-1.11640625,-2.90411328125,2.0206015625,1.382578125,6.37754296875,0.10656640625,-2.28923046875,0.89039453125,1.35820703125,0.12390625,-0.60583984375,1.75801953125,-0.24034765625,-0.69561328125,4.815140625,3.73578125,-0.4296015625,0.41729296875
-3.63941015625,-2.546109375,-0.20987109375,3.28363671875,-0.2994921875,-0.794078125,1.5062890625,10.0681015625,-2.50629296875,-1.85303125,-0.25208203125,6.3971875,-3.70940625,-2.48711328125,1.4846015625,0.0255781249999996,4.34354296875,-0.10843359375,-2.95423046875,-0.43760546875,0.60220703125,-0.62209375,-1.79183984375,0.564019531250004,-0.78234765625,-0.90861328125,3.738140625,3.67278125,-0.2126015625,0.15129296875
-0.44041015625,-0.867109375000001,-0.30987109375,3.46063671875,0.3195078125,-0.415078124999999,1.3972890625,10.4391015625,-1.42729296875,-1.35903125,-0.87908203125,6.2331875,-6.05040625,-1.79411328125,0.9666015625,-1.295421875,1.68554296875,-0.33443359375,-3.13923046875,-1.75360546875,-0.33879296875,-1.46509375,-2.91383984375,-0.620980468749998,-1.21034765625,-1.28861328125,2.653140625,3.45178125,-0.2046015625,-0.06070703125
3.07958984375,1.929890625,0.0721289062500001,4.69363671875,1.2755078125,0.353921875000001,1.4472890625,10.5561015625,-0.26929296875,-0.51703125,-1.18108203125,6.1211875,-6.86640625,-0.76411328125,0.7746015625,-2.041421875,-0.53345703125,-0.31343359375,-2.68823046875,-2.55860546875,-0.96779296875,-2.13409375,-3.56183984375,-1.35398046875,-1.21134765625,-1.44961328125,1.907140625,3.15978125,-0.2976015625,-0.00970703124999994
5.91058984375,4.957890625,0.93712890625,6.57563671875,2.4355078125,1.482921875,1.9612890625,10.7871015625,0.83970703125,0.58896875,-0.91408203125,6.2851875,-5.52140625,0.50288671875,1.0946015625,-1.927421875,-1.49745703125,0.12756640625,-1.68723046875,-2.52460546875,-0.92179296875,-2.39409375,-3.48983984375,-1.38198046875,-0.69734765625,-1.18061328125,1.633140625,2.84778125,-0.4626015625,0.31029296875
6.92658984375,6.806890625,1.93812890625,7.93763671875,3.5115078125,2.712921875,2.9462890625,11.3511015625,1.69870703125,1.68096875,-0.0960820312499999,6.7601875,-2.43540625,1.73988671875,1.8946015625,-1.032421875,-1.01145703125,0.97156640625,-0.49623046875,-1.61760546875,-0.14179296875,-2.19009375,-2.72083984375,-0.750980468749997,0.11665234375,-0.58361328125,1.667140625,2.48178125,-0.8146015625,0.64629296875
5.42358984375,6.278890625,2.60512890625,7.54863671875,4.2115078125,3.718921875,4.1942890625,12.2681015625,2.12170703125,2.43396875,1.05291796875,7.4341875,1.24459375,2.64288671875,2.9766015625,0.312578124999999,0.53154296875,2.04756640625,0.40876953125,-0.05160546875,1.15420703125,-1.65109375,-1.49183984375,0.276019531250004,0.83865234375,0.0173867187500005,1.667140625,1.96278125,-1.5556015625,0.63529296875
1.50258984375,3.102890625,2.66612890625,4.94663671875,4.4165078125,4.323921875,5.4722890625,13.4261015625,2.05970703125,2.69096875,2.29191796875,8.1591875,4.51059375,3.06888671875,4.1306015625,1.763578125,2.53454296875,3.16756640625,0.73276953125,1.87439453125,2.66620703125,-0.97109375,-0.0768398437500002,1.40701953125,1.18665234375,0.35438671875,1.368140625,1.21678125,-2.7926015625,0.07129296875
-3.89741015625,-1.820109375,2.24912890625,0.81663671875,4.2705078125,4.612921875,6.6772890625,14.6851015625,1.68370703125,2.58696875,3.49891796875,8.8541875,7.16859375,3.15288671875,5.2546015625,3.154578125,4.59654296875,4.25256640625,0.59076953125,3.91939453125,4.20020703125,-0.27009375,1.35616015625,2.49901953125,1.19665234375,0.42238671875,0.782140625,0.29678125,-4.3906015625,-0.91270703125
-3.89741015625,-1.820109375,2.24912890625,0.81663671875,4.2705078125,4.612921875,6.6772890625,14.6851015625,1.68370703125,2.58696875,3.49891796875,8.8541875,7.16859375,3.15288671875,5.2546015625,3.154578125,4.59654296875,4.25256640625,0.59076953125,3.91939453125,4.20020703125,-0.27009375,1.35616015625,2.49901953125,1.19665234375,0.42238671875,0.782140625,0.29678125,-4.3906015625,-0.91270703125
