"Fp1","Fpz","Fp2","F7","F3","Fz","F4","F8","FC5","FC1","FC2","FC6","T7","C3","Cz","C4","T8","CP5","CP1","CP2","CP6","P7","P3","Pz","P4","P8","POz","O1","Oz","O2"
-19.0603671875,-13.29899609375,-15.96819921875,0.79382421875,-2.9079140625,-6.26905078125,-6.4590703125,-6.71342578125,2.51062109375,-3.1270390625,-4.7039453125,-4.99779296875,4.03775390625,1.13478125,-4.25247265625,-5.917203125,-11.18504296875,5.1616796875,-2.0475078125,-6.81479296875,-8.0212265625,-2.26336328125,-1.3792734375,-3.64722265625,-13.4104453125,-10.28711328125,-10.5069453125,-2.42468359375,-10.140125,-9.55523046875
-6.0253671875,-2.94199609375,0.46180078125,0.72782421875,-0.3799140625,-2.00405078125,-2.9680703125,-1.38042578125,6.56462109375,-2.6580390625,-3.8959453125,-4.00079296875,2.81675390625,0.334781250000001,-5.08147265625,-5.506203125,-8.18204296875,4.2046796875,-3.2265078125,-7.18079296875,-8.2502265625,-1.36936328125,-2.3172734375,-4.26522265625,-13.1304453125,-11.09911328125,-11.1169453125,-1.55368359375,-9.862125,-9.05123046875
2.3136328125,3.82900390625,11.92080078125,1.07382421875,0.2790859375,-0.0630507812499999,-0.9910703125,2.18257421875,7.15162109375,-3.3800390625,-3.4149453125,-3.47679296875,-0.33824609375,-1.52421875,-6.15247265625,-5.057203125,-6.15604296875,2.3046796875,-4.9595078125,-7.61879296875,-8.1322265625,-1.78136328125,-4.1492734375,-5.35622265625,-12.8654453125,-11.52111328125,-11.8619453125,-1.70268359375,-10.052125,-9.12923046875
5.7196328125,6.81500390625,17.95780078125,1.79482421875,-0.8919140625,-0.39305078125,-0.3890703125,3.87757421875,4.51562109375,-5.1700390625,-3.3329453125,-3.52679296875,-4.81624609375,-4.29721875,-7.45147265625,-4.687203125,-4.88204296875,-0.4123203125,-7.1595078125,-8.11179296875,-7.8352265625,-3.29236328125,-6.6262734375,-6.87022265625,-12.6494453125,-11.62011328125,-12.6699453125,-2.75568359375,-10.708125,-9.79623046875
5.5896328125,7.14000390625,19.82480078125,2.76382421875,-3.1029140625,-2.08505078125,-0.4340703125,4.21057421875,0.17162109375,-7.3950390625,-3.5619453125,-3.99279296875,-9.07824609375,-7.33121875,-8.77147265625,-4.483203125,-4.05504296875,-3.3513203125,-9.3955078125,-8.53079296875,-7.5782265625,-5.15536328125,-9.0432734375,-8.48022265625,-12.4454453125,-11.54011328125,-13.3119453125,-4.14868359375,-11.586125,-10.77623046875
4.2276328125,6.70900390625,19.82280078125,3.88182421875,-5.1529140625,-3.83405078125,-0.1900703125,4.03657421875,-3.87737890625,-9.1930390625,-3.8449453125,-4.44279296875,-11.37624609375,-9.72121875,-9.73247265625,-4.380203125,-3.63304296875,-5.6813203125,-11.0145078125,-8.62079296875,-7.4152265625,-6.42036328125,-10.5382734375,-9.66222265625,-12.1014453125,-11.36811328125,-13.4309453125,-5.10768359375,-12.243125,-11.58823046875
3.7646328125,7.28400390625,20.18680078125,5.10182421875,-5.9649140625,-4.51705078125,1.0139296875,4.16557421875,-6.04437890625,-9.8740390625,-3.8639453125,-4.36279296875,-10.60924609375,-10.72021875,-9.94747265625,-4.177203125,-3.76504296875,-6.7033203125,-11.4195078125,-8.10779296875,-7.1852265625,-6.38536328125,-10.4982734375,-9.90422265625,-11.4034453125,-11.07811328125,-12.7089453125,-5.00168359375,-12.235125,-11.74723046875
5.3056328125,9.70200390625,22.17480078125,6.35482421875,-5.0449140625,-3.63205078125,3.2759296875,5.04057421875,-5.73737890625,-9.2160390625,-3.4049453125,-3.43079296875,-6.90024609375,-10.08121875,-9.23347265625,-3.659203125,-4.45604296875,-6.1753203125,-10.3655078125,-6.85979296875,-6.6412265625,-4.93136328125,-8.8762734375,-8.95822265625,-10.2154453125,-10.59711328125,-11.0669453125,-3.65168359375,-11.354125,-11.01523046875
8.6566328125,13.61800390625,25.70980078125,7.44582421875,-2.6439140625,-1.40805078125,6.0979296875,6.59157421875,-3.43137890625,-7.5120390625,-2.4579453125,-1.70879296875,-1.61824609375,-8.15721875,-7.73447265625,-2.758203125,-5.35004296875,-4.4123203125,-8.1075078125,-5.00479296875,-5.6512265625,-2.58836328125,-6.2332734375,-6.99622265625,-8.6014453125,-9.88011328125,-8.7809453125,-1.42768359375,-9.763125,-9.53723046875
12.5846328125,17.77800390625,29.62180078125,8.04982421875,0.3970859375,1.37894921875,8.6259296875,8.30857421875,-0.30137890625,-5.3860390625,-1.2159453125,0.37420703125,3.16175390625,-5.71321875,-5.87047265625,-1.615203125,-5.86004296875,-2.1193203125,-5.3085078125,-2.92179296875,-4.2892265625,-0.29536328125,-3.4942734375,-4.56422265625,-6.8214453125,-8.95611328125,-6.4129453125,0.91331640625,-7.927125,-7.76123046875
15.4726328125,20.65300390625,32.28680078125,7.83382421875,3.0530859375,3.79994921875,10.0449296875,9.49457421875,2.36262109375,-3.5010390625,0.0270546875000002,2.20720703125,5.55675390625,-3.59821875,-4.16547265625,-0.501203124999999,-5.50204296875,-0.0883203124999998,-2.7705078125,-1.10279296875,-2.7952265625,1.03763671875,-1.5412734375,-2.36822265625,-5.2184453125,-7.90911328125,-4.5919453125,2.55431640625,-6.390125,-6.20623046875
16.1096328125,21.19600390625,32.45980078125,6.67482421875,4.5530859375,5.17894921875,9.9539296875,9.63757421875,3.68562109375,-2.2960390625,1.0120546875,3.26220703125,4.68675390625,-2.41621875,-3.02547265625,0.331796875000001,-4.13604296875,1.0976796875,-1.1315078125,0.0492070312499999,-1.4492265625,0.934636718750001,-0.8472734375,-0.98622265625,-4.0564453125,-6.83811328125,-3.7439453125,2.95431640625,-5.534125,-5.21723046875
14.3146328125,19.38700390625,29.97280078125,4.83082421875,4.6780859375,5.34094921875,8.5499296875,8.71257421875,3.44862109375,-1.8590390625,1.6010546875,3.31920703125,1.03375390625,-2.35321875,-2.60347265625,0.769796875000001,-1.94704296875,1.2196796875,-0.6675078125,0.38120703125,-0.4472265625,-0.483363281249999,-1.3402734375,-0.64222265625,-3.4154453125,-5.82111328125,-3.9249453125,2.03131640625,-5.429125,-4.83823046875
11.0796328125,16.30300390625,25.94180078125,2.91282421875,3.7850859375,4.58994921875,6.5379296875,7.25157421875,2.02962109375,-1.9660390625,1.7800546875,2.54420703125,-3.83024609375,-3.18421875,-2.78047265625,0.832796875000001,0.72095703125,0.4256796875,-1.2505078125,0.0292070312499999,0.1607734375,-2.61736328125,-2.5012734375,-1.13922265625,-3.1844453125,-4.90311328125,-4.8139453125,0.16231640625,-5.841125,-4.85523046875
8.1076328125,13.61100390625,22.28980078125,1.65282421875,2.5750859375,3.48894921875,4.8059296875,6.10657421875,0.14462109375,-2.2500390625,1.5940546875,1.38520703125,-8.00224609375,-4.43521875,-3.28347265625,0.610796875000001,3.48095703125,-0.8903203125,-2.4475078125,-0.66479296875,0.4397734375,-4.69836328125,-3.6502734375,-1.97922265625,-3.1474453125,-4.10311328125,-5.8739453125,-1.98168359375,-6.356125,-4.94523046875
6.9276328125,12.69200390625,20.73480078125,1.55282421875,1.7340859375,2.56994921875,4.0109296875,5.99057421875,-1.46237890625,-2.4180390625,1.0700546875,0.32920703125,-10.11924609375,-5.61121875,-3.84447265625,0.188796875000001,5.88095703125,-2.2683203125,-3.7135078125,-1.32079296875,0.4947734375,-6.10436328125,-4.2382734375,-2.59422265625,-3.0904453125,-3.44611328125,-6.5819453125,-3.70268359375,-6.577125,-4.83823046875
8.0216328125,13.84000390625,21.74280078125,2.61582421875,1.6000859375,2.08894921875,4.2419296875,7.03657421875,-2.28037890625,-2.3940390625,0.1990546875,-0.33779296875,-9.92224609375,-6.38721875,-4.31747265625,-0.360203124999999,7.35595703125,-3.3363203125,-4.5855078125,-1.67479296875,0.3927734375,-6.53636328125,-4.0492734375,-2.59522265625,-2.8914453125,-2.97411328125,-6.6279453125,-4.51468359375,-6.268125,-4.42023046875
10.4586328125,16.00500390625,24.10280078125,4.29482421875,2.0310859375,1.90394921875,4.9539296875,8.63557421875,-2.19637890625,-2.3350390625,-1.0119453125,-0.65479296875,-8.20824609375,-6.70521875,-4.69247265625,-0.955203124999999,7.29795703125,-3.9013203125,-4.8365078125,-1.65179296875,0.1537734375,-6.04236328125,-3.2172734375,-1.90822265625,-2.5414453125,-2.73211328125,-5.9909453125,-4.28368359375,-5.410125,-3.72723046875
12.2836328125,17.25500390625,25.43280078125,5.72782421875,2.5100859375,1.57594921875,5.2319296875,9.68557421875,-1.47237890625,-2.5020390625,-2.4669453125,-0.93979296875,-6.24224609375,-6.72321875,-5.02247265625,-1.490203125,5.28995703125,-3.9533203125,-4.5105078125,-1.34879296875,-0.2182265625,-4.90436328125,-2.0982734375,-0.75522265625,-2.1214453125,-2.72911328125,-4.8849453125,-3.20868359375,-4.150125,-2.86723046875
11.4966328125,15.74100390625,23.39480078125,6.14082421875,2.4430859375,0.64994921875,4.2839296875,9.14757421875,-0.57637890625,-3.0850390625,-3.9459453125,-1.60979296875,-5.01824609375,-6.68221875,-5.34547265625,-1.851203125,1.35795703125,-3.6013203125,-3.8465078125,-0.95079296875,-0.6952265625,-3.48936328125,-1.0632734375,0.48877734375,-1.7374453125,-2.91811328125,-3.6279453125,-1.67468359375,-2.694125,-1.93123046875
7.0556328125,10.63800390625,16.92880078125,5.20582421875,1.4800859375,-1.04905078125,1.8619296875,6.58657421875,0.0466210937500001,-4.0730390625,-5.1549453125,-2.93179296875,-4.82024609375,-6.73821875,-5.64447265625,-1.959203125,-3.88504296875,-2.9813203125,-3.1275078125,-0.64279296875,-1.2222265625,-2.10636328125,-0.3242734375,1.47577734375,-1.4774453125,-3.21311328125,-2.4939453125,-0.0596835937500003,-1.223125,-0.95023046875
-0.5873671875,2.60500390625,6.84280078125,3.16782421875,-0.3139140625,-3.28105078125,-1.6100703125,2.40457421875,0.14262109375,-5.2460390625,-5.8279453125,-4.82879296875,-5.26524609375,-6.87521875,-5.85247265625,-1.826203125,-9.27104296875,-2.1893203125,-2.5535078125,-0.55379296875,-1.7412265625,-0.93636328125,0.1127265625,2.01577734375,-1.3704453125,-3.51411328125,-1.6239453125,1.39131640625,0.143875,0.0707695312499999
-9.5963671875,-6.40199609375,-4.43819921875,0.69982421875,-2.4829140625,-5.47105078125,-5.2120703125,-2.30442578125,-0.30337890625,-6.2730390625,-5.8369453125,-6.87879296875,-5.63624609375,-6.93921875,-5.89647265625,-1.576203125,-13.34204296875,-1.2813203125,-2.1875078125,-0.74379296875,-2.2112265625,-0.0353632812499995,0.3767265625,2.10577734375,-1.4074453125,-3.74111328125,-1.0309453125,2.57631640625,1.317875,1.07376953125
-17.3543671875,-13.80699609375,-13.72419921875,-1.42417578125,-4.3569140625,-6.93305078125,-7.8830703125,-6.16542578125,-1.08237890625,-6.8630390625,-5.2479453125,-8.53579296875,-5.26624609375,-6.76921875,-5.75547265625,-1.436203125,-14.82504296875,-0.3413203125,-2.0075078125,-1.22579296875,-2.6272265625,0.584636718750001,0.5857265625,1.84377734375,-1.5774453125,-3.86811328125,-0.6879453125,3.44231640625,2.170875,1.89976953125
-21.3353671875,-17.28399609375,-18.12619921875,-2.66317578125,-5.3099140625,-7.12605078125,-8.7920703125,-8.02442578125,-1.84537890625,-6.8840390625,-4.2959453125,-9.43379296875,-3.85624609375,-6.33321875,-5.49747265625,-1.663203125,-13.19204296875,0.4466796875,-1.9925078125,-1.98179296875,-3.0192265625,0.88363671875,0.7247265625,1.32277734375,-1.9134453125,-3.96011328125,-0.621945312499999,3.89331640625,2.519875,2.29876953125
-20.0233671875,-15.57699609375,-16.05519921875,-2.93417578125,-4.9999140625,-5.88805078125,-7.6340703125,-7.38442578125,-2.24437890625,-6.4080390625,-3.2859453125,-9.54479296875,-1.66424609375,-5.77121875,-5.26047265625,-2.418203125,-8.98704296875,0.8036796875,-2.1795078125,-2.96779296875,-3.4222265625,0.76863671875,0.6427265625,0.57677734375,-2.4744453125,-4.15811328125,-0.9149453125,3.78931640625,2.184875,2.04676953125
-13.6183671875,-9.05699609375,-7.92119921875,-2.60817578125,-3.5299140625,-3.55005078125,-4.7630703125,-4.61342578125,-2.09337890625,-5.6640390625,-2.4859453125,-9.10379296875,0.48975390625,-5.32221875,-5.18047265625,-3.645203125,-3.66204296875,0.4536796875,-2.6295078125,-4.08279296875,-3.8392265625,0.14363671875,0.1477265625,-0.38722265625,-3.2854453125,-4.60511328125,-1.6169453125,3.04331640625,1.116875,1.07876953125
-4.1583671875,0.264003906250001,3.78680078125,-2.26817578125,-1.4449140625,-0.84105078125,-1.1010703125,-0.82042578125,-1.47637890625,-4.9400390625,-2.0459453125,-8.41179296875,1.49075390625,-5.19221875,-5.30247265625,-5.038203125,1.06195703125,-0.7253203125,-3.3575078125,-5.13879296875,-4.1972265625,-1.00736328125,-0.8412734375,-1.49922265625,-4.2574453125,-5.32111328125,-2.6289453125,1.73631640625,-0.507125,-0.408230468749999
5.1776328125,9.38600390625,15.29380078125,-2.33817578125,0.4730859375,1.41294921875,2.2019296875,2.61357421875,-0.71837890625,-4.4530390625,-1.9799453125,-7.65879296875,0.41775390625,-5.43621875,-5.53747265625,-6.139203125,3.91495703125,-2.5843203125,-4.2595078125,-5.88479296875,-4.3532265625,-2.56136328125,-2.1992734375,-2.56922265625,-5.1734453125,-6.12411328125,-3.6739453125,0.15531640625,-2.282125,-1.98523046875
11.3756328125,15.50000390625,23.00880078125,-2.79417578125,1.5350859375,2.63794921875,4.2029296875,4.64057421875,-0.21137890625,-4.2660390625,-2.1759453125,-6.86779296875,-2.93924609375,-5.90421875,-5.68347265625,-6.532203125,4.46995703125,-4.6853203125,-5.0935078125,-6.06579296875,-4.1432265625,-4.26536328125,-3.5922734375,-3.30822265625,-5.7334453125,-6.66811328125,-4.3589453125,-1.26068359375,-3.686125,-3.12923046875
12.8876328125,17.15600390625,25.03580078125,-3.16317578125,1.4530859375,2.73894921875,4.5189296875,4.96757421875,-0.21637890625,-4.2540390625,-2.4259453125,-5.90479296875,-7.85924609375,-6.28921875,-5.50947265625,-6.005203125,3.05295703125,-6.4253203125,-5.5455078125,-5.51079296875,-3.4422265625,-5.77436328125,-4.5692734375,-3.41222265625,-5.6534453125,-6.59911328125,-4.3079453125,-2.05268359375,-4.237125,-3.40623046875
10.2546328125,14.82100390625,21.93780078125,-2.81917578125,0.4740859375,2.10594921875,3.4209296875,4.09757421875,-0.70937890625,-4.1690390625,-2.4589453125,-4.55779296875,-12.93124609375,-6.24521875,-4.84747265625,-4.604203125,0.39695703125,-7.2443203125,-5.3315078125,-4.19179296875,-2.2232265625,-6.71236328125,-4.7122734375,-2.66822265625,-4.7624453125,-5.75011328125,-3.2899453125,-1.87268359375,-3.646125,-2.61923046875
5.7076328125,10.52500390625,16.33980078125,-1.41017578125,-0.7509140625,1.41894921875,1.6689296875,2.98557421875,-1.39337890625,-3.7480390625,-2.0119453125,-2.67079296875,-16.61724609375,-5.55021875,-3.66647265625,-2.564203125,-2.67204296875,-6.8343203125,-4.3075078125,-2.23879296875,-0.5982265625,-6.74436328125,-3.7782734375,-1.04622265625,-3.0834453125,-4.26511328125,-1.3029453125,-0.59568359375,-1.916125,-0.85323046875
1.9686328125,6.77700390625,11.52280078125,0.88682421875,-1.4929140625,1.30294921875,0.1359296875,2.49657421875,-1.86837890625,-2.8640390625,-0.9429453125,-0.33579296875,-17.84224609375,-4.21721875,-2.09847265625,-0.222203124999999,-5.43404296875,-5.2483203125,-2.5515078125,0.06820703125,1.1637734375,-5.68836328125,-1.8012734375,1.26377734375,-0.8614453125,-2.58411328125,1.3990546875,1.62231640625,0.643875,1.56876953125
0.8626328125,5.31400390625,9.74580078125,3.40382421875,-1.3379140625,1.99394921875,-0.5730703125,2.95857421875,-1.88537890625,-1.6100390625,0.6540546875,1.98720703125,-16.34024609375,-2.51221875,-0.40947265625,2.046796875,-7.34604296875,-2.8693203125,-0.3585078125,2.33120703125,2.6817734375,-3.63136328125,0.8817265625,3.88277734375,1.4665546875,-1.27911328125,4.3540546875,4.35431640625,3.489875,4.17276953125
2.4976328125,6.33700390625,11.22080078125,5.28982421875,-0.3759140625,3.22494921875,-0.3190703125,4.03857421875,-1.45337890625,-0.277039062499999,2.4450546875,3.54220703125,-12.70124609375,-0.835218749999999,1.09452734375,3.877796875,-8.06904296875,-0.2713203125,1.8484921875,4.12920703125,3.5717734375,-0.96636328125,3.7157265625,6.33877734375,3.3975546875,-0.82611328125,7.0110546875,7.00431640625,6.009875,6.46676953125
5.4556328125,8.66800390625,14.30380078125,5.89082421875,0.9100859375,4.44994921875,0.6629296875,5.01057421875,-0.73637890625,0.818960937500001,4.0080546875,3.60820703125,-8.14724609375,0.48278125,2.19252734375,5.005796875,-7.45904296875,2.0046796875,3.7014921875,5.16020703125,3.6037734375,1.73063671875,6.1247265625,8.22477734375,4.5505546875,-1.39111328125,8.9020546875,8.99831640625,7.719875,8.06776953125
7.8106328125,10.63600390625,16.72380078125,5.04082421875,1.9970859375,5.23494921875,2.0249296875,5.23657421875,0.15762109375,1.5499609375,5.0840546875,1.92820703125,-4.09924609375,1.35778125,2.86352734375,5.386796875,-5.60704296875,3.6406796875,5.0404921875,5.38920703125,2.8327734375,3.93363671875,7.7157265625,9.35077734375,4.8335546875,-2.74411328125,9.8030546875,9.99031640625,8.431875,8.81376953125
8.2386328125,11.09500390625,16.95080078125,3.13682421875,2.6180859375,5.51894921875,3.4919296875,4.54857421875,1.23662109375,2.0609609375,5.7270546875,-1.01479296875,-1.65724609375,1.97178125,3.29452734375,5.240796875,-2.94404296875,4.6016796875,5.9464921875,5.07820703125,1.6127734375,5.35663671875,8.3887265625,9.78577734375,4.4835546875,-4.33611328125,9.7770546875,9.95831640625,8.278875,8.78576953125
6.5366328125,9.87500390625,14.81880078125,0.95082421875,2.8120859375,5.54894921875,4.8569296875,3.26557421875,2.47662109375,2.6279609375,6.2220546875,-4.12179296875,-1.19924609375,2.57978125,3.73252734375,4.951796875,-0.25704296875,5.0196796875,6.5904921875,4.63820703125,0.4477734375,5.97863671875,8.2617265625,9.73777734375,3.9145546875,-5.51911328125,9.0730546875,9.14431640625,7.584875,8.22576953125
3.3436328125,7.48100390625,11.12880078125,-0.75717578125,2.7110859375,5.56894921875,5.8579296875,1.88257421875,3.62862109375,3.3639609375,6.7950546875,-6.20379296875,-2.30524609375,3.23778125,4.24952734375,4.834796875,1.52195703125,4.9916796875,6.9994921875,4.37020703125,-0.2612265625,5.91763671875,7.4867265625,9.35177734375,3.4575546875,-5.83411328125,7.9170546875,7.86231640625,6.640875,7.37776953125
-0.5233671875,4.47500390625,6.80380078125,-1.62117578125,2.3050859375,5.52294921875,6.0969296875,0.69357421875,4.19862109375,4.0109609375,7.3320546875,-6.62379296875,-4.06124609375,3.63678125,4.59352734375,4.917796875,1.73195703125,4.4466796875,6.9394921875,4.26720703125,-0.4302265625,5.27063671875,6.1157265625,8.56977734375,3.1535546875,-5.18811328125,6.3710546875,6.32731640625,5.547875,6.37576953125
-4.5153671875,1.13400390625,2.37580078125,-1.82217578125,1.3980859375,5.02394921875,5.1269296875,-0.35042578125,3.64962109375,4.0209609375,7.3730546875,-5.64779296875,-5.57424609375,3.23278125,4.26152734375,4.899796875,0.34895703125,3.1996796875,6.0194921875,4.01720703125,-0.2922265625,4.06063671875,4.1187265625,7.17877734375,2.7455546875,-3.84011328125,4.3680546875,4.61331640625,4.250875,5.25276953125
-8.3023671875,-2.37599609375,-1.86619921875,-1.88517578125,-0.2029140625,3.60894921875,2.6969296875,-1.44842578125,1.72762109375,2.8849609375,6.3800546875,-4.25579296875,-6.41424609375,1.58478125,2.79852734375,4.332796875,-1.94304296875,1.1406796875,3.9694921875,3.21520703125,-0.2112265625,2.29663671875,1.5347265625,5.01177734375,1.8725546875,-2.20311328125,1.8910546875,2.74731640625,2.697875,4.03476953125
-11.5223671875,-5.68299609375,-5.49119921875,-2.31017578125,-2.4589140625,1.09994921875,-1.0120703125,-2.66242578125,-1.34137890625,0.478960937500001,4.0830546875,-3.56279296875,-6.78624609375,-1.32021875,0.09652734375,2.882796875,-4.07504296875,-1.6113203125,0.8874921875,1.61520703125,-0.4552265625,0.0736367187500004,-1.3962734375,2.13177734375,0.323554687500001,-0.63411328125,-0.8819453125,0.80231640625,0.969875,2.82276953125
-13.7373671875,-8.20899609375,-7.86619921875,-3.29517578125,-5.0589140625,-2.22505078125,-5.3520703125,-3.83442578125,-4.93537890625,-2.8390390625,0.6440546875,-4.24379296875,-7.36624609375,-4.99221875,-3.51047265625,0.506796875,-5.16004296875,-4.7033203125,-2.7395078125,-0.73179296875,-1.0922265625,-2.38836328125,-4.2552734375,-1.14922265625,-1.8374453125,0.66088671875,-3.5849453125,-1.09368359375,-0.735125,1.76376953125
-14.7013671875,-9.52499609375,-8.55319921875,-4.73017578125,-7.5799140625,-5.75505078125,-9.4320703125,-4.76642578125,-8.35137890625,-6.4050390625,-3.4189453125,-6.28079296875,-8.84424609375,-8.63221875,-7.37547265625,-2.521203125,-4.99404296875,-7.6793203125,-6.2225078125,-3.50879296875,-2.0432265625,-4.78436328125,-6.5972734375,-4.38922265625,-4.3174453125,1.56388671875,-5.8219453125,-2.82168359375,-2.221125,0.94976953125
-14.6013671875,-9.68499609375,-7.73019921875,-6.35717578125,-9.6719140625,-8.84105078125,-12.4640703125,-5.44042578125,-11.09137890625,-9.5260390625,-7.4339453125,-9.07279296875,-11.38424609375,-11.44321875,-10.79447265625,-5.710203125,-4.13404296875,-10.1003203125,-8.9285078125,-6.26379296875,-3.1782265625,-6.79236328125,-8.1172734375,-7.16022265625,-6.7274453125,1.94988671875,-7.3119453125,-4.32568359375,-3.380125,0.35376953125
-13.9753671875,-9.20999609375,-6.20219921875,-7.90817578125,-11.1129140625,-11.00305078125,-14.0120703125,-6.02642578125,-12.90137890625,-11.6710390625,-10.7609453125,-11.78479296875,-14.32324609375,-12.86821875,-13.19447265625,-8.497203125,-3.45804296875,-11.6013203125,-10.4395078125,-8.53179296875,-4.3832265625,-8.09836328125,-8.7082734375,-9.12022265625,-8.7164453125,1.64888671875,-7.9389453125,-5.56368359375,-4.171125,-0.12423046875
-13.3833671875,-8.75099609375,-4.98919921875,-9.13817578125,-11.7359140625,-11.97805078125,-14.0380703125,-6.68842578125,-13.62437890625,-12.5260390625,-12.9069453125,-13.69679296875,-16.37324609375,-12.69121875,-14.24047265625,-10.417203125,-3.51304296875,-11.8873203125,-10.5995078125,-9.92779296875,-5.5742265625,-8.42436328125,-8.4022734375,-10.02822265625,-10.0584453125,0.51188671875,-7.7159453125,-6.42768359375,-4.547125,-0.55623046875
-13.0943671875,-8.71599609375,-4.81019921875,-9.80117578125,-11.3789140625,-11.67605078125,-12.8260703125,-7.39242578125,-13.08337890625,-11.9830390625,-13.6019453125,-14.43679296875,-16.25624609375,-11.02821875,-13.84547265625,-11.240203125,-4.16904296875,-10.7843203125,-9.4845078125,-10.21979296875,-6.6932265625,-7.57836328125,-7.2962734375,-9.76622265625,-10.6684453125,-1.47711328125,-6.7329453125,-6.71868359375,-4.427125,-0.91723046875
-13.0363671875,-9.12999609375,-5.82319921875,-9.68817578125,-9.9539140625,-10.18005078125,-10.8590703125,-7.90142578125,-11.15737890625,-10.1400390625,-12.8529453125,-14.05179296875,-13.41224609375,-8.25721875,-12.17747265625,-11.029203125,-4.84204296875,-8.3303203125,-7.3795078125,-9.40879296875,-7.6852265625,-5.55736328125,-5.5252734375,-8.40322265625,-10.6034453125,-4.11511328125,-5.1499453125,-6.22368359375,-3.744125,-1.11723046875
-12.9853671875,-9.76099609375,-7.70419921875,-8.73217578125,-7.5999140625,-7.79005078125,-8.7040703125,-7.98042578125,-7.97337890625,-7.3460390625,-10.9899453125,-12.93579296875,-8.35924609375,-4.94221875,-9.64447265625,-10.087203125,-5.08304296875,-4.8723203125,-4.7445078125,-7.77279296875,-8.4982265625,-2.63036328125,-3.3082734375,-6.26622265625,-10.0324453125,-6.97611328125,-3.2299453125,-4.86968359375,-2.555125,-1.09423046875
-12.7923671875,-10.36599609375,-9.93219921875,-7.10717578125,-4.7769140625,-5.01105078125,-6.8930703125,-7.59042578125,-4.05137890625,-4.1920390625,-8.6109453125,-11.65579296875,-2.56724609375,-1.74321875,-6.84247265625,-8.817203125,-5.03404296875,-1.0853203125,-2.1615078125,-5.81479296875,-9.0852265625,0.66263671875,-0.9952734375,-3.92922265625,-9.1924453125,-9.50811328125,-1.3529453125,-2.85868359375,-1.120125,-0.903230468749999
-12.4693671875,-10.83799609375,-12.00719921875,-5.20417578125,-2.1749140625,-2.43405078125,-5.7840703125,-6.93642578125,-0.23537890625,-1.3930390625,-6.4089453125,-10.71879296875,2.06575390625,0.704781250000001,-4.41747265625,-7.548203125,-5.36204296875,2.1576796875,-0.2075078125,-4.12079296875,-9.4092265625,3.65163671875,0.9517265625,-2.06422265625,-8.3334453125,-11.18611328125,0.0340546875000003,-0.66768359375,0.137875,-0.72923046875
-12.0953671875,-11.15799609375,-13.49919921875,-3.49117578125,-0.4549140625,-0.55305078125,-5.4720703125,-6.30842578125,2.56762109375,0.4399609375,-4.9229453125,-10.35779296875,3.91875390625,1.94778125,-2.85747265625,-6.424203125,-6.72404296875,4.0416796875,0.7024921875,-3.13779296875,-9.4422265625,5.73463671875,2.0737265625,-1.19622265625,-7.6524453125,-11.66011328125,0.5550546875,1.11031640625,0.784875,-0.79523046875
-11.6793671875,-11.27199609375,-14.01519921875,-2.32817578125,0.0220859375000001,0.38994921875,-5.7820703125,-5.88042578125,3.71262109375,1.0149609375,-4.3449453125,-10.44979296875,2.31475390625,1.85178125,-2.34747265625,-5.400203125,-9.16404296875,4.1256796875,0.4464921875,-3.00979296875,-9.1502265625,6.56463671875,2.0887265625,-1.48122265625,-7.2314453125,-10.84511328125,0.0700546874999999,2.00731640625,0.588875,-1.22923046875
-11.1553671875,-11.07299609375,-13.29419921875,-1.88717578125,-0.6809140625,0.43594921875,-6.3560703125,-5.64542578125,3.04562109375,0.4159609375,-4.5159453125,-10.64979296875,-2.13624609375,0.627781250000001,-2.75347265625,-4.344203125,-11.91504296875,2.5326796875,-0.7805078125,-3.55079296875,-8.5162265625,6.10863671875,1.0087265625,-2.66322265625,-7.0374453125,-8.93911328125,-1.2399453125,1.88831640625,-0.359125,-1.96823046875
-10.5443671875,-10.55399609375,-11.44219921875,-2.21417578125,-2.1879140625,-0.19005078125,-6.8170703125,-5.54142578125,0.90662109375,-1.0250390625,-5.0949453125,-10.64179296875,-7.71424609375,-1.27821875,-3.76247265625,-3.188203125,-13.78004296875,-0.0833203124999999,-2.5685078125,-4.36679296875,-7.5812265625,4.59263671875,-0.8392734375,-4.21122265625,-6.9504453125,-6.34611328125,-2.9279453125,0.99431640625,-1.671125,-2.76323046875
-10.1113671875,-9.96299609375,-9.11319921875,-3.32117578125,-4.0369140625,-1.25405078125,-6.9350703125,-5.63042578125,-2.06637890625,-2.9200390625,-5.7719453125,-10.32579296875,-12.29424609375,-3.36221875,-5.04747265625,-1.999203125,-13.82904296875,-2.8073203125,-4.4465078125,-5.05779296875,-6.4492265625,2.40563671875,-2.9182734375,-5.55522265625,-6.8224453125,-3.54011328125,-4.4269453125,-0.17468359375,-2.826125,-3.26523046875
-10.3053671875,-9.76099609375,-7.35019921875,-5.17017578125,-5.8509140625,-2.60705078125,-6.6940703125,-6.12142578125,-5.19737890625,-4.9490390625,-6.3619453125,-9.80879296875,-14.23324609375,-5.21421875,-6.34147265625,-0.940203124999999,-11.92504296875,-4.8013203125,-6.0065078125,-5.34579296875,-5.2572265625,0.0226367187500003,-4.6372734375,-6.27022265625,-6.5074453125,-0.90311328125,-5.2389453125,-1.06868359375,-3.361125,-3.14723046875
-11.4163671875,-10.31999609375,-7.03719921875,-7.53217578125,-7.3629140625,-4.12605078125,-6.2200703125,-7.16342578125,-7.94937890625,-6.8540390625,-6.7739453125,-9.25879296875,-13.01624609375,-6.58321875,-7.43347265625,-0.136203124999999,-8.74004296875,-5.5673203125,-6.9585078125,-5.12079296875,-4.1172265625,-2.04136328125,-5.5142734375,-6.15922265625,-5.8854453125,1.35388671875,-5.0669453125,-1.27868359375,-3.019125,-2.21023046875
-13.1913671875,-11.56099609375,-8.28819921875,-9.88317578125,-8.3419140625,-5.58305078125,-5.6490703125,-8.58442578125,-9.95237890625,-8.3880390625,-6.9289453125,-8.76979296875,-9.38024609375,-7.36221875,-8.13747265625,0.404796875000001,-5.34004296875,-5.0303203125,-7.1535078125,-4.40879296875,-3.1012265625,-3.29936328125,-5.3082734375,-5.25522265625,-4.8974453125,3.16088671875,-3.8989453125,-0.66268359375,-1.824125,-0.47323046875
-14.7803671875,-12.84599609375,-10.25319921875,-11.49117578125,-8.5659140625,-6.61805078125,-5.0540703125,-9.83942578125,-10.97537890625,-9.3080390625,-6.7409453125,-8.35879296875,-4.91124609375,-7.52921875,-8.30947265625,0.772796875,-2.67204296875,-3.4863203125,-6.6075078125,-3.33079296875,-2.2452265625,-3.41736328125,-4.0922734375,-3.79422265625,-3.5914453125,4.47288671875,-2.0179453125,0.63831640625,-0.0721249999999998,1.78576953125
-15.1173671875,-13.26399609375,-11.55019921875,-11.71817578125,-7.8979140625,-6.89505078125,-4.4910703125,-10.25942578125,-10.90737890625,-9.4410390625,-6.1739453125,-8.02079296875,-1.31724609375,-7.09821875,-7.89047265625,1.060796875,-1.30004296875,-1.4553203125,-5.5065078125,-2.08879296875,-1.5762265625,-2.36736328125,-2.2432734375,-2.14022265625,-2.1614453125,5.18088671875,0.0770546875000004,2.25231640625,1.765875,4.06876953125
-13.5203671875,-12.14199609375,-11.05719921875,-10.32417578125,-6.3889140625,-6.28205078125,-4.0400703125,-9.43042578125,-9.77837890625,-8.7610390625,-5.2899453125,-7.74079296875,0.33175390625,-6.08621875,-6.93347265625,1.311796875,-1.39304296875,0.5086796875,-4.1575078125,-0.91979296875,-1.1092265625,-0.49936328125,-0.3102734375,-0.68422265625,-0.8994453125,5.12988671875,1.8220546875,3.70431640625,3.193875,5.81276953125
-10.0743671875,-9.43699609375,-8.50019921875,-7.57017578125,-4.2869140625,-4.88605078125,-3.7560703125,-7.39142578125,-7.73537890625,-7.3800390625,-4.2309453125,-7.42879296875,0.0307539062499997,-4.51121875,-5.55447265625,1.553796875,-2.76104296875,2.0026796875,-2.8565078125,-0.00879296874999991,-0.8262265625,1.55763671875,1.2017265625,0.30677734375,-0.0654453124999996,4.25388671875,2.7990546875,4.58131640625,3.878875,6.61576953125
-5.5693671875,-5.71999609375,-4.49519921875,-4.07317578125,-1.9059140625,-2.91805078125,-3.5550703125,-4.55742578125,-5.00137890625,-5.4520390625,-3.0929453125,-6.83479296875,-1.27724609375,-2.39821875,-3.84847265625,1.885796875,-4.79004296875,2.9036796875,-1.7385078125,0.61920703125,-0.6412265625,3.14063671875,2.0517265625,0.79377734375,0.275554687500001,2.72288671875,2.9070546875,4.68131640625,3.775875,6.42876953125
-1.0723671875,-1.81599609375,-0.0811992187499992,-0.54117578125,0.5380859375,-0.54505078125,-3.1500703125,-1.45942578125,-1.83037890625,-3.0820390625,-1.8219453125,-5.61079296875,-2.30624609375,0.206781250000001,-1.81747265625,2.487796875,-6.42104296875,3.3906796875,-0.7025078125,1.13520703125,-0.4192265625,3.83463671875,2.3587265625,0.99077734375,0.3125546875,0.96388671875,2.4150546875,4.08231640625,3.151875,5.58176953125
2.6026328125,1.66500390625,3.89180078125,2.50582421875,3.0090859375,2.16094921875,-2.1240703125,1.51457421875,1.51262109375,-0.303039062499999,-0.2149453125,-3.50779296875,-2.14624609375,3.21378125,0.59952734375,3.536796875,-6.47004296875,3.8266796875,0.5194921875,1.83220703125,-0.0262265624999998,3.61963671875,2.5247265625,1.25977734375,0.3995546875,-0.47811328125,1.8550546875,3.10331640625,2.466875,4.62676953125
5.2286328125,4.57500390625,7.14180078125,4.88382421875,5.6040859375,5.17994921875,-0.1110703125,4.21457421875,4.76462109375,2.8469609375,1.9490546875,-0.59279296875,-0.66924609375,6.45578125,3.42552734375,5.083796875,-4.27804296875,4.5746796875,2.2004921875,2.97220703125,0.6007734375,2.85463671875,3.0297265625,1.94477734375,0.8725546875,-1.19411328125,1.7870546875,2.17131640625,2.170875,4.08576953125
7.1036328125,7.11500390625,9.85480078125,6.71882421875,8.4140859375,8.43894921875,2.9919296875,6.65257421875,7.67562109375,6.2209609375,4.7370546875,2.70120703125,1.58975390625,9.68678125,6.55252734375,7.015796875,-0.25704296875,5.8256796875,4.4444921875,4.65020703125,1.4287734375,2.11963671875,4.2097265625,3.21377734375,1.8895546875,-1.08011328125,2.5710546875,1.68131640625,2.532875,4.25876953125
8.5566328125,9.38400390625,12.15780078125,8.22982421875,11.3470859375,11.69294921875,6.8639296875,8.77057421875,10.01062109375,9.5129609375,7.9400546875,5.70920703125,3.91475390625,12.60578125,9.70652734375,9.088796875,4.22795703125,7.5266796875,7.1004921875,6.74720703125,2.3527734375,1.98063671875,6.1227265625,4.99477734375,3.3835546875,-0.34311328125,4.2370546875,1.89731640625,3.564875,5.15176953125
9.4286328125,10.96700390625,13.57180078125,9.46982421875,14.0380859375,14.47994921875,10.7469296875,10.26457421875,11.56862109375,12.2959609375,11.0920546875,7.76320703125,5.83475390625,14.92078125,12.50752734375,11.026796875,7.62695703125,9.4216796875,9.7754921875,8.96220703125,3.2317734375,2.74563671875,8.5237265625,6.99177734375,5.0935546875,0.64288671875,6.4750546875,2.88431640625,5.050875,6.51776953125
9.0146328125,10.96600390625,13.01380078125,10.22482421875,15.9460859375,16.26394921875,13.6839296875,10.64257421875,12.25662109375,14.1659609375,13.6150546875,8.40720703125,7.22375390625,16.41978125,14.58552734375,12.589796875,9.00895703125,11.1526796875,11.9674921875,10.90820703125,3.9067734375,4.32363671875,10.9587265625,8.76977734375,6.6555546875,1.53988671875,8.7410546875,4.49531640625,6.627875,7.96276953125
6.6546328125,8.60900390625,9.52380078125,10.18982421875,16.6350859375,16.73594921875,14.9409296875,9.55457421875,12.18362109375,14.9319609375,15.0800546875,7.56920703125,8.10775390625,17.04678125,15.72452734375,13.641796875,8.34395703125,12.3756796875,13.2574921875,12.23020703125,4.2527734375,6.25563671875,12.9307265625,9.90377734375,7.7155546875,2.18388671875,10.4370546875,6.39131640625,7.889875,9.08576953125
2.5006328125,4.01700390625,3.23480078125,9.27482421875,16.0660859375,16.05294921875,14.3789296875,7.15957421875,11.67162109375,14.7539609375,15.4290546875,5.66120703125,8.47975390625,16.93478125,15.96852734375,14.189796875,6.22395703125,12.8686796875,13.4924921875,12.72620703125,4.2417734375,7.92563671875,14.0837265625,10.12677734375,8.0515546875,2.62688671875,11.1150546875,8.12331640625,8.516875,9.60176953125
-2.2323671875,-1.52099609375,-4.25519921875,7.78082421875,14.6660859375,14.79994921875,12.5139296875,4.21457421875,11.13862109375,14.0829609375,15.0080546875,3.49020703125,8.31175390625,16.36878125,15.60352734375,14.361796875,3.42795703125,12.6156796875,12.8384921875,12.41220703125,3.9887734375,8.82363671875,14.3067265625,9.42477734375,7.6515546875,3.07588671875,10.6190546875,9.24231640625,8.369875,9.42176953125
-5.8573671875,-6.13299609375,-10.54819921875,6.25582421875,13.0790859375,13.66094921875,10.2009296875,1.73457421875,10.89862109375,13.4149609375,14.3560546875,1.94720703125,7.65375390625,15.65478125,14.98852734375,14.317796875,0.67395703125,11.8086796875,11.6714921875,11.47920703125,3.6857734375,8.71563671875,13.7167265625,8.01377734375,6.6775546875,3.75088671875,9.0980546875,9.41631640625,7.502875,8.62976953125
-7.2353671875,-8.42299609375,-13.75419921875,5.16582421875,11.7780859375,13.03594921875,8.1749296875,0.45257421875,11.00662109375,12.9899609375,13.8600546875,1.58520703125,6.64675390625,14.95778125,14.33752734375,14.127796875,-1.41304296875,10.7436796875,10.3704921875,10.19220703125,3.4757734375,7.66863671875,12.5377265625,6.21477734375,5.3675546875,4.73788671875,6.9080546875,8.52131640625,6.103875,7.38976953125
-6.4163671875,-8.20799609375,-13.45819921875,4.64582421875,10.8250859375,12.85494921875,6.7469296875,0.46757421875,11.24062109375,12.6909609375,13.5640546875,2.35620703125,5.41575390625,14.23478125,13.62852734375,13.746796875,-2.33004296875,9.6706796875,9.1454921875,8.79720703125,3.3647734375,5.97763671875,10.9797265625,4.33677734375,3.9285546875,5.93588671875,4.4770546875,6.69631640625,4.406875,5.86376953125
-4.3743671875,-6.34199609375,-10.59819921875,4.52282421875,9.9890859375,12.73994921875,5.8519296875,1.33357421875,11.23562109375,12.2019609375,13.2470546875,3.71420703125,4.01175390625,13.33278125,12.71352734375,13.086796875,-1.85204296875,8.6896796875,8.0294921875,7.48720703125,3.2447734375,4.05863671875,9.2027265625,2.61677734375,2.5065546875,7.12188671875,2.2020546875,4.33031640625,2.638875,4.17676953125
-2.0923671875,-3.86199609375,-6.48419921875,4.53982421875,9.0840859375,12.37594921875,5.3629296875,2.49957421875,10.71362109375,11.3229609375,12.7060546875,4.99520703125,2.51575390625,12.16278125,11.52652734375,12.143796875,-0.21104296875,7.7546796875,6.9774921875,6.42120703125,3.0067734375,2.33163671875,7.3487265625,1.21977734375,1.2145546875,8.06188671875,0.3770546875,1.95431640625,0.989875,2.44876953125
0.2006328125,-1.20699609375,-1.85319921875,4.56582421875,8.2150859375,11.79794921875,5.3579296875,3.68757421875,9.65562109375,10.1649609375,11.9720546875,5.79420703125,1.21375390625,10.81278125,10.20752734375,11.049796875,1.94495703125,6.7386796875,5.9684921875,5.71420703125,2.6207734375,1.08963671875,5.5647265625,0.22077734375,0.1565546875,8.61588671875,-0.8679453125,0.0533164062499998,-0.422125,0.82076953125
2.9976328125,1.83800390625,3.25480078125,4.62182421875,7.7240859375,11.36594921875,6.0889296875,4.95757421875,8.30262109375,9.0899609375,11.2900546875,6.10020703125,0.58875390625,9.50678125,9.04552734375,10.010796875,3.88295703125,5.5286796875,5.0414921875,5.39620703125,2.1477734375,0.407636718750001,3.9817265625,-0.40622265625,-0.583445312499999,8.76188671875,-1.5839453125,-1.10868359375,-1.562125,-0.55523046875
6.7946328125,5.57800390625,8.87080078125,4.78682421875,7.9030859375,11.45994921875,7.6999296875,6.45657421875,6.99062109375,8.4759609375,10.9350546875,6.16820703125,1.06575390625,8.48578125,8.32152734375,9.203796875,5.17895703125,4.1176796875,4.2794921875,5.40520703125,1.7137734375,0.16263671875,2.7037265625,-0.74722265625,-0.9554453125,8.59488671875,-1.9259453125,-1.52868359375,-2.438125,-1.53923046875
11.3776328125,9.79200390625,14.44880078125,5.11582421875,8.7540859375,12.19194921875,9.9819296875,8.14857421875,6.00362109375,8.5019609375,11.0390546875,6.29820703125,2.67575390625,7.90678125,8.20552734375,8.743796875,5.86695703125,2.6706796875,3.7984921875,5.64920703125,1.4897734375,0.17063671875,1.8247265625,-0.85522265625,-0.9274453125,8.30088671875,-2.0089453125,-1.33668359375,-3.005125,-2.01223046875
15.7306328125,13.62300390625,18.83280078125,5.63582421875,9.9890859375,13.34594921875,12.4009296875,9.76757421875,5.52762109375,9.0969609375,11.5540546875,6.67520703125,4.93475390625,7.80778125,8.71752734375,8.710796875,6.28095703125,1.5046796875,3.7374921875,6.10820703125,1.6577734375,0.34363671875,1.4647265625,-0.66022265625,-0.4644453125,8.11588671875,-1.7879453125,-0.64268359375,-3.117125,-1.88023046875
18.5916328125,16.01700390625,20.84180078125,6.34982421875,11.2070859375,14.53494921875,14.3269296875,10.96157421875,5.64862109375,10.0139609375,12.3150546875,7.33620703125,7.03675390625,8.12178125,9.75252734375,9.176796875,6.70495703125,0.9576796875,4.2054921875,6.85020703125,2.3487734375,0.72663671875,1.7397265625,-0.00122265624999951,0.461554687500001,8.24088671875,-1.0829453125,0.52631640625,-2.602125,-1.10423046875
19.1596328125,16.31100390625,19.96180078125,7.17582421875,12.0760859375,15.37394921875,15.2589296875,11.45457421875,6.28862109375,10.9479609375,13.1240546875,8.19120703125,8.20875390625,8.68778125,11.09752734375,10.174796875,7.10995703125,1.1876796875,5.1794921875,7.94320703125,3.5597734375,1.38263671875,2.6667265625,1.22977734375,1.8185546875,8.75488671875,0.2630546875,2.13631640625,-1.408125,0.22676953125
17.4796328125,14.56000390625,16.62580078125,7.87782421875,12.4060859375,15.59094921875,14.9469296875,11.11257421875,7.16062109375,11.6229609375,13.8080546875,9.06120703125,8.04975390625,9.27178125,12.46252734375,11.641796875,7.15695703125,2.0746796875,6.4574921875,9.33420703125,5.1257734375,2.26363671875,4.0927265625,2.95177734375,3.4715546875,9.56688671875,2.2130546875,4.04031640625,0.290875,1.86676953125
14.3736328125,11.48700390625,12.02580078125,8.13382421875,12.1620859375,15.10194921875,13.4689296875,9.96757421875,7.84162109375,11.8609609375,14.2530546875,9.73920703125,6.70675390625,9.64978125,13.56652734375,13.399796875,6.46095703125,3.3066796875,7.7084921875,10.82020703125,6.7697734375,3.17563671875,5.7307265625,4.87777734375,5.1935546875,10.44688671875,4.4830546875,5.95031640625,2.126875,3.45676953125
11.0536328125,8.16100390625,7.64980078125,7.72482421875,11.4480859375,14.04494921875,11.2719296875,8.24157421875,7.97562109375,11.6229609375,14.4150546875,10.07320703125,4.83375390625,9.68978125,14.21852734375,15.185796875,4.92295703125,4.5736796875,8.6124921875,12.11520703125,8.1927734375,3.86563671875,7.2777265625,6.62277734375,6.7415546875,11.12288671875,6.6450546875,7.54331640625,3.698875,4.65476953125
8.5916328125,5.56600390625,4.73480078125,6.69082421875,10.4550859375,12.71094921875,9.0619296875,6.31357421875,7.43962109375,10.9749609375,14.2880546875,10.03120703125,3.30475390625,9.39378125,14.36252734375,16.692796875,2.90595703125,5.7026796875,8.9844921875,12.96020703125,9.1587734375,4.14763671875,8.5077265625,7.86877734375,7.9145546875,11.37288671875,8.2950546875,8.59731640625,4.734875,5.25976953125
7.4876328125,4.22000390625,3.82580078125,5.32782421875,9.3620859375,11.35594921875,7.5319296875,4.58357421875,6.35362109375,10.0019609375,13.8480546875,9.67920703125,2.78675390625,8.85578125,14.02752734375,17.600796875,1.11895703125,6.6506796875,8.7994921875,13.18320703125,9.5217734375,3.98263671875,9.2967265625,8.46777734375,8.5805546875,11.10188671875,9.1910546875,9.07731640625,5.195875,5.28376953125
7.5646328125,4.04000390625,4.61880078125,4.03482421875,8.2790859375,10.06894921875,7.0449296875,3.34057421875,4.98462109375,8.7409609375,13.0420546875,9.08820703125,3.38475390625,8.18378125,13.26152734375,17.635796875,0.27695703125,7.4026796875,8.1634921875,12.73420703125,9.2317734375,3.49363671875,9.5987265625,8.46777734375,8.6905546875,10.37288671875,9.3210546875,9.14731640625,5.265875,4.93576953125
8.2126328125,4.49900390625,6.18380078125,3.14082421875,7.2590859375,8.79294921875,7.4989296875,2.68457421875,3.62462109375,7.1969609375,11.8340546875,8.24320703125,4.57575390625,7.44578125,12.10252734375,16.660796875,0.74695703125,7.9036796875,7.2634921875,11.69520703125,8.3327734375,2.94463671875,9.4427265625,8.06077734375,8.2875546875,9.38288671875,8.8780546875,9.09231640625,5.255875,4.53476953125
8.7496328125,4.93800390625,7.41380078125,2.74782421875,6.3350859375,7.42794921875,8.3789296875,2.52057421875,2.48362109375,5.4069609375,10.2560546875,7.02920703125,5.49975390625,6.66378125,10.59552734375,14.738796875,2.38295703125,8.0646796875,6.3044921875,10.27320703125,6.9697734375,2.67063671875,8.9087265625,7.48077734375,7.5085546875,8.42188671875,8.1820546875,9.20831640625,5.467875,4.39576953125
8.6406328125,4.79300390625,7.40480078125,2.67182421875,5.4990859375,5.88594921875,8.9589296875,2.56157421875,1.59762109375,3.4769609375,8.4110546875,5.30720703125,5.46675390625,5.82278125,8.80652734375,12.107796875,4.61395703125,7.8286796875,5.4454921875,8.71820703125,5.3717734375,2.94063671875,8.1067265625,6.89777734375,6.5425546875,7.77488671875,7.5470546875,9.66431640625,6.054875,4.69076953125
7.5276328125,3.68700390625,5.64980078125,2.52382421875,4.6490859375,4.08494921875,8.5569296875,2.40157421875,0.81462109375,1.5349609375,6.3920546875,3.06020703125,4.37875390625,4.88078125,6.82552734375,9.088796875,6.73095703125,7.2256796875,4.7334921875,7.21320703125,3.7887734375,3.80263671875,7.1227265625,6.33577734375,5.5405546875,7.60988671875,7.1490546875,10.40631640625,6.935875,5.36776953125
5.2516328125,1.46200390625,2.11980078125,1.94382421875,3.6020859375,1.97094921875,6.7949296875,1.66457421875,-0.10937890625,-0.319039062499999,4.2360546875,0.48220703125,2.76075390625,3.78278125,4.74452734375,5.994796875,8.15895703125,6.3766796875,4.0874921875,5.80020703125,2.4037734375,5.01063671875,6.0067265625,5.68577734375,4.5465546875,7.88188671875,6.9600546875,11.15031640625,7.815875,6.15876953125
1.9326328125,-1.74899609375,-2.70119921875,0.82182421875,2.1950859375,-0.39105078125,3.7569296875,0.20457421875,-1.34737890625,-2.0280390625,1.9660546875,-2.02679296875,1.36875390625,2.50078125,2.67552734375,3.101796875,8.57495703125,5.4416796875,3.3564921875,4.41020703125,1.2837734375,6.09163671875,4.7827265625,4.78877734375,3.5015546875,8.33988671875,6.7860546875,11.49831640625,8.312875,6.68276953125
-1.9573671875,-5.44899609375,-7.88119921875,-0.65317578125,0.4300859375,-2.75605078125,-0.0260703124999999,-1.81542578125,-2.86937890625,-3.5290390625,-0.2979453125,-4.00279296875,0.68575390625,1.09278125,0.77652734375,0.671796875000001,7.83495703125,4.5636796875,2.4314921875,2.96920703125,0.4087734375,6.55163671875,3.4747265625,3.55477734375,2.3285546875,8.64788671875,6.3910546875,11.10331640625,8.129875,6.61176953125
-5.6633671875,-8.85699609375,-12.27919921875,-2.14317578125,-1.4539140625,-4.72105078125,-3.7610703125,-3.99742578125,-4.41237890625,-4.6940390625,-2.2609453125,-5.10279296875,0.69875390625,-0.276218749999999,-0.73347265625,-1.030203125,5.83695703125,3.8236796875,1.3294921875,1.51520703125,-0.2472265625,6.10163671875,2.1257265625,2.03977734375,1.0275546875,8.53988671875,5.6310546875,9.82731640625,7.187875,5.80176953125
-8.3653671875,-11.14199609375,-14.89619921875,-3.36917578125,-3.0279140625,-5.83805078125,-6.6410703125,-5.88542578125,-5.55837890625,-5.3300390625,-3.5079453125,-5.22679296875,1.03875390625,-1.37121875,-1.62347265625,-1.765203125,2.47995703125,3.2236796875,0.1974921875,0.21520703125,-0.6622265625,4.76863671875,0.7847265625,0.41277734375,-0.288445312499999,7.92088671875,4.5070546875,7.78531640625,5.622875,4.33176953125
-9.3883671875,-11.67099609375,-15.11319921875,-4.18617578125,-3.8219140625,-5.76005078125,-8.0540703125,-7.07942578125,-5.90037890625,-5.2330390625,-3.6719453125,-4.50279296875,1.29275390625,-1.98521875,-1.73947265625,-1.392203125,-2.14804296875,2.6966796875,-0.7495078125,-0.69979296875,-0.7722265625,2.85363671875,-0.5062734375,-1.11422265625,-1.4344453125,6.86088671875,3.1480546875,5.27631640625,3.693875,2.44876953125
-8.2983671875,-10.10299609375,-12.70819921875,-4.49617578125,-3.4779140625,-4.35005078125,-7.6810703125,-7.24042578125,-5.21037890625,-4.2640390625,-2.6249453125,-3.14979296875,1.21875390625,-2.00521875,-1.06547265625,0.0327968750000007,-7.45204296875,2.1496796875,-1.3295078125,-1.05879296875,-0.5352265625,0.76363671875,-1.7062734375,-2.35822265625,-2.2314453125,5.53688671875,1.7440546875,2.67031640625,1.681875,0.47076953125
-4.9433671875,-6.38999609375,-7.77019921875,-4.12517578125,-1.8639140625,-1.74905078125,-5.5400703125,-6.06742578125,-3.56237890625,-2.4070390625,-0.5629453125,-1.33579296875,0.75175390625,-1.41621875,0.26152734375,2.201796875,-12.15204296875,1.5346796875,-1.4495078125,-0.83479296875,0.00877343750000037,-1.15736328125,-2.7412734375,-3.19022265625,-2.5734453125,4.16488671875,0.4940546875,0.30231640625,-0.172125,-1.30323046875
0.4106328125,-0.85799609375,-0.77919921875,-2.84617578125,0.8550859375,1.63994921875,-1.9970703125,-3.40242578125,-1.32937890625,0.187960937500001,2.0250546875,0.84420703125,-0.11624609375,-0.292218749999999,1.97552734375,4.590796875,-14.56504296875,0.8916796875,-1.1285078125,-0.17379296875,0.6887734375,-2.71936328125,-3.5022734375,-3.53222265625,-2.4664453125,2.94188671875,-0.4459453125,-1.60268359375,-1.692125,-2.64623046875
6.8746328125,5.60500390625,7.15080078125,-0.58817578125,4.2010859375,5.22394921875,2.2349296875,0.53857421875,0.92362109375,3.1849609375,4.4970546875,3.24720703125,-1.42424609375,1.20378125,3.74052734375,6.593796875,-13.36804296875,0.3246796875,-0.4695078125,0.65420703125,1.2347734375,-3.89636328125,-3.8862734375,-3.35422265625,-2.0194453125,1.99188671875,-0.988945312499999,-2.95068359375,-2.781125,-3.43523046875
12.9096328125,11.52700390625,14.21080078125,2.30382421875,7.4480859375,8.33094921875,6.1889296875,4.98857421875,2.62162109375,6.0989609375,6.2790546875,5.56520703125,-3.19224609375,2.81078125,5.23052734375,7.745796875,-8.44004296875,-0.0883203124999998,0.3794921875,1.36920703125,1.3787734375,-4.74036328125,-3.8612734375,-2.68222265625,-1.3924453125,1.36388671875,-1.1279453125,-3.75768359375,-3.405125,-3.64523046875
16.7516328125,15.26700390625,18.37880078125,5.03282421875,9.8160859375,10.36694921875,8.8869296875,8.75757421875,3.36262109375,8.4099609375,7.0680546875,7.32520703125,-5.25624609375,4.20378125,6.22152734375,7.903796875,-1.13904296875,-0.3673203125,1.2714921875,1.79620703125,1.0037734375,-5.29236328125,-3.5032734375,-1.59422265625,-0.7224453125,1.05088671875,-0.9109453125,-4.07968359375,-3.561125,-3.32923046875
17.2336328125,15.78300390625,18.40580078125,6.63182421875,10.7520859375,10.99994921875,9.7069296875,10.72557421875,3.06862109375,9.7289609375,6.9280546875,8.09220703125,-7.16624609375,5.07578125,6.65252734375,7.286796875,6.28395703125,-0.6173203125,2.0834921875,1.92620703125,0.2137734375,-5.52136328125,-2.9772734375,-0.23022265625,-0.0714453124999999,1.03088671875,-0.4139453125,-3.95068359375,-3.254125,-2.59623046875
14.5666328125,13.35200390625,14.74480078125,6.45882421875,10.1800859375,10.33194921875,8.6979296875,10.44457421875,2.05862109375,9.9329609375,6.2290546875,7.74620703125,-8.29424609375,5.24378125,6.60752734375,6.337796875,11.73295703125,-0.9443203125,2.7114921875,1.88420703125,-0.7052265625,-5.35136328125,-2.4662734375,1.21777734375,0.565554687500001,1.27288671875,0.285054687500001,-3.37468359375,-2.510125,-1.57623046875
10.5206328125,9.69200390625,9.72980078125,4.60082421875,8.5720859375,8.94594921875,6.6319296875,8.46957421875,0.95762109375,9.2209609375,5.4840546875,6.61720703125,-8.14224609375,4.74678125,6.27052734375,5.504796875,14.08995703125,-1.3523203125,3.0884921875,1.85320703125,-1.4152265625,-4.72136328125,-2.0812734375,2.54277734375,1.2165546875,1.73188671875,1.1270546875,-2.36968359375,-1.409125,-0.40423046875
7.7126328125,7.28200390625,6.65380078125,1.91582421875,6.7620859375,7.72094921875,4.6929296875,6.13257421875,0.46062109375,8.0619609375,5.1650546875,5.34120703125,-6.63624609375,3.86878125,5.87252734375,5.081796875,13.36195703125,-1.6913203125,3.2114921875,1.99120703125,-1.6442265625,-3.64236328125,-1.8062734375,3.59677734375,1.8875546875,2.33488671875,2.0870546875,-1.01468359375,-0.0901249999999996,0.80276953125
8.2676328125,8.10400390625,8.08680078125,-0.33817578125,5.5560859375,7.45294921875,3.9269296875,4.85957421875,1.02762109375,7.0099609375,5.5390546875,4.49220703125,-4.14124609375,3.05778125,5.62952734375,5.148796875,10.26395703125,-1.7063203125,3.1634921875,2.38020703125,-1.2822265625,-2.21536328125,-1.5132734375,4.34677734375,2.5415546875,2.97988671875,3.1610546875,0.53831640625,1.287875,1.95776953125
12.5536328125,12.45700390625,14.29980078125,-1.13617578125,5.3280859375,8.46494921875,4.7209296875,5.37357421875,2.66662109375,6.4759609375,6.5510546875,4.24820703125,-1.18424609375,2.72778125,5.66052734375,5.594796875,5.64795703125,-1.1673203125,3.0904921875,2.98920703125,-0.4202265625,-0.61636328125,-1.0452734375,4.84977734375,3.0935546875,3.53388671875,4.3260546875,2.09331640625,2.590875,2.99776953125
18.7246328125,18.55100390625,22.76180078125,-0.21917578125,5.8210859375,10.37894921875,6.5699296875,7.25257421875,4.88062109375,6.5279609375,7.7860546875,4.31720703125,1.82075390625,3.05278125,5.90452734375,6.173796875,0.18795703125,-0.0263203125,3.1134921875,3.66220703125,0.6657734375,0.918636718750001,-0.3232734375,5.18277734375,3.4305546875,3.84188671875,5.4810546875,3.44031640625,3.727875,3.86476953125
23.4526328125,23.21900390625,29.16180078125,1.76882421875,6.2670859375,12.20494921875,8.3039296875,9.11757421875,6.84562109375,6.8459609375,8.5900546875,4.18120703125,4.60775390625,3.85178125,6.12852734375,6.581796875,-5.53704296875,1.4896796875,3.2404921875,4.15620703125,1.6007734375,2.11563671875,0.5717265625,5.35877734375,3.4545546875,3.76588671875,6.4270546875,4.39431640625,4.628875,4.48876953125
23.6276328125,23.54500390625,29.59980078125,3.65582421875,5.8280859375,12.79394921875,8.7149296875,9.43057421875,7.76462109375,6.8999609375,8.3550546875,3.50120703125,6.87375390625,4.67978125,6.03252734375,6.551796875,-10.69204296875,2.9126796875,3.3494921875,4.24020703125,2.0527734375,2.71863671875,1.4147265625,5.32577734375,3.1355546875,3.23888671875,6.9300546875,4.80831640625,5.218875,4.79176953125
18.1796328125,18.55300390625,22.82480078125,4.41782421875,4.1140859375,11.47794921875,7.2589296875,7.45657421875,7.26262109375,6.2649609375,6.8390546875,2.38820703125,8.17275390625,5.06178125,5.43252734375,5.964796875,-14.01504296875,3.7116796875,3.2604921875,3.82120703125,1.8487734375,2.58063671875,1.9277265625,5.02077734375,2.5435546875,2.32088671875,6.8200546875,4.61431640625,5.419875,4.70576953125
8.9456328125,9.97800390625,11.20980078125,3.73682421875,1.4880859375,8.51494921875,4.4299296875,3.79457421875,5.59462109375,4.8939609375,4.3480546875,1.36620703125,8.08075390625,4.75078125,4.38452734375,4.903796875,-14.16504296875,3.5466796875,2.8624921875,3.01820703125,1.0337734375,1.75463671875,1.9277265625,4.44377734375,1.8515546875,1.19488671875,6.1000546875,3.85631640625,5.189875,4.21076953125
-0.0593671875000001,1.55800390625,-0.22319921875,2.11182421875,-1.0719140625,5.03194921875,1.5259296875,0.10357421875,3.50162109375,3.1669609375,1.6570546875,1.04320703125,6.51775390625,3.84778125,3.18452734375,3.645796875,-10.51804296875,2.4576796875,2.2064921875,2.13320703125,-0.1412265625,0.51463671875,1.4327265625,3.68677734375,1.2875546875,0.12588671875,4.9810546875,2.71931640625,4.575875,3.37076953125
-4.6683671875,-2.82999609375,-6.26819921875,0.47782421875,-2.5029140625,2.43394921875,-0.0520703124999999,-1.83642578125,1.81162109375,1.6629609375,-0.3189453125,1.73120703125,3.94475390625,2.72578125,2.22452734375,2.578796875,-3.83604296875,0.8876796875,1.4894921875,1.52620703125,-1.2982265625,-0.709363281249999,0.6737265625,2.91377734375,1.0755546875,-0.60711328125,3.8280546875,1.52531640625,3.756875,2.35276953125
-2.7223671875,-1.15799609375,-4.14119921875,-0.38717578125,-2.2579140625,1.64394921875,0.4589296875,-1.12742578125,1.03962109375,0.801960937500001,-0.9549453125,3.25320703125,1.18975390625,1.78378125,1.77052734375,2.041796875,3.82295703125,-0.5243203125,0.9394921875,1.43820703125,-2.0492265625,-1.47036328125,-0.0162734374999998,2.28177734375,1.3555546875,-0.80611328125,2.9980546875,0.63931640625,3.000875,1.38676953125
4.8516328125,5.74500390625,5.17780078125,-0.29517578125,-0.6469140625,2.61494921875,2.7999296875,1.77457421875,1.19262109375,0.5749609375,-0.2409453125,5.00820703125,-1.00524609375,1.20278125,1.78652734375,2.168796875,10.02095703125,-1.2763203125,0.6364921875,1.85320703125,-2.1522265625,-1.48736328125,-0.3912734375,1.82477734375,2.0915546875,-0.42211328125,2.6420546875,0.30731640625,2.525875,0.67176953125
14.5986328125,14.70100390625,17.53780078125,0.31882421875,1.3010859375,4.37994921875,5.8349296875,5.34557421875,1.82562109375,0.5249609375,1.2020546875,6.24220703125,-2.38724609375,0.81978125,1.91552734375,2.784796875,13.08695703125,-1.2913203125,0.4134921875,2.45920703125,-1.6172265625,-0.79436328125,-0.4482734375,1.39677734375,3.0215546875,0.40988671875,2.5880546875,0.49931640625,2.346875,0.27176953125
22.3696328125,21.87300390625,27.78580078125,0.74382421875,2.3700859375,5.57894921875,8.1189296875,7.82757421875,2.28062109375,0.0179609375000007,2.4490546875,6.40120703125,-3.20824609375,0.238781250000001,1.66252734375,3.482796875,12.72595703125,-0.9503203125,-0.0885078124999996,2.78320703125,-0.7062265625,0.25463671875,-0.4482734375,0.72277734375,3.7255546875,1.40888671875,2.4060546875,0.88731640625,2.239875,0.0547695312499998
25.4066328125,24.70600390625,32.34480078125,0.48082421875,1.8140859375,5.20194921875,8.6279296875,8.14957421875,2.02962109375,-1.3550390625,2.7690546875,5.43320703125,-3.87524609375,-0.89321875,0.69152734375,3.850796875,9.80295703125,-0.8563203125,-1.1965078125,2.43420703125,0.1987734375,1.15463671875,-0.7612734375,-0.43922265625,3.8045546875,2.24488671875,1.6420546875,1.00831640625,1.865875,-0.24023046875
23.5826328125,23.08100390625,30.83480078125,-0.41717578125,-0.2279140625,3.14294921875,7.2619296875,6.44257421875,0.96762109375,-3.4900390625,1.9970546875,3.86820703125,-4.53324609375,-2.62021875,-0.95647265625,3.713796875,5.60395703125,-1.4513203125,-2.9765078125,1.32320703125,0.7707734375,1.50363671875,-1.6452734375,-2.12722265625,3.0825546875,2.65588671875,0.0880546875000006,0.51931640625,0.963875,-0.863230468749999
19.1536328125,19.07300390625,25.86680078125,-1.38317578125,-2.8239140625,0.22094921875,4.8559296875,3.87857421875,-0.51737890625,-5.7980390625,0.5630546875,2.57620703125,-4.90124609375,-4.59321875,-2.86047265625,3.208796875,1.17495703125,-2.7533203125,-5.1405078125,-0.28079296875,0.8757734375,1.18863671875,-3.0932734375,-4.11522265625,1.7015546875,2.53688671875,-2.0929453125,-0.62968359375,-0.484125,-1.91023046875
15.2366328125,15.55400390625,21.23280078125,-1.69917578125,-4.7839140625,-2.34105078125,2.6559296875,1.95357421875,-1.77837890625,-7.5260390625,-0.8409453125,2.30620703125,-4.45824609375,-6.23821875,-4.45847265625,2.653796875,-2.87204296875,-4.3733203125,-7.1745078125,-1.89279296875,0.5957734375,0.38863671875,-4.8492734375,-6.00922265625,0.0365546874999998,1.97488671875,-4.4419453125,-2.19068359375,-2.234125,-3.26723046875
13.9666328125,14.47800390625,19.61880078125,-0.96017578125,-5.3499140625,-3.65605078125,1.6129296875,1.64757421875,-2.31337890625,-8.1830390625,-1.7199453125,3.26520703125,-2.85324609375,-7.07421875,-5.35647265625,2.299796875,-6.11604296875,-5.7773203125,-8.5815078125,-3.07379296875,0.1307734375,-0.57036328125,-6.5572734375,-7.43422265625,-1.4904453125,1.19488671875,-6.4349453125,-3.78068359375,-3.891125,-4.65923046875
15.4196328125,15.88500390625,21.22780078125,0.67482421875,-4.5939140625,-3.64105078125,1.9009296875,2.96257421875,-2.05937890625,-7.8010390625,-2.0749453125,5.00820703125,-0.26124609375,-6.98321875,-5.55547265625,2.143796875,-8.03404296875,-6.5983203125,-9.1155078125,-3.64879296875,-0.3552265625,-1.40436328125,-7.9352734375,-8.19922265625,-2.6044453125,0.44688671875,-7.7139453125,-5.08968359375,-5.097125,-5.77623046875
17.8546328125,18.12800390625,24.03880078125,2.57082421875,-3.3319140625,-2.97005078125,2.8979296875,5.02357421875,-1.40337890625,-6.8900390625,-2.3679453125,6.66620703125,2.52275390625,-6.26821875,-5.42547265625,1.916796875,-8.04504296875,-6.8113203125,-8.8685078125,-3.78779296875,-0.8322265625,-2.00336328125,-8.8642734375,-8.36022265625,-3.2544453125,-0.13011328125,-8.2189453125,-5.99768359375,-5.696125,-6.41723046875
18.9836328125,19.06300390625,25.32280078125,3.94182421875,-2.6169140625,-2.61205078125,3.6099296875,6.63157421875,-0.93237890625,-6.1330390625,-3.1669453125,7.39420703125,4.40075390625,-5.46121875,-5.46147265625,1.278796875,-5.89304296875,-6.6613203125,-8.1715078125,-3.87279296875,-1.3742265625,-2.42636328125,-9.3602734375,-8.12522265625,-3.5524453125,-0.54811328125,-8.1419453125,-6.56568359375,-5.782125,-6.56723046875
17.3936328125,17.37900390625,23.36380078125,4.24482421875,-3.1459140625,-3.25005078125,3.2469296875,6.90457421875,-1.07737890625,-6.0140390625,-4.7049453125,6.78620703125,4.56275390625,-4.99621875,-5.95847265625,0.0747968750000005,-2.02204296875,-6.4363203125,-7.3865078125,-4.23879296875,-2.0222265625,-2.78736328125,-9.4562734375,-7.69022265625,-3.6364453125,-0.89711328125,-7.7589453125,-6.90968359375,-5.591125,-6.36223046875
13.2956328125,13.28400390625,18.36280078125,3.42982421875,-4.8949140625,-4.91205078125,1.6689296875,5.68957421875,-1.84837890625,-6.5800390625,-6.6629453125,5.06720703125,3.04175390625,-4.96721875,-6.82447265625,-1.499203125,2.44995703125,-6.2353203125,-6.7095078125,-4.93879296875,-2.6722265625,-3.10536328125,-9.1122734375,-7.09722265625,-3.5494453125,-1.22511328125,-7.2479453125,-7.06168359375,-5.324125,-5.96323046875
8.2876328125,8.25500390625,12.16980078125,1.94082421875,-7.1559140625,-6.98005078125,-0.5600703125,3.57757421875,-2.82537890625,-7.4440390625,-8.3029453125,2.96820703125,0.82875390625,-5.10721875,-7.64047265625,-2.949203125,6.19095703125,-5.9073203125,-6.0935078125,-5.69979296875,-3.0932265625,-3.24136328125,-8.2132734375,-6.22522265625,-3.2274453125,-1.46011328125,-6.6159453125,-6.92468359375,-5.027125,-5.43923046875
4.3856328125,4.15900390625,7.16880078125,0.46882421875,-8.9169140625,-8.55705078125,-2.5140703125,1.53457421875,-3.41337890625,-8.0200390625,-8.8599453125,1.33820703125,-0.55024609375,-4.97221875,-7.89347265625,-3.717203125,8.25795703125,-5.1723203125,-5.3335078125,-6.07079296875,-3.0592265625,-2.95136328125,-6.6722734375,-4.91322265625,-2.5684453125,-1.44811328125,-5.7369453125,-6.32168359375,-4.560125,-4.72723046875
2.9566328125,2.29700390625,5.01680078125,-0.41417578125,-9.3649140625,-8.95705078125,-3.4340703125,0.38157421875,-3.18137890625,-7.8160390625,-7.9449453125,0.72420703125,0.20975390625,-4.19921875,-7.24147265625,-3.448203125,8.43495703125,-3.8283203125,-4.2365078125,-5.68479296875,-2.4922265625,-2.02436328125,-4.5432734375,-3.11522265625,-1.5374453125,-1.05411328125,-4.4639453125,-5.11768359375,-3.698125,-3.69923046875
4.1536328125,2.89100390625,5.94480078125,-0.51317578125,-8.2349140625,-8.01205078125,-3.1060703125,0.41157421875,-2.06437890625,-6.6590390625,-5.7319453125,1.12120703125,3.47375390625,-2.69121875,-5.66747265625,-2.138203125,7.14695703125,-1.9163203125,-2.7645078125,-4.46679296875,-1.5232265625,-0.42136328125,-2.0732734375,-0.99322265625,-0.2174453125,-0.25711328125,-2.7609453125,-3.34268359375,-2.285125,-2.28723046875
7.1106328125,5.22900390625,8.93280078125,-0.02317578125,-5.8529140625,-6.05305078125,-1.8630703125,1.35557421875,-0.34137890625,-4.7430390625,-2.8489453125,2.04420703125,8.35875390625,-0.660218749999999,-3.47147265625,-0.124203124999999,5.05595703125,0.2546796875,-1.0965078125,-2.67479296875,-0.4372265625,1.66863671875,0.3467265625,1.10077734375,1.1875546875,0.80888671875,-0.7839453125,-1.23868359375,-0.395125,-0.59123046875
10.6416328125,8.28300390625,12.54480078125,0.68282421875,-2.9009140625,-3.64905078125,-0.2640703125,2.66957421875,1.53162109375,-2.5140390625,-0.0759453124999996,2.85920703125,12.99475390625,1.46178125,-1.14647265625,2.065796875,2.67295703125,2.2076796875,0.4464921875,-0.78779296875,0.4637734375,3.85563671875,2.3027265625,2.75977734375,2.4165546875,1.89388671875,1.1350546875,0.78231640625,1.628875,1.10076953125
13.9146328125,11.32100390625,15.78680078125,1.30482421875,-0.0769140624999999,-1.33205078125,1.2679296875,3.89457421875,3.11162109375,-0.476039062499999,1.9830546875,3.16520703125,15.32975390625,3.19978125,0.81552734375,3.912796875,0.23495703125,3.4716796875,1.5414921875,0.70020703125,0.9967734375,5.65163671875,3.4777265625,3.68377734375,3.2405546875,2.72588671875,2.5920546875,2.26531640625,3.274875,2.39876953125
16.6506328125,14.08900390625,18.38380078125,1.73582421875,2.1420859375,0.55294921875,2.6219296875,4.83957421875,4.08362109375,0.9879609375,3.0790546875,3.00520703125,14.10875390625,4.20678125,2.08452734375,5.063796875,-2.12404296875,3.7556796875,1.9974921875,1.47020703125,1.1657734375,6.60263671875,3.7417265625,3.80377734375,3.5485546875,3.11588671875,3.2780546875,2.87731640625,4.081875,2.97576953125
18.7916328125,16.48700390625,20.37580078125,2.00482421875,3.5480859375,1.84694921875,3.8829296875,5.50057421875,4.32062109375,1.7029609375,3.2790546875,2.76620703125,9.53975390625,4.37178125,2.56452734375,5.405796875,-4.13404296875,3.0736796875,1.8234921875,1.46320703125,1.1047734375,6.42663671875,3.1677265625,3.28477734375,3.3745546875,3.00988671875,3.1010546875,2.52431640625,3.843875,2.70876953125
20.0416328125,18.15300390625,21.53380078125,2.13782421875,4.1140859375,2.49994921875,5.0889296875,5.85357421875,3.86262109375,1.6999609375,2.8270546875,2.86620703125,3.24375390625,3.83278125,2.38052734375,5.053796875,-5.30004296875,1.7406796875,1.2044921875,0.85420703125,0.9687734375,5.13263671875,2.0057265625,2.43877734375,2.8805546875,2.49688671875,2.2260546875,1.39031640625,2.695875,1.73376953125
19.8236328125,18.44200390625,21.26080078125,2.09682421875,3.9160859375,2.52794921875,6.0849296875,5.77557421875,2.87962109375,1.1869609375,2.0370546875,3.44420703125,-2.48724609375,2.92078125,1.82052734375,4.286796875,-5.07604296875,0.2666796875,0.4344921875,-0.03579296875,0.8507734375,3.06863671875,0.6247265625,1.60277734375,2.2945546875,1.75388671875,1.0070546875,-0.13468359375,1.061875,0.39276953125
17.8156328125,16.97100390625,19.20780078125,1.83782421875,3.1620859375,2.08594921875,6.6539296875,5.19557421875,1.65062109375,0.517960937500001,1.2570546875,4.30820703125,-5.70124609375,2.05678125,1.27252734375,3.475796875,-3.19004296875,-0.8293203125,-0.1495078125,-0.83679296875,0.7797734375,0.866636718750001,-0.5702734375,1.03577734375,1.8475546875,0.98688671875,-0.1419453125,-1.58168359375,-0.515125,-0.88923046875
14.6366328125,14.27200390625,16.06480078125,1.40882421875,2.2700859375,1.55494921875,6.7849296875,4.33257421875,0.58662109375,0.143960937500001,0.8670546875,5.13920703125,-5.49324609375,1.64478125,1.12752734375,2.983796875,0.08195703125,-1.1823203125,-0.2395078125,-1.22279296875,0.7667734375,-0.74936328125,-1.2202734375,0.87277734375,1.7085546875,0.36088671875,-0.8899453125,-2.54268359375,-1.580125,-1.75323046875
11.9156328125,11.84100390625,13.63680078125,0.95382421875,1.8270859375,1.50794921875,6.8009296875,3.71657421875,0.17462109375,0.482960937500001,1.1800546875,5.75520703125,-2.15424609375,1.96078125,1.65252734375,3.047796875,3.91995703125,-0.6683203125,0.3544921875,-0.99279296875,0.841773437500001,-1.21236328125,-1.1082734375,1.12777734375,1.9435546875,-0.0331132812500003,-1.0819453125,-2.77368359375,-1.910125,-2.01423046875
11.4356328125,11.35200390625,13.87580078125,0.57982421875,2.3250859375,2.41194921875,7.1419296875,3.88357421875,0.78862109375,1.7279609375,2.2980546875,6.20820703125,3.14875390625,3.04778125,2.86252734375,3.684796875,7.29895703125,0.6016796875,1.6224921875,-0.14579296875,1.0607734375,-0.31236328125,-0.2312734375,1.71177734375,2.5015546875,-0.17211328125,-0.7539453125,-2.22468359375,-1.529125,-1.67923046875
13.9006328125,13.51000390625,17.47680078125,0.23382421875,3.8420859375,4.26894921875,7.9669296875,4.95057421875,2.42562109375,3.6899609375,3.9790546875,6.66620703125,8.83775390625,4.65878125,4.45752734375,4.659796875,9.44195703125,2.3276796875,3.3074921875,1.09820703125,1.4607734375,1.73463671875,1.1817265625,2.47077734375,3.2375546875,-0.0811132812500004,-0.0819453124999994,-1.03768359375,-0.633125,-0.90623046875
18.2786328125,17.41100390625,23.10980078125,-0.26017578125,5.9050859375,6.48594921875,8.9169296875,6.43757421875,4.60062109375,5.7959609375,5.6750546875,7.20020703125,13.36275390625,6.29878125,5.91052734375,5.573796875,10.09395703125,4.0946796875,4.9514921875,2.35220703125,2.0137734375,4.38663671875,2.7307265625,3.21777734375,3.9685546875,0.17988671875,0.7030546875,0.51031640625,0.519875,0.0727695312500005
22.2266328125,20.89300390625,27.88580078125,-1.02217578125,7.6950859375,8.12894921875,9.2659296875,7.49157421875,6.52262109375,7.3199609375,6.7480546875,7.66420703125,15.56775390625,7.38578125,6.68152734375,6.034796875,9.43595703125,5.4516796875,6.0544921875,3.20420703125,2.6227734375,6.97663671875,3.9657265625,3.76677734375,4.5435546875,0.52688671875,1.3840546875,2.06831640625,1.669875,1.02776953125
23.3146328125,21.66500390625,28.77280078125,-1.95517578125,8.4740859375,8.39694921875,8.3369296875,7.35457421875,7.48062109375,7.7159609375,6.7680546875,7.72720703125,15.00275390625,7.49778125,6.48752734375,5.850796875,7.79895703125,6.0226796875,6.2764921875,3.39120703125,3.1687734375,8.92563671875,4.5367265625,3.98077734375,4.9005546875,0.87188671875,1.8170546875,3.30331640625,2.589875,1.78376953125
20.2516328125,18.50100390625,24.10780078125,-2.74917578125,7.9600859375,7.03394921875,5.9369296875,5.76357421875,7.21162109375,6.8899609375,5.7340546875,7.03620703125,12.07875390625,6.55678125,5.45552734375,5.117796875,5.43095703125,5.6286796875,5.5804921875,2.91120703125,3.5597734375,9.87063671875,4.2947265625,3.80777734375,5.0585546875,1.15288671875,1.9400546875,3.96931640625,3.098875,2.23776953125
13.4666328125,11.84700390625,14.42480078125,-3.05517578125,6.4520859375,4.46994921875,2.5589296875,3.06957421875,6.01762109375,5.2449609375,4.0960546875,5.43620703125,7.96275390625,4.85778125,4.07752734375,4.162796875,2.47595703125,4.3556796875,4.2444921875,2.03420703125,3.7637734375,9.69463671875,3.3237265625,3.30677734375,5.0655546875,1.33688671875,1.7570546875,3.93731640625,3.078875,2.33776953125
4.8236328125,3.57000390625,2.20380078125,-2.68217578125,4.6580859375,1.64494921875,-0.7460703125,0.0715742187499999,4.61062109375,3.5019609375,2.5620546875,3.12720703125,4.16375390625,2.93878125,2.97852734375,3.387796875,-0.87604296875,2.5526796875,2.7454921875,1.18620703125,3.7957734375,8.46563671875,1.8967265625,2.64277734375,4.9555546875,1.41188671875,1.3050546875,3.19331640625,2.500875,2.07576953125
-3.2853671875,-3.94199609375,-9.24819921875,-1.69817578125,3.3330859375,-0.40005078125,-2.7940703125,-2.34842578125,3.75562109375,2.3719609375,1.8000546875,0.67320703125,1.94375390625,1.37178125,2.64152734375,3.101796875,-4.22104296875,0.7066796875,1.5904921875,0.78620703125,3.7147734375,6.38863671875,0.3997265625,2.05577734375,4.7575546875,1.38188671875,0.668054687500001,1.83631640625,1.450875,1.49176953125
-8.9773671875,-8.82199609375,-17.21219921875,-0.38517578125,2.9230859375,-0.99305078125,-2.8230703125,-3.58642578125,3.89662109375,2.2589609375,2.1480546875,-1.17479296875,1.80175390625,0.56478125,3.20752734375,3.393796875,-6.87004296875,-0.7123203125,1.1524921875,1.07320703125,3.6147734375,3.77463671875,-0.7742734375,1.80377734375,4.5415546875,1.28788671875,-0.00494531249999941,0.0813164062499998,0.148875,0.70676953125
-11.5163671875,-10.38699609375,-20.53919921875,0.89582421875,3.3850859375,-0.12005078125,-0.8880703125,-3.51642578125,4.96162109375,3.1019609375,3.4650546875,-1.77979296875,3.28375390625,0.64478125,4.43852734375,4.098796875,-7.96804296875,-1.4073203125,1.5594921875,2.01820703125,3.5997734375,1.02463671875,-1.3252734375,2.06777734375,4.4265546875,1.21188671875,-0.4949453125,-1.74368359375,-1.088125,-0.0712304687499996
-11.2973671875,-9.15999609375,-19.74619921875,1.85082421875,4.2780859375,1.62094921875,2.1459296875,-2.44642578125,6.43162109375,4.4349609375,5.1800546875,-0.91079296875,5.23775390625,1.43578125,5.82252734375,4.862796875,-6.80604296875,-1.3263203125,2.6544921875,3.34120703125,3.7417734375,-1.40936328125,-1.1162734375,2.87377734375,4.5465546875,1.26988671875,-0.5559453125,-3.24368359375,-1.934125,-0.58423046875
-9.3343671875,-6.34999609375,-16.36519921875,2.31682421875,5.0270859375,3.36094921875,5.0009296875,-0.91442578125,7.57962109375,5.6249609375,6.5430546875,1.13320703125,6.39775390625,2.54678125,6.80452734375,5.300796875,-3.21204296875,-0.6533203125,4.0764921875,4.64720703125,4.0497734375,-3.10336328125,-0.1852734375,4.08977734375,4.9875546875,1.57888671875,0.00705468750000016,-4.04168359375,-2.144125,-0.597230468749999
-6.6503671875,-3.18399609375,-12.03719921875,2.23082421875,5.2210859375,4.36794921875,6.5469296875,0.52257421875,7.75762109375,6.1549609375,6.9510546875,3.63820703125,6.00775390625,3.53378125,7.02452734375,5.166796875,2.17695703125,0.3036796875,5.4084921875,5.60520703125,4.4757734375,-3.75836328125,1.2907265625,5.49577734375,5.7485546875,2.22688671875,1.2710546875,-3.87868359375,-1.615125,0.0327695312500005
-3.9433671875,-0.488996093749999,-7.93319921875,1.56782421875,4.7550859375,4.29794921875,6.2319296875,1.42757421875,6.62262109375,5.8159609375,6.1750546875,5.78020703125,4.16175390625,4.06878125,6.44752734375,4.434796875,7.97495703125,1.2466796875,6.3374921875,6.06620703125,4.9327734375,-3.27636328125,3.0567265625,6.87877734375,6.7285546875,3.23088671875,3.1470546875,-2.69968359375,-0.389125,1.28676953125
-1.6303671875,1.29700390625,-4.74919921875,0.32782421875,3.7600859375,3.20194921875,4.1849296875,1.51457421875,4.24162109375,4.7079609375,4.3780546875,6.91720703125,1.67975390625,4.01978125,5.29752734375,3.226796875,12.50595703125,1.9796796875,6.7184921875,6.04620703125,5.2807734375,-1.79336328125,4.8277265625,8.05277734375,7.7255546875,4.48188671875,5.3640546875,-0.69168359375,1.354875,2.95776953125
-0.1123671875,1.85700390625,-3.02619921875,-1.41817578125,2.4310859375,1.35794921875,1.0179296875,0.63357421875,1.04362109375,3.0969609375,1.9380546875,6.74320703125,-0.35924609375,3.41978125,3.86552734375,1.673796875,14.46095703125,2.4306796875,6.5484921875,5.60520703125,5.3287734375,0.366636718750001,6.3287265625,8.83277734375,8.4525546875,5.71388671875,7.5010546875,1.75131640625,3.325875,4.67076953125
0.1166328125,0.86800390625,-3.29619921875,-3.46817578125,0.9000859375,-0.92705078125,-2.5110703125,-1.21342578125,-2.34637890625,1.2559609375,-0.7369453125,5.25520703125,-1.12824609375,2.39578125,2.34652734375,-0.162203125,13.38695703125,2.6326796875,5.9004921875,4.76320703125,4.8737734375,2.81263671875,7.3527265625,9.04077734375,8.6105546875,6.56288671875,9.1200546875,4.15831640625,5.205875,5.99476953125
-1.2923671875,-1.78199609375,-5.80819921875,-5.47717578125,-0.7429140625,-3.39405078125,-5.7550703125,-3.80542578125,-5.28537890625,-0.5950390625,-3.2959453125,2.68120703125,-0.32924609375,1.13578125,0.82352734375,-2.210203125,9.75395703125,2.7096796875,4.9084921875,3.52620703125,3.8177734375,5.23763671875,7.8327265625,8.57877734375,8.0245546875,6.70488671875,9.9430546875,6.15831640625,6.750875,6.60476953125
-4.1513671875,-5.66099609375,-10.08819921875,-7.03817578125,-2.3179140625,-5.76405078125,-8.2810703125,-6.66942578125,-7.22137890625,-2.2620390625,-5.4189453125,-0.56579296875,1.85975390625,-0.107218749999999,-0.64547265625,-4.259203125,4.65395703125,2.8486796875,3.7794921875,1.98320703125,2.2627734375,7.49163671875,7.8797265625,7.51877734375,6.7475546875,5.99788671875,9.9750546875,7.60331640625,7.866875,6.41076953125
-7.5963671875,-9.73699609375,-14.86319921875,-7.84517578125,-3.5159140625,-7.69305078125,-9.8730703125,-9.16742578125,-7.77337890625,-3.5520390625,-6.8159453125,-3.92179296875,5.04175390625,-1.04621875,-1.94547265625,-5.920203125,-0.63704296875,3.2306796875,2.7734921875,0.35220703125,0.5077734375,9.55063671875,7.7317265625,6.12377734375,5.0675546875,4.53188671875,9.4520546875,8.55831640625,8.584875,5.57076953125
-10.4223671875,-12.75099609375,-18.52119921875,-7.83417578125,-4.0109140625,-8.83305078125,-10.5080703125,-10.72542578125,-6.83037890625,-4.3140390625,-7.3099453125,-6.73679296875,8.79175390625,-1.44921875,-2.90447265625,-6.786203125,-5.01104296875,3.9316796875,2.1174921875,-1.07379296875,-1.0542265625,11.40463671875,7.6217265625,4.74277734375,3.3795546875,2.58588671875,8.6810546875,9.17731640625,8.972875,4.36476953125
-11.6523671875,-13.76199609375,-19.80719921875,-7.19517578125,-3.6599140625,-8.99305078125,-10.3210703125,-11.06242578125,-4.63737890625,-4.5020390625,-6.9429453125,-8.41179296875,12.66675390625,-1.23321875,-3.36347265625,-6.665203125,-7.72504296875,4.8606796875,1.9224921875,-2.04279296875,-2.0932265625,12.96763671875,7.6687265625,3.66977734375,2.0315546875,0.54288671875,7.8690546875,9.55931640625,9.047875,3.06176953125
-10.9363671875,-12.49799609375,-18.29519921875,-6.22517578125,-2.5949140625,-8.22305078125,-9.5140703125,-10.24542578125,-1.76437890625,-4.1850390625,-5.9759453125,-8.52779296875,16.04975390625,-0.48821875,-3.23747265625,-5.701203125,-8.47204296875,5.7976796875,2.1554921875,-2.41279296875,-2.4372265625,14.06863671875,7.8617265625,3.05477734375,1.2225546875,-1.21211328125,7.0890546875,9.68731640625,8.782875,1.83776953125
-8.5753671875,-9.37199609375,-14.43919921875,-5.16517578125,-1.1499140625,-6.74805078125,-8.2520703125,-8.60142578125,1.06162109375,-3.4810390625,-4.7729453125,-6.98179296875,18.07275390625,0.57778125,-2.52947265625,-4.292203125,-7.40104296875,6.4816796875,2.6974921875,-2.14379296875,-2.0972265625,14.51863671875,8.1127265625,2.91277734375,1.0065546875,-2.37411328125,6.3460546875,9.47531640625,8.170875,0.79976953125
-5.2933671875,-5.25099609375,-9.33319921875,-4.15017578125,0.2920859375,-4.85905078125,-6.6500703125,-6.56742578125,3.15962109375,-2.5030390625,-3.6269453125,-4.07079296875,17.78275390625,1.71778125,-1.33547265625,-2.880203125,-5.07604296875,6.6896796875,3.4094921875,-1.26879296875,-1.2132265625,14.17563671875,8.3207265625,3.17177734375,1.3435546875,-2.78411328125,5.6700546875,8.85531640625,7.299875,0.0527695312500001
-1.9623671875,-1.16399609375,-4.33619921875,-3.27417578125,1.4150859375,-2.85005078125,-4.8560703125,-4.59142578125,4.02362109375,-1.3570390625,-2.6739453125,-0.46679296875,14.57575390625,2.68278125,0.15952734375,-1.766203125,-2.29804296875,6.2526796875,4.1594921875,0.10220703125,0.0117734375,12.97063671875,8.3757265625,3.71977734375,2.1465546875,-2.45711328125,5.1480546875,7.83531640625,6.368875,-0.26923046875
0.6286328125,1.98200390625,-0.680199218749999,-2.69217578125,2.0220859375,-1.00505078125,-3.1210703125,-3.05642578125,3.41262109375,-0.197039062499999,-1.9189453125,2.97120703125,8.64775390625,3.22578125,1.67852734375,-1.039203125,0.18995703125,5.0536796875,4.7974921875,1.75420703125,1.3647734375,10.88963671875,8.1377265625,4.40577734375,3.2885546875,-1.55411328125,4.8760546875,6.50831640625,5.612875,-0.0362304687499995
1.9606328125,3.61500390625,0.892800781249999,-2.60817578125,2.0620859375,0.43994921875,-1.7500703125,-2.19442578125,1.42762109375,0.7539609375,-1.3319453125,5.46920703125,1.11575390625,3.11978125,2.88852734375,-0.635203124999999,2.00095703125,3.0606796875,5.1414921875,3.37920703125,2.6567734375,7.97463671875,7.4447265625,5.03777734375,4.5955546875,-0.30611328125,4.8890546875,5.01731640625,5.205875,0.79876953125
1.9496328125,3.66100390625,0.379800781249999,-3.16117578125,1.6610859375,1.36994921875,-0.9500703125,-2.00242578125,-1.45537890625,1.2559609375,-0.9149453125,6.59420703125,-6.31924609375,2.23878125,3.49952734375,-0.432203124999999,3.21295703125,0.3916796875,5.0034921875,4.64520703125,3.7417734375,4.38163671875,6.1827265625,5.40877734375,5.8505546875,1.07688671875,5.1320546875,3.52431640625,5.186875,2.15276953125
1.0246328125,2.59000390625,-1.44619921875,-4.28017578125,1.1130859375,1.82994921875,-0.7100703125,-2.21342578125,-4.49037890625,1.1679609375,-0.6899453125,6.36520703125,-11.98924609375,0.64678125,3.37552734375,-0.336203124999999,4.16195703125,-2.6363203125,4.2654921875,5.30620703125,4.5497734375,0.44963671875,4.3687265625,5.35277734375,6.8405546875,2.47088671875,5.4840546875,2.19731640625,5.459875,3.79976953125
0.00963281249999981,1.26400390625,-3.31819921875,-5.62317578125,0.7810859375,1.96994921875,-0.8120703125,-2.40042578125,-6.90737890625,0.538960937500001,-0.6549453125,5.19020703125,-14.76624609375,-1.35921875,2.59352734375,-0.321203124999999,5.05695703125,-5.5373203125,2.9414921875,5.26920703125,5.0847734375,-3.29436328125,2.1817265625,4.78977734375,7.3895546875,3.82688671875,5.7910546875,1.17831640625,5.841875,5.42576953125
-0.2553671875,0.53600390625,-4.06519921875,-6.68417578125,0.9280859375,1.93494921875,-0.9690703125,-2.17842578125,-8.16437890625,-0.4090390625,-0.7829453125,3.68220703125,-14.27824609375,-3.32521875,1.39352734375,-0.433203124999999,5.71295703125,-7.7943203125,1.1894921875,4.59220703125,5.3877734375,-6.24636328125,-0.0782734375,3.73077734375,7.3805546875,5.10888671875,5.8830546875,0.54031640625,6.110875,6.69676953125
0.6066328125,0.78600390625,-3.25819921875,-7.00717578125,1.5460859375,1.76694921875,-0.9950703125,-1.41642578125,-8.09837890625,-1.3860390625,-1.0749453125,2.42620703125,-10.86624609375,-4.79221875,0.04052734375,-0.775203124999999,5.63395703125,-9.0373203125,-0.7315078125,3.39620703125,5.4667734375,-7.90136328125,-2.0992734375,2.23577734375,6.7505546875,6.21188671875,5.5710546875,0.25931640625,6.043875,7.32376953125
2.1936328125,1.64300390625,-1.52819921875,-6.40617578125,2.3030859375,1.34994921875,-0.9210703125,-0.35642578125,-6.95437890625,-2.1860390625,-1.6209453125,1.75020703125,-5.40324609375,-5.47721875,-1.30447265625,-1.492203125,4.35995703125,-9.1673203125,-2.5485078125,1.78220703125,5.2397734375,-8.02236328125,-3.6622734375,0.39077734375,5.4845546875,6.93688671875,4.6760546875,0.21231640625,5.448875,7.11076953125
3.3906328125,2.09200390625,-0.36519921875,-5.08717578125,2.6510859375,0.44494921875,-1.0090703125,0.43757421875,-5.29737890625,-2.7920390625,-2.5919453125,1.57720703125,0.93775390625,-5.38221875,-2.64647265625,-2.736203125,1.82495703125,-8.3573203125,-4.0525078125,-0.22079296875,4.5367734375,-6.71736328125,-4.6972734375,-1.70822265625,3.6105546875,7.02588671875,3.0800546875,0.20431640625,4.214875,5.96176953125
2.8346328125,0.938003906250001,-1.44219921875,-3.60517578125,2.0730859375,-1.16805078125,-1.6460703125,0.28557421875,-3.82037890625,-3.3620390625,-4.1429453125,1.43220703125,6.92975390625,-4.77521875,-4.09047265625,-4.592203125,-1.51604296875,-6.9513203125,-5.1445078125,-2.59279296875,3.1707734375,-4.39736328125,-5.2572734375,-3.92322265625,1.2105546875,6.25088671875,0.8030546875,0.0383164062499997,2.357875,3.89876953125
-0.4233671875,-2.58399609375,-5.77019921875,-2.64717578125,0.3680859375,-3.48805078125,-3.1160703125,-1.28942578125,-3.06937890625,-4.0760390625,-6.2409453125,0.66220703125,11.51275390625,-4.04521875,-5.68647265625,-6.972203125,-4.82304296875,-5.3213203125,-5.8125078125,-5.21279296875,1.0727734375,-1.62836328125,-5.4292734375,-6.04322265625,-1.5324453125,4.53488671875,-1.9549453125,-0.40668359375,0.0588749999999996,1.08676953125
-6.3253671875,-8.28899609375,-13.05019921875,-2.69717578125,-2.1779140625,-6.14305078125,-5.3610703125,-4.26242578125,-3.23137890625,-4.9380390625,-8.5369453125,-1.16379296875,13.97275390625,-3.48821875,-7.26747265625,-9.536203125,-7.14804296875,-3.7373203125,-6.0605078125,-7.75379296875,-1.5812265625,1.04263671875,-5.2422734375,-7.77022265625,-4.3024453125,2.01588671875,-4.8009453125,-1.11168359375,-2.347125,-2.15423046875
-13.5853671875,-14.88899609375,-21.53419921875,-3.74917578125,-4.8219140625,-8.41405078125,-7.8430703125,-7.96942578125,-4.06337890625,-5.6540390625,-10.3769453125,-3.89079296875,14.08875390625,-3.13321875,-8.39547265625,-11.719203125,-7.73304296875,-2.3053203125,-5.8325078125,-9.70179296875,-4.3162265625,3.20563671875,-4.6362734375,-8.74522265625,-6.6474453125,-0.94611328125,-7.2069453125,-1.91468359375,-4.439125,-5.36323046875
-20.0223671875,-20.35999609375,-28.57819921875,-5.23517578125,-6.6139140625,-9.44805078125,-9.6350703125,-11.25742578125,-4.99337890625,-5.6850390625,-10.9929453125,-6.69479296875,12.22075390625,-2.69921875,-8.48947265625,-12.877203125,-6.28904296875,-0.9703203125,-4.9985078125,-10.48879296875,-6.4672265625,4.62563671875,-3.5052734375,-8.63822265625,-8.0554453125,-3.87111328125,-8.6259453125,-2.58668359375,-5.823125,-8.00923046875
-23.3913671875,-22.75899609375,-31.71919921875,-6.23717578125,-6.7459140625,-8.56505078125,-9.7320703125,-12.89842578125,-5.31637890625,-4.4820390625,-9.8079453125,-8.38279296875,9.25075390625,-1.73921875,-7.08447265625,-12.505203125,-3.16604296875,0.4086796875,-3.4085078125,-9.70879296875,-7.3922265625,5.22963671875,-1.7892734375,-7.26622265625,-8.1024453125,-6.29611328125,-8.6379453125,-2.91468359375,-6.244125,-9.60023046875
-22.3743671875,-21.09699609375,-29.77119921875,-5.89117578125,-4.8909140625,-5.56205078125,-7.5030703125,-12.10442578125,-4.46137890625,-1.7760390625,-6.7029453125,-7.93479296875,6.31275390625,0.10678125,-4.08147265625,-10.431203125,0.68895703125,1.9456796875,-1.0115078125,-7.28279296875,-6.7122265625,5.10263671875,0.4547265625,-4.68522265625,-6.5944453125,-7.90211328125,-7.0779453125,-2.76968359375,-5.634125,-9.79923046875
-17.1683671875,-15.78099609375,-23.31519921875,-3.77117578125,-1.3519140625,-0.85505078125,-3.0500703125,-8.85842578125,-2.24837890625,2.2319609375,-2.1139453125,-4.96979296875,4.38075390625,2.87678125,0.14452734375,-6.898203125,4.08995703125,3.6196796875,2.0514921875,-3.51779296875,-4.4402265625,4.46363671875,3.0297265625,-1.20322265625,-3.6594453125,-8.54611328125,-4.0919453125,-2.12568359375,-4.087125,-8.50923046875
-9.3343671875,-8.35899609375,-14.30219921875,-0.0441757812499999,3.0550859375,4.61594921875,2.7419296875,-3.87442578125,0.99862109375,6.8969609375,3.1050546875,0.0772070312500004,3.89075390625,6.20878125,4.85052734375,-2.509203125,6.09795703125,5.2446796875,5.4194921875,0.97320703125,-0.9662265625,3.60263671875,5.6337265625,2.68077734375,0.2785546875,-8.21211328125,-0.1239453125,-1.04968359375,-1.805125,-5.91123046875
-1.0333671875,-0.80999609375,-5.13119921875,4.60382421875,7.3080859375,9.71494921875,8.5239296875,1.72857421875,4.57262109375,11.3519609375,7.9730546875,6.11820703125,4.60475390625,9.46478125,9.16552734375,1.958796875,6.39195703125,6.5386796875,8.5944921875,5.45020703125,3.0767734375,2.77163671875,7.9317265625,6.39177734375,4.6155546875,-6.95011328125,4.1850546875,0.31231640625,0.929875,-2.43423046875
5.7816328125,5.16400390625,2.16780078125,9.18182421875,10.5090859375,13.46494921875,12.9689296875,6.79057421875,7.65862109375,14.7749609375,11.6610546875,11.78020703125,5.83275390625,11.95178125,12.35052734375,5.768796875,5.31495703125,7.2326796875,11.0714921875,9.23220703125,6.9917734375,2.08063671875,9.6237265625,9.40977734375,8.7145546875,-4.84711328125,8.1340546875,1.73631640625,3.753875,1.32876953125
9.8406328125,8.50900390625,6.31380078125,12.64982421875,12.0810859375,15.25594921875,15.1729296875,10.35857421875,9.60862109375,16.5999609375,13.6700546875,15.81520703125,6.91075390625,13.15778125,13.98452734375,8.390796875,3.61795703125,7.1576796875,12.4844921875,11.83420703125,10.1847734375,1.47163671875,10.4947265625,11.36477734375,12.0405546875,-2.06111328125,11.1290546875,2.95831640625,6.250875,4.75476953125
10.6816328125,8.90700390625,6.82580078125,14.18882421875,11.8360859375,14.91394921875,14.8409296875,11.83357421875,10.10962109375,16.6189609375,13.8740546875,17.45420703125,7.59275390625,12.89878125,14.01952734375,9.579796875,2.11095703125,6.3016796875,12.6964921875,13.02820703125,12.2687734375,0.801636718750001,10.4507265625,12.09177734375,14.2345546875,1.12888671875,12.7980546875,3.72731640625,8.030875,7.32476953125
8.5726328125,6.69100390625,3.95980078125,13.44582421875,9.9600859375,12.68494921875,12.2829296875,11.07457421875,9.25962109375,14.9809609375,12.4650546875,16.60320703125,8.08775390625,11.34578125,12.71052734375,9.353796875,1.39195703125,4.8106796875,11.8104921875,12.82720703125,13.1007734375,-0.0273632812499995,9.5417265625,11.61677734375,15.1265546875,4.29788671875,13.0350546875,3.87231640625,8.814875,8.71876953125
4.2706328125,2.60800390625,-1.47519921875,10.67482421875,6.9310859375,9.12894921875,8.2439296875,8.42257421875,7.49762109375,12.0959609375,9.8280546875,13.81020703125,8.73475390625,8.91878125,10.44852734375,7.904796875,1.72095703125,2.9576796875,10.0874921875,11.40820703125,12.7377734375,-0.96836328125,7.9427265625,10.10577734375,14.7025546875,6.93188671875,11.9490546875,3.34931640625,8.495875,8.83776953125
-1.3483671875,-2.51699609375,-8.46519921875,6.66882421875,3.3450859375,4.92594921875,3.6089296875,4.55957421875,5.40462109375,8.4769609375,6.4150546875,9.99820703125,9.64775390625,6.11878125,7.58652734375,5.504796875,2.98995703125,1.0826796875,7.8344921875,9.02720703125,11.3757734375,-1.82536328125,5.9027265625,7.78577734375,13.0635546875,8.55988671875,9.7800546875,2.24231640625,7.145875,7.78476953125
-7.5513671875,-8.03699609375,-16.09019921875,2.49482421875,-0.2679140625,0.65294921875,-0.8900703125,0.28157421875,3.45362109375,4.6079609375,2.6440546875,6.08520703125,10.59775390625,3.36678125,4.36352734375,2.441796875,4.75395703125,-0.4833203125,5.3094921875,5.95520703125,9.2787734375,-2.32236328125,3.6897265625,4.91577734375,10.4095546875,8.92188671875,6.8380546875,0.75631640625,4.999875,5.81876953125
-13.7283671875,-13.47399609375,-23.55619921875,-0.84117578125,-3.5249140625,-3.30605078125,-4.8190703125,-3.68842578125,1.87562109375,0.882960937500001,-1.1239453125,2.67320703125,11.15175390625,0.95278125,0.93652734375,-0.993203124999999,6.34295703125,-1.4863203125,2.7154921875,2.47520703125,6.7297734375,-2.22336328125,1.5517265625,1.77377734375,7.0485546875,8.05888671875,3.4740546875,-0.82468359375,2.423875,3.30676953125
-19.1413671875,-18.29399609375,-29.97319921875,-2.66217578125,-6.1609140625,-6.69005078125,-7.9800703125,-6.76542578125,0.68762109375,-2.3750390625,-4.5649453125,-0.0427929687499997,10.91775390625,-0.957218749999999,-2.51147265625,-4.487203125,7.05495703125,-1.8093203125,0.2314921875,-1.10279296875,3.9697734375,-1.42836328125,-0.3052734375,-1.33022265625,3.3865546875,6.26788671875,0.0730546875,-2.18768359375,-0.168125,0.66276953125
-22.8593671875,-21.79199609375,-34.29819921875,-2.80417578125,-7.9759140625,-9.27905078125,-10.2900703125,-8.57242578125,-0.18637890625,-4.9020390625,-7.3969453125,-2.18979296875,9.75975390625,-2.28321875,-5.70647265625,-7.720203125,6.36595703125,-1.5083203125,-1.9555078125,-4.43879296875,1.1837734375,-0.0353632812499995,-1.7442734375,-4.07922265625,-0.1384453125,3.95188671875,-2.9979453125,-3.08468359375,-2.413125,-1.76123046875
-24.1013671875,-23.32999609375,-35.67819921875,-1.68717578125,-8.8969140625,-10.94105078125,-11.7440703125,-9.07042578125,-0.84637890625,-6.5500390625,-9.4359453125,-4.01679296875,7.90175390625,-3.03421875,-8.32147265625,-10.407203125,4.12695703125,-0.8233203125,-3.6895078125,-7.21679296875,-1.4862265625,1.65663671875,-2.7442734375,-6.22322265625,-3.1574453125,1.45488671875,-5.4589453125,-3.43168359375,-4.105125,-3.77823046875
-22.7623671875,-22.75099609375,-34.00019921875,-0.20417578125,-9.0609140625,-11.73505078125,-12.4590703125,-8.64142578125,-1.39537890625,-7.3700390625,-10.6719453125,-5.71379296875,5.87975390625,-3.33021875,-10.11147265625,-12.374203125,0.68795703125,-0.1253203125,-4.9005078125,-9.23779296875,-3.9092265625,3.21563671875,-3.4272734375,-7.66122265625,-5.4744453125,-1.02811328125,-7.1899453125,-3.37568359375,-5.246125,-5.40223046875
-19.6213671875,-20.59099609375,-30.10119921875,0.64482421875,-8.7999140625,-11.91305078125,-12.6660703125,-7.95242578125,-1.92037890625,-7.6010390625,-11.2669453125,-7.27479296875,4.32275390625,-3.37321875,-11.01547265625,-13.588203125,-3.11704296875,0.2206796875,-5.6175078125,-10.46379296875,-5.9672265625,4.22063671875,-4.0052734375,-8.47522265625,-7.0894453125,-3.44611328125,-8.2279453125,-3.24368359375,-6.002125,-6.78023046875
-15.9883671875,-17.82899609375,-25.40719921875,0.24482421875,-8.4669140625,-11.77005078125,-12.6050703125,-7.60442578125,-2.42937890625,-7.5380390625,-11.4359453125,-8.48479296875,3.62275390625,-3.34521875,-11.15147265625,-14.107203125,-6.20604296875,0.0466796875,-5.9165078125,-10.99179296875,-7.5682265625,4.44263671875,-4.6332734375,-8.85122265625,-8.1274453125,-5.81911328125,-8.7069453125,-3.36968359375,-6.575125,-8.04123046875
-13.0213671875,-15.33199609375,-21.21419921875,-1.30517578125,-8.2379140625,-11.49405078125,-12.4080703125,-7.81942578125,-2.83937890625,-7.3640390625,-11.2949453125,-9.02979296875,3.69075390625,-3.31421875,-10.70447265625,-14.009203125,-7.69504296875,-0.5153203125,-5.8475078125,-10.96679296875,-8.6602265625,3.96763671875,-5.2772734375,-8.96022265625,-8.7154453125,-8.14211328125,-8.7539453125,-3.89468359375,-7.058125,-9.17523046875
-11.1583671875,-13.40799609375,-18.10019921875,-3.23717578125,-8.0449140625,-11.11105078125,-12.0470703125,-8.34042578125,-3.01837890625,-7.0900390625,-10.8119453125,-8.68679296875,3.94975390625,-3.22621875,-9.83347265625,-13.359203125,-7.32204296875,-1.0973203125,-5.4405078125,-10.52079296875,-9.2322265625,3.14163671875,-5.7212734375,-8.87822265625,-8.9124453125,-10.34311328125,-8.4519453125,-4.69568359375,-7.398125,-10.01223046875
-10.0023671875,-11.74899609375,-15.81019921875,-4.49517578125,-7.6789140625,-10.53105078125,-11.3840703125,-8.60142578125,-2.87337890625,-6.6390390625,-9.9059453125,-7.44479296875,3.63275390625,-3.01421875,-8.67447265625,-12.248203125,-5.54004296875,-1.3273203125,-4.7725078125,-9.76779296875,-9.3212265625,2.35463671875,-5.7252734375,-8.60822265625,-8.7274453125,-12.27811328125,-7.8769453125,-5.49668359375,-7.477125,-10.33323046875
-8.6993671875,-9.78199609375,-13.62319921875,-4.24717578125,-6.9749140625,-9.64805078125,-10.2690703125,-8.03542578125,-2.43637890625,-5.9980390625,-8.6059453125,-5.50579296875,2.22175390625,-2.74521875,-7.40147265625,-10.860203125,-3.22104296875,-1.0853203125,-4.0325078125,-8.83879296875,-9.0172265625,1.80563671875,-5.2352734375,-8.17222265625,-8.2014453125,-13.75611328125,-7.1759453125,-6.08868359375,-7.266125,-10.01123046875
-6.5633671875,-7.15199609375,-10.93119921875,-2.27317578125,-5.9639140625,-8.44405078125,-8.6460703125,-6.37242578125,-1.91737890625,-5.2960390625,-7.1269453125,-3.17979296875,-0.24524609375,-2.66021875,-6.25447265625,-9.476203125,-1.15704296875,-0.6203203125,-3.5185078125,-7.91179296875,-8.4232265625,1.37863671875,-4.4922734375,-7.67022265625,-7.4554453125,-14.55311328125,-6.5939453125,-6.50768359375,-6.908125,-9.11523046875
-3.5453671875,-4.03799609375,-7.66519921875,0.94382421875,-4.8909140625,-7.04805078125,-6.6220703125,-3.78542578125,-1.67037890625,-4.7470390625,-5.7949453125,-0.77279296875,-3.18724609375,-3.08321875,-5.47347265625,-8.386203125,0.30895703125,-0.4443203125,-3.5245078125,-7.16479296875,-7.5982265625,0.72063671875,-3.9582734375,-7.26322265625,-6.6544453125,-14.43211328125,-6.4109453125,-7.03068359375,-6.662125,-7.88523046875
-0.2653671875,-1.08699609375,-4.32219921875,4.44182421875,-4.0949140625,-5.69505078125,-4.4360703125,-0.82042578125,-2.05437890625,-4.5200390625,-4.8709453125,1.48320703125,-5.79824609375,-4.23821875,-5.17947265625,-7.743203125,1.33795703125,-1.0623203125,-4.2045078125,-6.68279296875,-6.5172265625,-0.552363281249999,-4.0982734375,-7.08622265625,-5.9124453125,-13.20711328125,-6.8169453125,-8.00868359375,-6.762125,-6.63223046875
2.3896328125,0.95100390625,-1.62619921875,7.17982421875,-3.8279140625,-4.60805078125,-2.3740703125,1.85757421875,-3.21237890625,-4.6190390625,-4.4099453125,3.44920703125,-7.46324609375,-6.09421875,-5.29847265625,-7.467203125,2.38295703125,-2.7053203125,-5.4955078125,-6.40579296875,-5.1002265625,-2.62836328125,-5.1562734375,-7.18022265625,-5.2234453125,-10.84411328125,-7.8119453125,-9.63468359375,-7.280125,-5.62223046875
3.8006328125,1.65600390625,-0.07019921875,8.41182421875,-4.1219140625,-3.90505078125,-0.6750703125,3.72457421875,-4.94337890625,-4.8760390625,-4.2459453125,5.02020703125,-8.03924609375,-8.32821875,-5.59547265625,-7.288203125,3.82995703125,-5.2203203125,-7.1345078125,-6.15579296875,-3.3002265625,-5.37736328125,-7.0422734375,-7.47022265625,-4.4874453125,-7.55311328125,-9.1859453125,-11.78668359375,-8.087125,-5.00323046875
3.8956328125,1.12600390625,0.31080078125,7.90982421875,-4.7749140625,-3.58205078125,0.5119296875,4.55457421875,-6.74337890625,-5.0320390625,-4.1019453125,6.07120703125,-7.85424609375,-10.40921875,-5.77947265625,-6.901203125,5.68495703125,-8.1343203125,-8.7525078125,-5.75179296875,-1.1902265625,-8.36436328125,-9.3532734375,-7.81322265625,-3.6044453125,-3.79511328125,-10.5769453125,-14.03568359375,-8.916125,-4.80223046875
3.0156328125,-0.204996093749999,-0.241199218749999,5.99082421875,-5.4459140625,-3.56105078125,1.1259296875,4.40557421875,-7.99837890625,-4.8620390625,-3.7409453125,6.44920703125,-7.45724609375,-11.76121875,-5.61847265625,-6.135203125,7.48495703125,-10.8053203125,-9.9615078125,-5.11379296875,1.0127734375,-11.00036328125,-11.5082734375,-8.04422265625,-2.5584453125,-0.18111328125,-11.5749453125,-15.79468359375,-9.479125,-4.94623046875
1.5456328125,-1.93399609375,-1.56219921875,3.36882421875,-5.8089140625,-3.73105078125,1.1549296875,3.50757421875,-8.22237890625,-4.2590390625,-3.0709453125,6.05320703125,-7.29224609375,-11.94421875,-5.01747265625,-5.024203125,8.50995703125,-12.6003203125,-10.4325078125,-4.29779296875,2.9937734375,-12.75436328125,-12.9192734375,-8.01422265625,-1.4374453125,2.71688671875,-11.8349453125,-16.55168359375,-9.591125,-5.29023046875
-0.3413671875,-3.91599609375,-3.74319921875,0.86382421875,-5.6859140625,-3.98705078125,0.6109296875,2.13357421875,-7.25737890625,-3.2630390625,-2.1579453125,4.94020703125,-7.51324609375,-10.80021875,-4.01847265625,-3.778203125,8.22095703125,-13.0703203125,-9.9625078125,-3.44879296875,4.4527734375,-13.36136328125,-13.1732734375,-7.61722265625,-0.3924453125,4.53788671875,-11.1799453125,-16.08268359375,-9.230125,-5.65323046875
-2.5923671875,-6.14099609375,-6.88919921875,-0.90117578125,-5.1109140625,-4.25305078125,-0.4590703125,0.54657421875,-5.35337890625,-2.0190390625,-1.1779453125,3.39020703125,-7.97824609375,-8.51421875,-2.76647265625,-2.687203125,6.64695703125,-12.0813203125,-8.5425078125,-2.71579296875,5.2087734375,-12.92836328125,-12.1552734375,-6.81122265625,0.4285546875,5.23388671875,-9.6639453125,-14.55168359375,-8.517125,-5.86523046875
-4.9853671875,-8.44799609375,-10.68819921875,-1.67817578125,-4.2909140625,-4.48805078125,-1.8970703125,-0.98142578125,-3.06837890625,-0.716039062499999,-0.3399453125,1.85920703125,-8.34724609375,-5.57021875,-1.46047265625,-2.025203125,4.44895703125,-9.8483203125,-6.4025078125,-2.19479296875,5.2517734375,-11.86836328125,-10.0902734375,-5.65222265625,0.9175546875,5.03788671875,-7.5729453125,-12.44068359375,-7.649125,-5.81623046875
-7.0163671875,-10.41899609375,-14.29619921875,-1.61217578125,-3.5009140625,-4.67805078125,-3.3990703125,-2.18342578125,-1.02837890625,0.4639609375,0.1550546875,0.80620703125,-8.21324609375,-2.61721875,-0.33547265625,-1.970203125,2.58895703125,-6.8753203125,-3.9915078125,-1.93779296875,4.7087734375,-10.71336328125,-7.4842734375,-4.31622265625,1.0065546875,4.31788671875,-5.3679453125,-10.36668359375,-6.813125,-5.50123046875
-8.2013671875,-11.64999609375,-16.78419921875,-1.10517578125,-3.0109140625,-4.85905078125,-4.5990703125,-2.90542578125,0.28262109375,1.3649609375,0.1410546875,0.47720703125,-7.30624609375,-0.29721875,0.35852734375,-2.573203125,1.78395703125,-3.7973203125,-1.8755078125,-1.98679296875,3.7597734375,-9.88536328125,-4.9702734375,-3.10322265625,0.6435546875,3.40288671875,-3.5559453125,-8.84368359375,-6.136125,-5.02123046875
-8.5163671875,-12.12799609375,-17.78619921875,-0.63617578125,-3.0299140625,-5.13905078125,-5.2650703125,-3.22942578125,0.63862109375,1.8629609375,-0.4729453125,0.78520703125,-5.69124609375,0.93778125,0.41152734375,-3.755203125,2.12695703125,-1.2073203125,-0.5625078125,-2.39779296875,2.5877734375,-9.52236328125,-3.1112734375,-2.35922265625,-0.1994453125,2.48388671875,-2.5269453125,-8.09768359375,-5.664125,-4.54023046875
-8.4793671875,-12.27899609375,-17.72119921875,-0.55217578125,-3.6209140625,-5.64505078125,-5.4260703125,-3.43342578125,0.10362109375,1.9019609375,-1.6419453125,1.37620703125,-3.77424609375,0.962781250000001,-0.25047265625,-5.321203125,3.14995703125,0.5086796875,-0.3185078125,-3.20079296875,1.3647734375,-9.43036328125,-2.2142734375,-2.33722265625,-1.4734453125,1.61988671875,-2.4109453125,-7.99568359375,-5.352125,-4.19123046875
-8.7273671875,-12.60799609375,-17.37719921875,-0.92017578125,-4.6069140625,-6.38005078125,-5.2930703125,-3.75742578125,-0.97837890625,1.5499609375,-3.1349453125,1.85120703125,-2.07424609375,0.0287812500000006,-1.48147265625,-6.981203125,4.23695703125,1.2726796875,-1.0555078125,-4.31379296875,0.2777734375,-9.17336328125,-2.2182734375,-3.05822265625,-2.9874453125,0.81388671875,-3.0139453125,-8.12168359375,-5.077125,-4.00123046875
-9.4653671875,-13.25299609375,-17.27419921875,-1.48817578125,-5.5599140625,-7.11605078125,-5.0560703125,-4.18142578125,-2.06937890625,1.0139609375,-4.5849453125,1.96620703125,-0.89524609375,-1.32621875,-2.92047265625,-8.392203125,5.06295703125,1.3076796875,-2.3535078125,-5.49579296875,-0.4732265625,-8.29036328125,-2.7372734375,-4.25122265625,-4.3994453125,0.0818867187499999,-3.8899453125,-7.98968359375,-4.676125,-3.86623046875
-10.2993671875,-13.87199609375,-17.36319921875,-1.84517578125,-5.9639140625,-7.48705078125,-4.7530703125,-4.42842578125,-2.65437890625,0.584960937500001,-5.6059453125,1.68220703125,-0.16424609375,-2.46021875,-4.09347265625,-9.226203125,5.68895703125,1.0206796875,-3.6175078125,-6.39279296875,-0.7192265625,-6.55036328125,-3.2222734375,-5.43422265625,-5.2974453125,-0.50811328125,-4.4949453125,-7.27168359375,-4.006125,-3.59523046875
-10.5473671875,-13.92399609375,-17.20719921875,-1.69017578125,-5.4779140625,-7.20205078125,-4.3140703125,-4.19642578125,-2.45537890625,0.543960937500001,-5.9099453125,1.09020703125,0.48575390625,-2.83221875,-4.56147265625,-9.232203125,6.32795703125,0.8546796875,-4.2635078125,-6.62979296875,-0.3562265625,-4.09636328125,-3.1872734375,-6.06522265625,-5.3174453125,-0.82811328125,-4.3659453125,-5.93068359375,-2.981125,-2.98423046875
-9.6923671875,-13.03899609375,-16.35619921875,-1.02517578125,-4.0869140625,-6.19105078125,-3.6720703125,-3.38642578125,-1.49537890625,1.0919609375,-5.3369453125,0.33520703125,1.51875390625,-2.12221875,-4.01847265625,-8.276203125,7.00495703125,1.1536796875,-3.8635078125,-5.91379296875,0.6207734375,-1.38636328125,-2.3432734375,-5.69022265625,-4.2524453125,-0.71811328125,-3.2299453125,-4.16868359375,-1.569125,-1.86723046875
-7.6363671875,-11.21299609375,-14.59619921875,-0.12917578125,-2.0659140625,-4.58705078125,-2.8230703125,-2.15542578125,0.0156210937500001,2.3189609375,-3.8269453125,-0.41479296875,3.30375390625,-0.287218749999999,-2.33847265625,-6.361203125,7.42595703125,2.0856796875,-2.2225078125,-4.09279296875,2.1157734375,1.03263671875,-0.6412734375,-4.06722265625,-2.0944453125,-0.0421132812499998,-1.0409453125,-2.24568359375,0.233875,-0.150230468749999
-4.7373671875,-8.78899609375,-12.07819921875,0.61782421875,0.1690859375,-2.64105078125,-1.8250703125,-0.83142578125,1.81362109375,4.1739609375,-1.4339453125,-0.96279296875,5.93075390625,2.43678125,0.39752734375,-3.669203125,7.15495703125,3.5996796875,0.5774921875,-1.21479296875,3.9427734375,2.78463671875,1.7597265625,-1.23022265625,0.9685546875,1.22688671875,2.0270546875,-0.30968359375,2.413875,2.14876953125
-1.7723671875,-6.38599609375,-9.41519921875,0.93282421875,2.1600859375,-0.71505078125,-0.7990703125,0.19557421875,3.58862109375,6.3939609375,1.5910546875,-1.11979296875,8.99975390625,5.53778125,3.84652734375,-0.604203124999999,5.95995703125,5.3976796875,4.1424921875,2.41820703125,5.8307734375,3.78563671875,4.5217265625,2.46977734375,4.5555546875,2.93888671875,5.5900546875,1.62931640625,4.895875,4.84576953125
0.1796328125,-4.82899609375,-7.67819921875,0.74782421875,3.4330859375,0.69394921875,0.0849296875000001,0.54757421875,4.90862109375,8.4589609375,4.6900546875,-0.79479296875,11.49275390625,8.26078125,7.37552734375,2.201796875,4.04795703125,6.9676796875,7.7824921875,6.22620703125,7.4337734375,4.18263671875,7.1507265625,6.38477734375,8.1155546875,4.76688671875,9.0780546875,3.56831640625,7.475875,7.55976953125
0.0506328125,-4.95599609375,-8.06719921875,0.19682421875,3.5330859375,1.03194921875,0.6289296875,-0.0534257812500001,5.23762109375,9.6679609375,7.0350546875,-0.0947929687499998,11.96275390625,9.75078125,10.13852734375,4.015796875,1.98295703125,7.6966796875,10.6304921875,9.43220703125,8.3727734375,4.15663671875,9.0437265625,9.68077734375,10.9745546875,6.26588671875,11.7980546875,5.33431640625,9.763875,9.75976953125
-2.7223671875,-7.26299609375,-11.26619921875,-0.51617578125,2.1350859375,-0.12105078125,0.6429296875,-1.67742578125,4.12662109375,9.3729609375,7.7650546875,0.62020703125,9.18175390625,9.31978125,11.29952734375,4.219796875,0.33395703125,7.0636796875,11.8824921875,11.25520703125,8.3207734375,3.73963671875,9.6127265625,11.53877734375,12.4715546875,7.00288671875,13.0880546875,6.51231640625,11.227875,10.90076953125
-7.7993671875,-11.55499609375,-16.89519921875,-1.31117578125,-0.7979140625,-2.84605078125,-0.0510703124999998,-4.13642578125,1.46462109375,7.2699609375,6.3490546875,0.81820703125,2.93075390625,6.74878125,10.33952734375,2.542796875,-0.66204296875,4.8586796875,11.0674921875,11.16020703125,7.1207734375,2.76363671875,8.4647265625,11.40477734375,12.1465546875,6.70088671875,12.5230546875,6.56531640625,11.359875,10.60676953125
-13.9473671875,-16.88799609375,-23.51619921875,-2.32217578125,-4.9169140625,-6.80505078125,-1.6050703125,-7.04042578125,-2.38337890625,3.5649609375,2.8240546875,0.0132070312500003,-5.59624609375,2.43778125,7.28552734375,-0.825203124999999,-1.18504296875,1.2986796875,8.2384921875,9.04720703125,4.8777734375,0.98563671875,5.5747265625,9.18577734375,9.9135546875,5.32788671875,10.0840546875,5.10031640625,9.897875,8.81576953125
-19.5093671875,-21.92999609375,-29.27219921875,-3.79217578125,-9.5299140625,-11.33705078125,-4.0640703125,-9.92142578125,-6.64837890625,-1.0880390625,-2.1989453125,-1.96179296875,-14.15924609375,-2.70721875,2.71352734375,-5.303203125,-1.63804296875,-3.0123203125,3.9554921875,5.27620703125,1.9457734375,-1.70536328125,1.3467265625,5.28677734375,6.1155546875,3.10988671875,6.1940546875,2.11431640625,6.974875,5.82076953125
-23.1203671875,-25.54299609375,-32.77519921875,-5.82617578125,-13.8069140625,-15.66905078125,-7.2640703125,-12.36642578125,-10.42637890625,-5.8300390625,-7.7819453125,-4.83579296875,-20.40124609375,-7.60921875,-2.45747265625,-10.111203125,-2.36704296875,-7.2653203125,-0.9095078125,0.54120703125,-1.1872265625,-5.12636328125,-3.4712734375,0.48177734375,1.4345546875,0.43088671875,1.5930546875,-1.93168359375,3.113875,2.17476953125
-24.2653671875,-27.25699609375,-33.71119921875,-8.22317578125,-17.0439140625,-19.17005078125,-10.8100703125,-14.12842578125,-12.99337890625,-9.8810390625,-12.9659453125,-8.00979296875,-22.77524609375,-11.38121875,-7.27447265625,-14.499203125,-3.46104296875,-10.6963203125,-5.4605078125,-4.34379296875,-4.0562265625,-8.77736328125,-8.0062734375,-4.32322265625,-3.3054453125,-2.29211328125,-2.8859453125,-6.23668359375,-0.940125,-1.48223046875
-23.4123671875,-27.36699609375,-32.82419921875,-10.50517578125,-18.8649140625,-21.50105078125,-14.1870703125,-15.14942578125,-14.03037890625,-12.7160390625,-16.9759453125,-10.80879296875,-21.01424609375,-13.55321875,-10.98747265625,-17.891203125,-4.69604296875,-12.7753203125,-8.9915078125,-8.62279296875,-6.3192265625,-11.96636328125,-11.5032734375,-8.32022265625,-7.3384453125,-4.69811328125,-6.5219453125,-9.92768359375,-4.445125,-4.58823046875
-21.6223671875,-26.61199609375,-31.34919921875,-12.12617578125,-19.2379140625,-22.57405078125,-16.8990703125,-15.50942578125,-13.65837890625,-14.0880390625,-19.2999453125,-12.71579296875,-16.09424609375,-14.08621875,-13.15747265625,-19.928203125,-5.63604296875,-13.3113203125,-11.1055078125,-11.70779296875,-7.7992265625,-14.03036328125,-13.4952734375,-10.97722265625,-10.1124453125,-6.51411328125,-8.8529453125,-12.32568359375,-6.854125,-6.75823046875
-19.9023671875,-25.65099609375,-30.24619921875,-12.70017578125,-18.3459140625,-22.39805078125,-18.5960703125,-15.31742578125,-12.32737890625,-13.9660390625,-19.6659453125,-13.48479296875,-9.84024609375,-13.25821875,-13.64447265625,-20.463203125,-5.84804296875,-12.4613203125,-11.7215078125,-13.24179296875,-8.4742265625,-14.54136328125,-13.8682734375,-12.10822265625,-11.3514453125,-7.55711328125,-9.7289453125,-13.12268359375,-7.943125,-7.81523046875
-18.7053671875,-24.69299609375,-29.73419921875,-12.13317578125,-16.4329140625,-20.97105078125,-19.1370703125,-14.63842578125,-10.64737890625,-12.4600390625,-18.0219453125,-13.14079296875,-4.31924609375,-11.50221875,-12.55147265625,-19.542203125,-5.15104296875,-10.6703203125,-11.0225078125,-13.13879296875,-8.4452265625,-13.44336328125,-12.8222734375,-11.85722265625,-11.0654453125,-7.74211328125,-9.2789453125,-12.41168359375,-7.816125,-7.78323046875
-17.9073671875,-23.53299609375,-29.40019921875,-10.60517578125,-13.7349140625,-18.33305078125,-18.6120703125,-13.50642578125,-9.18937890625,-9.7860390625,-14.5469453125,-11.90479296875,-1.09524609375,-9.25621875,-10.15647265625,-17.380203125,-3.69104296875,-8.4883203125,-9.3565078125,-11.58879296875,-7.8932265625,-11.01836328125,-10.7532734375,-10.58522265625,-9.5004453125,-7.11511328125,-7.8209453125,-10.57368359375,-6.809125,-6.85323046875
-17.1583671875,-21.90899609375,-28.73519921875,-8.44617578125,-10.4839140625,-14.68505078125,-17.3040703125,-11.98942578125,-8.25437890625,-6.2600390625,-9.6629453125,-10.09679296875,-0.57624609375,-6.83321875,-6.84847265625,-14.325203125,-1.79604296875,-6.3333203125,-7.1125078125,-8.99779296875,-7.0182265625,-7.73536328125,-8.0952734375,-8.71422265625,-7.0494453125,-5.85311328125,-5.7339453125,-8.07868359375,-5.315125,-5.31623046875
-16.2663671875,-19.85899609375,-27.62919921875,-6.00317578125,-6.9379140625,-10.45005078125,-15.6050703125,-10.23542578125,-7.73537890625,-2.2850390625,-4.0239453125,-8.04879296875,-1.82024609375,-4.38021875,-3.08947265625,-10.813203125,0.24795703125,-4.3193203125,-4.6315078125,-5.89379296875,-6.0002265625,-4.07236328125,-5.2062734375,-6.60922265625,-4.1734453125,-4.25311328125,-3.3769453125,-5.33668359375,-3.656125,-3.49723046875
-16.2663671875,-19.85899609375,-27.62919921875,-6.00317578125,-6.9379140625,-10.45005078125,-15.6050703125,-10.23542578125,-7.73537890625,-2.2850390625,-4.0239453125,-8.04879296875,-1.82024609375,-4.38021875,-3.08947265625,-10.813203125,0.24795703125,-4.3193203125,-4.6315078125,-5.89379296875,-6.0002265625,-4.07236328125,-5.2062734375,-6.60922265625,-4.1734453125,-4.25311328125,-3.3769453125,-5.33668359375,-3.656125,-3.49723046875
