"Fp1","Fpz","Fp2","F7","F3","Fz","F4","F8","FC5","FC1","FC2","FC6","T7","C3","Cz","C4","T8","CP5","CP1","CP2","CP6","P7","P3","Pz","P4","P8","POz","O1","Oz","O2"
109.81781640625,62.76596875,57.44575,-13.5579296875,15.41398828125,-11.9992578125,-53.72921875,87.7819921875,9.70517578125,16.770640625,-17.94871484375,-64.59444921875,17.5593984375,-19.9833828125,6.82037109375,-85.484484375,-21.36088671875,-7.22259765625,-5.4153359375,-12.024671875,-98.9219375,-29.523171875,-24.83923828125,-40.8261015625,-21.97779296875,-106.0628671875,-36.82344921875,-49.0960390625,-75.0409453125,-90.839421875
111.53581640625,64.78096875,58.77575,-13.6879296875,14.22898828125,-11.3452578125,-51.25721875,86.8769921875,6.68317578124999,15.402640625,-15.07671484375,-62.52144921875,15.6583984375,-24.8503828125,6.29837109375,-85.664484375,-19.28188671875,-12.97259765625,-9.9863359375,-15.874671875,-99.0999375,-31.307171875,-30.75123828125,-45.9841015625,-26.48079296875,-107.1858671875,-43.24744921875,-52.6920390625,-79.5249453125,-95.439421875
112.59281640625,66.47496875,59.82275,-14.0449296875,12.99198828125,-10.2912578125,-49.33221875,86.3119921875,3.61317578125,14.465640625,-12.91971484375,-60.84144921875,13.2033984375,-29.2593828125,6.09437109375,-85.880484375,-17.40788671875,-18.80259765625,-14.1233359375,-19.122671875,-99.8569375,-33.335171875,-36.33423828125,-51.0611015625,-31.51779296875,-108.5318671875,-49.76344921875,-55.9620390625,-83.7699453125,-99.898421875
112.45281640625,67.35496875,60.17975,-14.9739296875,11.40698828125,-9.31025781250001,-48.33321875,85.8699921875,0.179175781249995,13.719640625,-11.95071484375,-59.82044921875,9.8173984375,-33.2723828125,5.79037109375,-86.474484375,-16.00388671875,-24.79659765625,-17.9933359375,-21.956671875,-101.4489375,-35.560171875,-41.49223828125,-56.0801015625,-37.12179296875,-110.0188671875,-56.13044921875,-58.7190390625,-87.5499453125,-103.946421875
110.55381640625,66.76596875,59.29875,-16.9399296875,8.98298828125,-9.27625781250001,-48.68021875,85.1049921875,-4.10582421875,12.557640625,-12.69171484375,-59.75844921875,5.0983984375,-37.2143828125,4.64037109375,-87.978484375,-15.43988671875,-31.07859765625,-22.0353359375,-24.877671875,-104.0669375,-37.835171875,-46.22123828125,-61.1151015625,-43.18379296875,-111.4558671875,-61.96244921875,-60.7480390625,-90.5529453125,-107.191421875
106.52081640625,64.10696875,56.67675,-20.3739296875,5.15998828125,-11.1262578125,-50.71421875,83.5449921875,-9.71982421875,10.187640625,-15.58071484375,-60.90544921875,-1.2306015625,-41.5923828125,1.89137109375,-90.910484375,-16.07388671875,-37.76459765625,-26.7823359375,-28.486671875,-107.7679375,-39.986171875,-50.62823828125,-66.2441015625,-49.50979296875,-112.6358671875,-66.86544921875,-61.8390390625,-92.4469453125,-109.233421875
100.34981640625,59.09896875,52.06175,-25.4899296875,-0.486011718749999,-15.4842578125,-54.56821875,80.8979921875,-16.92782421875,5.950640625,-20.76871484375,-63.37644921875,-9.1616015625,-46.8783828125,-2.84562890625,-95.538484375,-18.12988671875,-44.89559765625,-32.5803359375,-33.214671875,-112.4339375,-41.877171875,-54.88323828125,-71.4741015625,-55.86279296875,-113.3988671875,-70.56144921875,-61.8440390625,-92.9849453125,-109.802421875
92.47081640625,51.94796875,45.60675,-32.1719296875,-8.04401171875,-22.3882578125,-60.08821875,77.1699921875,-25.62682421875,-0.337359375,-27.96171484375,-67.09844921875,-18.3036015625,-53.2723828125,-9.35262890625,-101.729484375,-21.61388671875,-52.35659765625,-39.3453359375,-39.117671875,-117.7809375,-43.421171875,-59.11823828125,-76.6661015625,-61.97579296875,-113.6628671875,-72.93844921875,-60.7200390625,-92.0879453125,-108.846421875
83.65981640625,43.34796875,37.87875,-39.9569296875,-17.14801171875,-31.2182578125,-66.82821875,72.6429921875,-35.30482421875,-8.218359375,-36.39871484375,-71.81644921875,-27.9226015625,-60.5303828125,-16.80162890625,-108.938484375,-26.29888671875,-59.81459765625,-46.4793359375,-45.792671875,-123.4189375,-44.540171875,-63.28723828125,-81.5111015625,-67.55179296875,-113.4078671875,-74.02044921875,-58.5290390625,-89.8679453125,-106.522421875
74.83981640625,34.29996875,29.72375,-48.1299296875,-26.98801171875,-40.8462578125,-74.11921875,67.7479921875,-45.11782421875,-16.680359375,-45.00071484375,-77.14144921875,-37.0956015625,-67.9523828125,-23.98862890625,-116.333484375,-31.77388671875,-66.70359765625,-53.0013359375,-52.459671875,-128.9149375,-45.120171875,-67.06423828125,-85.5431015625,-72.26379296875,-112.6408671875,-73.87244921875,-55.4060390625,-86.5669453125,-103.106421875
66.84781640625,25.84496875,22.03175,-55.8899296875,-36.45801171875,-49.9502578125,-81.21121875,62.9219921875,-54.06982421875,-24.462359375,-52.65471484375,-82.59344921875,-44.9096015625,-74.5543828125,-29.71062890625,-122.993484375,-37.51488671875,-72.30959765625,-57.8453359375,-58.155671875,-133.8409375,-45.014171875,-69.87223828125,-88.2211015625,-75.76979296875,-111.3508671875,-72.50344921875,-51.5220390625,-82.4549453125,-98.865421875
60.25881640625,18.80596875,15.49975,-62.5069296875,-44.42201171875,-57.3922578125,-87.40621875,58.5229921875,-61.24382421875,-30.462359375,-58.48971484375,-87.64144921875,-50.6366015625,-79.3603828125,-33.13462890625,-128.085484375,-42.96088671875,-75.92359765625,-60.2003359375,-62.005671875,-137.7959375,-44.105171875,-71.06423828125,-89.0281015625,-77.74179296875,-109.4748671875,-69.82944921875,-47.0780390625,-77.7399453125,-93.984421875
55.33781640625,13.63596875,10.49775,-67.4169296875,-49.97401171875,-62.4912578125,-92.17221875,54.8159921875,-65.97382421875,-34.033359375,-62.04771484375,-91.74644921875,-53.8386015625,-81.7153828125,-34.00862890625,-131.005484375,-47.59888671875,-77.05759765625,-59.7673359375,-63.457671875,-140.4389375,-42.417171875,-70.19623828125,-87.6141015625,-77.92479296875,-106.9078671875,-65.73344921875,-42.3470390625,-72.5539453125,-88.549421875
52.08981640625,10.40396875,7.05275,-70.2389296875,-52.64101171875,-65.0882578125,-95.18921875,51.9869921875,-67.92982421875,-35.104359375,-63.32171484375,-94.45344921875,-54.3886015625,-81.4683828125,-32.65062890625,-131.462484375,-51.07788671875,-75.60459765625,-56.8193359375,-62.410671875,-141.5489375,-40.203171875,-67.25423828125,-83.9221015625,-76.21579296875,-103.5818671875,-60.20844921875,-37.7090390625,-67.0129453125,-82.610421875
50.36581640625,8.86196875,4.92875,-70.7659296875,-52.44801171875,-65.4602578125,-96.37621875,50.0949921875,-67.11582421875,-34.098359375,-62.67171484375,-95.53744921875,-52.4406015625,-78.9693828125,-29.76062890625,-129.529484375,-53.33988671875,-71.90459765625,-52.0893359375,-59.188671875,-141.1169375,-37.914171875,-62.69623828125,-78.2731015625,-72.73179296875,-99.5828671875,-53.49644921875,-33.6280390625,-61.3069453125,-76.288421875
49.92781640625,8.57196875,3.74175,-68.9669296875,-49.87701171875,-64.1702578125,-95.92221875,48.9899921875,-63.81682421875,-31.747359375,-60.68671484375,-95.11444921875,-48.3296015625,-74.8983828125,-26.17062890625,-125.634484375,-54.69388671875,-66.65159765625,-46.5393359375,-54.418671875,-139.3979375,-36.054171875,-57.31523828125,-71.3451015625,-67.84679296875,-95.2198671875,-46.13844921875,-30.5320390625,-55.7449453125,-69.853421875
50.48181640625,9.02196875,3.07675,-64.9999296875,-45.70101171875,-61.9092578125,-94.26521875,48.2699921875,-58.52482421875,-28.860359375,-58.02871484375,-93.65644921875,-42.4576015625,-70.0273828125,-22.62962890625,-120.474484375,-55.76188671875,-60.68059765625,-41.0933359375,-48.857671875,-136.8759375,-34.963171875,-51.98523828125,-64.0361015625,-62.15379296875,-90.9908671875,-38.89344921875,-28.6620390625,-50.7209453125,-63.725421875
51.71681640625,9.74696875,2.58775,-59.1819296875,-40.74501171875,-59.3212578125,-92.00021875,47.3589921875,-51.80282421875,-26.112359375,-55.30371484375,-91.84844921875,-35.1666015625,-64.9883828125,-19.68362890625,-114.849484375,-57.25488671875,-54.71159765625,-36.4263359375,-43.241671875,-134.1089375,-34.663171875,-47.40823828125,-57.2371015625,-56.34979296875,-87.4248671875,-32.55244921875,-27.9590390625,-46.6079453125,-58.369421875
53.35381640625,10.42196875,2.05775,-51.9229296875,-35.63701171875,-56.8632578125,-89.70721875,45.6899921875,-44.13182421875,-23.880359375,-52.94971484375,-90.34244921875,-26.6726015625,-60.1273828125,-17.62762890625,-109.456484375,-59.67688671875,-49.14959765625,-32.8363359375,-38.153671875,-131.5429375,-34.837171875,-43.92823828125,-51.6121015625,-51.08379296875,-84.8758671875,-27.72444921875,-28.1000390625,-43.6419453125,-54.158421875
55.23181640625,10.94796875,1.42575,-43.6549296875,-30.64501171875,-54.7262578125,-87.76721875,42.9239921875,-35.80782421875,-22.163359375,-51.15971484375,-89.52444921875,-17.0996015625,-55.4493828125,-16.51562890625,-104.728484375,-63.08388671875,-44.02859765625,-30.2523359375,-33.962671875,-129.3699375,-34.965171875,-41.49623828125,-47.4671015625,-46.81879296875,-83.3988671875,-24.69644921875,-28.6510390625,-41.8799453125,-51.285421875
57.35581640625,11.47896875,0.775749999999999,-34.7799296875,-25.67101171875,-52.8302578125,-86.24521875,39.0989921875,-26.93682421875,-20.628359375,-49.87571484375,-89.39644921875,-6.5746015625,-50.6873828125,-16.18662890625,-100.764484375,-67.02388671875,-39.11259765625,-28.3383359375,-30.793671875,-127.5129375,-34.523171875,-39.74723828125,-44.7431015625,-43.76479296875,-82.7588671875,-23.41944921875,-29.2550390625,-41.2269453125,-49.757421875
59.89381640625,12.35796875,0.313749999999999,-25.6439296875,-20.38601171875,-50.8792578125,-84.87421875,34.6539921875,-17.54582421875,-18.786359375,-48.85071484375,-89.61744921875,4.6623984375,-45.4563828125,-16.31462890625,-97.368484375,-70.70188671875,-34.07059765625,-26.6673359375,-28.541671875,-125.7099375,-33.185171875,-38.17923828125,-43.1151015625,-41.89179296875,-82.5808671875,-23.59844921875,-29.7630390625,-41.5079453125,-49.470421875
63.07581640625,13.97596875,0.313749999999999,-16.5499296875,-14.46401171875,-48.4542578125,-83.17621875,30.3099921875,-7.72782421875,-16.231359375,-47.75671484375,-89.67244921875,16.1983984375,-39.4533828125,-16.47562890625,-94.181484375,-73.26988671875,-28.65559765625,-24.8583359375,-26.910671875,-123.6579375,-30.912171875,-36.33123828125,-42.1241015625,-41.00279296875,-82.5128671875,-24.82044921875,-30.2200390625,-42.5189453125,-50.273421875
67.04881640625,16.59796875,1.03675,-7.7759296875,-7.80301171875,-45.1712578125,-80.68021875,26.8379921875,2.25117578124999,-12.815359375,-46.29271484375,-89.07444921875,27.4793984375,-32.6203828125,-16.23562890625,-90.842484375,-74.12088671875,-22.80859765625,-22.6513359375,-25.493671875,-121.1379375,-27.932171875,-33.90223828125,-41.2891015625,-40.80979296875,-82.3408671875,-26.64444921875,-30.7580390625,-44.0439453125,-51.987421875
71.75381640625,20.23496875,2.62975,0.421070312499992,-0.638011718750001,-40.8662578125,-77.13421875,24.8089921875,11.93717578125,-8.706359375,-44.26871484375,-87.50644921875,37.9033984375,-25.1953828125,-15.24662890625,-87.139484375,-73.04788671875,-16.65459765625,-19.9203359375,-23.904671875,-118.0919375,-24.622171875,-30.77623828125,-40.1911015625,-41.00279296875,-81.9918671875,-28.63344921875,-31.4470390625,-45.8369453125,-54.386421875
76.90281640625,24.61496875,5.08275,7.8370703125,6.51698828125,-35.6922578125,-72.59121875,24.4489921875,20.80517578125,-4.273359375,-41.62471484375,-84.87844921875,46.9623984375,-17.6273828125,-13.30562890625,-83.071484375,-70.24288671875,-10.42459765625,-16.6243359375,-21.883671875,-114.6069375,-21.351171875,-26.95723828125,-38.5061015625,-41.28479296875,-81.4818671875,-30.37244921875,-32.2190390625,-47.6299453125,-57.157421875
82.06481640625,29.27696875,8.24175,14.3760703125,13.07798828125,-30.0472578125,-67.35221875,25.6309921875,28.42717578125,0.0896406249999995,-38.42371484375,-81.28544921875,54.3593984375,-10.3993828125,-10.36962890625,-78.819484375,-66.14988671875,-4.34359765625,-12.7533359375,-19.357671875,-110.8459375,-18.343171875,-22.48923828125,-36.0371015625,-41.40579296875,-80.8498671875,-31.50244921875,-32.8790390625,-49.1459453125,-59.909421875
86.79881640625,33.72796875,11.86975,20.0600703125,18.61398828125,-24.4072578125,-61.83321875,27.9959921875,34.61917578125,4.119640625,-34.81771484375,-76.95644921875,60.0483984375,-3.85738281250001,-6.54262890625,-74.650484375,-61.28488671875,1.42940234375,-8.3143359375,-16.407671875,-106.9759375,-15.603171875,-17.42723828125,-32.7331015625,-41.19179296875,-80.1238671875,-31.77844921875,-33.1780390625,-50.1609453125,-62.245421875
90.77081640625,37.59596875,15.69375,24.9750703125,22.96598828125,-19.1772578125,-56.45221875,31.0749921875,39.45617578125,7.723640625,-31.00571484375,-72.20844921875,64.1673984375,1.8296171875,-2.06462890625,-70.821484375,-56.10188671875,6.79540234375,-3.3743359375,-13.218671875,-103.1429375,-12.937171875,-11.89023828125,-28.7131015625,-40.56879296875,-79.3208671875,-31.15744921875,-32.8840390625,-50.5599453125,-63.887421875
93.80681640625,40.71396875,19.43275,29.1650703125,26.19798828125,-14.6262578125,-51.58621875,34.3979921875,43.17517578125,10.912640625,-27.21871484375,-67.43644921875,66.9163984375,6.58461718749999,2.70937109375,-67.515484375,-50.93988671875,11.63740234375,1.8596640625,-10.022671875,-99.4679375,-10.064171875,-6.14123828125,-24.2931015625,-39.59279296875,-78.4578671875,-29.84744921875,-31.8520390625,-50.3799453125,-64.766421875
95.88081640625,43.10296875,22.80375,32.5760703125,28.46198828125,-10.8902578125,-47.53021875,37.5459921875,46.00817578125,13.684640625,-23.70171484375,-63.07044921875,68.4233984375,10.2766171875,7.34637109375,-64.817484375,-46.01988671875,15.74940234375,6.9796640625,-7.084671875,-96.0439375,-6.78217187500001,-0.622238281249999,-19.9601015625,-38.43079296875,-77.5368671875,-28.28644921875,-30.0670390625,-49.8019453125,-65.019421875
97.05081640625,44.88096875,25.53975,35.0430703125,29.84398828125,-8.01225781250001,-44.46221875,40.1799921875,48.02717578125,15.940640625,-20.68071484375,-59.48744921875,68.6933984375,12.6366171875,11.40937109375,-62.706484375,-41.44888671875,18.81440234375,11.4096640625,-4.692671875,-92.8839375,-3.105171875,4.11476171875,-16.3031015625,-37.31579296875,-76.4838671875,-27.01944921875,-27.6830390625,-49.0869453125,-64.873421875
97.37581640625,46.16296875,27.42675,36.3400703125,30.27298828125,-5.9972578125,-42.39621875,42.0709921875,49.07117578125,17.460640625,-18.31571484375,-56.87444921875,67.6563984375,13.2866171875,14.53837109375,-61.075484375,-37.21588671875,20.45840234375,14.5166640625,-3.149671875,-89.8809375,0.704828124999992,7.54376171875,-13.8901015625,-36.44679296875,-75.0988671875,-26.52144921875,-25.0160390625,-48.4779453125,-64.499421875
96.86681640625,46.99396875,28.36375,36.2450703125,29.53598828125,-4.8502578125,-41.15921875,43.1499921875,48.79417578125,17.970640625,-16.65971484375,-55.11844921875,65.2883984375,11.8856171875,16.48937109375,-59.768484375,-33.17688671875,20.37140234375,15.7616640625,-2.736671875,-86.8119375,4.20982812499999,9.29076171875,-13.1521015625,-35.92379296875,-73.0678671875,-27.04744921875,-22.4700390625,-48.1039453125,-63.920421875
95.49481640625,47.33496875,28.40875,34.6180703125,27.40098828125,-4.55625781250001,-40.41321875,43.5529921875,46.85617578125,17.247640625,-15.66571484375,-53.79844921875,61.7133984375,8.2926171875,17.13837109375,-58.652484375,-29.07388671875,18.41740234375,14.8216640625,-3.677671875,-83.4219375,6.93682812499999,9.19476171875,-14.3121015625,-35.73879296875,-70.0838671875,-28.57344921875,-20.4200390625,-47.9389453125,-63.002421875
93.23581640625,47.07796875,27.77375,31.4680703125,23.77898828125,-5.03725781250001,-39.73621875,43.6149921875,43.12817578125,15.241640625,-15.24171484375,-52.32344921875,57.2263984375,2.6836171875,16.42837109375,-57.686484375,-24.62788671875,14.68340234375,11.6466640625,-6.092671875,-79.5619375,8.49782812499999,7.28376171875,-17.3651015625,-35.83879296875,-66.0458671875,-30.86244921875,-19.1260390625,-47.8219453125,-61.552421875
90.12781640625,46.10296875,26.74775,27.0070703125,18.87298828125,-6.13525781250001,-38.76221875,43.7879921875,37.83317578125,12.136640625,-15.32171484375,-50.16144921875,52.1993984375,-4.4513828125,14.34037109375,-56.953484375,-19.68288671875,9.45040234375,6.4506640625,-9.965671875,-75.3289375,8.64982812499999,3.70876171875,-22.1041015625,-36.22079296875,-61.2418671875,-33.59044921875,-18.6950390625,-47.5529453125,-59.459421875
86.33481640625,44.35796875,25.60075,21.6730703125,13.23098828125,-7.6092578125,-37.29621875,44.5149921875,31.55017578125,8.341640625,-15.86771484375,-47.04144921875,46.9663984375,-12.3933828125,10.89937109375,-56.611484375,-14.32788671875,3.10540234375,-0.343335937500001,-15.111671875,-71.1199375,7.293828125,-1.32623828125,-28.1561015625,-36.98979296875,-56.3838671875,-36.47544921875,-19.1140390625,-47.0059453125,-56.830421875
82.18981640625,41.95096875,24.51775,16.1190703125,7.69698828125,-9.13725781250001,-35.34021875,46.1019921875,25.09017578125,4.414640625,-16.82071484375,-43.04444921875,41.7553984375,-20.3143828125,6.26437109375,-56.793484375,-8.92588671875,-3.92859765625,-8.1513359375,-21.145671875,-67.5249375,4.449828125,-7.57923828125,-35.0291015625,-38.32279296875,-52.4538671875,-39.34644921875,-20.2890390625,-46.2219453125,-54.033421875
78.19781640625,39.19596875,23.58675,11.1110703125,3.20498828125,-10.3282578125,-33.02221875,48.6249921875,19.29317578125,0.934640625,-18.02471484375,-38.54044921875,36.6963984375,-27.3993828125,0.81937109375,-57.492484375,-3.98388671875,-11.23559765625,-16.2693359375,-27.486671875,-65.1059375,0.232828124999997,-14.74123828125,-42.1461015625,-40.35079296875,-50.3708671875,-42.13744921875,-22.0810390625,-45.4139453125,-51.594421875
74.89781640625,36.54496875,22.81375,7.3250703125,0.479988281249998,-10.8252578125,-30.51521875,51.8809921875,14.77517578125,-1.642359375,-19.19971484375,-34.04844921875,31.8743984375,-32.9743828125,-4.81362890625,-58.513484375,0.0351132812499984,-18.40159765625,-23.9253359375,-33.418671875,-64.1439375,-5.13417187500001,-22.39723828125,-48.8901015625,-43.00179296875,-50.6108671875,-44.81244921875,-24.3210390625,-44.8869453125,-49.989421875
72.64081640625,34.40696875,22.12875,5.10407031249999,-0.284011718750001,-10.4652578125,-28.01021875,55.3889921875,11.73217578125,-3.121359375,-20.01671484375,-30.08244921875,27.3613984375,-36.6193828125,-9.89462890625,-59.498484375,2.88111328125,-25.00259765625,-30.3673359375,-38.215671875,-64.4709375,-11.290171875,-29.99723828125,-54.6401015625,-45.88479296875,-52.9348671875,-47.26244921875,-26.7730390625,-44.8609453125,-49.383421875
71.37781640625,32.93396875,21.39775,4.29307031249999,0.436988281249999,-9.4082578125,-25.72421875,58.4829921875,9.88117578124999,-3.624359375,-20.21771484375,-27.03844921875,23.1993984375,-38.2443828125,-13.76762890625,-60.010484375,4.58111328125,-30.58259765625,-34.9733359375,-41.254671875,-65.4629375,-17.698171875,-36.84423828125,-58.8041015625,-48.28979296875,-56.3448671875,-49.20344921875,-29.0760390625,-45.2559453125,-49.446421875
70.64281640625,31.92396875,20.45075,4.27407031249999,1.62898828125,-8.1062578125,-23.88121875,60.5129921875,8.60517578125,-3.514359375,-19.70771484375,-25.10044921875,19.3763984375,-38.0773828125,-16.03562890625,-59.614484375,5.38011328125,-34.69759765625,-37.3493359375,-42.104671875,-66.1909375,-23.655171875,-42.14523828125,-60.8731015625,-49.33279296875,-59.3338671875,-50.15044921875,-30.7070390625,-45.5789453125,-49.368421875
69.73481640625,30.91796875,19.15075,4.1900703125,2.13898828125,-7.1152578125,-22.63421875,61.0919921875,7.22517578124999,-3.218359375,-18.56071484375,-24.18544921875,15.8193984375,-36.5783828125,-16.63762890625,-57.968484375,5.63711328125,-37.02359765625,-37.3853359375,-40.572671875,-65.7129375,-28.402171875,-45.16823828125,-60.5101015625,-48.22379296875,-60.3638671875,-49.52544921875,-31.0700390625,-45.0459453125,-48.131421875
68.03981640625,29.44496875,17.46675,3.28707031249999,1.14098828125,-6.8632578125,-21.98421875,60.2939921875,5.26717578125,-3.046359375,-16.94971484375,-23.93744921875,12.4123984375,-34.3193828125,-15.81762890625,-54.923484375,5.71111328125,-37.52159765625,-35.2933359375,-36.755671875,-63.4069375,-31.341171875,-45.48223828125,-57.6771015625,-44.56379296875,-58.3938671875,-46.89144921875,-29.7270390625,-42.9439453125,-44.955421875
65.30581640625,27.28596875,15.51975,1.19807031249999,-1.53301171875,-7.47925781250001,-21.75221875,58.6799921875,2.62117578125,-3.089359375,-15.07871484375,-23.81344921875,9.0543984375,-31.8543828125,-14.01962890625,-50.606484375,5.88811328125,-36.54159765625,-31.5743359375,-31.073671875,-59.2019375,-32.268171875,-43.19123828125,-52.7241015625,-38.53579296875,-53.2448671875,-42.22544921875,-26.6550390625,-39.0309453125,-39.693421875
61.74981640625,24.60496875,13.55575,-1.9309296875,-5.34601171875,-8.74225781250001,-21.62921875,57.1249921875,-0.448824218750005,-3.231359375,-13.13271484375,-23.25244921875,5.7273984375,-29.6043828125,-11.73262890625,-45.436484375,6.35811328125,-34.76959765625,-26.9333359375,-24.232671875,-53.6139375,-31.476171875,-38.97623828125,-46.3781015625,-30.88579296875,-45.6338671875,-36.03844921875,-22.3660390625,-33.7349453125,-32.956421875
57.96581640625,21.89296875,11.88675,-5.5289296875,-9.27801171875,-10.1812578125,-21.30521875,56.4869921875,-3.41482421875,-3.248359375,-11.26571484375,-21.87544921875,2.5313984375,-27.7823828125,-9.34962890625,-40.030484375,7.21111328125,-32.99659765625,-22.1083359375,-17.081671875,-47.5239375,-29.647171875,-33.90223828125,-39.5631015625,-22.69079296875,-36.8688671875,-29.26544921875,-17.7720390625,-28.0189453125,-25.893421875
54.70181640625,19.76696875,10.80075,-8.8339296875,-12.19201171875,-11.2522578125,-20.58421875,57.2599921875,-5.65282421875001,-2.889359375,-9.56571484375,-19.61344921875,-0.303601562499999,-26.3643828125,-7.06262890625,-34.992484375,8.45111328125,-31.82159765625,-17.6723359375,-10.372671875,-41.8329375,-27.570171875,-29.03523828125,-33.1141015625,-15.00479296875,-28.3598671875,-22.94544921875,-13.8500390625,-22.9749453125,-19.733421875
52.62981640625,18.75096875,10.49875,-11.1429296875,-13.14801171875,-11.4852578125,-19.41821875,59.3719921875,-6.59982421875,-1.909359375,-7.99671484375001,-16.70044921875,-2.4386015625,-25.1133828125,-4.82162890625,-30.668484375,10.00711328125,-31.42059765625,-13.8753359375,-4.532671875,-37.1209375,-25.825171875,-25.06123828125,-27.5091015625,-8.52479296875,-21.1608671875,-17.84744921875,-11.2740390625,-19.3859453125,-15.327421875
52.20681640625,19.12696875,11.08475,-11.9469296875,-11.58201171875,-10.5382578125,-17.83021875,62.2449921875,-5.85182421875,-0.0643593750000004,-6.37771484375001,-13.52644921875,-3.4786015625,-23.6703828125,-2.37462890625,-26.979484375,11.77711328125,-31.50659765625,-10.5963359375,0.455328125000001,-33.4659375,-24.599171875,-22.09223828125,-22.7521015625,-3.42579296875,-15.7298671875,-14.22444921875,-10.1920390625,-17.4729453125,-12.894421875
53.62081640625,20.91996875,12.58075,-10.9779296875,-7.35201171875,-8.19525781250001,-15.80721875,65.0849921875,-3.21482421875,2.879640625,-4.41771484375001,-10.43744921875,-3.0626015625,-21.6743828125,0.629371093750001,-23.450484375,13.68111328125,-31.50359765625,-7.4463359375,4.992328125,-30.4879375,-23.719171875,-19.72723828125,-18.4601015625,0.597207031250001,-11.9548671875,-11.81544921875,-10.2720390625,-16.9319453125,-12.069421875
56.81281640625,23.95796875,14.93275,-8.1959296875,-0.720011718750001,-4.38925781250001,-13.25221875,67.2599921875,1.25217578125,7.070640625,-1.81671484375001,-7.57644921875,-0.980601562499999,-18.8823828125,4.51137109375,-19.437484375,15.71711328125,-30.81459765625,-3.9483359375,9.642328125,-27.5739375,-22.836171875,-17.32623828125,-14.1011015625,4.10520703125,-9.36386718750001,-10.05244921875,-10.9230390625,-17.1849453125,-12.177421875
61.51781640625,27.96796875,18.00275,-3.7789296875,7.70298828125,0.740742187499997,-10.04221875,68.5469921875,7.23317578125,12.468640625,1.60928515625,-4.86344921875001,2.7243984375,-15.2263828125,9.43237109375,-14.443484375,17.96911328125,-29.06859765625,0.2476640625,14.841328125,-24.1679375,-21.650171875,-14.34023828125,-9.2591015625,7.61220703125,-7.40386718750001,-8.35644921875,-11.5880390625,-17.6689453125,-12.567421875
67.31881640625,32.63596875,21.55975,1.9060703125,17.06598828125,6.84074218749999,-6.12521875,69.1319921875,14.19017578125,18.777640625,5.83028515625,-2.10144921875001,7.7323984375,-10.7923828125,15.33237109375,-8.391484375,20.55111328125,-26.22559765625,5.2486640625,20.683328125,-20.0129375,-20.035171875,-10.53723828125,-3.8081015625,11.35520703125,-5.66286718750001,-6.36044921875,-11.9240390625,-18.0179453125,-12.836421875
73.66981640625,37.61296875,25.28575,8.3360703125,26.41898828125,13.3847421875,-1.63021875,69.4019921875,21.48017578125,25.467640625,10.56428515625,0.829550781249992,13.5303984375,-5.7613828125,21.92937109375,-1.69548437500001,23.50411328125,-22.51559765625,10.9026640625,26.855328125,-15.2289375,-18.030171875,-6.04223828125,2.0488984375,15.21420703125,-3.9678671875,-3.97844921875,-11.8110390625,-18.0849453125,-12.879421875
79.91381640625,42.49496875,28.80175,14.8970703125,34.85898828125,19.7517421875,3.08278125000001,69.6479921875,28.48317578125,31.869640625,15.31228515625,3.82155078125,19.5673984375,-0.354382812500006,28.75737109375,4.861515625,26.70111328125,-18.27259765625,16.8686640625,32.739328125,-10.2489375,-15.714171875,-1.20023828125,7.88689843750001,18.81820703125,-2.35486718750001,-1.32644921875,-11.2400390625,-17.8369453125,-12.769421875
85.31181640625,46.80696875,31.71175,20.9410703125,41.65298828125,25.2977421875,7.44078125,69.8609921875,34.69717578125,37.319640625,19.46728515625,6.50455078125,25.3943984375,5.1686171875,35.22837109375,10.393515625,29.81511328125,-13.77259765625,22.7096640625,37.627328125,-5.6299375,-13.070171875,3.63776171875,13.2308984375,21.76120703125,-0.934867187500004,1.42355078125,-10.1620390625,-17.2299453125,-12.562421875
89.13881640625,50.04396875,33.64275,25.8700703125,46.31798828125,29.4427421875,10.78578125,69.7209921875,39.78417578125,41.279640625,22.45928515625,8.36555078124999,30.7443984375,10.5126171875,40.70937109375,14.195515625,32.41311328125,-9.14259765625,27.9796640625,40.948328125,-1.8349375,-9.92117187500001,8.27376171875,17.7158984375,23.80420703125,0.242132812499989,4.16455078125,-8.4200390625,-16.1229453125,-12.151421875
90.82981640625,51.74996875,34.28675,29.2260703125,48.64598828125,31.7727421875,12.55178125,68.7659921875,43.55517578125,43.412640625,23.86928515625,8.97055078125,35.5233984375,15.3456171875,44.58737109375,15.939515625,34.12211328125,-4.39459765625,32.2756640625,42.425328125,0.951062500000006,-6.007171875,12.69876171875,21.1608984375,24.96320703125,1.2971328125,6.88755078125,-5.7890390625,-14.2819453125,-11.229421875
90.10281640625,51.60096875,33.43475,30.7410703125,48.66398828125,32.0837421875,12.41278125,66.6249921875,45.90717578125,43.571640625,23.49028515625,8.16855078124999,39.7343984375,19.3126171875,46.33337109375,15.714515625,34.80911328125,0.457402343750005,35.2596640625,42.100328125,2.8820625,-1.15217187500001,16.96776171875,23.5118984375,25.45920703125,2.52513281249999,9.61255078125,-2.1200390625,-11.4879453125,-9.39142187500001
87.00981640625,49.47196875,31.01175,30.3530703125,46.53998828125,30.3447421875,10.33778125,63.2009921875,46.75317578125,41.720640625,21.30928515625,6.16955078125,43.3683984375,22.0456171875,45.55337109375,13.923515625,34.66011328125,5.26540234375,36.6436640625,40.212328125,4.3550625,4.56082812499999,20.99976171875,24.7398984375,25.57220703125,4.30213281249999,12.27555078125,2.5019609375,-7.6829453125,-6.33842187500001
81.89081640625,45.46996875,27.11375,28.1880703125,42.49298828125,26.6217421875,6.55178125,58.7339921875,45.99917578125,37.868640625,17.45228515625,3.47155078125,46.3313984375,23.1776171875,42.04537109375,11.090515625,34.11111328125,9.67140234375,36.1736640625,37.019328125,5.80806250000001,10.718828125,24.43976171875,24.7368984375,25.48420703125,6.91213281249999,14.65355078125,7.6719609375,-3.0969453125,-2.071421875
75.28181640625,39.94196875,22.03775,24.5360703125,36.77498828125,21.0777421875,1.47878125,53.7559921875,43.60717578125,32.080640625,12.15528515625,0.671550781249991,48.4553984375,22.3916171875,35.88237109375,7.69051562499999,33.67911328125,13.15540234375,33.6436640625,32.687328125,7.5150625,16.644828125,26.67976171875,23.3148984375,25.20320703125,10.3851328125,16.37955078125,12.7199609375,1.7330546875,3.026578125
67.81581640625,33.43996875,16.27175,19.8240703125,29.71698828125,14.0367421875,-4.32521874999999,48.9349921875,39.69917578125,24.586640625,5.76328515625,-1.73044921875,49.5623984375,19.5356171875,27.47937109375,4.05951562499999,33.78111328125,15.17340234375,28.9746640625,27.292328125,9.48306250000002,21.579828125,27.07176171875,20.2918984375,24.58120703125,14.4291328125,17.07255078125,16.8879609375,6.0960546875,8.291578125
60.12381640625,26.63196875,10.41675,14.5470703125,21.78598828125,6.05874218749999,-10.24421875,44.8739921875,34.62517578125,15.903640625,-1.24371484375001,-3.45144921875,49.5563984375,14.7296171875,17.60237109375,0.387515624999992,34.60411328125,15.34340234375,22.3306640625,20.920328125,11.4860625,24.901828125,25.19676171875,15.6518984375,23.41520703125,18.5081328125,16.50855078125,19.5649609375,9.3300546875,12.997578125
52.78081640625,20.18796875,5.09575,9.20707031249999,13.60998828125,-2.06525781250001,-15.68721875,41.9329921875,28.95817578125,6.856640625,-8.24171484375,-4.43344921875,48.4973984375,8.4366171875,7.27237109375,-3.215484375,36.07811328125,13.60540234375,14.1986640625,13.788328125,13.2010625,26.305828125,21.08376171875,9.6788984375,21.56920703125,22.0201328125,14.75555078125,20.4709609375,11.0510546875,16.582578125
46.26781640625,14.67096875,0.84375,4.26207031249999,5.91698828125,-9.39825781250001,-20.15521875,40.1579921875,23.41517578125,-1.559359375,-14.52571484375,-4.77144921875001,46.6393984375,1.4276171875,-2.40962890625,-6.649484375,37.93411328125,10.29440234375,5.3726640625,6.303328125,14.3530625,25.878828125,15.27076171875,2.9878984375,19.04820703125,24.4901328125,12.19855078125,19.7449609375,11.2740546875,18.778578125
40.92881640625,10.44996875,-1.97925,0.0960703124999966,-0.598011718750001,-15.0552578125,-23.29321875,39.3329921875,18.69517578125,-8.426359375,-19.44871484375,-4.62044921875,44.3943984375,-5.3703828125,-10.49262890625,-9.795484375,39.82311328125,6.07740234375,-3.2003359375,-0.967671875000001,14.7860625,24.053828125,8.67276171875,-3.5911015625,16.00220703125,25.6781328125,9.42055078125,17.8719609375,10.3650546875,19.602578125
36.91981640625,7.64196875,-3.27425,-3.0359296875,-5.47001171875,-18.4722578125,-24.95021875,39.1029921875,15.28617578125,-13.169359375,-22.60371484375,-4.15644921875,42.2083984375,-11.1183828125,-16.39062890625,-12.537484375,41.40711328125,1.74540234375,-10.6553359375,-7.437671875,14.4410625,21.425828125,2.31076171875,-9.25810156249999,12.66320703125,25.5721328125,6.98755078125,15.4779609375,8.8580546875,19.260578125
34.15281640625,6.10396875,-3.25425,-5.07992968750001,-8.61301171875,-19.6292578125,-25.23721875,39.0989921875,13.27617578125,-15.716359375,-23.95271484375,-3.58144921875001,40.3833984375,-15.3093828125,-20.02562890625,-14.831484375,42.40411328125,-2.05659765625,-16.4623359375,-12.688671875,13.2690625,18.527828125,-3.02023828125,-13.5061015625,9.23820703125,24.3061328125,5.21855078125,13.0869609375,7.23405468750001,18.024578125
32.31881640625,5.46996875,-2.40425,-6.2009296875,-10.33101171875,-19.0702578125,-24.52821875,39.0219921875,12.32017578125,-16.482359375,-23.85271484375,-3.16044921875,38.9483984375,-17.9233828125,-21.81862890625,-16.756484375,42.55611328125,-5.03959765625,-20.5583359375,-16.602671875,11.1710625,15.662828125,-6.99623828125,-16.2771015625,5.83120703125,22.0501328125,4.07255078125,10.9569609375,5.7650546875,16.144578125
31.00081640625,5.26396875,-1.35425,-6.71392968750001,-11.16001171875,-17.6622578125,-23.35821875,38.6619921875,11.78517578125,-16.180359375,-22.93771484375,-3.21544921875,37.6513984375,-19.3693828125,-22.49962890625,-18.491484375,41.58911328125,-7.29859765625,-23.2923359375,-19.346671875,8.0340625,12.890828125,-9.80323828125,-17.9031015625,2.45120703125,18.9541328125,3.22555078125,9.09496093750001,4.5210546875,13.827578125
29.84381640625,5.04596875,-0.68225,-6.9369296875,-11.62001171875,-16.2312578125,-22.25921875,37.8979921875,11.04117578125,-15.534359375,-21.89571484375,-4.04344921875,36.1263984375,-20.2573828125,-22.81262890625,-20.203484375,39.23911328125,-9.16559765625,-25.1893359375,-21.214671875,3.8580625,10.140828125,-11.95523828125,-18.8771015625,-0.893792968749999,15.1491328125,2.29355078125,7.3909609375,3.4560546875,11.258578125
28.68381640625,4.55596875,-0.731249999999999,-7.0559296875,-12.01101171875,-15.2692578125,-21.58821875,36.6999921875,9.73117578124999,-15.032359375,-21.20671484375,-5.77344921875,34.1193984375,-21.0853828125,-23.22662890625,-21.921484375,35.35711328125,-10.97559765625,-26.6673359375,-22.417671875,-1.1089375,7.358828125,-13.98323828125,-19.5731015625,-4.09079296875,10.7941328125,1.07055078125,5.77096093750001,2.5310546875,8.621578125
27.57481640625,3.75696875,-1.52325,-7.0609296875,-12.34801171875,-14.8462578125,-21.43021875,35.1429921875,7.90917578125,-14.820359375,-21.00071484375,-8.26844921875001,31.6643984375,-22.0193828125,-23.79462890625,-23.465484375,30.04611328125,-12.86859765625,-27.8383359375,-22.974671875,-6.32393749999999,4.59182812499999,-16.15723828125,-20.0651015625,-6.87479296875,6.1101328125,-0.352449218749996,4.2569609375,1.7560546875,6.113578125
26.68081640625,2.77896875,-2.81325,-6.7819296875,-12.45501171875,-14.7202578125,-21.61821875,33.3999921875,5.99717578125,-14.771359375,-21.07271484375,-11.12044921875,29.0983984375,-22.8573828125,-24.22562890625,-24.492484375,23.74311328125,-14.72859765625,-28.4983359375,-22.749671875,-11.0409375,1.961828125,-18.37123828125,-20.1341015625,-8.90379296875,1.38513281249999,-1.63544921875,2.94496093750001,1.1980546875,3.92957812499999
26.12681640625,1.79496875,-4.24325,-5.9949296875,-12.13801171875,-14.5852578125,-21.85121875,31.7009921875,4.58617578125,-14.658359375,-21.05871484375,-13.77544921875,26.9093984375,-23.1813828125,-24.09262890625,-24.636484375,17.17011328125,-16.25059765625,-28.2833359375,-21.594671875,-14.5139375,-0.406171875000005,-20.21623828125,-19.4011015625,-9.87779296875,-3.04986718750001,-2.33944921875,1.9579609375,0.954054687500005,2.25657812499999
25.89481640625,0.90896875,-5.52625,-4.5409296875,-11.31501171875,-14.2802578125,-21.84721875,30.2569921875,4.21017578125,-14.310359375,-20.64471484375,-15.69844921875,25.5343984375,-22.5793828125,-23.06962890625,-23.662484375,11.17911328125,-17.08559765625,-26.8813359375,-19.501671875,-16.2149375,-2.428171875,-21.18323828125,-17.5111015625,-9.64779296875,-6.8478671875,-2.09444921875,1.4159609375,1.1350546875,1.26257812499999
25.85481640625,0.13896875,-6.53625,-2.3699296875,-10.03101171875,-13.8692578125,-21.44121875,29.2089921875,5.17017578124999,-13.672359375,-19.69471484375,-16.50144921875,25.2083984375,-20.8203828125,-21.08362890625,-21.562484375,6.54711328125,-16.98259765625,-24.2013359375,-16.634671875,-15.9729375,-4.04917187500001,-20.88223828125,-14.2801015625,-8.25979296875,-9.68086718750001,-0.71044921875,1.41496093750001,1.8280546875,1.064578125
25.88581640625,-0.534031249999998,-7.30725,0.479070312499992,-8.37001171875,-13.5362578125,-20.58921875,28.6119921875,7.47117578125,-12.774359375,-18.28871484375,-16.02244921875,25.9273984375,-17.9323828125,-18.32662890625,-18.556484375,3.82011328125,-15.88959765625,-20.4253359375,-13.277671875,-13.9919375,-5.20917187500001,-19.18323828125,-9.7791015625,-5.92779296875,-11.2888671875,1.77355078125,1.9929609375,3.0330546875,1.696578125
25.97881640625,-1.09703125,-7.95325,3.92407031249999,-6.37401171875,-13.4162578125,-19.31821875,28.4789921875,10.85017578125,-11.674359375,-16.64971484375,-14.31444921875,27.4983984375,-14.1703828125,-15.16062890625,-15.015484375,3.22511328125,-13.95859765625,-15.9333359375,-9.709671875,-10.7389375,-5.81417187500001,-16.22723828125,-4.3301015625,-2.95179296875,-11.5308671875,5.10355078125,3.0799609375,4.6190546875,3.083578125
26.25581640625,-1.46203125,-8.55625,7.8400703125,-4.01401171875,-13.4752578125,-17.65121875,28.8239921875,14.86617578125,-10.414359375,-15.00771484375,-11.57844921875,29.6253984375,-9.9133828125,-11.97162890625,-11.329484375,4.68511328125,-11.46859765625,-11.1663359375,-6.111671875,-6.7549375,-5.73017187500001,-12.32723828125,1.5828984375,0.380207031250002,-10.4088671875,8.89255078125,4.5129609375,6.3550546875,5.055578125
26.91181640625,-1.46803125,-9.06325,12.0440703125,-1.21901171875,-13.4912578125,-15.53921875,29.7119921875,19.02817578125,-9.002359375,-13.45471484375,-8.04044921875,32.0113984375,-5.51638281250001,-9.00762890625,-7.780484375,7.92011328125,-8.68559765625,-6.4593359375,-2.510671875,-2.46393749999999,-4.81017187500001,-7.80423828125,7.47589843750001,3.88320703125,-8.04986718750001,12.75055078125,6.10396093750001,7.99905468750001,7.39957812499999
28.13981640625,-0.908031250000001,-9.22225,16.2800703125,2.06398828125,-13.0912578125,-12.82521875,31.2869921875,22.94517578125,-7.393359375,-11.85571484375,-3.84544921875001,34.4313984375,-1.1923828125,-6.27762890625,-4.432484375,12.57411328125,-5.71759765625,-1.9333359375,1.205328125,1.97606250000001,-2.94517187500001,-2.86023828125,13.0228984375,7.53120703125,-4.6398671875,16.40255078125,7.7519609375,9.4230546875,9.928578125
30.04581640625,0.409968750000001,-8.62525,20.2550703125,5.82398828125,-11.8562578125,-9.26921874999999,33.7289921875,26.41617578125,-5.487359375,-9.88171484375,0.983550781250003,36.7783984375,3.0336171875,-3.55762890625,-1.11548437500001,18.31911328125,-2.47959765625,2.51666406250001,5.222328125,6.6880625,-0.132171875000004,2.44976171875,18.1318984375,11.43120703125,-0.359867187500001,19.74955078125,9.47196093750001,10.6640546875,12.530578125
32.59781640625,2.59396875,-6.86025,23.6960703125,9.94898828125,-9.48325781250001,-4.67321874999999,37.1669921875,29.43217578125,-3.153359375,-7.15571484375,6.49455078125,39.0513984375,7.2666171875,-0.495628906249999,2.502515625,24.88811328125,1.21740234375,7.1056640625,9.688328125,11.9800625,3.46082812499999,8.12876171875,22.9048984375,15.73620703125,4.6491328125,22.83155078125,11.3489609375,11.8840546875,15.162578125
35.61781640625,5.61796875,-3.70925,26.4270703125,14.22398828125,-5.93425781250001,0.976781250000002,41.5599921875,32.10617578125,-0.289359375,-3.43971484375,12.69755078125,41.3113984375,11.6076171875,3.19237109375,6.775515625,32.03611328125,5.49640234375,11.9726640625,14.614328125,18.1560625,7.49082812499999,14.09576171875,27.5048984375,20.54020703125,10.2711328125,25.73155078125,13.4189609375,13.2560546875,17.810578125
38.84981640625,9.30796875,0.70675,28.4500703125,18.38398828125,-1.48225781250001,7.42878125,46.6499921875,34.59317578125,3.097640625,1.23928515625,19.46255078125,43.6243984375,16.0596171875,7.56337109375,11.930515625,39.50611328125,10.27040234375,17.0486640625,19.836328125,25.3430625,11.516828125,20.07976171875,32.0108984375,25.81020703125,16.3721328125,28.47755078125,15.5989609375,14.8590546875,20.439578125
42.05981640625,13.38196875,5.92075,29.9590703125,22.20398828125,3.39474218749999,14.21178125,51.9949921875,37.04317578125,6.831640625,6.57228515625,26.49255078125,46.0333984375,20.4926171875,12.36637109375,17.964515625,47.01711328125,15.22440234375,22.0276640625,25.065328125,33.4030625,15.148828125,25.63976171875,36.3248984375,31.37120703125,22.7621328125,31.00155078125,17.7039609375,16.6390546875,22.966578125
45.09181640625,17.50196875,11.24775,31.2710703125,25.53898828125,8.17874218749999,20.74178125,57.0639921875,39.54917578125,10.558640625,12.05328515625,33.36155078125,48.5353984375,24.6676171875,17.08137109375,24.613515625,54.29211328125,19.91140234375,26.4516640625,29.979328125,41.9520625,18.183828125,30.29176171875,40.1828984375,36.94920703125,29.2051328125,33.17155078125,19.5339609375,18.4430546875,25.277578125
47.82581640625,21.31696875,15.96775,32.6510703125,28.30498828125,12.4297421875,26.46078125,61.3399921875,42.09917578125,13.802640625,17.11428515625,39.61155078125,51.0633984375,28.2946171875,21.07037109375,31.401515625,61.10411328125,23.89440234375,29.8606640625,34.308328125,50.4800625,20.648828125,33.67876171875,43.2388984375,42.23320703125,35.4581328125,34.85555078125,20.9709609375,20.1020546875,27.274578125
50.10281640625,24.49396875,19.51675,34.1570703125,30.41598828125,15.8257421875,30.93378125,64.4019921875,44.54517578125,16.095640625,21.27728515625,44.86455078125,53.4763984375,31.0806171875,23.79137109375,37.758515625,67.31111328125,26.86640234375,31.9336640625,37.883328125,58.5060625,22.711828125,35.67176171875,45.2078984375,46.93420703125,41.3331328125,35.99055078125,22.0109609375,21.5100546875,28.948578125
51.69181640625,26.76196875,21.59575,35.5980703125,31.74698828125,18.1777421875,33.92578125,65.9939921875,46.63817578125,17.118640625,24.24628515625,48.90155078125,55.5583984375,32.7886171875,24.98337109375,43.187515625,72.85611328125,28.69740234375,32.5666640625,40.636328125,65.7000625,24.529828125,36.37676171875,45.9698984375,50.84320703125,46.7491328125,36.61755078125,22.7419609375,22.6630546875,30.427578125
52.34681640625,27.95596875,22.19175,36.6270703125,32.14598828125,19.4187421875,35.41078125,66.0619921875,48.10617578125,16.801640625,25.94028515625,51.67955078125,57.0493984375,33.2816171875,24.73437109375,47.365515625,77.73911328125,29.40840234375,31.8616640625,42.535328125,71.8990625,26.117828125,36.04076171875,45.5828984375,53.83520703125,51.7201328125,36.84255078125,23.2679609375,23.6370546875,31.948578125
51.89981640625,28.04096875,21.51475,36.9000703125,31.47498828125,19.5767421875,35.52178125,64.7469921875,48.70817578125,15.314640625,26.44028515625,53.28855078125,57.6963984375,32.5276171875,23.36737109375,50.148515625,81.94511328125,29.09040234375,30.0136640625,43.496328125,77.0130625,27.315828125,34.89376171875,44.1988984375,55.82420703125,56.2891328125,36.75255078125,23.6299609375,24.5100546875,33.741578125
50.33181640625,27.10096875,19.87475,36.2160703125,29.66598828125,18.7267421875,34.46478125,62.3409921875,48.24117578125,12.969640625,25.88528515625,53.87855078125,57.3113984375,30.5796171875,21.21337109375,51.487515625,85.37511328125,27.82140234375,27.1866640625,43.320328125,80.8920625,27.868828125,33.01076171875,41.9208984375,56.68620703125,60.4391328125,36.31455078125,23.7589609375,25.2740546875,35.871578125
47.76081640625,25.27596875,17.56775,34.5760703125,26.74798828125,16.9647421875,32.44478125,59.2189921875,46.54817578125,10.071640625,24.36328515625,53.57255078125,55.8083984375,27.5316171875,18.40537109375,51.329515625,87.82911328125,25.62540234375,23.4276640625,41.701328125,83.2490625,27.550828125,30.26976171875,38.7048984375,56.21320703125,64.0161328125,35.33455078125,23.4899609375,25.7990546875,38.130578125
44.36281640625,22.70096875,14.78075,32.1340703125,22.83198828125,14.3707421875,29.61078125,55.7349921875,43.53717578125,6.786640625,21.85128515625,52.40455078125,53.2223984375,23.4826171875,14.80937109375,49.573515625,89.02911328125,22.48440234375,18.6746640625,38.332328125,83.7010625,26.288828125,26.44376171875,34.3868984375,54.14220703125,66.7311328125,33.51755078125,22.6509609375,25.8850546875,40.067578125
40.27181640625,19.44696875,11.55475,29.0780703125,18.06698828125,10.9797421875,26.03278125,52.1099921875,39.23117578125,3.103640625,18.23828515625,50.29655078125,49.7073984375,18.5326171875,10.13737109375,46.102515625,88.68811328125,18.40540234375,12.8526640625,33.035328125,81.9010625,24.223828125,21.36676171875,28.7988984375,50.25820703125,68.2221328125,30.62555078125,21.1839609375,25.3830546875,41.145578125
35.55181640625,15.52796875,7.81575,25.5370703125,12.62398828125,6.79174218749999,21.70778125,48.3639921875,33.83317578125,-1.097359375,13.42928515625,47.09855078125,45.5263984375,12.8296171875,4.17437109375,40.864515625,86.57211328125,13.50240234375,6.0086640625,25.884328125,77.6880625,21.699828125,15.11576171875,21.9458984375,44.52220703125,68.1651328125,26.63255078125,19.2229609375,24.3140546875,40.979578125
30.26281640625,10.97096875,3.49075,21.6050703125,6.75598828125,1.8747421875,16.65178125,44.3339921875,27.79217578125,-5.861359375,7.48428515625,42.67855078125,41.0523984375,6.6536171875,-2.97262890625,33.936515625,82.55211328125,8.05540234375,-1.5543359375,17.258328125,71.1580625,19.164828125,8.09476171875,14.1218984375,37.16720703125,66.3601328125,21.79855078125,17.0689609375,22.8980546875,39.523578125
24.59581640625,5.93996875,-1.35325,17.4770703125,0.910988281249999,-3.44725781250001,11.02078125,39.8119921875,21.79917578125,-10.935359375,0.744285156249994,37.02755078125,36.7323984375,0.5056171875,-10.73362890625,25.562515625,76.62711328125,2.52440234375,-9.2213359375,7.807328125,62.6400625,17.021828125,0.977761718749996,5.9258984375,28.68620703125,62.7671328125,16.60655078125,15.0619609375,21.4560546875,37.089578125
18.98381640625,0.841968749999999,-6.38725,13.5760703125,-4.21901171875,-8.49425781250001,5.21878125000001,34.7229921875,16.68217578125,-15.654359375,-6.12371484375,30.33555078125,33.0123984375,-4.8983828125,-18.11262890625,16.162515625,68.94711328125,-2.51059765625,-16.1323359375,-1.649671875,52.6040625,15.473828125,-5.45823828125,-1.8491015625,19.73620703125,57.4961328125,11.60455078125,13.4069609375,20.2390546875,34.185578125
14.11281640625,-3.64903125,-11.01125,10.5570703125,-7.77601171875,-12.3052578125,-0.129218749999993,29.2569921875,13.21917578125,-19.031359375,-12.19871484375,23.02155078125,30.2483984375,-8.7513828125,-23.92662890625,6.32551562499999,59.84011328125,-6.46459765625,-21.3833359375,-10.285671875,41.5770625,14.459828125,-10.55523828125,-8.4121015625,10.97120703125,50.7771328125,7.22355078125,12.0739609375,19.2710546875,31.229578125
10.79781640625,-6.71903125,-14.47425,9.14307031249999,-8.96801171875,-13.9072578125,-4.31121874999999,23.8859921875,11.93317578125,-20.079359375,-16.52271484375,15.69555078125,28.6403984375,-10.3923828125,-27.16762890625,-3.209484375,49.83711328125,-8.87959765625,-24.3013359375,-17.418671875,30.1290625,13.703828125,-13.93923828125,-13.2001015625,2.88620703125,42.9211328125,3.64955078125,10.8279609375,18.3160546875,28.319578125
9.73581640625,-7.66003125,-16.10325,9.8700703125,-7.35501171875,-12.6472578125,-6.73221875,19.2539921875,12.94817578125,-18.218359375,-18.39271484375,9.07755078125,28.2143984375,-9.5493828125,-27.34762890625,-11.602484375,39.66311328125,-9.53659765625,-24.6693359375,-22.617671875,18.9130625,12.852828125,-15.58623828125,-16.0291015625,-4.25479296875,34.3101328125,0.814550781249999,9.3889609375,16.9920546875,25.179578125
11.21781640625,-6.15303125,-15.57125,12.8410703125,-3.09001171875,-8.46225781250001,-7.09621874999999,15.9629921875,15.94017578125,-13.587359375,-17.60571484375,3.88055078124999,28.8583984375,-6.4753828125,-24.68562890625,-18.003484375,30.15511328125,-8.53559765625,-22.8003359375,-25.745671875,8.68606250000002,11.632828125,-15.76323828125,-17.1221015625,-10.37279296875,25.3971328125,-1.50744921875,7.5989609375,14.9700546875,21.349578125
14.92681640625,-2.47803125,-13.06525,17.6230703125,3.01798828125,-1.98525781250001,-5.49121875,14.3649921875,20.19917578125,-7.085359375,-14.54071484375,0.669550781249995,30.3513984375,-1.8963828125,-20.06262890625,-21.708484375,22.11911328125,-6.28259765625,-19.4453359375,-26.937671875,0.277062500000014,9.94882812499999,-14.89723828125,-16.9601015625,-15.43579296875,16.7211328125,-3.52644921875,5.5259609375,12.1740546875,16.509578125
19.93581640625,2.49296875,-9.29025,23.3480703125,9.69198828125,5.58474218749999,-2.35221874999999,14.4249921875,24.79917578125,-0.127359374999999,-10.03971484375,-0.261449218750002,32.4193984375,3.1856171875,-14.75762890625,-22.323484375,16.15311328125,-3.39859765625,-15.5653359375,-26.525671875,-5.54493749999999,7.89582812499999,-13.42323828125,-16.0631015625,-19.31679296875,8.9101328125,-5.28044921875,3.4409609375,8.88305468750001,10.785578125
24.93981640625,7.52496875,-5.27125,28.9910703125,15.56298828125,12.8257421875,1.68878125000001,15.7329921875,28.84317578125,5.794640625,-5.14471484375,1.02655078124999,34.7823984375,7.7776171875,-10.06262890625,-19.903484375,12.52311328125,-0.552597656250001,-12.0713359375,-24.966671875,-8.25093749999999,5.69182812499999,-11.66723828125,-14.8101015625,-21.75479296875,2.6191328125,-6.59744921875,1.70396093750001,5.6790546875,4.848578125
28.65981640625,11.40096875,-2.04025,33.6930703125,19.59198828125,18.5117421875,5.95778125000001,17.6169921875,31.70817578125,9.559640625,-0.809714843750001,4.09755078124999,37.1993984375,11.1296171875,-6.93862890625,-14.997484375,11.12011328125,1.71640234375,-9.6163359375,-22.754671875,-7.71693749999999,3.58582812499999,-9.81423828125,-13.3781015625,-22.45979296875,-1.5928671875,-7.19644921875,0.620960937500001,3.2420546875,-0.266421875000006
30.24381640625,13.30396875,-0.327249999999999,36.9940703125,21.36898828125,21.9187421875,9.86878125,19.3339921875,33.19517578125,10.709640625,2.31628515625,8.21755078125,39.5043984375,12.8856171875,-5.80962890625,-8.545484375,11.52311328125,3.14240234375,-8.4833359375,-20.364671875,-4.28893749999999,1.78382812499999,-7.93623828125,-11.8061015625,-21.27979296875,-3.40286718750001,-6.85944921875,0.335960937500005,2.0870546875,-3.54942187500001
29.51781640625,13.04596875,-0.35125,38.8910703125,21.16998828125,22.9487421875,12.99678125,20.2819921875,33.54017578125,9.504640625,3.99328515625,12.54155078125,41.6273984375,13.1036171875,-6.54862890625,-1.652484375,13.14711328125,3.78040234375,-8.5883359375,-18.174671875,1.29206250000001,0.438828124999993,-6.06023828125,-10.0871015625,-18.32279296875,-2.81186718750001,-5.56344921875,0.801960937500006,2.3690546875,-4.384421875
26.98181640625,11.06296875,-1.81125,39.7520703125,19.78798828125,22.0677421875,15.13478125,20.1689921875,33.29517578125,6.739640625,4.36328515624999,16.33555078125,43.5983984375,12.1906171875,-8.62362890625,4.71751562499999,15.41511328125,3.98140234375,-9.5603359375,-16.388671875,8.0990625,-0.323171875000007,-4.19723828125,-8.2231015625,-13.94179296875,-0.134867187500006,-3.48944921875,1.8249609375,3.8610546875,-2.74042187500001
23.58381640625,8.19296875,-4.04325,40.1290703125,18.20598828125,20.0997421875,16.32978125,19.0859921875,33.11317578125,3.419640625,3.83428515625,19.17955078125,45.5303984375,10.7596171875,-11.34062890625,9.98251562499999,17.89211328125,4.27040234375,-10.8693359375,-14.990671875,15.2540625,-0.385171875000005,-2.32723828125,-6.2181015625,-8.61879296875,4.09413281249999,-0.919449218749996,3.1499609375,6.06805468749999,0.883578125
20.33981640625,5.34196875,-6.27025,40.5460703125,17.25698828125,17.9537421875,16.87378125,17.4349921875,33.53217578125,0.435640625,2.93028515624999,21.04755078125,47.5833984375,9.47161718749999,-14.06962890625,14.041515625,20.33811328125,5.18840234375,-11.9813359375,-13.771671875,22.1200625,0.355828124999995,-0.364238281250003,-4.0381015625,-2.82779296875,9.24813281249999,1.89055078125,4.5379609375,8.43705468749999,5.67357812499999
18.00781640625,3.21696875,-7.84325,41.3490703125,17.41298828125,16.3687421875,17.23678125,15.7889921875,34.84017578125,-1.637359375,2.16128515625,22.28155078125,49.9303984375,8.8876171875,-16.38362890625,17.187515625,22.70411328125,7.14040234375,-12.4843359375,-12.412671875,28.3750625,1.95682812499999,1.85676171875,-1.5941015625,3.05320703125,14.7341328125,4.78755078125,5.8189609375,10.5450546875,10.748578125
16.92081640625,2.20596875,-8.36025,42.6560703125,18.75498828125,15.7897421875,17.96578125,14.7359921875,37.06717578125,-2.572359375,1.94728515625,23.46155078125,52.7163984375,9.3726171875,-18.07462890625,19.936515625,25.09011328125,10.29640234375,-12.1713359375,-10.604671875,33.9930625,4.39282812499999,4.51876171875,1.2158984375,8.76120703125,20.0681328125,7.71455078125,6.9029609375,12.1910546875,15.366578125
17.02481640625,2.40896875,-7.68725,44.4070703125,21.09598828125,16.4027421875,19.56978125,14.7549921875,40.06617578125,-2.401359375,2.58928515625,25.23855078125,56.0013984375,11.0516171875,-19.08462890625,22.830515625,27.69611328125,14.54540234375,-11.0433359375,-8.150671875,39.1650625,7.52782812499999,7.73676171875,4.4268984375,14.11720703125,24.9241328125,10.62255078125,7.7539609375,13.3770546875,19.030578125
18.04481640625,3.73896875,-5.88625,46.4370703125,24.12898828125,18.2197421875,22.39978125,16.1259921875,43.59217578125,-1.286359375,4.26528515624999,28.16255078125,59.6853984375,13.8056171875,-19.42462890625,26.299515625,30.77311328125,19.52040234375,-9.2583359375,-5.036671875,44.1870625,11.108828125,11.45476171875,7.93989843750001,18.98720703125,29.1451328125,13.38555078125,8.3389609375,14.1810546875,21.513578125
19.66881640625,6.02996875,-3.13425,48.5420703125,27.55098828125,21.1707421875,26.54578125,18.8719921875,47.34917578125,0.575640625,7.02828515625,32.52855078125,63.4633984375,17.3136171875,-19.11062890625,30.560515625,34.56211328125,24.68140234375,-7.0563359375,-1.438671875,49.3410625,14.793828125,15.42676171875,11.4948984375,23.26420703125,32.7181328125,15.76655078125,8.5889609375,14.6420546875,22.819578125
21.67081640625,9.10496875,0.360749999999999,50.5240703125,31.11398828125,25.1347421875,31.80578125,22.7599921875,51.01417578125,3.010640625,10.79428515625,38.27955078125,66.8953984375,21.1406171875,-18.13862890625,35.557515625,39.22611328125,29.47340234375,-4.6753359375,2.339328125,54.7960625,18.223828125,19.26976171875,14.7328984375,26.84620703125,35.7371328125,17.47355078125,8.42096093750001,14.7150546875,23.119578125
23.92181640625,12.77496875,4.38575,52.2210703125,34.63298828125,29.9367421875,37.73178125,27.3679921875,54.27917578125,5.865640625,15.30128515625,44.98755078125,69.5583984375,24.8386171875,-16.48662890625,40.948515625,44.76011328125,33.46840234375,-2.3063359375,5.965328125,60.5280625,21.118828125,22.57276171875,17.2968984375,29.63420703125,38.3491328125,18.27755078125,7.81096093750001,14.3350546875,22.691578125
26.29981640625,16.79996875,8.69975,53.4970703125,37.93298828125,35.2767421875,43.71578125,32.1609921875,56.87617578125,8.961640625,20.10328515625,51.91955078125,71.2093984375,28.0076171875,-14.17862890625,46.153515625,50.92211328125,36.45240234375,-0.0903359375000008,9.150328125,66.2950625,23.354828125,25.01276171875,18.9498984375,31.52820703125,40.7031328125,18.11555078125,6.8709609375,13.5290546875,21.869578125
28.57381640625,20.81196875,12.95275,54.1940703125,40.76998828125,40.6337421875,49.06678125,36.5509921875,58.57817578125,12.022640625,24.59328515625,58.18555078125,71.8323984375,30.3146171875,-11.38662890625,50.471515625,57.22411328125,38.39740234375,1.8296640625,11.647328125,71.6540625,24.967828125,26.40776171875,19.6268984375,32.44120703125,42.9231328125,17.12755078125,5.85396093750001,12.4760546875,20.988578125
30.33281640625,24.29196875,16.65075,54.1180703125,42.76898828125,45.2397421875,53.08678125,39.9479921875,59.18417578125,14.638640625,28.09028515625,62.92755078125,71.5653984375,31.4796171875,-8.49762890625,53.244515625,63.02411328125,39.36340234375,3.2736640625,13.208328125,76.0600625,26.084828125,26.71776171875,19.4138984375,32.32020703125,45.0791328125,15.60055078125,5.05796093750001,11.4700546875,20.328578125
31.04681640625,26.62196875,19.20875,53.0610703125,43.44698828125,48.1867421875,55.14678125,41.8379921875,58.51217578125,16.288640625,29.95828515625,65.51155078125,70.5483984375,31.2716171875,-6.08462890625,54.025515625,67.69611328125,39.38140234375,4.0096640625,13.578328125,79.0130625,26.815828125,25.99976171875,18.4538984375,31.15520703125,47.1851328125,13.84855078125,4.6779609375,10.7830546875,20.051578125
30.20281640625,27.21796875,20.07575,50.8640703125,42.30098828125,48.6507421875,54.78578125,41.8699921875,56.42317578125,16.429640625,29.72728515625,65.64355078125,68.7973984375,29.5386171875,-4.77162890625,52.671515625,70.79411328125,38.38340234375,3.8056640625,12.542328125,80.1920625,27.171828125,24.36976171875,16.8418984375,28.98720703125,49.1951328125,12.08255078125,4.69196093750001,10.5420546875,20.167578125
27.48081640625,25.70596875,18.87875,47.4530703125,38.95898828125,46.1087421875,51.77778125,39.9249921875,52.85817578125,14.632640625,27.18828515625,63.40455078125,66.1713984375,26.2516171875,-5.03462890625,49.348515625,72.13211328125,36.23940234375,2.4996640625,10.026328125,79.5160625,27.071828125,21.97976171875,14.5748984375,25.90420703125,51.0181328125,10.34055078125,4.8669609375,10.6810546875,20.540578125
22.88181640625,22.06296875,15.55175,42.8810703125,33.32198828125,40.4957421875,46.20378125,36.1499921875,47.89317578125,10.728640625,22.44828515625,59.19355078125,62.4593984375,21.5596171875,-7.01962890625,44.448515625,71.76811328125,32.87440234375,0.0806640625000057,6.175328125,77.1310625,26.425828125,19.00976171875,11.6078984375,22.04920703125,52.5381328125,8.51555078125,4.90496093750001,11.0100546875,20.951578125
16.79681640625,16.68596875,10.41175,37.3400703125,25.67798828125,32.2677421875,38.51478125,30.9479921875,41.77717578125,4.939640625,15.95828515625,53.61555078125,57.5453984375,15.8416171875,-10.42162890625,38.497515625,69.92811328125,28.42340234375,-3.2323359375,1.380328125,73.3520625,25.238828125,15.67876171875,7.97289843750001,17.62320703125,53.6531328125,6.47255078125,4.6329609375,11.3580546875,21.195578125
9.94281640625,10.33496875,4.16075,31.1670703125,16.70698828125,22.3777421875,29.56478125,24.9289921875,34.93517578125,-2.074359375,8.50328515624999,47.37055078125,51.5463984375,9.70361718749999,-14.48762890625,32.080515625,66.92011328125,23.30540234375,-6.9663359375,-3.769671875,68.6000625,23.668828125,12.24976171875,3.90189843750001,12.90120703125,54.3021328125,4.20655078125,4.1449609375,11.7030546875,21.188578125
3.19281640625,3.94496875,-2.22925,24.7870703125,7.36998828125,12.1267421875,20.51678125,18.8099921875,27.90117578125,-9.298359375,1.10828515625,41.12855078125,44.8353984375,3.8996171875,-18.18462890625,25.781515625,63.06811328125,18.14240234375,-10.4713359375,-8.629671875,63.3330625,22.006828125,9.00276171875,-0.159101562499998,8.21420703125,54.4691328125,1.92555078125,3.79596093750001,12.2190546875,21.017578125
-2.66918359375001,-1.61803125,-7.74425,18.6360703125,-1.29501171875,2.9087421875,12.60078125,13.2849921875,21.21117578125,-15.573359375,-5.14471484375,35.43255078125,37.9363984375,-0.838382812500001,-20.52462890625,20.107515625,58.65711328125,13.57340234375,-13.1033359375,-12.678671875,57.9510625,20.573828125,6.20576171875,-3.6761015625,3.89120703125,54.1571328125,0.0145507812500014,4.0599609375,13.1930546875,20.901578125
-7.15118359375001,-5.78103125,-11.60125,13.0800703125,-8.39401171875,-4.08325781250001,6.79778125,8.8719921875,15.29517578125,-19.894359375,-9.38571484375001,30.63955078125,31.3253984375,-3.9893828125,-20.90662890625,15.410515625,53.90011328125,10.03040234375,-14.4493359375,-15.665671875,52.7090625,19.599828125,4.05676171875,-6.2251015625,0.172207031250004,53.3351328125,-1.13744921875,5.3009609375,14.8620546875,21.069578125
-10.15018359375,-8.38003125,-13.47925,8.3740703125,-13.32901171875,-8.11925781250001,3.58378125,5.8129921875,10.41917578125,-21.684359375,-11.20471484375,26.90155078125,25.2653984375,-5.3703828125,-19.33462890625,11.816515625,48.93811328125,7.60240234375,-14.4683359375,-17.650671875,47.6720625,19.108828125,2.64676171875,-7.6701015625,-2.87879296875,51.9161328125,-1.34444921875,7.5779609375,17.2440546875,21.635578125
-11.89318359375,-9.62603125,-13.59325,4.6560703125,-15.87101171875,-9.06725781250001,2.81978125000001,4.0359921875,6.66517578125,-20.926359375,-10.75971484375,24.18955078125,19.7523984375,-5.1643828125,-16.37262890625,9.216515625,43.85911328125,6.02640234375,-13.4783359375,-18.920671875,42.7440625,18.895828125,1.93276171875,-8.19410156249999,-5.40079296875,49.7931328125,-0.755449218750002,10.5639609375,20.0680546875,22.521578125
-12.78418359375,-9.95503125,-12.57125,1.9680703125,-16.14301171875,-7.40425781250001,3.84778125,3.2069921875,3.95417578125,-18.106359375,-8.68171484375,22.33755078125,14.6013984375,-3.8343828125,-12.89562890625,7.32751562499999,38.73811328125,4.80740234375,-12.0153359375,-19.845671875,37.7460625,18.588828125,1.71976171875,-8.2091015625,-7.68679296875,46.8991328125,0.172550781250003,13.6349609375,22.8050546875,23.464578125
-13.20718359375,-9.83003125,-11.21025,0.306070312499997,-14.53001171875,-4.0362578125,5.72478125000001,2.8409921875,2.12917578124999,-14.019359375,-5.84471484375,21.08255078125,9.6453984375,-1.9663828125,-9.75962890625,5.79451562499999,33.64111328125,3.41940234375,-10.6363359375,-20.743671875,32.5080625,17.764828125,1.69376171875,-8.1731015625,-10.07679296875,43.2531328125,0.835550781249999,16.0799609375,24.8280546875,24.092578125
-13.39918359375,-9.60203125,-10.21525,-0.320929687500005,-11.54601171875,-0.0192578125000082,7.50978125,2.4319921875,1.05317578125,-9.531359375,-3.11271484375001,20.09955078125,4.9333984375,-0.0873828125000031,-7.56362890625,4.293515625,28.61911328125,1.50640234375,-9.7513359375,-21.813671875,26.9340625,16.098828125,1.49476171875,-8.4391015625,-12.83279296875,38.9721328125,0.717550781249997,17.3279609375,25.6070546875,24.023578125
-13.43418359375,-9.47203125,-10.05025,0.145070312499996,-7.72501171875,3.7077421875,8.49878125000001,1.5579921875,0.676175781249995,-5.401359375,-1.17171484375,19.02655078125,0.799398437500001,1.4526171875,-6.57662890625,2.59051562499999,23.68311328125,-0.992597656249998,-9.5373359375,-23.146671875,21.0220625,13.463828125,0.845761718749998,-9.1511015625,-16.05879296875,34.2321328125,-0.414449218750001,17.1259609375,24.8880546875,22.964578125
-13.31218359375,-9.55103125,-10.91925,1.7840703125,-3.55401171875,6.4847421875,8.31378125000001,-0.0520078125000012,1.01817578125,-2.197359375,-0.462714843750007,17.50555078125,-2.2326015625,2.5216171875,-6.79962890625,0.547515624999988,18.76811328125,-3.84959765625,-9.9503359375,-24.771671875,14.8450625,10.003828125,-0.33523828125,-10.2431015625,-19.66879296875,29.2271328125,-2.43844921875,15.5929609375,22.7690546875,20.781578125
-13.07618359375,-9.93203125,-12.82625,4.6390703125,0.538988281249999,7.96574218749999,6.88978125,-2.5070078125,2.10517578125,-0.266359375,-1.16771484375001,15.23355078125,-3.6586015625,3.16661718749999,-8.08262890625,-1.911484375,13.73211328125,-6.64359765625,-10.7893359375,-26.680671875,8.52906250000001,6.12882812499999,-1.87223828125,-11.4931015625,-23.43079296875,24.1411328125,-4.93944921875,13.1529609375,19.6610546875,17.550578125
-12.88118359375,-10.73103125,-15.65525,8.6350703125,4.16898828125,8.08374218749999,4.39078125,-5.7730078125,3.90117578125,0.279640624999999,-3.23571484375,12.00655078125,-3.1876015625,3.5336171875,-10.20462890625,-4.82148437500001,8.36811328125,-8.90459765625,-11.7803359375,-28.833671875,2.23206250000001,2.44182812499999,-3.36723828125,-12.6291015625,-27.04879296875,19.1371328125,-7.37444921875,10.3999609375,16.1650546875,13.568578125
-12.98418359375,-12.08303125,-19.22425,13.5330703125,6.99298828125,6.9817421875,1.12178125,-9.7400078125,6.28817578125,-0.448359375000001,-6.42671484375001,7.77255078125,-0.825601562499999,3.7966171875,-12.93462890625,-8.18348437500001,2.47311328125,-10.23559765625,-12.6603359375,-31.143671875,-3.85693749999999,-0.398171875000003,-4.32223828125,-13.4281015625,-30.22879296875,14.3641328125,-9.26144921875,7.93596093750001,12.9100546875,9.318578125
-13.66118359375,-14.07603125,-23.30225,18.9290703125,8.73498828125,4.92174218749999,-2.53821875,-14.2860078125,9.06217578125,-2.153359375,-10.34571484375,2.66855078124999,3.1703984375,4.0926171875,-16.05862890625,-11.922484375,-4.05988671875,-10.38159765625,-13.2453359375,-33.475671875,-9.5109375,-1.82217187500001,-4.30623828125,-13.7741015625,-32.71479296875,9.98013281249999,-10.29544921875,6.24096093750001,10.4190546875,5.386578125
-15.07418359375,-16.67903125,-27.58025,24.3260703125,9.25998828125,2.2467421875,-6.15421875,-19.2890078125,11.97117578125,-4.426359375,-14.48371484375,-2.93644921875,8.4293984375,4.5056171875,-19.37362890625,-15.809484375,-11.12088671875,-9.23359765625,-13.4553359375,-35.646671875,-14.4439375,-1.456171875,-3.09223828125,-13.6371015625,-34.26379296875,6.17313281249999,-10.36144921875,5.6179609375,9.0250546875,2.342578125
-17.14918359375,-19.66503125,-31.63925,29.2740703125,8.70098828125,-0.592257812500009,-9.21521874999999,-24.5570078125,14.79017578125,-6.798359375,-18.23271484375,-8.45244921875,14.5933984375,5.1046171875,-22.64362890625,-19.382484375,-18.29788671875,-6.77959765625,-13.2553359375,-37.408671875,-18.2949375,0.830828124999996,-0.690238281250004,-12.9871015625,-34.63379296875,3.18013281249999,-9.44544921875,6.19496093750001,8.85605468750001,0.644578124999995
-19.53418359375,-22.59703125,-34.96525,33.5010703125,7.52298828125,-2.9972578125,-11.14821875,-29.7550078125,17.41717578125,-8.778359375,-20.91671484375,-13.13144921875,21.3663984375,6.0146171875,-25.52362890625,-21.933484375,-24.88888671875,-3.06059765625,-12.5453359375,-38.417671875,-20.6359375,4.928828125,2.74476171875,-11.7001015625,-33.59879296875,1.2801328125,-7.54244921875,7.95996093750001,9.87405468750001,0.553578125000001
-21.67318359375,-24.89703125,-37.05125,36.9650703125,6.47398828125,-4.26425781250001,-11.40221875,-34.4040078125,19.91417578125,-9.884359375,-21.87771484375,-16.20844921875,28.4763984375,7.4486171875,-27.53862890625,-22.633484375,-30.05088671875,1.85140234375,-11.0773359375,-38.233671875,-21.0399375,10.499828125,7.02976171875,-9.5361015625,-31.01279296875,0.745132812499989,-4.62244921875,10.7829609375,11.9150546875,2.095578125
-22.95718359375,-25.96803125,-37.50025,39.8250703125,6.39198828125,-3.72625781250001,-9.59821875,-37.9640078125,22.48017578125,-9.684359375,-20.60671484375,-17.08044921875,35.5933984375,9.66061718749999,-28.14662890625,-20.780484375,-33.02388671875,7.82740234375,-8.4973359375,-36.404671875,-19.1969375,17.000828125,12.03276171875,-6.2161015625,-26.88979296875,1.7621328125,-0.71044921875,14.3949609375,14.7040546875,5.01557812499999
-22.87618359375,-25.32403125,-36.09025,42.3590703125,7.97498828125,-0.916257812500007,-5.63521874999999,-39.9760078125,25.37917578125,-7.846359375,-16.87271484375,-15.46044921875,42.3043984375,12.8566171875,-26.86062890625,-16.064484375,-33.36588671875,14.65040234375,-4.4773359375,-32.603671875,-15.0249375,23.737828125,17.64676171875,-1.5781015625,-21.45579296875,4.3391328125,3.99455078125,18.3519609375,17.8480546875,8.78357812499999
-21.11118359375,-22.68303125,-32.76425,44.8990703125,11.60498828125,4.33374218749999,0.296781250000009,-40.1600078125,28.86817578125,-4.178359375,-10.79671484375,-11.43944921875,48.1753984375,17.1376171875,-23.37962890625,-8.70148437500001,-31.06688671875,22.02840234375,1.1226640625,-26.772671875,-8.73193749999999,29.966828125,23.71876171875,4.2898984375,-15.13279296875,8.24313281249999,9.05755078125,22.0539609375,20.8390546875,12.683578125
-17.58418359375,-18.00903125,-27.61825,47.7490703125,17.25998828125,11.8547421875,7.77278125000001,-38.4940078125,33.13117578125,1.325640625,-2.81871484375,-5.46244921875001,52.8803984375,22.4726171875,-17.69462890625,0.59851562499999,-26.54188671875,29.62340234375,8.13566406250001,-19.208671875,-0.793937499999984,35.048828125,29.97176171875,11.0088984375,-8.45279296875,13.0181328125,13.87355078125,24.8519609375,23.1430546875,15.974578125
-12.47418359375,-11.54603125,-20.92225,51.0890703125,24.53098828125,21.1277421875,16.20678125,-35.2340078125,38.18717578125,8.440640625,6.37928515625,1.77755078125,56.3173984375,28.6956171875,-10.15462890625,10.818515625,-20.51088671875,37.08540234375,16.0586640625,-10.554671875,8.1220625,38.611828125,35.98176171875,17.9718984375,-1.94579296875,18.0661328125,17.83355078125,26.2459609375,24.3310546875,18.103578125
-6.21518359375,-3.81403125,-13.15725,54.8920703125,32.69498828125,31.3107421875,24.90278125,-30.8840078125,43.81617578125,16.646640625,15.97428515625,9.47555078124999,58.6583984375,35.4606171875,-1.46762890625,20.866515625,-13.82388671875,44.05840234375,24.0856640625,-1.688671875,17.2770625,40.639828125,41.20776171875,24.4728984375,3.93720703125,22.7951328125,20.49555078125,26.0699609375,24.2310546875,18.855578125
0.541816406249993,4.43296875,-5.01925,58.8900703125,40.83498828125,41.3447421875,33.12078125,-26.1010078125,49.54217578125,25.123640625,25.08128515625,16.85455078125,60.2653984375,42.2076171875,7.36737109375,29.799515625,-7.29188671875,50.16140234375,31.2386640625,6.448328125,25.9710625,41.428828125,45.08076171875,29.8298984375,8.85120703125,26.7451328125,21.68555078125,24.5449609375,22.9810546875,18.370578125
7.00581640625001,12.30196875,2.65675,62.6050703125,47.97998828125,50.1167421875,40.15278125,-21.5600078125,54.70017578125,32.845640625,32.85128515625,23.28555078125,61.5183984375,48.1896171875,15.22137109375,36.978515625,-1.53988671875,55.00440234375,36.5606640625,13.051328125,33.6430625,41.415828125,47.11476171875,33.4828984375,12.55120703125,29.6721328125,21.46755078125,22.1559609375,20.9660546875,17.043578125
12.35481640625,18.91596875,9.03875,65.4350703125,53.23698828125,56.6397421875,45.41178125,-17.8100078125,58.56217578125,38.776640625,38.59328515625,28.36455078125,62.6023984375,52.5996171875,21.05737109375,42.117515625,3.07111328125,58.22840234375,39.3456640625,17.597328125,39.9210625,40.978828125,47.02476171875,35.0488984375,14.86720703125,31.5561328125,20.03455078125,19.4109609375,18.6450546875,15.343578125
15.87781640625,23.58296875,13.48175,66.7820703125,55.91398828125,60.1977421875,48.52278125,-15.1830078125,60.50217578125,42.106640625,41.89928515625,31.94655078125,63.3693984375,54.7666171875,24.15637109375,45.263515625,6.46011328125,59.59040234375,39.3116640625,19.906328125,44.6450625,40.286828125,44.79176171875,34.3738984375,15.70520703125,32.5451328125,17.58955078125,16.6379609375,16.3710546875,13.655578125
17.10881640625,25.91296875,15.67075,66.1980703125,55.61498828125,60.4647421875,49.37178125,-13.7630078125,60.15317578125,42.437640625,42.70728515625,34.10855078125,63.3713984375,54.3616171875,24.29737109375,46.697515625,8.77411328125,59.03240234375,36.6736640625,20.117328125,47.8420625,39.289828125,40.67676171875,31.5508984375,15.06220703125,32.8631328125,14.28155078125,13.9359609375,14.3070546875,12.196578125
15.90681640625,25.85596875,15.66275,63.4820703125,52.28298828125,57.5327421875,48.09978125,-13.4470078125,57.48817578125,39.835640625,41.25928515625,35.05655078125,62.0373984375,51.5056171875,21.81337109375,46.811515625,10.28911328125,56.69640234375,32.0646640625,18.590328125,49.6900625,37.824828125,35.18376171875,26.9258984375,13.04520703125,32.7241328125,10.22455078125,11.2739609375,12.4660546875,11.019578125
12.41281640625,23.62096875,13.79775,58.6980703125,46.15198828125,51.8147421875,44.99578125,-14.0640078125,52.78817578125,34.726640625,37.96328515625,35.00555078125,58.9203984375,46.7126171875,17.47537109375,45.973515625,11.27711328125,52.88140234375,26.3536640625,15.791328125,50.4540625,35.774828125,28.95976171875,21.0598984375,9.91020703125,32.3021328125,5.59655078125,8.66396093750001,10.8330546875,10.082578125
6.90981640625,19.53596875,10.53775,52.0970703125,37.63798828125,43.8477421875,40.37178125,-15.4850078125,46.50817578125,27.714640625,33.23828515625,34.07955078125,53.8823984375,40.7106171875,12.24237109375,44.435515625,11.91811328125,47.96340234375,20.3986640625,12.198328125,50.4320625,33.185828125,22.67676171875,14.6528984375,6.06720703125,31.7481328125,0.72255078125,6.27696093750001,9.49005468750001,9.34057812499999
-0.327183593750007,13.90596875,6.31475,44.0230703125,27.21098828125,34.1117421875,34.48478125,-17.6550078125,39.09817578125,19.397640625,27.42028515625,32.30355078125,47.1293984375,34.1896171875,6.95737109375,42.318515625,12.27211328125,42.32540234375,14.8456640625,8.232328125,49.9030625,30.301828125,16.92176171875,8.4498984375,2.06320703125,31.2321328125,-3.89044921875,4.4559609375,8.6640546875,8.832578125
-9.11318359374999,6.95296875,1.43875,34.8260703125,15.28898828125,22.9557421875,27.55178125,-20.5280078125,30.86717578125,10.265640625,20.75328515625,29.66655078125,39.0973984375,27.6146171875,2.12237109375,39.664515625,12.31211328125,36.29540234375,10.0116640625,4.225328125,49.0930625,27.460828125,12.10276171875,3.12589843750001,-1.50779296875,30.9321328125,-7.61944921875,3.6089609375,8.6590546875,8.70357812499999
-19.31418359375,-1.16103125,-3.91925,24.8030703125,2.20498828125,10.6117421875,19.79978125,-23.9800078125,21.91717578125,0.674640625,13.45728515625,26.21155078125,30.2523984375,21.1416171875,-2.14862890625,36.517515625,11.97211328125,30.09240234375,5.8936640625,0.416328125,48.1400625,24.930828125,8.38676171875,-0.818101562499997,-4.14079296875,30.9701328125,-9.87444921875,4.03996093750001,9.71305468750001,9.151578125
-30.73918359375,-10.24903125,-9.66425,14.1810703125,-11.75501171875,-2.6982578125,11.52678125,-27.7680078125,12.19417578125,-9.089359375,5.81028515625,22.09755078125,20.9053984375,14.6706171875,-6.01062890625,32.986515625,11.17511328125,23.78540234375,2.2926640625,-3.035671875,47.0580625,22.745828125,5.64976171875,-3.1291015625,-5.55079296875,31.3281328125,-10.27144921875,5.7879609375,11.8530546875,10.319578125
-43.01918359375,-20.01003125,-15.67525,3.1440703125,-26.25101171875,-16.6162578125,3.12478125,-31.5720078125,1.62117578125,-18.729359375,-1.80171484375001,17.59955078125,11.1293984375,8.0006171875,-9.65062890625,29.237515625,9.85211328125,17.29040234375,-1.0293359375,-6.009671875,45.7280625,20.637828125,3.49976171875,-3.8301015625,-5.75979296875,31.7951328125,-8.77244921875,8.54896093750001,14.8250546875,12.199578125
-55.56818359375,-29.99303125,-21.72725,-8.0999296875,-40.77601171875,-30.5482578125,-4.95421875,-35.0910078125,-9.73182421875,-27.893359375,-8.93171484375,13.03655078125,0.811398437500001,0.979617187499997,-13.08862890625,25.448515625,7.95511328125,10.41640234375,-4.2083359375,-8.397671875,43.9210625,18.104828125,1.36976171875,-3.2061015625,-5.08879296875,32.0111328125,-5.73844921875,11.7219609375,18.1470546875,14.601578125
-67.66618359375,-39.65903125,-27.50625,-19.2659296875,-54.65301171875,-43.7042578125,-12.28321875,-38.1590078125,-21.56682421875,-36.211359375,-15.17971484375,8.68055078124999,-10.2046015625,-6.4173828125,-16.14462890625,21.717515625,5.46711328125,2.95640234375,-7.2583359375,-10.128671875,41.3660625,14.606828125,-1.32323828125,-1.7591015625,-4.06879296875,31.5751328125,-1.86644921875,14.5769609375,21.2500546875,17.187578125
-78.63018359375,-48.50703125,-32.72025,-30.0019296875,-67.15901171875,-55.3252578125,-18.59421875,-40.8160078125,-33.39982421875,-43.420359375,-20.33771484375,4.67755078124999,-21.9566015625,-14.1103828125,-18.57462890625,18.010515625,2.40511328125,-5.22359765625,-10.1653359375,-11.255671875,37.8430625,9.803828125,-5.00123828125,-0.114101562499997,-3.28879296875,30.1751328125,1.98655078125,16.4729609375,23.6390546875,19.555578125
-87.99118359375,-56.20903125,-37.22925,-39.9319296875,-77.71601171875,-64.9492578125,-23.86621875,-43.2970078125,-44.67682421875,-49.486359375,-24.48971484375,1.02155078125,-34.2356015625,-21.9833828125,-20.29762890625,14.168515625,-1.18288671875,-14.09859765625,-13.0173359375,-12.011671875,33.2760625,3.74182812499999,-9.79223828125,1.1058984375,-3.23779296875,27.6891328125,5.02655078125,17.0649609375,25.0270546875,21.327578125
-95.57418359375,-62.68303125,-41.10325,-48.7269296875,-86.05601171875,-72.5602578125,-28.32321875,-45.9230078125,-54.90382421875,-54.642359375,-27.99771484375,-2.40144921875,-46.5616015625,-29.9093828125,-21.52562890625,10.020515625,-5.21688671875,-23.42959765625,-16.0373359375,-12.763671875,27.8100625,-3.11217187500001,-15.47123828125,1.4478984375,-4.17879296875,24.2191328125,6.74655078125,16.3929609375,25.3740546875,22.216578125
-101.49818359375,-68.08003125,-44.56525,-56.1509296875,-92.27301171875,-78.5682578125,-32.33821875,-48.9550078125,-63.72482421875,-59.294359375,-31.37371484375,-5.73444921875,-58.2376015625,-37.7203828125,-22.72162890625,5.528515625,-9.56788671875,-32.74859765625,-19.4823359375,-13.859671875,21.8060625,-9.99917187500001,-21.50023828125,0.780898437499999,-6.07979296875,20.0591328125,7.05255078125,14.8299609375,24.8420546875,22.076578125
-106.10318359375,-72.70303125,-47.86625,-62.0999296875,-96.77201171875,-83.6472578125,-36.30721875,-52.4760078125,-70.95982421875,-63.839359375,-35.07071484375,-9.05744921875001,-68.4916015625,-45.1323828125,-24.38062890625,0.887515624999992,-14.06188671875,-41.41459765625,-23.4143359375,-15.428671875,15.7920625,-16.105171875,-27.12923828125,-0.617101562499997,-8.60479296875,15.6291328125,6.28955078125,12.9249609375,23.7200546875,20.924578125
-109.84818359375,-76.88103125,-51.15225,-66.6039296875,-100.10501171875,-88.4862578125,-40.49421875,-56.3520078125,-76.58582421875,-68.456359375,-39.28171484375,-12.33044921875,-76.6326015625,-51.6843828125,-26.73762890625,-3.46648437500001,-18.48588671875,-48.68759765625,-27.5003359375,-17.258671875,10.3490625,-20.755171875,-31.53523828125,-2.0931015625,-11.17579296875,11.3931328125,5.15455078125,11.2639609375,22.3840546875,18.973578125
-113.14918359375,-80.82403125,-54.39025,-69.7739296875,-102.73101171875,-93.4992578125,-44.88921875,-60.2680078125,-80.63482421875,-72.964359375,-43.81171484375,-15.36544921875,-82.1836015625,-56.7403828125,-29.55962890625,-6.93348437500001,-22.60188671875,-53.84559765625,-30.9573359375,-18.791671875,6.02106250000001,-23.511171875,-33.94623828125,-2.7611015625,-13.09179296875,7.7881328125,4.52755078125,10.4019609375,21.3010546875,16.656578125
-116.22718359375,-84.51403125,-57.35225,-71.7339296875,-104.80201171875,-98.6122578125,-49.12321875,-63.8250078125,-83.09982421875,-76.799359375,-48.07871484375,-17.85044921875,-84.9816015625,-59.5733828125,-32.11562890625,-8.884484375,-26.16788671875,-56.30459765625,-32.7163359375,-19.263671875,3.2330625,-24.166171875,-33.77123828125,-1.7471015625,-13.68079296875,5.1751328125,5.25655078125,10.8289609375,21.0170546875,14.597578125
-119.01518359375,-87.67303125,-59.66825,-72.5749296875,-106.07101171875,-103.2312578125,-52.50221875,-66.6390078125,-83.88882421875,-79.140359375,-51.23671484375,-19.41244921875,-85.2136015625,-59.5513828125,-33.38162890625,-8.795484375,-28.97288671875,-55.75959765625,-31.7773359375,-17.934671875,2.25506250000001,-22.710171875,-30.72723828125,1.5548984375,-12.45279296875,3.80113281249999,7.93655078125,12.9119609375,22.0590546875,13.513578125
-121.17818359375,-89.82803125,-60.90225,-72.3549296875,-105.97201171875,-106.4142578125,-54.17221875,-68.4110078125,-82.87882421875,-79.140359375,-52.37871484375,-19.68844921875,-83.3976015625,-56.3473828125,-32.37062890625,-6.354484375,-30.87588671875,-52.29259765625,-27.5763359375,-14.320671875,3.19606250000001,-19.309171875,-24.93523828125,7.2988984375,-9.20479296875,3.79613281249999,12.72955078125,16.7699609375,24.7580546875,14.037578125
-122.21118359375,-90.45303125,-60.63525,-71.1129296875,-103.83501171875,-107.1522578125,-53.33721875,-68.9480078125,-80.02082421875,-76.180359375,-50.76471484375,-18.39144921875,-80.2616015625,-50.0823828125,-28.45562890625,-1.50548437500001,-31.81688671875,-46.40859765625,-20.1953359375,-8.334671875,6.0280625,-14.318171875,-16.94423828125,15.1338984375,-4.03979296875,5.1841328125,19.30555078125,22.1599609375,29.0920546875,16.540578125
-121.59018359375,-89.12303125,-58.53825,-68.9009296875,-99.14301171875,-104.6512578125,-49.46421875,-68.1460078125,-75.44082421875,-70.046359375,-45.99071484375,-15.34944921875,-76.5676015625,-41.3333828125,-21.54362890625,5.56051562499999,-31.77788671875,-38.93859765625,-10.3263359375,-0.293671875000001,10.6120625,-8.27217187500001,-7.62423828125,24.3048984375,2.68220703125,7.90113281249999,26.93255078125,28.4839609375,34.6480546875,21.009578125
-118.94318359375,-85.63203125,-54.46125,-65.8269296875,-91.75501171875,-98.5632578125,-42.42521875,-65.9750078125,-69.48482421875,-60.998359375,-38.08571484375,-10.54444921875,-72.9226015625,-30.9903828125,-12.06662890625,14.453515625,-30.73188671875,-30.84659765625,0.970664062499999,9.188328125,16.7090625,-1.82317187500001,2.03676171875,33.8818984375,10.44120703125,11.8181328125,34.69855078125,34.9459609375,40.7390546875,27.041578125
-114.20618359375,-80.07003125,-48.50925,-62.0909296875,-82.02001171875,-89.1092578125,-32.56121875,-62.4930078125,-62.68982421875,-49.721359375,-27.49471484375,-4.11544921875,-69.6636015625,-20.0593828125,-0.83062890625,24.645515625,-28.61988671875,-23.01059765625,12.5756640625,19.373328125,23.9740625,4.37282812499999,11.14876171875,43.0138984375,18.67720703125,16.7521328125,41.78355078125,40.7769609375,46.6230546875,33.950578125
-107.70018359375,-72.83003125,-41.05625,-57.9879296875,-70.73801171875,-77.0622578125,-20.62821875,-57.8640078125,-55.69582421875,-37.190359375,-15.00171484375,3.63855078125,-66.8686015625,-9.4503828125,11.19637109375,35.533515625,-25.39988671875,-16.05359765625,23.5776640625,29.549328125,31.9730625,9.778828125,19.07576171875,51.1298984375,26.87620703125,22.4791328125,47.67055078125,45.4219609375,51.7110546875,40.966578125
-100.09518359375,-64.55203125,-32.68825,-53.8579296875,-58.99201171875,-63.5452578125,-7.63121875,-52.3820078125,-49.10882421875,-24.462359375,-1.59471484375,12.27155078125,-64.4796015625,0.169617187499995,23.08837109375,46.493515625,-21.12988671875,-10.27559765625,33.3996640625,39.145328125,40.2190625,14.079828125,25.49976171875,57.9968984375,34.64120703125,28.7231328125,52.20655078125,48.6199609375,55.6820546875,47.422578125
-92.26218359375,-56.00203125,-24.08325,-50.0369296875,-47.89601171875,-49.7712578125,5.37778125,-46.4610078125,-43.40482421875,-12.475359375,11.69528515625,21.22955078125,-62.4496015625,8.4506171875,34.10437109375,56.943515625,-16.04688671875,-5.68859765625,41.8096640625,47.761328125,48.2350625,17.220828125,30.38576171875,63.6658984375,41.70520703125,35.1581328125,55.55355078125,50.3919609375,58.4820546875,52.876578125
-85.07318359375,-47.92003125,-15.89125,-46.8369296875,-38.36901171875,-36.8102578125,17.47778125,-40.6070078125,-38.87682421875,-1.895359375,23.94328515625,29.90555078125,-60.8286015625,15.3486171875,43.75237109375,66.372515625,-10.56588671875,-2.10559765625,48.8286640625,55.159328125,55.6110625,19.384828125,33.90976171875,68.3418984375,47.92120703125,41.4271328125,58.04855078125,50.9889609375,60.2530546875,57.139578125
-79.22118359375,-40.89503125,-8.65325,-44.5429296875,-30.97601171875,-25.4472578125,27.96978125,-35.3470078125,-35.64782421875,6.933640625,34.43628515625,37.71855078125,-59.7536015625,21.0426171875,51.75837109375,74.366515625,-5.18088671875,0.750402343750004,54.6066640625,61.213328125,62.0570625,20.897828125,36.36576171875,72.2448984375,53.22220703125,47.1991328125,60.06555078125,50.8189609375,61.2510546875,60.236578125
-75.11218359375,-35.29503125,-2.76325,-43.3829296875,-25.89501171875,-16.1362578125,36.39978125,-31.1460078125,-33.71082421875,13.938640625,42.71528515625,44.18955078125,-59.3766015625,25.7946171875,58.00137109375,80.611515625,-0.318886718750001,3.14240234375,59.3026640625,65.852328125,67.4210625,22.079828125,38.07776171875,75.4818984375,57.58220703125,52.2231328125,61.88055078125,50.3389609375,61.7720546875,62.338578125
-72.84218359375,-31.27103125,1.53275,-43.4709296875,-22.96701171875,-9.04025781250001,42.54578125,-28.3210078125,-32.97182421875,19.198640625,48.56828515625,48.99455078125,-59.7936015625,29.8046171875,62.41837109375,84.895515625,3.78011328125,5.23140234375,62.9686640625,69.005328125,71.6850625,23.103828125,39.30976171875,77.9748984375,60.97420703125,56.3661328125,63.57455078125,49.9229609375,62.0830546875,63.682578125
-72.24918359375,-28.79203125,4.13475,-44.7389296875,-21.82501171875,-4.12125781250001,46.36878125,-26.9840078125,-33.28382421875,22.828640625,52.00728515625,52.01555078125,-61.0096015625,33.1046171875,64.95637109375,87.129515625,7.08111328125,7.01640234375,65.4936640625,70.575328125,74.9210625,23.921828125,40.18476171875,79.4598984375,63.35120703125,59.6081328125,64.99855078125,49.7439609375,62.3570546875,64.501578125
-72.99118359375,-27.69903125,5.10175,-46.9139296875,-22.02601171875,-1.2372578125,47.98978125,-27.0200078125,-34.46082421875,24.909640625,53.23828515625,53.34855078125,-62.9196015625,35.5546171875,65.60037109375,87.377515625,9.69411328125,8.34540234375,66.6326640625,70.483328125,77.2240625,24.302828125,40.65676171875,79.5858984375,64.63820703125,61.9981328125,65.81755078125,49.7129609375,62.6240546875,64.974578125
-74.62318359375,-27.74803125,4.68275,-49.5339296875,-23.14001171875,-0.173257812500005,47.68478125,-28.1120078125,-36.26682421875,25.508640625,52.63228515625,53.29855078125,-65.3056015625,36.9286171875,64.45837109375,85.904515625,11.77011328125,8.99840234375,66.1436640625,68.758328125,78.6750625,23.961828125,40.57876171875,78.0828984375,64.75520703125,63.5971328125,65.66155078125,49.5379609375,62.7810546875,65.203578125
-76.66118359375,-28.64503125,3.31575,-52.0429296875,-24.78301171875,-0.613257812500002,45.88578125,-29.8140078125,-38.40382421875,24.742640625,50.68528515625,52.29955078125,-67.8576015625,37.0486171875,61.85937109375,83.194515625,13.43811328125,8.80440234375,63.9726640625,65.649328125,79.3400625,22.702828125,39.80476171875,74.9318984375,63.69420703125,64.4441328125,64.29355078125,48.8709609375,62.6620546875,65.218578125
-78.65418359375,-30.06003125,1.56175,-53.9199296875,-26.62401171875,-2.1252578125,43.15278125,-31.6660078125,-40.54782421875,22.864640625,47.97328515625,50.82255078125,-70.2326015625,35.8856171875,58.36037109375,79.895515625,14.78111328125,7.71940234375,60.3686640625,61.651328125,79.2930625,20.498828125,38.28376171875,70.4498984375,61.59420703125,64.5531328125,61.72755078125,47.4589609375,62.1170546875,65.001578125
-80.24718359375,-31.65503125,-0.0402500000000003,-54.8179296875,-28.40801171875,-4.20825781250001,40.08778125,-33.3060078125,-42.43282421875,20.273640625,45.05628515625,49.25855078125,-72.1566015625,33.5666171875,54.62837109375,76.674515625,15.85811328125,5.83540234375,55.8216640625,57.413328125,78.6520625,17.484828125,36.04676171875,65.2088984375,58.77820703125,63.9511328125,58.22355078125,45.2419609375,61.0570546875,64.508578125
-81.23618359375,-33.11503125,-1.11625,-54.6519296875,-29.97201171875,-6.37025781250001,37.22578125,-34.5520078125,-43.94282421875,17.426640625,42.36128515625,47.84655078125,-73.5316015625,30.2906171875,51.22237109375,74.032515625,16.71711328125,3.31840234375,50.8636640625,53.544328125,77.5680625,13.884828125,33.14776171875,59.8188984375,55.69920703125,62.7111328125,54.17555078125,42.3479609375,59.4780546875,63.700578125
-81.60318359375,-34.22803125,-1.56825,-53.5889296875,-31.28101171875,-8.23825781250001,34.91478125,-35.4250078125,-45.15282421875,14.689640625,40.06228515625,46.63355078125,-74.4816015625,26.2236171875,48.38437109375,72.137515625,17.38711328125,0.341402343750005,45.8306640625,50.388328125,76.1950625,9.937828125,29.60776171875,54.6868984375,52.78120703125,60.9661328125,49.95055078125,39.0249609375,57.4370546875,62.551578125
-81.54018359375,-34.97303125,-1.62425,-51.9979296875,-32.45901171875,-9.71025781250001,33.19278125,-36.1590078125,-46.32282421875,12.158640625,38.00428515625,45.46855078125,-75.3046015625,21.4286171875,45.91237109375,70.755515625,17.82611328125,-2.97759765625,40.7246640625,47.864328125,74.6220625,5.854828125,25.42176171875,49.8648984375,50.24520703125,58.8751328125,45.76055078125,35.5529609375,55.0350546875,61.046578125
-81.47618359375,-35.61903125,-1.82025,-50.3859296875,-33.82901171875,-11.0962578125,31.69278125,-37.1780078125,-47.83182421875,9.566640625,35.70428515625,44.00655078125,-76.3796015625,15.8726171875,43.18037109375,69.285515625,17.87411328125,-6.57959765625,35.2596640625,45.450328125,72.8010625,1.81482812499999,20.61176171875,45.0758984375,48.00420703125,56.5831328125,41.61555078125,32.1729609375,52.3870546875,59.184578125
-82.04518359375,-36.72803125,-2.88925,-49.3319296875,-35.90901171875,-13.1382578125,29.64978125,-39.0410078125,-50.09382421875,6.321640625,32.44028515625,41.74555078125,-78.0446015625,9.5196171875,39.32337109375,66.903515625,17.24711328125,-10.44159765625,29.0486640625,42.343328125,70.4990625,-2.011171875,15.28476171875,39.8918984375,45.66820703125,54.1751328125,37.37155078125,29.0579609375,49.5930546875,56.979578125
-83.97718359375,-39.04103125,-5.55525,-49.3879296875,-39.31001171875,-16.8272578125,26.07078125,-42.3030078125,-53.43882421875,1.684640625,27.43528515625,38.11755078125,-80.4866015625,2.4366171875,33.53137109375,62.766515625,15.59511328125,-14.51859765625,21.8436640625,37.736328125,67.3300625,-5.43617187500001,9.66676171875,33.9558984375,42.66720703125,51.6351328125,32.84955078125,26.3129609375,46.7430546875,54.488578125
-87.90218359375,-43.25203125,-10.31425,-50.9649296875,-44.55701171875,-23.0502578125,20.03778125,-47.3560078125,-58.01182421875,-4.956359375,20.07728515625,32.64555078125,-83.6786015625,-5.1223828125,25.36437109375,56.256515625,12.60011328125,-18.69559765625,13.6926640625,31.108328125,62.8500625,-8.25517187500001,4.09576171875,27.1548984375,38.44320703125,48.8411328125,27.94955078125,23.9869609375,43.9260546875,51.810578125
-94.13118359375,-49.72603125,-17.24825,-54.1909296875,-51.86201171875,-32.2302578125,11.04478125,-54.2900078125,-63.69182421875,-13.814359375,10.14428515625,25.11055078125,-87.3726015625,-12.7333828125,14.94637109375,47.192515625,8.07611328125,-22.77059765625,4.94966406250001,22.420328125,56.7110625,-10.260171875,-1.03123828125,19.6738984375,32.64020703125,45.5961328125,22.72655078125,22.0999609375,41.2480546875,49.058578125
-102.46318359375,-58.28603125,-25.95025,-58.7869296875,-60.92801171875,-44.0502578125,-0.727218749999992,-62.8250078125,-70.04582421875,-24.524359375,-2.03271484375,15.68455078125,-91.1486015625,-19.8713828125,2.97737109375,35.951515625,2.02511328125,-26.45859765625,-3.8233359375,12.150328125,48.8150625,-11.260171875,-5.32123828125,11.9538984375,25.25920703125,41.7121328125,17.41055078125,20.6829609375,38.8220546875,46.312578125
-112.10618359375,-68.14203125,-35.56225,-64.0199296875,-70.85001171875,-57.3562578125,-14.29221875,-72.3250078125,-76.33482421875,-36.104359375,-15.50671484375,5.00155078125,-94.5026015625,-25.9933828125,-9.39862890625,23.480515625,-5.34488671875,-29.40659765625,-11.9623359375,1.224328125,39.4510625,-11.103171875,-8.43723828125,4.60689843750001,16.75220703125,37.1291328125,12.38655078125,19.8199609375,36.7660546875,43.621578125
-121.75618359375,-77.99903125,-44.93225,-68.7979296875,-80.17901171875,-70.2882578125,-27.95621875,-81.8780078125,-81.58382421875,-47.091359375,-28.78971484375,-5.88044921875,-96.9426015625,-30.5513828125,-20.80262890625,11.175515625,-13.60988671875,-31.20459765625,-18.7433359375,-9.117671875,29.3480625,-9.68917187500001,-10.09923828125,-1.6351015625,8.02620703125,32.0111328125,8.17155078125,19.6669609375,35.2180546875,41.054578125
-129.85418359375,-86.33603125,-52.85525,-71.9279296875,-87.21201171875,-80.6612578125,-39.63621875,-90.4580078125,-84.76682421875,-55.813359375,-40.07171484375,-15.62444921875,-98.0886015625,-32.9803828125,-29.83062890625,0.650515624999997,-22.14988671875,-31.42459765625,-23.3763359375,-17.494671875,19.5930625,-7.00017187500001,-10.05023828125,-5.9661015625,0.325207031250002,26.7851328125,5.36155078125,20.4079609375,34.3390546875,38.784578125
-134.95518359375,-91.75803125,-58.31225,-72.4459296875,-90.37401171875,-86.4802578125,-47.34621875,-97.1220078125,-85.03482421875,-60.721359375,-47.56471484375,-22.88144921875,-97.7396015625,-32.6923828125,-35.24262890625,-6.56848437500001,-30.20888671875,-29.68559765625,-25.0293359375,-22.589671875,11.4280625,-3.129171875,-8.03923828125,-7.5731015625,-4.99979296875,22.0811328125,4.53555078125,22.1659609375,34.3030546875,37.122578125
-136.07018359375,-93.31503125,-60.64125,-69.8669296875,-88.59101171875,-86.3932578125,-49.65621875,-101.2000078125,-81.90982421875,-60.705359375,-49.91371484375,-26.60844921875,-95.8946015625,-29.1613828125,-36.13362890625,-9.358484375,-37.00588671875,-25.74559765625,-22.9583359375,-23.391671875,5.94806250000001,1.70382812499999,-3.85723828125,-5.7831015625,-6.81779296875,18.5801328125,6.11155078125,24.8999609375,35.2420546875,36.472578125
-132.86218359375,-90.67003125,-59.59025,-64.2709296875,-81.48701171875,-79.9472578125,-46.01021875,-102.4260078125,-75.37482421875,-55.308359375,-46.52071484375,-26.33944921875,-92.7026015625,-22.0783828125,-32.08862890625,-7.263484375,-41.90588671875,-19.58459765625,-16.7453359375,-19.438671875,3.81806250000001,7.15182812499999,2.55576171875,-0.2711015625,-4.53879296875,16.8311328125,10.18955078125,28.3529609375,37.1580546875,37.185578125
-125.66918359375,-84.10503125,-55.31425,-56.2039296875,-69.40501171875,-67.6072578125,-36.81121875,-100.9860078125,-65.85682421875,-44.801359375,-37.68371484375,-22.30744921875,-88.3796015625,-11.5293828125,-23.30462890625,-0.618484375000008,-44.57388671875,-11.45259765625,-6.5373359375,-10.994671875,5.10406250000001,12.772828125,10.98476171875,8.7578984375,1.68220703125,17.0811328125,16.46755078125,32.0739609375,39.8690546875,39.396578125
-115.37918359375,-74.39503125,-48.30425,-46.4809296875,-53.28201171875,-50.5822578125,-23.27921875,-97.4640078125,-54.11782421875,-30.113359375,-24.50471484375,-15.37844921875,-83.1036015625,1.91661718749999,-10.62862890625,9.49451562499999,-45.06688671875,-1.84459765625,6.8556640625,0.924328124999995,9.2650625,18.074828125,20.86476171875,20.5038984375,10.92320703125,19.1661328125,24.25855078125,35.5229609375,42.9950546875,42.885578125
-103.19718359375,-62.60003125,-39.29025,-35.9639296875,-34.44201171875,-30.5032578125,-7.11321875,-92.6720078125,-41.09282421875,-12.649359375,-8.59471484375,-6.80444921875001,-76.9636015625,17.2316171875,4.53337109375,21.497515625,-43.79788671875,8.58540234375,22.0816640625,14.736328125,15.3040625,22.580828125,31.31576171875,33.6768984375,21.69520703125,22.5141328125,32.60455078125,38.1909609375,46.0230546875,47.065578125
-90.37418359375,-49.83503125,-29.10825,-25.3729296875,-14.35801171875,-9.0512578125,9.92778125000001,-87.4260078125,-27.70382421875,5.970640625,8.30128515625,2.10455078125,-69.9896015625,33.0886171875,20.46037109375,33.692515625,-41.38888671875,19.13240234375,37.5276640625,28.636328125,22.0230625,25.898828125,41.29576171875,46.7318984375,32.27720703125,26.2511328125,40.44455078125,39.6789609375,48.3870546875,51.064578125
-77.93318359375,-37.04403125,-18.55425,-15.1789296875,5.58398828125,12.3457421875,26.39678125,-82.3340078125,-14.72782421875,24.182640625,24.66128515625,10.30855078125,-62.2406015625,48.0796171875,35.44137109375,44.656515625,-38.48088671875,29.11240234375,51.6376640625,40.990328125,28.2960625,27.775828125,49.78676171875,58.1618984375,41.09320703125,29.3871328125,46.77655078125,39.7089609375,49.5470546875,53.898578125
-66.48118359375,-24.83903125,-8.25325,-5.5929296875,24.29298828125,32.6927421875,41.38078125,-77.6710078125,-2.72782421875,40.733640625,39.43528515625,17.25855078125,-53.9336015625,60.9606171875,48.11437109375,53.522515625,-35.56688671875,37.89340234375,63.1556640625,50.652328125,33.2860625,28.095828125,55.94876171875,66.7588984375,47.01720703125,31.0371328125,50.78155078125,38.0819609375,49.0270546875,54.662578125
-56.14218359375,-13.42703125,1.43375,3.3800703125,41.12198828125,51.4807421875,54.54178125,-73.3650078125,7.93017578124999,54.866640625,52.14728515625,22.96255078125,-45.5016015625,70.8646171875,57.71837109375,60.054515625,-32.90388671875,44.91240234375,71.2606640625,57.134328125,36.5740625,26.827828125,59.20176171875,71.8058984375,49.53920703125,30.6151328125,51.90955078125,34.6589609375,46.4660546875,52.714578125
-46.64018359375,-2.66503125,10.43875,11.8440703125,55.89398828125,68.6607421875,66.04078125,-69.0780078125,17.03317578125,66.390640625,62.83928515625,27.87855078125,-37.5806015625,77.4086171875,64.18937109375,64.552515625,-30.49288671875,49.70040234375,75.6186640625,60.588328125,38.1910625,23.935828125,59.24276171875,73.1408984375,48.79420703125,27.9641328125,49.93655078125,29.3579609375,41.6810546875,47.831578125
-37.51718359375,7.76996875,18.91775,19.8750703125,68.77898828125,84.4937421875,76.34478125,-64.3730078125,24.43717578125,75.588640625,71.90528515625,32.66655078125,-30.8966015625,80.6796171875,68.08537109375,67.628515625,-28.13588671875,51.92340234375,76.3756640625,61.634328125,38.5400625,19.297828125,56.03176171875,71.1108984375,45.45120703125,23.3911328125,44.98255078125,22.1649609375,34.7250546875,40.282578125
-28.40718359375,18.14596875,27.11475,27.4130703125,80.04698828125,99.3137421875,85.97478125,-58.9160078125,30.01317578125,82.985640625,79.87028515625,37.89555078125,-26.1016015625,81.0806171875,70.32637109375,69.954515625,-25.52888671875,51.41540234375,74.0696640625,61.089328125,38.2440625,12.708828125,49.76276171875,66.4288984375,40.51120703125,17.5881328125,37.49255078125,13.1579609375,25.9040546875,30.797578125
-19.26018359375,28.47696875,35.18375,34.2120703125,89.82998828125,113.2667421875,95.25078125,-52.6470078125,33.62617578125,89.059640625,87.15228515625,43.80555078125,-23.5826015625,79.1416171875,71.86537109375,72.053515625,-22.39788671875,48.23340234375,69.4896640625,59.716328125,37.9560625,3.988828125,40.85776171875,59.9838984375,35.06620703125,11.4801328125,28.18755078125,2.5509609375,15.7440546875,20.409578125
-10.43618359375,38.42496875,43.05175,39.8900703125,97.99298828125,126.1447421875,104.12078125,-45.8640078125,35.20417578125,94.016640625,93.88128515625,50.19255078125,-23.3386015625,75.3906171875,73.36137109375,74.168515625,-18.61288671875,42.71140234375,63.4896640625,58.060328125,38.1720625,-6.79717187500001,29.99576171875,52.6728984375,30.07620703125,6.01913281249999,18.00655078125,-9.2220390625,4.9510546875,10.260578125
-2.64318359375,47.34096875,50.34475,44.0300703125,104.14298828125,137.3647421875,112.12578125,-39.1940078125,34.80417578125,97.702640625,99.79728515625,56.44855078125,-24.9776015625,70.2996171875,74.96337109375,76.230515625,-14.27988671875,35.51640234375,56.8146640625,56.395328125,39.1010625,-19.121171875,18.11576171875,45.2578984375,26.21120703125,1.98713281249999,8.00955078125,-21.4300390625,-5.6409453125,1.391578125
3.24081640625,54.39796875,56.40475,46.2840703125,107.76198828125,146.0597421875,118.47378125,-33.4790078125,32.62317578125,99.670640625,104.27428515625,61.71755078125,-27.8626015625,64.2696171875,76.23537109375,77.895515625,-9.76488671875,27.60240234375,49.9556640625,54.719328125,40.6020625,-31.915171875,6.33476171875,38.2568984375,23.76520703125,-0.165867187500012,-0.792449218750001,-33.0640390625,-15.1549453125,-5.41542187500001
6.38881640625,58.79396875,60.41475,46.4390703125,108.39498828125,151.2837421875,122.23178125,-29.5970078125,28.93817578125,99.346640625,106.47128515625,65.10555078125,-31.3366015625,57.6096171875,76.25537109375,78.613515625,-5.65388671875,20.03840234375,43.0806640625,52.787328125,42.1910625,-43.708171875,-4.24923828125,31.8638984375,22.61620703125,-0.428867187500003,-7.68544921875,-43.0000390625,-22.8189453125,-9.764421875
6.25381640625,59.95396875,61.61575,44.4690703125,105.83798828125,152.2987421875,122.57978125,-28.2560078125,24.02217578125,96.239640625,105.56728515625,65.90555078125,-34.9166015625,50.5046171875,73.89937109375,77.737515625,-2.64888671875,13.75940234375,36.0606640625,50.158328125,43.1530625,-52.981171875,-12.79823828125,25.9288984375,22.25920703125,0.76613281249999,-12.46444921875,-50.2860390625,-28.1439453125,-11.706421875
2.74181640625,57.70596875,59.56375,40.5750703125,100.26998828125,148.8707421875,119.08078125,-29.8130078125,18.12117578125,90.127640625,101.03228515625,63.77055078125,-38.3386015625,43.0386171875,68.24237109375,74.684515625,-1.41288671875,9.34140234375,28.6126640625,46.305328125,42.7230625,-58.565171875,-18.89523828125,20.0458984375,21.92120703125,2.63613281249999,-15.49644921875,-54.3890390625,-31.0549453125,-11.728421875
-3.72518359375,52.35196875,54.30975,35.1720703125,92.25298828125,141.4187421875,111.86678125,-34.1810078125,11.47117578125,81.171640625,92.84228515625,58.79855078125,-41.4466015625,35.2656171875,58.93037109375,69.117515625,-2.39788671875,6.91440234375,20.5126640625,40.768328125,40.3170625,-59.953171875,-22.56323828125,13.7488984375,20.77320703125,4.2501328125,-17.53644921875,-55.3270390625,-31.9059453125,-10.639421875
-12.29118359375,44.62196875,46.43275,28.8340703125,82.61198828125,130.9287421875,101.64578125,-40.8680078125,4.34517578125,69.916640625,81.56628515625,51.50155078125,-44.0496015625,27.3026171875,46.34937109375,61.099515625,-5.71788671875,6.23640234375,11.7676640625,33.317328125,35.7100625,-57.401171875,-24.14523828125,6.7518984375,18.17320703125,4.78313281249999,-19.40244921875,-53.6110390625,-31.3539453125,-9.386421875
-21.88618359375,35.49796875,36.88775,22.2030703125,72.23198828125,118.6747421875,89.54878125,-49.1130078125,-2.92282421875001,57.181640625,68.25728515625,42.66755078125,-45.8686015625,19.3856171875,31.53237109375,51.138515625,-11.10688671875,6.87640234375,2.6786640625,24.065328125,29.1020625,-51.814171875,-24.13523828125,-0.8841015625,13.86320703125,3.7531328125,-21.65544921875,-50.0660390625,-30.1549453125,-8.815421875
-31.51418359375,25.95096875,26.73875,15.8670703125,61.84398828125,105.8537421875,76.82778125,-58.0870078125,-9.95082421875,43.856640625,54.17628515625,33.15455078125,-46.6516015625,11.8486171875,15.82137109375,40.079515625,-17.99188671875,8.41140234375,-6.2513359375,13.498328125,21.0330625,-44.462171875,-23.01523828125,-8.7501015625,8.03820703125,1.1371328125,-24.42544921875,-45.6060390625,-28.9459453125,-9.44542187500001
-40.52418359375,16.70596875,16.86075,10.2380703125,51.86298828125,93.2717421875,64.52478125,-67.0890078125,-16.40282421875,30.676640625,40.44328515625,23.67355078125,-46.3496015625,5.03261718749999,0.46737109375,28.856515625,-25.65788671875,10.54140234375,-14.5113359375,2.378328125,12.1930625,-36.631171875,-21.16523828125,-16.2521015625,1.25720703125,-2.66786718750001,-27.45044921875,-41.0210390625,-28.0989453125,-11.329421875
-48.73918359375,8.09396875,7.74775,5.4560703125,42.33598828125,81.1847421875,53.20678125,-75.6770078125,-22.09382421875,18.068640625,27.76128515625,14.64855078125,-45.2146015625,-0.8203828125,-13.69062890625,18.223515625,-33.45188671875,13.10340234375,-21.7773359375,-8.465671875,3.20306250000002,-29.333171875,-18.86023828125,-22.8561015625,-5.76879296875,-7.03386718750001,-30.27744921875,-36.8660390625,-27.6899453125,-14.082421875
-56.40218359375,0.0679687499999986,-0.51125,1.3910703125,33.02498828125,69.3737421875,42.90278125,-83.6900078125,-27.05582421875,6.133640625,16.31828515625,6.19855078124999,-43.7416015625,-5.6483828125,-26.34062890625,8.55651562499999,-40.93688671875,15.99740234375,-28.0033359375,-18.362671875,-5.52193749999999,-23.141171875,-16.31823828125,-28.2901015625,-12.42379296875,-11.3628671875,-32.51044921875,-33.4530390625,-27.5749453125,-17.079421875
-63.93618359375,-7.63003125,-8.07725,-2.2479296875,23.62098828125,57.4467421875,33.28578125,-91.1360078125,-31.47682421875,-5.206359375,5.91528515624999,-1.76344921875,-42.4796015625,-9.5543828125,-37.56262890625,-0.135484375000004,-47.92888671875,19.09240234375,-33.3413359375,-26.940671875,-13.7659375,-18.203171875,-13.75123828125,-32.5981015625,-18.33579296875,-15.2958671875,-33.98744921875,-30.8990390625,-27.5279453125,-19.742421875
-71.65118359375,-15.21803125,-15.13025,-5.7349296875,13.99098828125,45.2237421875,24.01378125,-98.0340078125,-35.56782421875,-15.972359375,-3.73871484375,-9.33444921875001,-41.8426015625,-12.7093828125,-47.53162890625,-7.995484375,-54.40588671875,22.18140234375,-37.9443359375,-34.081671875,-21.3669375,-14.366171875,-11.35323828125,-36.0031015625,-23.35779296875,-18.7588671875,-34.77444921875,-29.1760390625,-27.3599453125,-21.747421875
-79.52318359375,-22.66303125,-21.66925,-9.19692968750001,4.35298828125,32.9957421875,15.05478125,-104.2860078125,-39.43282421875,-25.920359375,-12.70871484375,-16.44444921875,-42.0166015625,-15.2203828125,-56.20562890625,-15.026484375,-60.36188671875,25.01240234375,-41.7733359375,-39.746671875,-28.0609375,-11.328171875,-9.23123828125,-38.6551015625,-27.41079296875,-21.8628671875,-35.02444921875,-28.1280390625,-26.9959453125,-23.083421875
-87.14818359375,-29.60603125,-27.43125,-12.5569296875,-4.71001171875,21.5427421875,6.82178125,-109.6340078125,-43.02282421875,-34.502359375,-20.66771484375,-22.76744921875,-42.9866015625,-17.0423828125,-63.20062890625,-20.903484375,-65.69388671875,27.36240234375,-44.5193359375,-43.772671875,-33.4289375,-8.780171875,-7.35123828125,-40.4311015625,-30.32079296875,-24.7228671875,-34.81144921875,-27.4910390625,-26.4609453125,-23.943421875
-93.87118359375,-35.47703125,-31.96925,-15.5899296875,-12.40601171875,11.9127421875,0.0597812500000003,-113.7360078125,-46.19082421875,-41.010359375,-26.97071484375,-27.79244921875,-44.6356015625,-17.9893828125,-67.89062890625,-25.019484375,-70.19088671875,29.10540234375,-45.7123359375,-45.815671875,-37.0099375,-6.50917187500001,-5.54323828125,-40.9251015625,-31.78479296875,-27.3488671875,-34.04244921875,-26.9610390625,-25.8299453125,-24.557421875
-99.03818359375,-39.73503125,-34.84825,-18.0339296875,-17.99801171875,5.0547421875,-4.45921874999999,-116.2910078125,-48.79682421875,-44.847359375,-30.92271484375,-31.01144921875,-46.8546015625,-17.8303828125,-69.68762890625,-26.740484375,-73.62388671875,30.22840234375,-44.9133359375,-45.470671875,-38.5079375,-4.47117187500001,-3.58623828125,-39.6401015625,-31.50279296875,-29.6498671875,-32.50744921875,-26.2950390625,-25.1579453125,-25.067421875
-102.23818359375,-42.08303125,-35.82825,-19.7259296875,-21.06401171875,1.47674218749999,-6.24921875,-117.1600078125,-50.79082421875,-45.756359375,-32.05671484375,-32.11144921875,-49.6126015625,-16.4253828125,-68.31762890625,-25.710484375,-75.86388671875,30.79140234375,-41.9143359375,-42.518671875,-37.9789375,-2.80717187500001,-1.32323828125,-36.2701015625,-29.37479296875,-31.5258671875,-30.01744921875,-25.4170390625,-24.4599453125,-25.493421875
-103.42618359375,-42.55403125,-34.95925,-20.6819296875,-21.61601171875,1.0887421875,-5.27921875,-116.4230078125,-52.23082421875,-43.909359375,-30.28571484375,-31.07244921875,-52.9706015625,-13.8093828125,-63.94162890625,-22.028484375,-76.94488671875,30.86040234375,-36.8273359375,-37.101671875,-35.8539375,-1.794171875,1.25276171875,-30.9031015625,-25.62679296875,-32.9688671875,-26.55044921875,-24.4560390625,-23.7279453125,-25.799421875
-102.87618359375,-41.42603125,-32.51625,-21.0859296875,-20.03801171875,3.31874218749999,-1.91321875,-114.3190078125,-53.22082421875,-39.801359375,-25.87871484375,-28.13844921875,-57.0326015625,-10.2033828125,-57.07462890625,-16.203484375,-77.02388671875,30.46540234375,-30.0543359375,-29.747671875,-32.7809375,-1.74017187500001,3.99576171875,-24.0331015625,-20.78779296875,-34.0808671875,-22.33344921875,-23.6960390625,-22.9809453125,-25.981421875
-101.03018359375,-39.05603125,-28.85625,-21.2119296875,-16.90201171875,7.41074218749999,3.28578125,-111.1420078125,-53.85082421875,-34.044359375,-19.32971484375,-23.69244921875,-61.8666015625,-5.9483828125,-48.39162890625,-8.958484375,-76.26288671875,29.57840234375,-22.1873359375,-21.214671875,-29.3729375,-2.861171875,6.65276171875,-16.4091015625,-15.52179296875,-35.0068671875,-17.82944921875,-23.4630390625,-22.2989453125,-26.109421875
-98.35718359375,-35.74703125,-24.28725,-21.3219296875,-12.78601171875,12.6837421875,9.74778125,-107.1430078125,-54.18382421875,-27.180359375,-11.20571484375,-18.12444921875,-67.4326015625,-1.41838281250001,-38.53762890625,-0.997484374999999,-74.71388671875,28.11140234375,-13.9043359375,-12.275671875,-25.9949375,-5.216171875,8.91876171875,-8.7991015625,-10.43179296875,-35.8328671875,-13.63244921875,-24.0220390625,-21.8299453125,-26.310421875
-95.26518359375,-31.70103125,-19.01725,-21.6069296875,-8.17501171875,18.6407421875,16.99778125,-102.4990078125,-54.29482421875,-19.587359375,-2.02671484375001,-11.75844921875,-73.5456015625,3.0616171875,-28.02762890625,7.14351562499999,-72.28388671875,25.92940234375,-5.8653359375,-3.547671875,-22.6889375,-8.69717187500001,10.48176171875,-1.7991015625,-5.93479296875,-36.5218671875,-10.32344921875,-25.5170390625,-21.7579453125,-26.702421875
-92.06418359375,-27.05103125,-13.17125,-22.1539296875,-3.41101171875,24.9597421875,24.68078125,-97.3190078125,-54.29182421875,-11.482359375,7.78928515625,-4.82544921875001,-79.9246015625,7.2716171875,-17.21962890625,15.143515625,-68.82088671875,22.91140234375,1.4016640625,4.594328125,-19.2639375,-13.081171875,11.08976171875,4.2638984375,-2.21879296875,-36.9328671875,-8.31144921875,-27.9310390625,-22.2389453125,-27.354421875
-88.93218359375,-21.89703125,-6.83425,-22.9469296875,1.32298828125,31.4617421875,32.57178125,-91.6870078125,-54.28082421875,-2.984359375,17.95628515625,2.51355078125,-86.2856015625,11.1306171875,-6.31962890625,22.889515625,-64.24688671875,19.03040234375,7.6236640625,12.034328125,-15.4829375,-18.090171875,10.63876171875,9.3548984375,0.723207031249999,-36.9208671875,-7.71444921875,-31.1070390625,-23.3289453125,-28.265421875
-85.90318359375,-16.34403125,-0.0982500000000002,-23.8969296875,6.00098828125,38.0857421875,40.57478125,-85.6880078125,-54.31182421875,5.830640625,28.32028515625,10.14655078125,-92.4616015625,14.6906171875,4.60337109375,30.424515625,-58.68988671875,14.41840234375,12.8776640625,18.890328125,-11.2409375,-23.465171875,9.26076171875,13.6778984375,3.06320703125,-36.4508671875,-8.30644921875,-34.7920390625,-24.9419453125,-29.375421875
-82.89418359375,-10.52403125,6.90475,-24.8939296875,10.70198828125,44.8497421875,48.68978125,-79.4460078125,-54.36482421875,14.887640625,38.82828515625,17.98155078125,-98.4736015625,18.1046171875,15.58337109375,37.900515625,-52.51988671875,9.38040234375,17.5846640625,25.461328125,-6.64093749999999,-29.007171875,7.34476171875,17.6188984375,5.10520703125,-35.6678671875,-9.56044921875,-38.7160390625,-26.8579453125,-30.591421875
-82.89418359375,-10.52403125,6.90475,-24.8939296875,10.70198828125,44.8497421875,48.68978125,-79.4460078125,-54.36482421875,14.887640625,38.82828515625,17.98155078125,-98.4736015625,18.1046171875,15.58337109375,37.900515625,-52.51988671875,9.38040234375,17.5846640625,25.461328125,-6.64093749999999,-29.007171875,7.34476171875,17.6188984375,5.10520703125,-35.6678671875,-9.56044921875,-38.7160390625,-26.8579453125,-30.591421875
