"Fp1","Fpz","Fp2","F7","F3","Fz","F4","F8","FC5","FC1","FC2","FC6","T7","C3","Cz","C4","T8","CP5","CP1","CP2","CP6","P7","P3","Pz","P4","P8","POz","O1","Oz","O2"
-8.45125390625,-0.5414140625,0.751484375,-9.9720859375,-0.629621093750001,-0.947011718750001,1.13014453125,4.51558203125,-10.82451953125,-2.1259375,2.70208984375,5.03908984375,5.513546875,-2.145875,2.261390625,4.9459375,-6.09411328125,-2.71547265625,1.33864453125,3.04322265625,3.7038125,-5.494578125,-0.1373125,0.524308593750001,0.38689453125,-4.8393125,0.364921875,3.21753125,-0.4514609375,-8.295359375
-3.43825390625,-1.5244140625,1.304484375,-7.7280859375,0.900378906249999,-0.77601171875,3.32914453125,5.93758203125,-8.27351953125,-1.2149375,2.97608984375,4.41408984375,-0.959453125,-1.909875,2.399390625,3.2909375,-3.72411328125,-2.99647265625,0.619644531250001,2.41822265625,0.9658125,-5.774578125,-0.7263125,-0.0696914062499996,-0.28210546875,-3.9333125,0.0919218749999999,2.56153125,-1.3814609375,-8.423359375
-0.23025390625,-2.3194140625,1.916484375,-5.9460859375,0.745378906249999,-1.50601171875,4.22914453125,6.80958203125,-7.29351953125,-1.3529375,2.70108984375,3.37708984375,-3.597453125,-2.102875,1.764390625,1.7909375,-0.10311328125,-3.14447265625,-0.199355468749999,1.61822265625,-0.8261875,-6.133578125,-1.3213125,-0.60469140625,-0.75610546875,-2.9873125,-0.263078125,1.75553125,-1.9604609375,-8.473359375
0.95874609375,-2.6864140625,2.461484375,-4.8190859375,-0.93962109375,-2.89601171875,4.00314453125,7.32958203125,-7.70251953125,-2.3799375,1.93808984375,1.97608984375,-2.550453125,-2.663875,0.493390625,0.5099375,4.13088671875,-3.10347265625,-1.06235546875,0.69522265625,-1.6871875,-6.587578125,-1.8743125,-1.05369140625,-0.98810546875,-2.0723125,-0.614078125,0.80653125,-2.2334609375,-8.454359375
0.34074609375,-2.4634140625,2.770484375,-4.5070859375,-3.36662109375,-4.30201171875,3.29914453125,7.81858203125,-8.82751953125,-3.7329375,0.98508984375,0.47408984375,0.469546875,-3.361875,-0.934609375,-0.4440625,7.77088671875,-2.92347265625,-1.84135546875,-0.15577734375,-1.8511875,-7.157578125,-2.3113125,-1.36569140625,-0.93210546875,-1.2183125,-0.810078125,-0.17246875,-2.3234609375,-8.370359375
-1.67325390625,-1.7534140625,2.707484375,-5.1030859375,-5.52862109375,-5.02801171875,2.81214453125,8.47658203125,-9.91451953125,-4.7559375,0.21508984375,-0.75991015625,2.959546875,-3.923875,-1.929609375,-0.9490625,9.64788671875,-2.79647265625,-2.38835546875,-0.67077734375,-1.5781875,-7.890578125,-2.5853125,-1.47669140625,-0.55410546875,-0.3623125,-0.711078125,-0.97646875,-2.3454609375,-8.210359375
-4.47925390625,-0.8934140625,2.259484375,-6.5190859375,-6.65362109375,-4.67601171875,2.90314453125,9.31858203125,-10.44551953125,-4.9889375,-0.0929101562499999,-1.42691015625,2.858546875,-4.149875,-2.052609375,-0.9400625,9.15188671875,-2.95147265625,-2.60335546875,-0.63177734375,-1.0511875,-8.791578125,-2.6873125,-1.33469140625,0.12789453125,0.5956875,-0.247078125,-1.38646875,-2.3544609375,-7.961359375
-7.18925390625,-0.2174140625,1.583484375,-8.3550859375,-6.45562109375,-3.30101171875,3.48014453125,10.21958203125,-10.25151953125,-4.2929375,0.16608984375,-1.41491015625,-0.358453125,-3.943875,-1.150609375,-0.4490625,6.45888671875,-3.44547265625,-2.42735546875,0.0522226562499997,-0.3511875,-9.731578125,-2.6123125,-0.90569140625,1.02889453125,1.6896875,0.570921875,-1.24646875,-2.3264609375,-7.615359375
-8.68225390625,0.2225859375,0.983484375,-9.9100859375,-5.11162109375,-1.30101171875,4.19714453125,10.97858203125,-9.44451953125,-2.7979375,0.95808984375,-0.79291015625,-5.318453125,-3.272875,0.654390625,0.4309375,2.44388671875,-4.03847265625,-1.81035546875,1.32422265625,0.4968125,-10.413578125,-2.3003125,-0.16069140625,2.02389453125,2.8206875,1.659921875,-0.53746875,-2.1814609375,-7.186359375
-7.89025390625,0.7195859375,0.789484375,-10.3770859375,-3.06962109375,0.81498828125,4.78514453125,11.37058203125,-8.27251953125,-0.7889375,2.18208984375,0.26808984375,-9.418453125,-2.135875,3.042390625,1.5739375,-1.62611328125,-4.26447265625,-0.72435546875,3.00622265625,1.4528125,-10.466578125,-1.6483125,0.904308593750001,2.97389453125,3.7816875,2.873921875,0.59453125,-1.8344609375,-6.703359375
-4.29425390625,1.6795859375,1.177484375,-9.1790859375,-0.84662109375,2.61898828125,5.23514453125,11.20558203125,-6.96951953125,1.3820625,3.68308984375,1.56908984375,-10.247453125,-0.621875,5.558390625,2.8019375,-4.54911328125,-3.69747265625,0.74864453125,4.81022265625,2.3848125,-9.634578125,-0.6223125,2.19930859375,3.73889453125,4.3236875,4.007921875,1.86153125,-1.2764609375,-6.204359375
1.53774609375,3.2445859375,2.007484375,-6.3210859375,1.06837890625,3.80798828125,5.67514453125,10.34358203125,-5.72051953125,3.3000625,5.19508984375,2.89208984375,-6.990453125,1.004125,7.629390625,3.8379375,-5.66011328125,-2.25547265625,2.30864453125,6.34622265625,3.0418125,-7.968578125,0.6106875,3.45530859375,4.13889453125,4.2386875,4.808921875,2.90153125,-0.6234609375,-5.737359375
7.78474609375,5.0375859375,2.810484375,-2.5830859375,2.24737890625,4.15498828125,6.06514453125,8.68558203125,-4.72851953125,4.4740625,6.29108984375,3.98208984375,-0.972453125,2.264125,8.627390625,4.3139375,-5.11911328125,-0.34547265625,3.41864453125,7.14922265625,3.1148125,-5.874578125,1.6456875,4.22930859375,3.95189453125,3.4136875,5.004921875,3.38253125,-0.1124609375,-5.381359375
12.00374609375,6.2575859375,2.991484375,0.6769140625,2.36937890625,3.47698828125,6.03614453125,6.24958203125,-4.26951953125,4.3950625,6.45408984375,4.54308984375,5.020546875,2.571125,8.016390625,3.8739375,-3.80111328125,1.26852734375,3.44764453125,6.77422265625,2.3748125,-3.988578125,1.9516875,4.01730859375,2.95089453125,1.8686875,4.379921875,3.10153125,-0.0184609375,-5.257359375
12.38974609375,6.0955859375,2.149484375,2.1009140625,1.30337890625,1.68298828125,5.07114453125,3.33558203125,-4.60051953125,2.7090625,5.27908984375,4.29808984375,8.236546875,1.463125,5.575390625,2.3279375,-2.78011328125,1.81152734375,1.91064453125,4.95422265625,0.7938125,-2.922578125,1.0876875,2.45830859375,1.01189453125,-0.1943125,2.856921875,2.04653125,-0.5374609375,-5.486359375
8.80174609375,4.2175859375,0.344484375,0.9979140625,-0.82262109375,-1.11601171875,2.88014453125,0.568582031250001,-5.79151953125,-0.5639375,2.71108984375,3.07508984375,7.430546875,-1.156875,1.559390625,-0.2380625,-2.71411328125,0.86752734375,-1.28335546875,1.73422265625,-1.4091875,-3.021578125,-1.0803125,-0.49269140625,-1.78210546875,-2.3823125,0.581921875,0.42653125,-1.6654609375,-6.109359375
2.74674609375,0.9805859375,-1.897515625,-2.3060859375,-3.64962109375,-4.56401171875,-0.36585546875,-1.36441796875,-7.64151953125,-4.9259375,-0.86291015625,0.88508984375,3.464546875,-4.917875,-3.329609375,-3.4650625,-3.58211328125,-1.45647265625,-5.74335546875,-2.47477734375,-3.8361875,-4.236578125,-4.2923125,-4.48069140625,-5.11810546875,-4.2033125,-2.086078125,-1.37946875,-3.1654609375,-7.011359375
-3.57325390625,-2.7464140625,-3.876515625,-6.6490859375,-6.70862109375,-8.13801171875,-4.08285546875,-2.12941796875,-9.79351953125,-9.5179375,-4.74091015625,-2.04691015625,-1.289453125,-9.094875,-8.175609375,-6.8280625,-4.91711328125,-4.62747265625,-10.69335546875,-6.98577734375,-6.0771875,-6.193578125,-7.9833125,-8.85669140625,-8.52910546875,-5.2623125,-4.675078125,-2.94546875,-4.6384609375,-7.946359375
-8.37025390625,-6.0364140625,-5.102515625,-10.5850859375,-9.55662109375,-11.29101171875,-7.50785546875,-1.96041796875,-11.89551953125,-13.3999375,-8.16991015625,-5.28991015625,-4.340453125,-12.884875,-12.162609375,-9.8060625,-6.22311328125,-7.95947265625,-15.24335546875,-11.03677734375,-7.8741875,-8.375578125,-11.4983125,-12.89469140625,-11.54110546875,-5.4433125,-6.783078125,-3.95346875,-5.7024609375,-8.663359375
-10.88025390625,-8.2924140625,-5.509515625,-12.9910859375,-11.83662109375,-13.56701171875,-9.96285546875,-1.46741796875,-13.67851953125,-15.8419375,-10.57491015625,-8.27291015625,-4.395453125,-15.665875,-14.792609375,-12.0050625,-7.18411328125,-10.86147265625,-18.66535546875,-14.00777734375,-9.1751875,-10.351578125,-14.3113125,-16.00969140625,-13.79010546875,-4.9393125,-8.212078125,-4.30846875,-6.1714609375,-9.034359375
-11.39525390625,-9.3874140625,-5.371515625,-13.4640859375,-13.28162109375,-14.67201171875,-11.05085546875,-1.24241796875,-14.93651953125,-16.5049375,-11.68691015625,-10.41491015625,-1.903453125,-17.118875,-15.923609375,-13.2180625,-7.60311328125,-12.96447265625,-20.55235546875,-15.54977734375,-10.0491875,-11.923578125,-16.1273125,-17.86969140625,-15.06410546875,-4.1123125,-8.989078125,-4.14146875,-6.1254609375,-9.102359375
-10.90325390625,-9.5404140625,-5.050515625,-12.3880859375,-13.73162109375,-14.52301171875,-10.77085546875,-1.52041796875,-15.52351953125,-15.4869375,-11.55191015625,-11.31491015625,1.376546875,-17.214875,-15.679609375,-13.4140625,-7.32911328125,-14.12247265625,-20.83935546875,-15.61877734375,-10.5431875,-13.111578125,-16.8613125,-18.38869140625,-15.29310546875,-3.3133125,-9.273078125,-3.71646875,-5.8364609375,-9.021359375
-10.49225390625,-9.0554140625,-4.806515625,-10.6740859375,-13.17662109375,-13.27301171875,-9.49585546875,-2.08441796875,-15.34751953125,-13.2479375,-10.47191015625,-10.90991015625,3.385546875,-16.130875,-14.339609375,-12.7220625,-6.35711328125,-14.35247265625,-19.71935546875,-14.43077734375,-10.6271875,-14.033578125,-16.5653125,-17.65269140625,-14.54710546875,-2.7753125,-9.223078125,-3.28946875,-5.6114609375,-8.930359375
-10.73625390625,-8.0594140625,-4.757515625,-9.2990859375,-11.77362109375,-11.27801171875,-7.77985546875,-2.40241796875,-14.36951953125,-10.4379375,-8.89691015625,-9.49991015625,2.793546875,-14.158875,-12.248609375,-11.3970625,-4.92111328125,-13.77047265625,-17.52635546875,-12.36177734375,-10.2311875,-14.738578125,-15.3643125,-15.86569140625,-13.03810546875,-2.6043125,-8.910078125,-2.98946875,-5.6174609375,-8.858359375
-11.42425390625,-6.4404140625,-4.926515625,-8.8640859375,-9.80162109375,-8.97301171875,-6.09285546875,-1.98641796875,-12.59751953125,-7.6679375,-7.26391015625,-7.61391015625,-0.423453125,-11.616875,-9.757609375,-9.7460625,-3.43011328125,-12.52847265625,-14.62935546875,-9.84177734375,-9.3361875,-15.122578125,-13.4163125,-13.29969140625,-11.07810546875,-2.7953125,-8.292078125,-2.75746875,-5.7974609375,-8.702359375
-11.79425390625,-4.0444140625,-5.263515625,-9.3340859375,-7.58962109375,-6.73901171875,-4.66085546875,-0.75741796875,-10.12251953125,-5.3549375,-5.85791015625,-5.79091015625,-5.045453125,-8.783875,-7.188609375,-8.0380625,-2.26111328125,-10.78547265625,-11.36935546875,-7.24777734375,-8.0321875,-14.972578125,-10.9033125,-10.28069140625,-8.99210546875,-3.2573125,-7.258078125,-2.38146875,-5.8824609375,-8.291359375
-11.03225390625,-0.9894140625,-5.651515625,-10.0760859375,-5.47262109375,-4.84101171875,-3.48085546875,0.848582031250001,-7.16051953125,-3.6749375,-4.76291015625,-4.41091015625,-9.204453125,-5.911875,-4.812609375,-6.4560625,-1.63611328125,-8.70747265625,-8.06535546875,-4.87377734375,-6.5261875,-14.093578125,-8.0593125,-7.16569140625,-7.04910546875,-3.8693125,-5.726078125,-1.59546875,-5.5244609375,-7.490359375
-8.71825390625,2.2145859375,-5.936515625,-10.1630859375,-3.76962109375,-3.43701171875,-2.45385546875,2.18458203125,-4.04651953125,-2.6329375,-3.92891015625,-3.62791015625,-11.205453125,-3.268875,-2.857609375,-5.1160625,-1.64311328125,-6.50947265625,-5.05335546875,-2.94877734375,-5.1201875,-12.452578125,-5.1963125,-4.34369140625,-5.45210546875,-4.5393125,-3.753078125,-0.22546875,-4.4994609375,-6.304359375
-5.05125390625,4.8605859375,-5.987515625,-8.8580859375,-2.73962109375,-2.61101171875,-1.53185546875,2.83558203125,-1.17151953125,-2.1649375,-3.27991015625,-3.38191015625,-10.190453125,-1.162875,-1.510609375,-4.1050625,-2.28411328125,-4.46547265625,-2.69335546875,-1.66277734375,-4.1241875,-10.258578125,-2.6953125,-2.18069140625,-4.36110546875,-5.2193125,-1.582078125,1.69553125,-2.8564609375,-4.907359375
-0.91325390625,6.4065859375,-5.750515625,-6.0910859375,-2.48862109375,-2.38701171875,-0.80085546875,2.84458203125,1.06448046875,-2.2099375,-2.80291015625,-3.48291015625,-6.366453125,0.118124999999999,-0.899609375,-3.4980625,-3.44311328125,-2.89147265625,-1.30035546875,-1.14577734375,-3.7471875,-7.933578125,-0.9313125,-0.93969140625,-3.90110546875,-5.8763125,0.383921875,3.87153125,-0.9484609375,-3.605359375
2.32974609375,6.6645859375,-5.232515625,-2.6230859375,-2.91262109375,-2.74201171875,-0.45885546875,2.59758203125,2.29148046875,-2.7429375,-2.57291015625,-3.72191015625,-0.786453125,0.385124999999999,-1.070609375,-3.3510625,-4.84311328125,-2.07447265625,-1.04835546875,-1.43777734375,-4.0131875,-5.991578125,-0.1733125,-0.72069140625,-4.12910546875,-6.4353125,1.693921875,5.79453125,0.6795390625,-2.735359375
3.31474609375,5.7275859375,-4.438515625,0.2539140625,-3.73262109375,-3.62601171875,-0.70985546875,2.53358203125,2.22648046875,-3.7669375,-2.72691015625,-3.97391015625,5.061546875,-0.381875000000001,-1.964609375,-3.6880625,-6.08511328125,-2.18547265625,-1.92035546875,-2.46077734375,-4.7771875,-4.865578125,-0.5333125,-1.46269140625,-5.00910546875,-6.7663125,1.985921875,6.89453125,1.4945390625,-2.556359375
1.31574609375,3.8085859375,-3.353515625,1.4109140625,-4.60062109375,-4.93801171875,-1.60585546875,2.89458203125,0.810480468749999,-5.2529375,-3.37591015625,-4.22891015625,9.664546875,-2.008875,-3.404609375,-4.4620625,-6.74111328125,-3.18647265625,-3.68935546875,-4.01877734375,-5.7881875,-4.751578125,-1.9233125,-2.96869140625,-6.38810546875,-6.7113125,1.121921875,6.76453125,1.1935390625,-3.124359375
-3.32625390625,1.2275859375,-1.980515625,0.5229140625,-5.20462109375,-6.45601171875,-2.93985546875,3.61558203125,-1.66251953125,-7.0409375,-4.47791015625,-4.50891015625,11.895546875,-4.106875,-5.064609375,-5.4940625,-6.45811328125,-4.78047265625,-5.92335546875,-5.78477734375,-6.7321875,-5.531578125,-4.0163125,-4.92169140625,-7.97110546875,-6.1293125,-0.723078125,5.37053125,-0.1394609375,-4.235359375
-9.17825390625,-1.4994140625,-0.409515625,-1.7490859375,-5.34362109375,-7.79101171875,-4.26985546875,4.40458203125,-4.52851953125,-8.7839375,-5.76191015625,-4.77091015625,11.359546875,-6.107875,-6.472609375,-6.4310625,-5.07011328125,-6.44947265625,-8.01435546875,-7.30277734375,-7.2661875,-6.803578125,-6.2553125,-6.86869140625,-9.34010546875,-4.9763125,-3.057078125,3.12353125,-2.0314609375,-5.463359375
-14.11825390625,-3.6744140625,1.131484375,-4.1680859375,-4.97562109375,-8.47701171875,-5.07685546875,4.94858203125,-6.93351953125,-10.0159375,-6.78291015625,-4.88191015625,8.508546875,-7.410875,-7.116609375,-6.8350625,-2.70111328125,-7.61047265625,-9.32235546875,-8.07277734375,-7.0881875,-8.023578125,-7.9723125,-8.28169140625,-10.03910546875,-3.3943125,-5.193078125,0.74953125,-3.7964609375,-6.323359375
-16.09325390625,-4.5924140625,2.318484375,-5.6070859375,-4.21162109375,-8.15001171875,-4.94685546875,5.10858203125,-8.13851953125,-10.3209375,-7.08691015625,-4.69691015625,4.407546875,-7.608875,-6.629609375,-6.3790625,0.16488671875,-7.83547265625,-9.39435546875,-7.73577734375,-6.0731875,-8.713578125,-8.6373125,-8.71969140625,-9.75710546875,-1.7713125,-6.494078125,-1.00746875,-4.8364609375,-6.494359375
-14.06225390625,-3.8084140625,2.836484375,-5.6040859375,-3.22962109375,-6.70501171875,-3.71785546875,4.92558203125,-7.79951953125,-9.5029375,-6.39091015625,-4.14091015625,0.264546875,-6.659875,-4.971609375,-5.0270625,2.74688671875,-7.03847265625,-8.18235546875,-6.26577734375,-4.3961875,-8.683578125,-8.0903125,-8.02069140625,-8.50410546875,-0.6853125,-6.636078125,-1.70546875,-4.9114609375,-5.990359375
-8.64825390625,-1.3154140625,2.508484375,-4.4650859375,-2.16162109375,-4.32401171875,-1.52985546875,4.48758203125,-6.09051953125,-7.6699375,-4.69891015625,-3.26191015625,-3.003453125,-4.913875,-2.486609375,-3.1010625,4.17588671875,-5.52347265625,-6.11335546875,-4.04677734375,-2.5531875,-8.131578125,-6.6383125,-6.42869140625,-6.67210546875,-0.7153125,-5.770078125,-1.37746875,-4.2424609375,-5.169359375
-1.92925390625,2.3985859375,1.377484375,-2.9200859375,-1.04862109375,-1.40301171875,1.22014453125,3.83958203125,-3.60251953125,-5.2139375,-2.31891015625,-2.22691015625,-4.971453125,-2.984875,0.195390625,-1.1820625,3.80988671875,-3.86247265625,-3.97335546875,-1.79277734375,-1.2221875,-7.543578125,-4.9543125,-4.54969140625,-4.93610546875,-2.1813125,-4.477078125,-0.46646875,-3.3744609375,-4.560359375
3.63374609375,6.4405859375,-0.281515625,-1.5740859375,0.07237890625,1.54598828125,3.97314453125,3.02758203125,-1.08051953125,-2.7069375,0.18908984375,-1.31791015625,-5.616453125,-1.541875,2.352390625,0.0669374999999999,1.55788671875,-2.66147265625,-2.65135546875,-0.32277734375,-1.0311875,-7.422578125,-3.8113125,-3.15369140625,-4.01810546875,-4.9353125,-3.524078125,0.42753125,-2.9144609375,-4.596359375
6.40074609375,9.7375859375,-2.031515625,-0.5600859375,1.06537890625,3.97498828125,6.11014453125,2.16758203125,0.82848046875,-0.7499375,2.14108984375,-0.90391015625,-5.068453125,-1.085875,3.380390625,0.1199375,-1.95311328125,-2.31947265625,-2.81735546875,-0.30477734375,-2.3101875,-7.982578125,-3.7853125,-2.91169140625,-4.43310546875,-8.3743125,-3.550078125,0.81553125,-3.2554609375,-5.424359375
6.11074609375,11.3425859375,-3.402515625,0.3869140625,1.67437890625,5.37098828125,7.05014453125,1.40858203125,1.73548046875,0.1860625,2.91608984375,-1.34991015625,-3.432453125,-1.778875,2.946390625,-1.2540625,-5.54411328125,-2.88847265625,-4.67035546875,-2.04677734375,-4.9541875,-9.025578125,-5.0293125,-4.16169140625,-6.30510546875,-11.6683125,-4.834078125,0.49053125,-4.4514609375,-6.882359375
3.63374609375,10.7235859375,-4.063515625,1.5409140625,1.63137890625,5.35498828125,6.38014453125,0.821582031250001,1.55648046875,-0.1149375,2.15308984375,-2.86991015625,-0.840453125,-3.409875,1.047390625,-3.9180625,-8.01311328125,-4.10947265625,-7.86535546875,-5.40177734375,-8.4671875,-10.056578125,-7.2563125,-6.80369140625,-9.34010546875,-14.1013125,-7.226078125,-0.47546875,-6.2484609375,-8.623359375
0.28974609375,7.9305859375,-3.979515625,2.8399140625,0.80237890625,3.78798828125,4.01814453125,0.361582031250001,0.463480468749999,-1.5659375,-0.11591015625,-5.39591015625,2.379546875,-5.513875,-2.003609375,-7.4230625,-8.82611328125,-5.57647265625,-11.65135546875,-9.79977734375,-12.1511875,-10.572578125,-9.8863125,-10.36069140625,-12.93610546875,-15.3113125,-10.244078125,-1.83246875,-8.2344609375,-10.269359375
-2.86425390625,3.5915859375,-3.463515625,3.8309140625,-0.73962109375,0.85698828125,0.31714453125,-0.0844179687499995,-1.24551953125,-3.8129375,-3.46591015625,-8.52391015625,5.574546875,-7.577875,-5.665609375,-11.1300625,-8.52311328125,-6.95447265625,-15.14735546875,-14.39477734375,-15.3301875,-10.355578125,-12.2993125,-14.13669140625,-16.37510546875,-15.3363125,-13.236078125,-3.25946875,-9.9934609375,-11.506359375
-5.46325390625,-1.2734140625,-3.037515625,3.9149140625,-2.72562109375,-2.90801171875,-3.96685546875,-0.65641796875,-3.30551953125,-6.3369375,-7.18291015625,-11.57691015625,7.809546875,-9.215875,-9.277609375,-14.3440625,-8.43311328125,-8.09747265625,-17.61435546875,-18.26377734375,-17.4961875,-9.576578125,-14.0233125,-17.40569140625,-19.00410546875,-14.4783125,-15.557078125,-4.43846875,-11.2104609375,-12.129359375
-7.74625390625,-5.5404140625,-3.161515625,2.7179140625,-4.74862109375,-6.70401171875,-7.83285546875,-1.51041796875,-5.54051953125,-8.5639375,-10.43991015625,-13.77691015625,8.086546875,-10.212875,-12.157609375,-16.4230625,-9.78611328125,-9.01747265625,-18.61635546875,-20.62377734375,-18.3451875,-8.671578125,-14.8063125,-19.55369140625,-20.36110546875,-13.1093125,-16.705078125,-5.09546875,-11.7094609375,-12.063359375
-9.93525390625,-8.2434140625,-3.954515625,0.3819140625,-6.30562109375,-9.59501171875,-10.24185546875,-2.73241796875,-7.74451953125,-9.9329375,-12.46691015625,-14.46591015625,5.783546875,-10.453875,-13.699609375,-16.8880625,-12.75111328125,-9.72647265625,-18.03235546875,-20.99577734375,-17.7661875,-8.064578125,-14.5733125,-20.16069140625,-20.22910546875,-11.5363125,-16.417078125,-5.03646875,-11.4624609375,-11.371359375
-11.62225390625,-8.7094140625,-5.079515625,-2.3730859375,-6.86262109375,-10.72901171875,-10.37485546875,-4.20741796875,-9.52751953125,-9.9729375,-12.71091015625,-13.30891015625,1.195546875,-9.831875,-13.459609375,-15.5270625,-16.11311328125,-10.07647265625,-15.98035546875,-19.29377734375,-15.8161875,-7.902578125,-13.3423125,-19.03369140625,-18.62810546875,-9.9373125,-14.705078125,-4.17746875,-10.5654609375,-10.224359375
-11.79525390625,-6.6574140625,-5.874515625,-4.4860859375,-6.04262109375,-9.62601171875,-7.93485546875,-5.55941796875,-10.34051953125,-8.4579375,-10.98891015625,-10.44491015625,-4.194453125,-8.248875,-11.293609375,-12.4850625,-17.85311328125,-9.74347265625,-12.72335546875,-15.82077734375,-12.7321875,-7.960578125,-11.1813125,-16.23069140625,-15.76310546875,-8.3683125,-11.835078125,-2.54946875,-9.1744609375,-8.818359375
-9.55425390625,-2.3614140625,-5.687515625,-4.9830859375,-3.90762109375,-6.46901171875,-3.41785546875,-6.22541796875,-9.75051953125,-5.6079375,-7.62291015625,-6.53291015625,-8.132453125,-5.743875,-7.514609375,-8.3020625,-16.31111328125,-8.40847265625,-8.66435546875,-11.21677734375,-8.9431875,-7.770578125,-8.2433125,-12.09069140625,-11.98110546875,-6.8143125,-8.263078125,-0.28446875,-7.4504609375,-7.297359375
-4.92325390625,3.1655859375,-4.256515625,-3.4370859375,-1.14262109375,-2.22201171875,1.87614453125,-5.64441796875,-7.77251953125,-2.2109375,-3.47791015625,-2.61091015625,-8.699453125,-2.672875,-2.975609375,-3.8660625,-11.20311328125,-6.03547265625,-4.39235546875,-6.35877734375,-5.0601875,-6.914578125,-4.8613125,-7.26769140625,-7.76810546875,-5.2833125,-4.545078125,2.38753125,-5.5574609375,-5.747359375
0.87774609375,8.2745859375,-1.939515625,-0.2230859375,1.08137890625,1.59998828125,6.23514453125,-3.55241796875,-5.02251953125,0.5130625,0.23708984375,0.22408984375,-5.490453125,0.233124999999999,1.053390625,-0.2130625,-3.82611328125,-3.05547265625,-0.701355468749999,-2.21077734375,-1.7841875,-5.313578125,-1.6053125,-2.67369140625,-3.73210546875,-3.8903125,-1.271078125,5.11853125,-3.7104609375,-4.283359375
5.85474609375,11.2255859375,0.360484375,3.5319140625,1.57337890625,3.49698828125,8.21214453125,-0.30341796875,-2.56051953125,1.3370625,2.36208984375,1.22908984375,-0.0134531250000001,2.048125,3.259390625,1.7869375,3.61188671875,-0.30547265625,1.55964453125,0.39722265625,0.2938125,-3.337578125,0.8096875,0.707308593750001,-0.52510546875,-2.8543125,1.022921875,7.45353125,-2.2064609375,-3.127359375
8.06574609375,10.9695859375,1.585484375,6.3699140625,-0.29062109375,2.63398828125,7.23814453125,3.07258203125,-1.47051953125,-0.4449375,2.25308984375,0.30008984375,5.050546875,2.023125,2.792390625,1.7629375,9.05488671875,1.27652734375,1.76064453125,1.01422265625,0.9118125,-1.677578125,1.7526875,2.12930859375,1.33189453125,-2.3973125,1.958921875,8.90553125,-1.3714609375,-2.581359375
6.46674609375,7.6795859375,1.044484375,7.1349140625,-4.18262109375,-0.762011718750001,3.84514453125,5.32858203125,-2.35451953125,-4.6559375,0.04708984375,-2.03891015625,7.284546875,-0.0568750000000007,-0.335609375,-0.0110625,11.43088671875,1.04552734375,-0.21335546875,-0.27377734375,0.2378125,-1.032578125,0.9386875,1.36630859375,1.62989453125,-2.6273125,1.429921875,9.09053125,-1.4354609375,-2.882359375
1.37274609375,2.6535859375,-1.205515625,5.5229140625,-8.87362109375,-5.47501171875,-0.58385546875,5.73458203125,-4.97751953125,-10.2189375,-3.37891015625,-4.90291015625,5.720546875,-3.715875,-5.186609375,-2.7340625,10.92188671875,-1.04447265625,-3.85435546875,-2.85977734375,-1.2081875,-1.770578125,-1.4213125,-1.17969140625,0.56689453125,-3.4753125,-0.317078125,7.89853125,-2.3994609375,-4.031359375
-5.70325390625,-2.3104140625,-4.350515625,2.2369140625,-12.70562109375,-9.78201171875,-4.38885546875,4.51758203125,-8.28751953125,-15.4999375,-6.73391015625,-7.38891015625,1.165546875,-7.902875,-10.197609375,-5.3650625,8.64888671875,-4.36647265625,-8.12535546875,-5.78477734375,-2.7661875,-3.729578125,-4.6283125,-4.58369140625,-1.29010546875,-4.7243125,-2.693078125,5.61853125,-3.9594609375,-5.718359375
-12.69625390625,-5.6884140625,-7.191515625,-1.3410859375,-14.26762109375,-12.10501171875,-6.25985546875,2.64658203125,-10.86151953125,-18.8819375,-8.76591015625,-8.82091015625,-4.329453125,-11.327875,-13.731609375,-6.9560625,6.01988671875,-7.79547265625,-11.75535546875,-8.01577734375,-3.8571875,-6.263578125,-7.6743125,-7.67069140625,-3.16710546875,-6.0753125,-4.900078125,2.92653125,-5.5464609375,-7.403359375
-17.70525390625,-6.7394140625,-8.685515625,-3.7520859375,-12.98462109375,-11.59001171875,-5.64685546875,1.23558203125,-11.56451953125,-19.3389375,-8.67591015625,-8.85291015625,-8.404453125,-12.901875,-14.646609375,-6.9190625,4.03688671875,-10.09147265625,-13.62735546875,-8.74777734375,-4.1421875,-8.506578125,-9.5553125,-9.38469140625,-4.32210546875,-7.2063125,-6.178078125,0.66553125,-6.5084609375,-8.511359375
-19.43025390625,-5.5824140625,-8.362515625,-4.0330859375,-9.31562109375,-8.35901171875,-2.81085546875,1.05358203125,-10.04651953125,-16.7819375,-6.34891015625,-7.47191015625,-9.287453125,-12.117875,-12.656609375,-5.1630625,2.89188671875,-10.35547265625,-13.14735546875,-7.64977734375,-3.5841875,-9.736578125,-9.6313125,-9.12169140625,-4.29610546875,-7.8323125,-6.064078125,-0.50546875,-6.3924609375,-8.676359375
-17.38225390625,-2.8944140625,-6.440515625,-2.0090859375,-4.45562109375,-3.37201171875,1.45014453125,2.36658203125,-6.81851953125,-12.0009375,-2.31391015625,-4.92691015625,-6.370453125,-9.193875,-8.350609375,-2.0650625,2.05488671875,-8.37247265625,-10.42435546875,-4.94077734375,-2.3871875,-9.650578125,-7.8643125,-6.90869140625,-3.06110546875,-7.7543125,-4.546078125,-0.41646875,-5.1734609375,-7.875359375
-12.04425390625,0.5115859375,-3.605515625,1.7329140625,0.28437890625,2.04898828125,6.19914453125,4.98858203125,-2.91151953125,-6.2699375,2.52708984375,-1.61291015625,-0.361453125,-4.926875,-2.875609375,1.7279375,0.782886718749999,-4.67747265625,-6.18035546875,-1.24977734375,-0.8381875,-8.424578125,-4.8043125,-3.33069140625,-0.96510546875,-6.9183125,-2.005078125,0.56853125,-3.2724609375,-6.396359375
-4.87225390625,3.9895859375,-0.641515625,6.1529140625,4.02837890625,6.75698828125,10.66914453125,8.38558203125,0.614480468749999,-0.8459375,7.25008984375,2.02608984375,6.984546875,-0.348875,2.525390625,5.5409375,-1.26911328125,-0.309472656250001,-1.45235546875,2.66022265625,0.8398125,-6.556578125,-1.3163125,0.74430859375,1.47889453125,-5.4483125,0.989921875,1.78653125,-1.3204609375,-4.662359375
2.13274609375,7.0895859375,1.868484375,10.1719140625,6.50237890625,10.08998828125,14.35714453125,11.78358203125,3.06048046875,3.4000625,11.13408984375,5.53708984375,13.442546875,3.617125,6.900390625,8.8129375,-3.73911328125,3.61452734375,2.77064453125,6.13422265625,2.5238125,-4.587578125,1.7786875,4.48830859375,3.82289453125,-3.6373125,3.904921875,2.65553125,0.1515390625,-3.037359375
7.16774609375,9.4485859375,3.654484375,13.0199140625,7.83237890625,11.88098828125,16.95414453125,14.31558203125,4.20448046875,6.0820625,13.73408984375,8.45008984375,17.010546875,6.372125,9.752390625,11.1359375,-5.72811328125,6.28952734375,5.80064453125,8.74222265625,4.1058125,-2.875578125,3.9706875,7.32430859375,5.79589453125,-1.8653125,6.355921875,2.94353125,0.9235390625,-1.736359375
9.23774609375,10.7355859375,4.685484375,14.3729140625,8.23937890625,12.29098828125,18.24014453125,15.17358203125,4.19048046875,7.2240625,14.85908984375,10.31708984375,16.496546875,7.724125,11.024390625,12.2429375,-6.30611328125,7.41552734375,7.36864453125,10.28222265625,5.4158125,-1.531578125,5.1376875,8.99930859375,7.28189453125,-0.5013125,8.100921875,2.80853125,1.0845390625,-0.858359374999999
8.31674609375,10.7825859375,5.063484375,14.3159140625,7.89037890625,11.66298828125,18.09714453125,13.82358203125,3.34548046875,7.1250625,14.56208984375,10.82108984375,11.902546875,7.861125,10.988390625,12.0489375,-4.99811328125,7.17052734375,7.61564453125,10.74422265625,6.2318125,-0.516578125000001,5.4606875,9.54230859375,8.22589453125,0.2156875,8.994921875,2.61153125,0.8825390625,-0.435359374999999
5.16874609375,9.7565859375,4.956484375,13.2299140625,6.96037890625,10.45398828125,16.62714453125,10.29558203125,2.07448046875,6.2410625,13.15808984375,9.92108984375,4.512546875,7.236125,10.119390625,10.6959375,-1.99311328125,6.04152734375,6.97464453125,10.26822265625,6.3798125,0.221421875000001,5.2546875,9.15830859375,8.56889453125,0.2356875,8.962921875,2.64953125,0.5445390625,-0.455359375
1.06074609375,8.1855859375,4.586484375,11.6849140625,5.75837890625,9.19798828125,14.26514453125,5.39958203125,0.839480468749999,5.1020625,11.19708984375,7.93108984375,-3.381453125,6.397125,8.970390625,8.5519375,1.97688671875,4.60952734375,6.00564453125,9.09522265625,5.8288125,0.676421875000001,4.8046875,8.13130859375,8.22789453125,-0.3363125,8.021921875,2.97153125,0.1565390625,-0.849359375
-2.62425390625,6.7335859375,4.209484375,10.2869140625,4.74037890625,8.40898828125,11.69714453125,0.571582031250001,0.0824804687499991,4.2190625,9.34008984375,5.45708984375,-9.208453125,5.806125,8.034390625,6.1299375,5.90488671875,3.38752734375,5.21064453125,7.51122265625,4.7068125,0.816421875,4.2866875,6.73330859375,7.12389453125,-1.3293125,6.314921875,3.35753125,-0.3204609375,-1.504359375
-4.86325390625,5.8325859375,4.031484375,9.4589140625,4.32837890625,8.37398828125,9.58114453125,-2.72541796875,0.0454804687500001,3.9290625,8.12108984375,3.19508984375,-11.137453125,5.695125,7.597390625,3.9209375,8.79688671875,2.69452734375,4.87664453125,5.78222265625,3.2338125,0.643421875,3.7666875,5.18130859375,5.24089453125,-2.6153125,4.107921875,3.45653125,-0.9684609375,-2.296359375
-5.35825390625,5.4455859375,4.093484375,9.2579140625,4.64437890625,8.95598828125,8.20814453125,-3.69241796875,0.60048046875,4.2480625,7.69808984375,1.64808984375,-8.975453125,5.990125,7.621390625,2.2189375,9.88588671875,2.59252734375,4.98164453125,4.08122265625,1.6028125,0.216421875,3.2336875,3.60330859375,2.66289453125,-4.1373125,1.737921875,2.96853125,-1.8184609375,-3.151359375
-4.55225390625,5.1275859375,4.203484375,9.3689140625,5.35137890625,9.57298828125,7.38414453125,-2.52341796875,1.28748046875,4.8320625,7.75908984375,0.91908984375,-4.323453125,6.348125,7.744390625,1.0129375,8.81088671875,2.87852734375,5.21064453125,2.45522265625,-0.0811875,-0.401578125,2.6136875,2.04030859375,-0.40710546875,-5.8613125,-0.474078125,1.78753125,-2.8304609375,-4.059359375
-3.33525390625,4.3405859375,4.005484375,9.3119140625,5.77937890625,9.44998828125,6.59114453125,-0.21041796875,1.57248046875,5.1310625,7.68908984375,0.71208984375,0.265546875,6.315125,7.430390625,0.0579375,5.71188671875,3.18652734375,5.10264453125,0.84822265625,-1.7901875,-1.190578125,1.8046875,0.47130859375,-3.65710546875,-7.6863125,-2.288078125,0.05553125,-3.9164609375,-5.047359375
-2.66925390625,2.7805859375,3.184484375,8.7369140625,5.28937890625,8.03898828125,5.31314453125,1.96458203125,1.16448046875,4.6740625,6.91208984375,0.55808984375,2.679546875,5.566125,6.240390625,-0.9270625,1.20588671875,3.14852734375,4.28764453125,-0.80677734375,-3.4631875,-2.188578125,0.7376875,-1.10969140625,-6.68310546875,-9.3513125,-3.568078125,-1.87846875,-4.9684609375,-6.112359375
-3.22625390625,0.5675859375,1.656484375,7.5889140625,3.66437890625,5.35398828125,3.35914453125,2.98258203125,0.16048046875,3.3130625,5.21208984375,0.13208984375,2.296546875,4.064125,4.074390625,-2.0340625,-3.76811328125,2.54952734375,2.68064453125,-2.48977734375,-4.9171875,-3.439578125,-0.5693125,-2.63369140625,-9.04510546875,-10.4503125,-4.288078125,-3.57946875,-5.8794609375,-7.173359375
-5.07125390625,-1.7674140625,-0.369515625,6.0749140625,1.26837890625,2.03298828125,1.00914453125,2.45158203125,-1.05151953125,1.3070625,2.86708984375,-0.54191015625,0.037546875,2.061125,1.256390625,-3.0920625,-8.15211328125,1.39652734375,0.519644531250001,-4.03177734375,-5.8371875,-4.918578125,-2.0033125,-3.94569140625,-10.35510546875,-10.5613125,-4.505078125,-4.70646875,-6.5624609375,-8.069359375
-7.58125390625,-3.4684140625,-2.461515625,4.4789140625,-1.12162109375,-0.928011718750001,-1.07785546875,0.672582031250001,-2.05651953125,-0.7929375,0.53508984375,-1.12891015625,-2.466453125,-0.0388750000000009,-1.571609375,-3.7540625,-10.91111328125,-0.13047265625,-1.72835546875,-5.14377734375,-5.8841875,-6.481578125,-3.3833125,-4.84569140625,-10.35610546875,-9.4543125,-4.325078125,-5.14546875,-6.9754609375,-8.597359375
-9.73825390625,-3.8664140625,-4.100515625,2.9949140625,-2.71662109375,-2.62601171875,-2.18085546875,-1.57641796875,-2.62651953125,-2.3789375,-1.03791015625,-1.20091015625,-3.953453125,-1.828875,-3.681609375,-3.6680625,-11.17911328125,-1.74947265625,-3.52535546875,-5.48577734375,-4.8331875,-7.850578125,-4.4833125,-5.13469140625,-8.95910546875,-7.2253125,-3.821078125,-5.00646875,-7.0964609375,-8.545359375
-10.67825390625,-2.6894140625,-4.816515625,1.6969140625,-3.09062109375,-2.63801171875,-1.87485546875,-3.38241796875,-2.75851953125,-3.0099375,-1.31391015625,-0.48791015625,-4.176453125,-2.969875,-4.512609375,-2.6440625,-8.48011328125,-3.13747265625,-4.40835546875,-4.77377734375,-2.6891875,-8.660578125,-5.0293125,-4.64569140625,-6.23210546875,-4.2693125,-2.966078125,-4.48946875,-6.8564609375,-7.728359375
-10.10225390625,-0.2584140625,-4.325515625,0.5919140625,-2.34562109375,-1.17401171875,-0.21785546875,-3.99941796875,-2.53251953125,-2.5469375,-0.15891015625,1.00108984375,-3.792453125,-3.220875,-3.862609375,-0.7370625,-3.04611328125,-3.95447265625,-4.09335546875,-2.88777734375,0.2838125,-8.538578125,-4.7423125,-3.28069140625,-2.37810546875,-1.1343125,-1.629078125,-3.69846875,-6.1064609375,-6.043359375
-8.32825390625,2.5725859375,-2.642515625,-0.3150859375,-0.96562109375,1.08098828125,2.30814453125,-3.04741796875,-1.96651953125,-1.1409375,2.13708984375,3.01408984375,-3.650453125,-2.455875,-1.943609375,1.7609375,3.98588671875,-3.89147265625,-2.54335546875,0.0462226562499999,3.5998125,-7.221578125,-3.4313125,-1.07169140625,2.24089453125,1.6506875,0.329921875,-2.57646875,-4.6714609375,-3.532359375
-6.04625390625,4.7525859375,-0.119515625,-1.0320859375,0.493378906249999,3.32998828125,5.02714453125,-0.609417968749999,-1.02451953125,0.8660625,5.00908984375,5.16908984375,-3.989453125,-0.722875,0.704390625,4.4209375,10.78388671875,-2.76147265625,0.00664453125000009,3.64022265625,6.6858125,-4.686578125,-1.1153125,1.77530859375,7.10689453125,3.7066875,2.921921875,-1.00546875,-2.4824609375,-0.433359374999999
-3.95225390625,5.5215859375,2.645484375,-1.5930859375,1.67937890625,5.00598828125,7.33114453125,2.80458203125,0.252480468749999,3.0640625,7.83108984375,7.09208984375,-4.185453125,1.709125,3.417390625,6.8199375,15.47488671875,-0.61547265625,3.10464453125,7.33022265625,9.0468125,-1.218578125,1.9086875,4.89130859375,11.60189453125,4.8846875,5.945921875,1.00253125,0.2885390625,2.833640625
-2.38325390625,4.8185859375,4.984484375,-2.0200859375,2.52137890625,5.93498828125,8.89214453125,6.43558203125,1.65848046875,5.0590625,10.12108984375,8.51108984375,-3.321453125,4.347125,5.625390625,8.6559375,16.91488671875,2.18852734375,6.18164453125,10.52722265625,10.4138125,2.602421875,5.1016875,7.82630859375,15.15389453125,5.2796875,9.029921875,3.19053125,3.2135390625,5.770640625
-1.15525390625,3.3395859375,6.381484375,-2.2600859375,3.12937890625,6.28898828125,9.77214453125,9.50558203125,2.88648046875,6.5410625,11.65208984375,9.31108984375,-1.120453125,6.585125,7.014390625,9.8129375,15.14488671875,5.05252734375,8.70264453125,12.80122265625,10.8038125,6.059421875,7.8356875,10.19230859375,17.40089453125,5.1706875,11.787921875,5.14453125,5.7545390625,7.983640625
0.22874609375,2.2045859375,6.672484375,-2.1860859375,3.63437890625,6.40998828125,10.35014453125,11.41058203125,3.68848046875,7.3450625,12.47308984375,9.55708984375,1.630546875,7.918125,7.606390625,10.3639375,11.31888671875,7.36652734375,10.33764453125,14.01322265625,10.5088125,8.540421875,9.6426875,11.80830859375,18.30689453125,4.9346875,13.987921875,6.52353125,7.5275390625,9.353640625
2.12574609375,2.4095859375,6.146484375,-1.6970859375,4.08837890625,6.61598828125,11.05614453125,11.83358203125,3.98448046875,7.4880625,12.81208984375,9.44808984375,3.576546875,8.147125,7.700390625,10.5249375,7.19688671875,8.74452734375,11.04564453125,14.33622265625,9.9818125,9.755421875,10.3896875,12.74230859375,18.14689453125,4.9486875,15.613921875,7.26153125,8.4935390625,10.083640625
4.46074609375,4.3455859375,5.432484375,-0.8230859375,4.44237890625,7.05098828125,12.04514453125,10.83358203125,3.86948046875,7.1430625,12.90908984375,9.17908984375,3.805546875,7.430125,7.704390625,10.5249375,4.43488671875,9.14852734375,11.02464453125,14.10522265625,9.6538125,9.799421875,10.2746875,13.20930859375,17.34289453125,5.4746875,16.772921875,7.55653125,8.9205390625,10.528640625
6.81074609375,7.6035859375,5.190484375,0.2799140625,4.59137890625,7.61998828125,13.05214453125,8.87458203125,3.53248046875,6.5390625,12.84508984375,8.80608984375,2.547546875,6.145125,7.905390625,10.4469375,3.92288671875,8.80852734375,10.53664453125,13.59922265625,9.7088125,9.031421875,9.6416875,13.36930859375,16.23489453125,6.5156875,17.512921875,7.65953125,9.1275390625,10.924640625
8.69974609375,11.1215859375,5.759484375,1.4469140625,4.45137890625,8.05898828125,13.52714453125,6.68258203125,3.18648046875,5.8670625,12.50608984375,8.22608984375,1.040546875,4.692125,8.335390625,10.1659375,5.47688671875,8.04152734375,9.74264453125,12.88222265625,9.9708125,7.871421875,8.7596875,13.17930859375,14.92189453125,7.7316875,17.717921875,7.65053125,9.2155390625,11.186640625
9.78674609375,13.6255859375,7.009484375,2.6079140625,4.04537890625,8.10198828125,12.99014453125,4.91958203125,3.02148046875,5.2310625,11.71008984375,7.30408984375,0.722546875,3.371125,8.790390625,9.4529375,8.04088671875,7.10752734375,8.68864453125,11.83522265625,10.0018125,6.647421875,7.7486875,12.44330859375,13.28689453125,8.4966875,17.169921875,7.40053125,8.9985390625,10.956640625
9.90774609375,14.1765859375,8.432484375,3.7789140625,3.50137890625,7.64798828125,11.35214453125,3.90358203125,3.17448046875,4.6680625,10.39008984375,6.04108984375,2.356546875,2.367125,8.983390625,8.1669375,10.28088671875,6.17052734375,7.39764453125,10.32122265625,9.3598125,5.564421875,6.6506875,10.99330859375,11.17889453125,8.1686875,15.729921875,6.72953125,8.1855390625,9.877640625
9.08274609375,12.5895859375,9.411484375,4.9579140625,2.97637890625,6.80498828125,9.01114453125,3.58458203125,3.70748046875,4.1850625,8.70208984375,4.63108984375,5.605546875,1.771125,8.694390625,6.3959375,11.19588671875,5.33552734375,5.95864453125,8.34222265625,7.8758125,4.720421875,5.5296875,8.86830859375,8.59089453125,6.4276875,13.498921875,5.60553125,6.6355390625,7.899640625
7.47774609375,9.4665859375,9.486484375,6.0319140625,2.55237890625,5.80298828125,6.65014453125,3.73258203125,4.57848046875,3.7730625,6.96408984375,3.37308984375,9.226546875,1.589125,7.848390625,4.4399375,10.41788671875,4.67952734375,4.53364453125,6.07522265625,5.7548125,4.106421875,4.5016875,6.35130859375,5.73289453125,3.4976875,10.829921875,4.21053125,4.5085390625,5.395640625
5.29374609375,5.8515859375,8.509484375,6.7479140625,2.21437890625,4.83798828125,4.87014453125,4.12858203125,5.63648046875,3.4150625,5.48308984375,2.51608984375,11.633546875,1.743125,6.506390625,2.6759375,8.11088671875,4.23452734375,3.29164453125,3.80322265625,3.4948125,3.591421875,3.6726875,3.85930859375,2.96389453125,0.0976874999999999,8.198921875,2.83053125,2.2145390625,2.994640625
2.68674609375,2.7445859375,6.656484375,6.7909140625,1.93137890625,3.99298828125,3.92914453125,4.60958203125,6.67648046875,3.0930625,4.41908984375,2.16308984375,11.519546875,2.108125,4.845390625,1.4109375,4.70288671875,3.97052734375,2.35164453125,1.81122265625,1.6508125,2.989421875,3.1026875,1.79030859375,0.65689453125,-2.8553125,6.027921875,1.69853125,0.2415390625,1.271640625
-0.0822539062500001,0.7965859375,4.331484375,5.9299140625,1.78437890625,3.28098828125,3.75314453125,5.07558203125,7.54448046875,2.8350625,3.78108984375,2.29808984375,8.327546875,2.585125,3.140390625,0.8129375,0.70788671875,3.81652734375,1.78764453125,0.33322265625,0.6138125,2.199421875,2.8046875,0.41430859375,-0.90110546875,-4.6163125,4.573921875,0.91453125,-1.0324609375,0.514640625000001
-2.41425390625,0.2555859375,2.040484375,4.1749140625,2.00937890625,2.75998828125,4.14714453125,5.50658203125,8.22248046875,2.7540625,3.52608984375,2.88108984375,2.518546875,3.157125,1.753390625,0.9279375,-3.22211328125,3.73152734375,1.66964453125,-0.44777734375,0.5028125,1.328421875,2.7986875,-0.14269140625,-1.54610546875,-4.8543125,3.912921875,0.46153125,-1.4484609375,0.672640625000001
-3.42625390625,1.0545859375,0.300484375,1.8489140625,2.88537890625,2.57198828125,4.95414453125,5.92558203125,8.80748046875,3.0170625,3.65608984375,3.88008984375,-4.422453125,3.891125,1.058390625,1.7209375,-6.17911328125,3.75552734375,2.08464453125,-0.39577734375,1.2078125,0.683421875000001,3.1456875,0.13930859375,-1.21110546875,-3.6773125,3.990921875,0.28753125,-1.0734609375,1.489640625
-2.40725390625,2.8665859375,-0.430515625,-0.4830859375,4.51237890625,2.83498828125,6.01314453125,6.27058203125,9.38748046875,3.7330625,4.18408984375,5.19208984375,-10.363453125,4.869125,1.317390625,3.0779375,-7.08011328125,4.00452734375,3.10364453125,0.54422265625,2.5098125,0.614421875,3.9296875,1.21130859375,0.0958945312499999,-1.4723125,4.686921875,0.37453125,-0.1094609375,2.686640625
0.68774609375,5.1445859375,0.150484375,-2.1770859375,6.65137890625,3.48798828125,7.04414453125,6.35658203125,9.93148046875,4.8420625,5.03508984375,6.54608984375,-13.352453125,6.082125,2.537390625,4.7659375,-5.09711328125,4.58152734375,4.69964453125,2.28322265625,4.1618125,1.309421875,5.1726875,2.95430859375,2.27389453125,1.2956875,5.836921875,0.75653125,1.2225390625,4.089640625
5.10974609375,7.2605859375,2.042484375,-2.6970859375,8.77037890625,4.26398828125,7.67414453125,6.01058203125,10.29648046875,6.1090625,6.00408984375,7.54708984375,-12.605453125,7.373125,4.432390625,6.4269375,-0.21411328125,5.48252734375,6.67964453125,4.55622265625,5.9248125,2.687421875,6.7506875,5.15830859375,5.08289453125,4.1936875,7.252921875,1.48953125,2.7525390625,5.622640625
9.61074609375,8.7915859375,4.821484375,-1.7970859375,10.29937890625,4.86498828125,7.63914453125,5.27058203125,10.34548046875,7.2470625,6.85708984375,7.89208984375,-8.974453125,8.499125,6.531390625,7.6949375,6.49988671875,6.57352734375,8.70964453125,6.97522265625,7.5838125,4.427421875,8.3886875,7.53330859375,8.14489453125,6.8416875,8.729921875,2.58053125,4.3365390625,7.216640625
12.96974609375,9.7785859375,7.723484375,0.3429140625,10.89637890625,5.17998828125,6.99514453125,4.44158203125,10.06548046875,8.0660625,7.49008984375,7.59708984375,-4.387453125,9.267125,8.377390625,8.3789375,13.18288671875,7.66252734375,10.43964453125,9.17122265625,8.9848125,6.125421875,9.7736875,9.78730859375,11.02289453125,8.8956875,10.091921875,3.93853125,5.8195390625,8.710640625
14.46774609375,10.6815859375,9.941484375,3.1259140625,10.55137890625,5.33198828125,6.12814453125,3.96758203125,9.60248046875,8.5330625,7.99608984375,7.03808984375,-0.522453125,9.637125,9.697390625,8.5799375,17.89388671875,8.63452734375,11.64364453125,10.93022265625,10.0768125,7.476421875,10.7146875,11.72030859375,13.37189453125,10.0916875,11.260921875,5.38953125,7.0395390625,9.896640625
14.12974609375,12.0015859375,11.020484375,5.7299140625,9.49737890625,5.52898828125,5.53814453125,4.23458203125,9.20448046875,8.7230625,8.57008984375,6.74408984375,2.219546875,9.717125,10.463390625,8.6289375,19.34788671875,9.52152734375,12.30664453125,12.24422265625,10.9008125,8.390421875,11.2366875,13.27030859375,15.06089453125,10.3606875,12.309921875,6.75153125,7.8935390625,10.678640625
12.56174609375,13.8125859375,11.063484375,7.4319140625,8.06337890625,5.85598828125,5.53914453125,5.35058203125,9.10748046875,8.7300625,9.33908984375,7.08208984375,4.601546875,9.676125,10.833390625,8.8879375,17.32988671875,10.44952734375,12.59864453125,13.25422265625,11.5518125,8.966421875,11.5436875,14.50030859375,16.18489453125,9.9136875,13.433921875,7.90053125,8.3985390625,11.196640625
10.49874609375,15.6115859375,10.612484375,7.8789140625,6.58637890625,6.22998828125,6.09314453125,7.00658203125,9.39848046875,8.6420625,10.26508984375,8.05608984375,7.430546875,9.666125,11.046390625,9.5499375,12.69488671875,11.50952734375,12.78464453125,14.12722265625,12.0978125,9.363421875,11.8806875,15.52630859375,16.95789453125,9.1976875,14.816921875,8.77053125,8.6635390625,11.764640625
8.46774609375,16.6135859375,10.284484375,7.2109140625,5.41037890625,6.52398828125,6.88514453125,8.52958203125,9.98848046875,8.5630625,11.18408984375,9.31808984375,10.457546875,9.816125,11.324390625,10.5479375,7.04288671875,12.66652734375,13.11764453125,14.95122265625,12.5298125,9.668421875,12.3946875,16.43130859375,17.54689453125,8.7046875,16.466921875,9.31953125,8.7885390625,12.632640625
6.81574609375,16.3095859375,10.409484375,6.0129140625,4.88137890625,6.73298828125,7.57514453125,9.21258203125,10.71648046875,8.6560625,11.91908984375,10.36908984375,12.297546875,10.238125,11.794390625,11.5949375,2.17388671875,13.79652734375,13.73464453125,15.68822265625,12.7408125,9.867421875,13.0636875,17.21830859375,17.97189453125,8.7496875,18.151921875,9.52653125,8.7795390625,13.774640625
5.94574609375,14.8515859375,10.909484375,5.1119140625,5.27237890625,7.00598828125,8.01114453125,8.70958203125,11.50348046875,9.1150625,12.38008984375,10.83208984375,11.461546875,11.018125,12.459390625,12.3369375,-0.50511328125,14.78452734375,14.61864453125,16.20422265625,12.5918125,9.931421875,13.7466875,17.80330859375,18.12589453125,9.3646875,19.496921875,9.45453125,8.5675390625,14.882640625
6.32974609375,13.0285859375,11.453484375,5.2509140625,6.63937890625,7.52298828125,8.23614453125,7.20758203125,12.37748046875,10.0600625,12.57908984375,10.63008984375,7.646546875,12.153125,13.200390625,12.5349375,-0.36911328125,15.58952734375,15.60064453125,16.35922265625,12.0158125,9.911421875,14.2856875,18.06930859375,17.89489453125,10.3386875,20.179921875,9.29453125,8.1205390625,15.568640625
8.20574609375,11.8415859375,11.731484375,6.7429140625,8.69537890625,8.28998828125,8.29214453125,5.27858203125,13.33648046875,11.3870625,12.54308984375,9.95808984375,2.275546875,13.462125,13.805390625,12.1409375,2.36788671875,16.20152734375,16.40864453125,16.07222265625,11.1058125,9.934421875,14.5756875,17.90930859375,17.26289453125,11.3486875,20.070921875,9.29453125,7.5385390625,15.604640625
11.20974609375,11.9375859375,11.621484375,9.2349140625,10.79137890625,8.99998828125,8.01914453125,3.58958203125,14.15948046875,12.6760625,12.18908984375,9.07108984375,-2.147453125,14.526125,13.990390625,11.2299375,6.82588671875,16.52352734375,16.69364453125,15.31322265625,10.0528125,10.083421875,14.5296875,17.22030859375,16.29789453125,12.0746875,19.224921875,9.59653125,7.0065390625,15.011640625
14.28374609375,13.1845859375,11.159484375,11.7349140625,12.05337890625,9.08698828125,7.02014453125,2.63958203125,14.34548046875,13.2550625,11.27708984375,8.05608984375,-3.494453125,14.730125,13.430390625,9.8579375,11.63588671875,16.29952734375,16.07164453125,14.03022265625,9.0028125,10.260421875,13.9906875,15.86830859375,15.04489453125,12.2576875,17.763921875,10.09353125,6.6565390625,13.976640625
16.01774609375,14.6515859375,10.403484375,12.9439140625,11.69637890625,7.99098828125,4.89814453125,2.60258203125,13.27448046875,12.4540625,9.53008984375,6.77908984375,-1.366453125,13.473125,11.857390625,8.0049375,15.18488671875,15.17252734375,14.23264453125,12.12922265625,7.9398125,10.159421875,12.7176875,13.70830859375,13.44689453125,11.7506875,15.757921875,10.45753125,6.4475390625,12.703640625
15.31974609375,15.0905859375,9.345484375,11.8289140625,9.41937890625,5.51798828125,1.61114453125,3.27358203125,10.55048046875,9.9610625,6.87008984375,5.09008984375,2.619546875,10.496125,9.218390625,5.6769375,16.07288671875,12.89352734375,11.12464453125,9.55622265625,6.7168125,9.428421875,10.5166875,10.70930859375,11.39789453125,10.5846875,13.231921875,10.33053125,6.1925390625,11.333640625
12.08474609375,13.6865859375,7.967484375,8.1849140625,5.67437890625,2.08198828125,-2.27885546875,4.15758203125,6.35448046875,6.0900625,3.61308984375,3.06108984375,5.893546875,6.141125,5.807390625,3.0339375,13.71988671875,9.56652734375,7.08664453125,6.41822265625,5.1978125,7.915421875,7.4446875,7.07130859375,8.88289453125,8.9876875,10.252921875,9.55553125,5.6955390625,9.964640625
7.39174609375,10.5765859375,6.361484375,2.8489140625,1.59137890625,-1.39101171875,-5.72385546875,4.69758203125,1.55348046875,1.7660625,0.42608984375,1.05108984375,6.664546875,1.335125,2.235390625,0.4079375,8.72288671875,5.77152734375,2.81064453125,3.03322265625,3.3628125,5.841421875,3.9136875,3.22230859375,6.05389453125,7.2956875,7.022921875,8.28753125,4.8875390625,8.691640625
2.92574609375,6.7585859375,4.796484375,-2.6020859375,-1.48762109375,-3.86801171875,-7.69885546875,4.50658203125,-2.57851953125,-1.8229375,-1.95691015625,-0.49791015625,5.019546875,-2.743875,-0.781609375,-1.8380625,2.64388671875,2.41852734375,-0.89735546875,-0.16277734375,1.3298125,3.769421875,0.5966875,-0.32569140625,3.18289453125,5.7956875,3.884921875,6.93853125,3.8785390625,7.622640625
-0.0372539062499997,3.4785859375,3.652484375,-6.5610859375,-2.65062109375,-4.72301171875,-7.79885546875,3.45558203125,-4.93851953125,-3.7389375,-3.09891015625,-1.36691015625,2.597546875,-5.141875,-2.717609375,-3.4750625,-2.68611328125,0.38252734375,-3.41735546875,-2.78677734375,-0.7011875,2.370421875,-1.8093125,-3.16069140625,0.54189453125,4.5926875,1.234921875,6.00853125,2.9145390625,6.864640625
-1.30825390625,1.5595859375,3.224484375,-8.0850859375,-1.85162109375,-4.02801171875,-6.50185546875,1.62858203125,-5.07751953125,-3.7029375,-3.05691015625,-1.71691015625,1.172546875,-5.501875,-3.432609375,-4.4910625,-5.98111328125,0.11052734375,-4.53135546875,-4.63577734375,-2.5131875,2.134421875,-2.8563125,-5.07269140625,-1.68610546875,3.6146875,-0.603078125,5.89653125,2.2835390625,6.506640625
-1.61825390625,1.1225859375,3.535484375,-7.2240859375,0.121378906249999,-2.45501171875,-4.85985546875,-0.72541796875,-3.33151953125,-2.1639375,-2.30891015625,-1.97091015625,1.329546875,-4.140875,-3.167609375,-5.0340625,-6.98011328125,1.43352734375,-4.42335546875,-5.70577734375,-3.9251875,3.143421875,-2.4993125,-6.04669140625,-3.40710546875,2.7156875,-1.468078125,6.73553125,2.1865390625,6.575640625
-1.89825390625,1.7445859375,4.266484375,-4.8770859375,2.08237890625,-0.87301171875,-3.85485546875,-3.21741796875,-0.57951953125,-0.0279375000000002,-1.45091015625,-2.48791015625,2.180546875,-1.847875,-2.379609375,-5.2670625,-6.37711328125,3.67052734375,-3.53035546875,-6.11777734375,-4.8031875,5.035421875,-1.0793125,-6.18369140625,-4.55610546875,1.8036875,-1.394078125,8.31453125,2.6165390625,6.979640625
-2.64025390625,2.7945859375,4.875484375,-2.3250859375,3.00137890625,0.0709882812499991,-3.89585546875,-5.38041796875,2.14048046875,1.7680625,-0.89591015625,-3.29391015625,2.209546875,0.480124999999999,-1.526609375,-5.2580625,-5.28411328125,5.94452734375,-2.32035546875,-6.01377734375,-5.0751875,7.156421875,0.8476875,-5.63069140625,-5.06610546875,0.8926875,-0.580078125,10.10953125,3.3425390625,7.474640625
-3.70525390625,3.7065859375,4.852484375,-0.646085937500001,2.39537890625,0.163988281249999,-4.75385546875,-6.77541796875,3.97648046875,2.6070625,-0.74191015625,-4.05191015625,0.498546875,2.158125,-0.926609375,-4.9700625,-4.62411328125,7.52552734375,-1.14435546875,-5.50577734375,-4.7451875,8.855421875,2.7156875,-4.55069140625,-4.87310546875,0.0526874999999998,0.675921875,11.44853125,3.9995390625,7.729640625
-4.51325390625,4.1465859375,3.968484375,-0.2900859375,0.45237890625,-0.408011718750001,-5.83085546875,-7.07941796875,4.49648046875,2.3660625,-0.82991015625,-4.29291015625,-2.576453125,2.883125,-0.695609375,-4.3430625,-4.77111328125,8.07452734375,-0.18235546875,-4.66577734375,-3.9151875,9.747421875,4.1116875,-3.12069140625,-3.99010546875,-0.6403125,2.074921875,11.76253125,4.2615390625,7.476640625
-4.42225390625,4.0945859375,2.408484375,-0.9900859375,-2.08362109375,-1.22701171875,-6.49485546875,-6.14941796875,3.77248046875,1.3940625,-0.89291015625,-3.70691015625,-5.651453125,2.743125,-0.756609375,-3.3710625,-5.52011328125,7.68552734375,0.53364453125,-3.55377734375,-2.7701875,9.827421875,4.8546875,-1.52069140625,-2.54010546875,-1.1143125,3.394921875,10.81453125,3.9785390625,6.654640625
-3.13725390625,3.8185859375,0.708484375,-2.0600859375,-4.19362109375,-1.80601171875,-6.29485546875,-4.09041796875,2.29848046875,0.3440625,-0.67291015625,-2.29891015625,-7.382453125,2.106125,-0.871609375,-2.1170625,-6.26111328125,6.74552734375,1.06964453125,-2.22877734375,-1.5121875,9.349421875,4.9826875,0.0903085937500006,-0.75610546875,-1.2653125,4.536921875,8.78453125,3.2245390625,5.434640625
-0.88325390625,3.6995859375,-0.496515625,-2.8510859375,-4.96262109375,-1.71801171875,-5.04785546875,-1.28041796875,0.775480468749999,-0.0899374999999996,0.0100898437500001,-0.35291015625,-7.335453125,1.450125,-0.721609375,-0.6750625,-6.24411328125,5.70352734375,1.54564453125,-0.75877734375,-0.2871875,8.589421875,4.6846875,1.59730859375,1.08489453125,-0.9673125,5.482921875,6.18053125,2.2065390625,4.114640625
1.81374609375,3.9935859375,-0.780515625,-3.0510859375,-3.93862109375,-0.70701171875,-2.83785546875,1.71158203125,-0.158519531250001,0.5540625,1.22108984375,1.73408984375,-6.083453125,1.172125,-0.0346093749999996,0.8499375,-4.90111328125,4.87552734375,2.07764453125,0.77222265625,0.8348125,7.673421875,4.1876875,2.92230859375,2.72589453125,-0.1733125,6.221921875,3.61853125,1.1365390625,2.961640625
4.48774609375,4.6875859375,-0.103515625,-2.6750859375,-1.33662109375,1.19398828125,0.00514453124999986,4.27258203125,-0.144519531250001,2.3130625,2.85908984375,3.62408984375,-4.525453125,1.437125,1.272390625,2.3249375,-2.12911328125,4.36452734375,2.72364453125,2.25322265625,1.8238125,6.562421875,3.6656875,4.00530859375,3.97189453125,0.9906875,6.702921875,1.61253125,0.1385390625,2.126640625
6.87474609375,5.5815859375,1.216484375,-1.8640859375,2.02437890625,3.60398828125,2.93314453125,5.86758203125,0.771480468749999,4.7810625,4.64008984375,5.11708984375,-3.060453125,2.134125,3.022390625,3.5939375,1.61888671875,4.11352734375,3.45464453125,3.55622265625,2.6558125,5.199421875,3.2136875,4.80830859375,4.73689453125,2.2296875,6.868921875,0.44453125,-0.7364609375,1.659640625
8.75474609375,6.4965859375,2.717484375,-0.7360859375,5.05437890625,5.86198828125,5.26014453125,6.14058203125,2.15548046875,7.2620625,6.13808984375,6.14008984375,-1.329453125,2.975125,4.826390625,4.5149375,5.48788671875,4.01552734375,4.17864453125,4.58022265625,3.3228125,3.672421875,2.8866875,5.34530859375,5.07289453125,3.2026875,6.740921875,0.14153125,-1.4324609375,1.575640625
9.82574609375,7.4035859375,4.007484375,0.6179140625,6.82637890625,7.24098828125,6.33714453125,5.03258203125,3.38448046875,9.0360625,6.91608984375,6.66308984375,1.289546875,3.652125,6.241390625,4.9969375,8.55188671875,3.99852734375,4.79164453125,5.28822265625,3.8248125,2.266421875,2.7346875,5.68530859375,5.14089453125,3.6696875,6.458921875,0.52153125,-1.8504609375,1.889640625
9.80574609375,8.3575859375,4.889484375,2.0239140625,6.90437890625,7.22098828125,5.81714453125,2.88258203125,3.94848046875,9.6170625,6.68608984375,6.65308984375,4.879546875,3.960125,6.932390625,5.0159375,10.14188671875,4.03852734375,5.20664453125,5.69422265625,4.1368125,1.356421875,2.7806875,5.90230859375,5.11889453125,3.5746875,6.231921875,1.27353125,-1.8984609375,2.587640625
8.60374609375,9.2945859375,5.356484375,3.1759140625,5.44137890625,5.70098828125,3.84314453125,0.357582031250001,3.68248046875,8.9060625,5.43608984375,6.08108984375,8.620546875,3.838125,6.782390625,4.5939375,10.02488671875,4.11452734375,5.36964453125,5.81722265625,4.1808125,1.202421875,2.9726875,6.00130859375,5.09089453125,3.0446875,6.189921875,2.04353125,-1.5814609375,3.561640625
6.33274609375,9.9095859375,5.497484375,3.7039140625,3.02037890625,3.05298828125,1.01514453125,-1.83641796875,2.76948046875,7.1790625,3.44908984375,4.98308984375,11.174546875,3.331125,5.888390625,3.8029375,8.39188671875,4.15652734375,5.25364453125,5.63122265625,3.8558125,1.780421875,3.1616875,5.89230859375,4.99889453125,2.3016875,6.278921875,2.51553125,-1.0574609375,4.572640625
3.27274609375,9.7455859375,5.362484375,3.3069140625,0.357378906249999,-0.0330117187500001,-1.87485546875,-3.28741796875,1.52448046875,4.9030625,1.17508984375,3.47008984375,11.435546875,2.510125,4.450390625,2.7359375,5.66088671875,4.00852734375,4.81664453125,5.04122265625,3.1098125,2.748421875,3.1226875,5.40930859375,4.69189453125,1.5466875,6.258921875,2.48553125,-0.5894609375,5.300640625
-0.0902539062500001,8.4395859375,4.828484375,1.8379140625,-2.01662109375,-2.86601171875,-4.18985546875,-4.01141796875,0.16048046875,2.5030625,-0.98591015625,1.67308984375,9.047546875,1.372125,2.626390625,1.4529375,2.27088671875,3.44252734375,3.94264453125,3.89722265625,1.9768125,3.573421875,2.5996875,4.35930859375,3.99689453125,0.8596875,5.806921875,1.89553125,-0.4554609375,5.445640625
-3.06425390625,5.9505859375,3.602484375,-0.6640859375,-3.93462109375,-5.05301171875,-5.71085546875,-4.34041796875,-1.31951953125,0.1870625,-2.86591015625,-0.33991015625,4.422546875,-0.200875000000001,0.422390625,-0.0780625000000001,-1.43111328125,2.21252734375,2.42264453125,2.03022265625,0.5348125,3.760421875,1.3716875,2.57130859375,2.76189453125,0.1456875,4.672921875,0.83353125,-0.8524609375,4.835640625
-4.99825390625,2.5965859375,1.395484375,-3.9640859375,-5.57162109375,-6.62201171875,-6.70285546875,-4.68441796875,-3.07851953125,-2.0699375,-4.56291015625,-2.56591015625,-1.571453125,-2.376875,-2.269609375,-1.9760625,-5.15211328125,0.182527343749999,0.0426445312500006,-0.66377734375,-1.1571875,3.059421875,-0.6713125,-0.0396914062499993,0.88789453125,-0.8113125,2.773921875,-0.52546875,-1.8104609375,3.485640625
-5.67525390625,-1.1054140625,-1.786515625,-7.5940859375,-7.25162109375,-7.92001171875,-7.73285546875,-5.31541796875,-5.28351953125,-4.4149375,-6.31491015625,-4.97491015625,-7.934453125,-5.241875,-5.530609375,-4.3540625,-8.54611328125,-2.56247265625,-3.27235546875,-4.13877734375,-3.0871875,1.575421875,-3.4483125,-3.40169140625,-1.63210546875,-2.1983125,0.207921875,-1.97946875,-3.1694609375,1.596640625
-5.46125390625,-4.6414140625,-5.454515625,-10.8630859375,-9.21062109375,-9.36501171875,-9.32585546875,-6.23341796875,-7.91651953125,-6.9529375,-8.29991015625,-7.40891015625,-13.712453125,-8.657875,-9.260609375,-7.2070625,-11.16611328125,-5.64947265625,-7.32835546875,-8.14477734375,-5.2491875,-0.283578125,-6.6553125,-7.25469140625,-4.64410546875,-4.0003125,-2.780078125,-3.34246875,-4.6154609375,-0.479359375
-5.04525390625,-7.5894140625,-8.720515625,-12.9930859375,-11.39962109375,-11.19001171875,-11.62785546875,-7.18241796875,-10.64451953125,-9.6009375,-10.48191015625,-9.56591015625,-18.009453125,-12.198875,-13.106609375,-10.3210625,-12.57211328125,-8.46747265625,-11.61935546875,-12.22977734375,-7.5491875,-1.963578125,-9.7943125,-11.14969140625,-7.78310546875,-5.8913125,-5.833078125,-4.42746875,-5.7554609375,-2.294359375
-4.99925390625,-9.5644140625,-10.669515625,-13.3820859375,-13.43562109375,-13.26001171875,-14.26885546875,-7.79941796875,-12.84751953125,-12.0169375,-12.56291015625,-11.06291015625,-20.016453125,-15.182875,-16.494609375,-13.2540625,-12.55711328125,-10.31347265625,-15.39335546875,-15.80077734375,-9.7161875,-2.967578125,-12.2453125,-14.50469140625,-10.49610546875,-7.3303125,-8.513078125,-5.00646875,-6.2054609375,-3.370359375
-5.46125390625,-10.2084140625,-10.808515625,-11.8900859375,-14.72162109375,-15.06501171875,-16.51085546875,-7.82441796875,-13.85151953125,-13.6559375,-14.07991015625,-11.55991015625,-19.188453125,-16.846875,-18.783609375,-15.4210625,-11.33611328125,-10.62947265625,-17.83935546875,-18.25077734375,-11.3381875,-3.017578125,-13.4273125,-16.73269140625,-12.20710546875,-7.8093125,-10.372078125,-4.84646875,-5.6954609375,-3.346359375
-6.09425390625,-9.3354140625,-9.338515625,-8.9750859375,-14.74662109375,-15.94301171875,-17.60085546875,-7.26141796875,-13.24851953125,-13.9929375,-14.63291015625,-10.89391015625,-15.534453125,-16.654875,-19.499609375,-16.3220625,-9.55411328125,-9.24447265625,-18.38235546875,-19.17077734375,-12.0461875,-2.134578125,-13.0213125,-17.45869140625,-12.57610546875,-7.1753125,-11.126078125,-3.84946875,-4.2224609375,-2.163359375
-6.29725390625,-7.1594140625,-7.087515625,-5.5970859375,-13.42062109375,-15.45401171875,-17.14185546875,-6.38441796875,-11.14151953125,-12.8149375,-14.12791015625,-9.21191015625,-9.815453125,-14.603875,-18.576609375,-15.8030625,-8.04011328125,-6.51447265625,-16.97735546875,-18.54877734375,-11.7351875,-0.628578125,-11.1813125,-16.73369140625,-11.71610546875,-5.7723125,-10.812078125,-2.21546875,-2.1564609375,-0.195359375
-5.60125390625,-4.3764140625,-5.110515625,-2.9060859375,-11.19562109375,-13.67501171875,-15.29285546875,-5.62141796875,-8.15551953125,-10.4159375,-12.85991015625,-6.98291015625,-3.471453125,-11.314875,-16.446609375,-14.1640625,-7.43111328125,-3.24647265625,-14.19535546875,-16.81477734375,-10.6501875,1.011421875,-8.5343125,-15.06469140625,-10.18510546875,-4.2883125,-9.826078125,-0.46946875,-0.1774609375,1.861640625
-4.05925390625,-1.9814140625,-4.183515625,-1.8030859375,-8.85662109375,-11.20801171875,-12.71085546875,-5.32941796875,-5.19351953125,-7.5209375,-11.36291015625,-4.85191015625,1.753546875,-7.810875,-13.886609375,-12.0080625,-7.84011328125,-0.410472656250001,-10.99735546875,-14.65577734375,-9.2371875,2.282421875,-5.9443125,-13.19069140625,-8.70410546875,-3.3573125,-8.754078125,0.72753125,1.0085390625,3.301640625
-2.27425390625,-0.8494140625,-4.457515625,-2.5500859375,-7.09162109375,-8.87001171875,-10.23685546875,-5.58341796875,-3.03951953125,-4.9819375,-10.10791015625,-3.36791015625,4.352546875,-5.070875,-11.675609375,-9.9280625,-8.77111328125,1.24252734375,-8.30635546875,-12.68977734375,-7.8861875,2.848421875,-4.1433125,-11.72969140625,-7.76610546875,-3.1793125,-8.097078125,0.89853125,1.0055390625,3.742640625
-1.01925390625,-1.2874140625,-5.461515625,-4.6040859375,-6.13662109375,-7.27101171875,-8.49385546875,-6.10841796875,-2.01151953125,-3.3839375,-9.24991015625,-2.73891015625,3.608546875,-3.634875,-10.254609375,-8.2470625,-9.32411328125,1.45652734375,-6.64735546875,-11.20677734375,-6.7501875,2.652421875,-3.4613125,-10.92669140625,-7.41110546875,-3.4283125,-8.067078125,-0.02746875,-0.0964609375000003,3.227640625
-0.72925390625,-2.8304140625,-6.423515625,-6.8430859375,-5.72462109375,-6.52501171875,-7.62385546875,-6.46841796875,-1.88351953125,-2.8069375,-8.58991015625,-2.75891015625,-0.0624531250000001,-3.457875,-9.585609375,-6.9580625,-8.60011328125,0.51352734375,-6.01835546875,-10.11477734375,-5.7631875,1.909421875,-3.7813125,-10.61869140625,-7.29310546875,-3.5243125,-8.562078125,-1.70746875,-1.8124609375,2.085640625
-1.29625390625,-4.4754140625,-6.684515625,-8.1100859375,-5.34962109375,-6.28501171875,-7.33285546875,-6.41541796875,-2.11551953125,-2.8639375,-7.75591015625,-2.95591015625,-5.209453125,-4.046875,-9.252609375,-5.8680625,-6.14011328125,-0.94647265625,-6.03235546875,-9.08777734375,-4.8061875,1.006421875,-4.6673125,-10.40169140625,-6.97310546875,-3.0693125,-9.272078125,-3.56546875,-3.5224609375,0.680640625000001
-2.20025390625,-5.2774140625,-5.982515625,-7.7530859375,-4.64462109375,-6.02701171875,-7.15985546875,-6.05041796875,-2.20951953125,-2.9669375,-6.47791015625,-2.88891015625,-9.922453125,-4.760875,-8.732609375,-4.7920625,-2.23411328125,-2.20347265625,-6.17235546875,-7.80877734375,-3.8721875,0.370421875,-5.5713125,-9.86469140625,-6.19610546875,-2.1223125,-9.827078125,-5.01446875,-4.7084609375,-0.727359375
-2.79325390625,-4.9334140625,-4.503515625,-5.8680859375,-3.61862109375,-5.39501171875,-6.77885546875,-5.66141796875,-1.94351953125,-2.6429375,-4.78291015625,-2.41691015625,-12.614453125,-5.094875,-7.683609375,-3.7000625,2.06488671875,-2.71247265625,-6.02735546875,-6.15877734375,-3.1111875,0.340421875000001,-6.0263125,-8.76769140625,-5.00410546875,-1.1433125,-9.907078125,-5.62846875,-5.1054609375,-1.978359375
-2.60325390625,-3.9284140625,-2.719515625,-3.1340859375,-2.61462109375,-4.38301171875,-6.14485546875,-5.42641796875,-1.39751953125,-1.7459375,-2.98091015625,-1.74791015625,-12.588453125,-4.854875,-6.100609375,-2.7040625,5.30188671875,-2.26347265625,-5.41835546875,-4.27877734375,-2.7251875,1.052421875,-5.7863125,-7.12569140625,-3.64310546875,-0.6723125,-9.330078125,-5.24246875,-4.7204609375,-2.959359375
-1.65425390625,-3.1354140625,-1.145515625,-0.4580859375,-2.05462109375,-3.27501171875,-5.45685546875,-5.31641796875,-0.83951953125,-0.4799375,-1.48491015625,-1.26291015625,-10.119453125,-4.149875,-4.289609375,-1.9340625,6.23288671875,-1.00747265625,-4.39335546875,-2.46877734375,-2.7891875,2.384421875,-4.8713125,-5.17069140625,-2.37610546875,-0.9863125,-8.110078125,-3.97946875,-3.7794609375,-3.573359375
-0.55225390625,-3.1784140625,-0.123515625,1.3849140625,-2.16362109375,-2.42401171875,-4.97685546875,-5.25141796875,-0.58251953125,0.7510625,-0.57291015625,-1.21591015625,-6.157453125,-3.254875,-2.676609375,-1.3960625,4.40788671875,0.64252734375,-3.13435546875,-1.00477734375,-3.1271875,4.003421875,-3.5193125,-3.23069140625,-1.32510546875,-1.9223125,-6.457078125,-2.18146875,-2.5834609375,-3.730359375
-0.0922539062499999,-4.0334140625,0.301484375,1.9869140625,-2.80662109375,-2.00801171875,-4.79785546875,-5.23341796875,-0.81951953125,1.5990625,-0.21391015625,-1.52391015625,-1.857453125,-2.411875,-1.561609375,-0.9190625,0.42088671875,2.22552734375,-1.80635546875,0.0312226562499998,-3.3391875,5.543421875,-2.0353125,-1.56069140625,-0.42110546875,-2.9293125,-4.680078125,-0.23146875,-1.3414609375,-3.327359375
-0.60125390625,-5.0824140625,0.379484375,1.4019140625,-3.51262109375,-1.89301171875,-4.70285546875,-5.27941796875,-1.47051953125,1.9890625,-0.05591015625,-1.76991015625,1.859546875,-1.665875,-0.943609375,-0.2230625,-4.32211328125,3.45752734375,-0.457355468749999,0.81022265625,-2.9721875,6.796421875,-0.6383125,-0.21869140625,0.52389453125,-3.3283125,-3.018078125,1.63753125,-0.0684609375000003,-2.245359375
-1.63225390625,-5.5334140625,0.502484375,0.0709140625,-3.68662109375,-1.69701171875,-4.25985546875,-5.24541796875,-2.15051953125,2.1750625,0.41208984375,-1.43291015625,4.541546875,-0.838875000000001,-0.530609375,0.9409375,-8.16011328125,4.33452734375,0.99364453125,1.65422265625,-1.7341875,7.787421875,0.6266875,0.95130859375,1.68889453125,-2.6363125,-1.554078125,3.39753125,1.3545390625,-0.438359374999999
-2.30625390625,-4.9294140625,0.948484375,-1.4340859375,-2.91562109375,-1.02301171875,-3.14585546875,-4.78041796875,-2.36751953125,2.5390625,1.55908984375,-0.21991015625,6.132546875,0.296124999999999,0.0343906250000003,2.6209375,-9.82011328125,5.00852734375,2.61564453125,2.80722265625,0.3338125,8.646421875,1.8146875,2.16930859375,3.09289453125,-0.8263125,-0.264078125,5.08653125,2.9775390625,1.898640625
-1.93525390625,-3.4514140625,1.633484375,-2.6960859375,-1.23962109375,0.238988281249999,-1.46285546875,-3.50741796875,-1.84351953125,3.2510625,3.32508984375,1.67908984375,6.682546875,1.741125,0.858390625,4.5379375,-8.83111328125,5.53452734375,4.26564453125,4.20522265625,2.8108125,9.388421875,2.9086875,3.48830859375,4.50989453125,1.6516875,0.804921875,6.57553125,4.5735390625,4.231640625
-0.44025390625,-1.8174140625,2.071484375,-3.6170859375,0.77337890625,1.76298828125,0.21214453125,-1.33041796875,-0.753519531250001,4.0380625,5.13708984375,3.60708984375,6.121546875,3.083125,1.618390625,6.0969375,-5.59711328125,5.67252734375,5.48164453125,5.39122265625,5.0188125,9.775421875,3.6616875,4.62430859375,5.50289453125,4.0956875,1.422921875,7.43953125,5.6015390625,5.820640625
1.62474609375,-0.8644140625,1.613484375,-4.3660859375,2.25637890625,2.89998828125,1.10714453125,1.34158203125,0.293480468749999,4.2680625,6.14508984375,4.73808984375,4.244546875,3.592125,1.677390625,6.6139375,-1.15411328125,4.93652734375,5.60664453125,5.68222265625,6.3038125,9.368421875,3.6416875,5.02030859375,5.60389453125,5.9096875,1.239921875,7.10153125,5.4405390625,6.051640625
3.28974609375,-1.0614140625,-0.138515625,-5.2310859375,2.45937890625,3.02298828125,0.67514453125,3.64558203125,0.53648046875,3.2990625,5.64508984375,4.51208984375,0.887546875,2.573125,0.457390625,5.6569375,3.23988671875,2.88552734375,4.11764453125,4.51622265625,6.3288125,7.772421875,2.4566875,4.14430859375,4.54789453125,6.8636875,0.0139218749999999,5.17853125,3.7605390625,4.776640625
3.54174609375,-2.3154140625,-3.027515625,-6.4490859375,1.14337890625,1.84798828125,-1.15085546875,4.61558203125,-0.51751953125,0.8850625,3.44508984375,2.91308984375,-3.879453125,-0.218875000000001,-2.182609375,3.2799375,6.48788671875,-0.55347265625,0.96164453125,1.78222265625,5.2038125,4.906421875,0.0256875000000001,1.82130859375,2.43289453125,7.0976875,-2.165078125,1.83153125,0.8055390625,2.437640625
1.74474609375,-4.1664140625,-6.331515625,-8.0960859375,-1.31762109375,-0.44201171875,-3.96885546875,3.67458203125,-2.79951953125,-2.6419375,-0.05591015625,0.44408984375,-9.605453125,-4.375875,-5.809609375,0.000937500000000036,7.87388671875,-4.90947265625,-3.33235546875,-2.07477734375,3.3728125,1.164421875,-3.2903125,-1.59169140625,-0.29410546875,6.9246875,-4.818078125,-2.14646875,-2.6074609375,-0.107359375
-2.04325390625,-6.1664140625,-9.071515625,-10.0510859375,-4.14462109375,-3.32001171875,-7.13185546875,0.962582031250001,-5.67951953125,-6.4869375,-4.05891015625,-2.14491015625,-15.436453125,-8.938875,-9.586609375,-3.4430625,7.12388671875,-9.27247265625,-7.79635546875,-6.21077734375,1.3638125,-2.645578125,-6.7643125,-5.30169140625,-2.99910546875,6.6236875,-7.233078125,-5.56146875,-5.3694609375,-1.934359375
-7.04925390625,-8.0794140625,-10.435515625,-12.0360859375,-6.53562109375,-6.13101171875,-9.99385546875,-2.69541796875,-8.26951953125,-9.7109375,-7.66191015625,-4.17091015625,-20.250453125,-12.729875,-12.607609375,-6.3400625,4.46188671875,-12.61647265625,-11.33435546875,-9.67677734375,-0.3951875,-5.560578125,-9.5213125,-8.33969140625,-5.04610546875,6.3536875,-8.724078125,-7.29846875,-6.5104609375,-2.405359375
-12.03325390625,-9.8044140625,-10.080515625,-13.7190859375,-7.96962109375,-8.29701171875,-12.06485546875,-6.12841796875,-9.83751953125,-11.5639375,-10.14091015625,-5.21591015625,-22.920453125,-14.759875,-14.196609375,-8.1680625,0.65188671875,-14.16747265625,-13.07035546875,-11.69877734375,-1.6151875,-6.794578125,-10.8253125,-9.89169140625,-5.95710546875,6.1966875,-8.879078125,-6.78246875,-5.5674609375,-1.369359375
-15.68525390625,-11.1904140625,-8.194515625,-14.8180859375,-8.29862109375,-9.43401171875,-13.04485546875,-8.26741796875,-10.04951953125,-11.6979375,-11.10891015625,-5.16991015625,-22.646453125,-14.545875,-14.082609375,-8.6660625,-3.09411328125,-13.66447265625,-12.60835546875,-11.88777734375,-2.1251875,-6.021578125,-10.3213125,-9.56669140625,-5.52310546875,6.1976875,-7.689078125,-4.21946875,-2.7694609375,0.814640625
-17.06925390625,-11.9714140625,-5.325515625,-15.1370859375,-7.64462109375,-9.40701171875,-12.81585546875,-8.53241796875,-8.96951953125,-10.1959375,-10.56891015625,-4.17991015625,-19.200453125,-12.233875,-12.409609375,-7.8520625,-5.45911328125,-11.40547265625,-10.13335546875,-10.31077734375,-1.8611875,-3.485578125,-8.1493125,-7.51069140625,-3.86410546875,6.3566875,-5.523078125,-0.49046875,1.0475390625,3.445640625
-15.97325390625,-11.8534140625,-2.156515625,-14.5350859375,-6.23262109375,-8.30901171875,-11.44785546875,-7.04341796875,-6.89951953125,-7.4649375,-8.84491015625,-2.54491015625,-13.029453125,-8.471875,-9.624609375,-5.9850625,-5.56711328125,-8.08547265625,-6.29835546875,-7.42577734375,-0.8961875,0.0834218750000009,-4.8763125,-4.30669140625,-1.40910546875,6.6036875,-2.989078125,3.21453125,4.7585390625,5.743640625
-12.93225390625,-10.6724140625,0.668484375,-12.9090859375,-4.30462109375,-6.41501171875,-9.22385546875,-4.53741796875,-4.23651953125,-4.0949375,-6.43991015625,-0.62691015625,-5.228453125,-4.141875,-6.315609375,-3.4790625,-3.44211328125,-4.52247265625,-1.96735546875,-3.91677734375,0.5568125,3.707421875,-1.2793125,-0.72369140625,1.23589453125,6.8206875,-0.728078125,5.83553125,7.3615390625,7.124640625
-8.83925390625,-8.5164140625,2.637484375,-10.2680859375,-2.15762109375,-4.13501171875,-6.60685546875,-2.00541796875,-1.41451953125,-0.7359375,-3.89791015625,1.22608984375,2.622546875,-0.094875,-3.064609375,-0.7990625,-0.0371132812500004,-1.41847265625,2.04364453125,-0.47477734375,2.1758125,6.476421875,1.8966875,2.54730859375,3.48689453125,6.9006875,0.760921875,6.75653125,8.2955390625,7.355640625
-4.47725390625,-5.7854140625,3.452484375,-6.8910859375,-0.16762109375,-1.93601171875,-4.12985546875,-0.22841796875,1.10648046875,2.0120625,-1.67591015625,2.73408984375,8.833546875,3.041125,-0.331609375,1.6399375,3.28188671875,0.78452734375,5.15264453125,2.37222265625,3.6418125,7.814421875,4.1296875,5.06430859375,4.96289453125,6.8066875,1.254921875,5.92153125,7.5595390625,6.578640625
-0.37925390625,-3.1444140625,3.106484375,-3.3890859375,1.28337890625,-0.221011718750001,-2.25785546875,0.523582031250001,2.89548046875,3.7280625,-0.06391015625,3.72408984375,12.158546875,4.961125,1.608390625,3.5679375,5.44888671875,1.94552734375,7.09164453125,4.36122265625,4.7478125,7.610421875,5.2286875,6.68430859375,5.59189453125,6.5766875,0.842921875,3.75153125,5.6215390625,5.181640625
2.97274609375,-1.3514140625,1.876484375,-0.5540859375,1.96737890625,0.791988281249999,-1.28185546875,0.471582031250001,3.67448046875,4.2680625,0.84408984375,4.16008984375,12.270546875,5.700125,2.696390625,4.8989375,6.11088671875,2.17752734375,7.90464453125,5.49722265625,5.4618125,6.169421875,5.3326875,7.50030859375,5.56489453125,6.2826875,-0.138078125,0.93153125,3.1885390625,3.601640625
5.00674609375,-0.9744140625,0.186484375,0.969914062499999,1.92437890625,1.13598828125,-1.25485546875,0.0755820312500006,3.44148046875,3.7940625,1.12608984375,4.15208984375,9.833546875,5.558125,3.041390625,5.7159375,5.49388671875,1.77552734375,7.85864453125,5.97022265625,5.8698125,4.044421875,4.8016875,7.72830859375,5.19489453125,5.9846875,-1.258078125,-1.83546875,0.9505390625,2.172640625
5.25774609375,-2.1054140625,-1.563515625,0.9939140625,1.46937890625,1.05698828125,-1.93385546875,-0.26841796875,2.54548046875,2.7220625,0.98008984375,3.94108984375,6.122546875,4.962125,2.859390625,6.1809375,3.99788671875,1.12052734375,7.32164453125,6.03322265625,6.0678125,1.856421875,4.0596875,7.59230859375,4.74989453125,5.7066875,-2.147078125,-4.01546875,-0.5994609375,1.065640625
3.68674609375,-4.2664140625,-3.091515625,-0.1420859375,1.10037890625,0.91098828125,-2.80685546875,-0.416417968749999,1.59948046875,1.6060625,0.67208984375,3.84608984375,2.427546875,4.331125,2.404390625,6.4669375,1.96188671875,0.59952734375,6.65864453125,5.92222265625,6.0808125,0.155421875,3.4596875,7.26130859375,4.36889453125,5.4426875,-2.577078125,-5.31346875,-1.2364609375,0.345640625000001
0.78774609375,-6.6054140625,-4.209515625,-1.7740859375,1.33137890625,1.03698828125,-3.26485546875,-0.48641796875,1.24248046875,0.9920625,0.47508984375,4.16408984375,-0.450453125,3.996125,1.931390625,6.7149375,-0.26411328125,0.51952734375,6.16864453125,5.81422265625,5.9028125,-0.665578125,3.2286875,6.86230859375,4.09189453125,5.1856875,-2.465078125,-5.65446875,-0.9714609375,0.0346406250000006
-2.57225390625,-8.2864140625,-4.762515625,-3.2230859375,2.49037890625,1.62898828125,-2.89285546875,-0.666417968749999,1.84148046875,1.2490625,0.58108984375,5.02308984375,-2.390453125,4.160125,1.663390625,7.0119375,-2.12811328125,1.03052734375,6.04564453125,5.82222265625,5.5698125,-0.441578124999999,3.4516875,6.49930859375,3.92389453125,4.9496875,-1.845078125,-5.15746875,0.000539062500000131,0.135640625000001
-5.41525390625,-8.8364140625,-4.621515625,-4.0430859375,4.53737890625,2.65198828125,-1.69985546875,-0.968417968749999,3.31348046875,2.4380625,1.02008984375,6.27508984375,-3.771453125,4.860125,1.743390625,7.3639375,-2.87311328125,2.07352734375,6.35264453125,5.98022265625,5.1968125,0.724421875000001,4.0716875,6.26430859375,3.88589453125,4.7876875,-0.847078125,-4.09746875,1.3605390625,0.603640625
-6.94125390625,-8.2734140625,-3.746515625,-4.0680859375,6.99737890625,3.83898828125,-0.13585546875,-1.13441796875,5.16348046875,4.2720625,1.64108984375,7.49108984375,-5.026453125,5.945125,2.187390625,7.6829375,-1.84011328125,3.38452734375,7.00364453125,6.23622265625,4.9328125,2.476421875,4.9086875,6.20530859375,4.00189453125,4.7806875,0.317921875,-2.84546875,2.7295390625,1.303640625
-6.85225390625,-7.0274140625,-2.275515625,-3.3460859375,9.08637890625,4.78498828125,1.09814453125,-0.839417968749999,6.68848046875,6.2000625,2.17008984375,8.12508984375,-6.201453125,7.105125,2.861390625,7.8139375,1.07988671875,4.58452734375,7.79664453125,6.46522265625,4.8708125,4.312421875,5.7296875,6.30230859375,4.26089453125,4.9816875,1.389921875,-1.76346875,3.7625390625,2.015640625
-5.52125390625,-5.7474140625,-0.554515625,-2.0480859375,10.02237890625,5.11298828125,1.37514453125,0.0215820312500004,7.26348046875,7.5980625,2.32408984375,7.74308984375,-6.782453125,7.966125,3.511390625,7.5839375,5.14088671875,5.30552734375,8.47764453125,6.50822265625,4.9758125,5.755421875,6.3146875,6.45030859375,4.56289453125,5.3406875,2.100921875,-1.09846875,4.2345390625,2.485640625
-3.75825390625,-5.0264140625,0.920484375,-0.4300859375,9.36437890625,4.64398828125,0.45314453125,1.20258203125,6.58948046875,7.9920625,1.92308984375,6.23008984375,-5.945453125,8.213125,3.842390625,6.8519375,8.87388671875,5.31652734375,8.79964453125,6.20322265625,5.0528125,6.518421875,6.5106875,6.46330859375,4.72089453125,5.6696875,2.229921875,-0.93246875,4.0895390625,2.520640625
-2.27125390625,-5.1284140625,1.629484375,1.1899140625,7.22637890625,3.50298828125,-1.36685546875,2.23858203125,4.81648046875,7.2520625,0.97008984375,3.86308984375,-3.092453125,7.706125,3.623390625,5.5509375,10.66888671875,4.60252734375,8.58264453125,5.43222265625,4.8128125,6.587421875,6.2486875,6.13230859375,4.50689453125,5.7046875,1.661921875,-1.20746875,3.4245390625,2.084640625
-1.24925390625,-5.8474140625,1.220484375,2.4739140625,4.24737890625,2.09998828125,-3.37185546875,2.72158203125,2.49048046875,5.6420625,-0.34491015625,1.22808984375,1.610546875,6.548125,2.796390625,3.7299375,9.51788671875,3.34952734375,7.77364453125,4.16322265625,4.0108125,6.190421875,5.5556875,5.31730859375,3.75089453125,5.2576875,0.446921875,-1.76646875,2.4475390625,1.320640625
-0.41225390625,-6.6394140625,-0.300515625,3.1299140625,1.36037890625,0.970988281249999,-4.79185546875,2.54458203125,0.33148046875,3.6960625,-1.71191015625,-0.97391015625,7.064546875,5.063125,1.539390625,1.6049375,5.52188671875,1.87252734375,6.47964453125,2.50222265625,2.6118125,5.671421875,4.5636875,4.04230859375,2.45589453125,4.3596875,-1.180078125,-2.41546875,1.4305390625,0.506640625
0.58774609375,-6.9934140625,-2.481515625,2.9739140625,-0.56062109375,0.547988281249999,-5.16985546875,1.94258203125,-1.03551953125,1.9880625,-2.83191015625,-2.17691015625,11.649546875,3.660125,0.212390625,-0.4700625,-0.11111328125,0.49352734375,4.93664453125,0.68022265625,0.8628125,5.327421875,3.4676875,2.50530859375,0.82889453125,3.2716875,-2.835078125,-2.97546875,0.6365390625,-0.0643593749999996
1.77174609375,-6.7884140625,-4.525515625,2.0089140625,-1.01762109375,0.959988281249999,-4.53185546875,1.31358203125,-1.28551953125,0.8970625,-3.52591015625,-2.15091015625,14.033546875,2.659125,-0.793609375,-2.0880625,-5.55011328125,-0.54447265625,3.41064453125,-1.00077734375,-0.7871875,5.268421875,2.4536875,0.99930859375,-0.77510546875,2.3396875,-4.116078125,-3.33846875,0.2455390625,-0.200359375
2.72374609375,-6.4124140625,-5.610515625,0.475914062499999,-0.0466210937500007,1.98898828125,-3.31085546875,0.90758203125,-0.48551953125,0.5140625,-3.77891015625,-1.06891015625,13.874546875,2.163125,-1.223609375,-2.9320625,-9.06711328125,-1.13347265625,2.10764453125,-2.25777734375,-1.8771875,5.372421875,1.6456875,-0.199691406249999,-1.98410546875,1.8016875,-4.737078125,-3.48546875,0.3015390625,0.127640625000001
2.83974609375,-6.4854140625,-5.272515625,-1.1420859375,1.81637890625,3.18998828125,-2.07585546875,0.671582031250001,0.95348046875,0.6650625,-3.69191015625,0.59808984375,11.894546875,2.057125,-1.060609375,-2.8700625,-9.67111328125,-1.30747265625,1.13664453125,-2.90377734375,-2.1251875,5.354421875,1.0816875,-0.91769140625,-2.53210546875,1.6776875,-4.639078125,-3.48246875,0.7275390625,0.803640625000001
1.84174609375,-7.3744140625,-3.689515625,-2.2170859375,3.74537890625,4.09498828125,-1.26485546875,0.369582031250001,2.43248046875,1.0160625,-3.40791015625,2.26408984375,9.288546875,2.075125,-0.522609375,-2.0210625,-7.39611328125,-1.23847265625,0.500644531250001,-2.90477734375,-1.5441875,4.913421875,0.7116875,-1.12469140625,-2.34710546875,1.8106875,-4.014078125,-3.45646875,1.3505390625,1.599640625
0.15374609375,-8.8394140625,-1.664515625,-2.2100859375,4.91637890625,4.38898828125,-1.00485546875,-0.0954179687499996,3.39048046875,1.1940625,-3.07591015625,3.41708984375,6.924546875,1.911125,0.0163906250000001,-0.7380625,-3.19311328125,-1.19147265625,0.112644531250001,-2.40877734375,-0.4251875,3.890421875,0.4096875,-0.94169140625,-1.58610546875,1.9896875,-3.247078125,-3.57146875,1.9435390625,2.222640625
-1.25525390625,-10.0994140625,-0.287515625,-0.9640859375,4.81937890625,3.99098828125,-1.14385546875,-0.52141796875,3.50548046875,0.9320625,-2.83591015625,3.76108984375,4.900546875,1.327125,0.183390625,0.5079375,1.48688671875,-1.44047265625,-0.16835546875,-1.68777734375,0.7998125,2.350421875,0.0126875000000002,-0.59269140625,-0.58110546875,2.0856875,-2.768078125,-3.97046875,2.2715390625,2.400640625
-1.56025390625,-10.3314140625,-0.387515625,1.1189140625,3.48037890625,3.06398828125,-1.40885546875,-0.564417968749999,2.78448046875,0.1840625,-2.79591015625,3.28608984375,2.686546875,0.280125,-0.230609375,1.3219375,5.27588671875,-2.14647265625,-0.44735546875,-1.02177734375,1.7708125,0.576421875000001,-0.5763125,-0.28369140625,0.30189453125,2.1396875,-2.864078125,-4.70446875,2.1815390625,1.997640625
-0.70725390625,-9.2334140625,-2.081515625,3.2099140625,1.47837890625,1.94098828125,-1.57685546875,-0.0344179687499997,1.51548046875,-0.8189375,-2.98791015625,2.25608984375,-0.364453125,-1.025875,-1.149609375,1.5599375,7.41088671875,-3.25447265625,-0.71635546875,-0.56077734375,2.3448125,-1.031578125,-1.3123125,-0.10169140625,0.82689453125,2.3416875,-3.539078125,-5.67046875,1.6775390625,1.113640625
0.59374609375,-7.2414140625,-4.662515625,4.4739140625,-0.30862109375,0.98998828125,-1.54885546875,0.966582031250001,0.12348046875,-1.6619375,-3.33591015625,1.07908984375,-4.494453125,-2.200875,-2.225609375,1.3629375,7.97488671875,-4.47047265625,-0.840355468749999,-0.27577734375,2.5998125,-2.093578125,-1.9933125,0.0113085937499999,0.97389453125,2.9086875,-4.488078125,-6.62746875,0.9385390625,0.0546406250000002
1.43474609375,-5.2454140625,-6.929515625,4.5009140625,-1.11262109375,0.478988281249999,-1.30785546875,2.15258203125,-1.00451953125,-1.9339375,-3.66491015625,0.13708984375,-9.276453125,-2.820875,-2.977609375,1.0499375,7.69788671875,-5.34847265625,-0.627355468749999,-0.00777734374999994,2.7188125,-2.338578125,-2.3423125,0.20330859375,0.92289453125,3.9276875,-5.215078125,-7.25746875,0.2665390625,-0.791359375
1.30774609375,-4.0424140625,-7.763515625,3.4669140625,-0.62562109375,0.49298828125,-0.86585546875,3.21858203125,-1.65251953125,-1.4169375,-3.75091015625,-0.32591015625,-13.660453125,-2.589875,-2.997609375,0.9789375,7.41088671875,-5.45647265625,0.0866445312500002,0.44022265625,2.8828125,-1.657578125,-2.1073125,0.638308593750001,0.94789453125,5.2606875,-5.244078125,-7.27146875,-0.00346093749999987,-1.133359375
0.37374609375,-3.9064140625,-6.660515625,1.9549140625,0.916378906249999,0.956988281249999,-0.21785546875,3.92158203125,-1.79651953125,-0.1709375,-3.40691015625,-0.20691015625,-16.301453125,-1.441875,-2.099609375,1.4219375,7.48288671875,-4.54347265625,1.36064453125,1.21822265625,3.2138125,-0.117578125,-1.1553125,1.43330859375,1.29289453125,6.5916875,-4.327078125,-6.51646875,0.3865390625,-0.889359375
-0.59425390625,-4.5044140625,-3.937515625,0.6579140625,2.92237890625,1.72998828125,0.68314453125,4.09558203125,-1.50251953125,1.5170625,-2.55291015625,0.53008984375,-16.083453125,0.449125,-0.375609375,2.4959375,7.60588671875,-2.64247265625,3.10864453125,2.37222265625,3.7678125,2.036421875,0.4716875,2.61130859375,2.06689453125,7.5656875,-2.583078125,-5.06046875,1.4965390625,-0.198359374999999
-0.60625390625,-5.1504140625,-0.541515625,0.1049140625,4.79337890625,2.68898828125,1.92614453125,3.63058203125,-0.801519531250001,3.2870625,-1.25891015625,1.90308984375,-12.675453125,2.730125,1.866390625,4.1299375,7.07088671875,-0.0594726562500005,5.10264453125,3.81822265625,4.5348125,4.399421875,2.5446875,4.07230859375,3.18789453125,7.9286875,-0.466078125,-3.22146875,3.1145390625,0.655640625000001
0.91774609375,-5.2244140625,2.456484375,0.5229140625,6.18637890625,3.76398828125,3.58014453125,2.44958203125,0.34448046875,4.8470625,0.26708984375,3.87208984375,-6.788453125,5.000125,4.224390625,6.0829375,5.33288671875,2.74352734375,7.04264453125,5.35922265625,5.4388125,6.488421875,4.7186875,5.61230859375,4.42989453125,7.5766875,1.419921875,-1.49546875,4.8025390625,1.373640625
3.66274609375,-4.5084140625,4.374484375,1.8029140625,7.07337890625,4.88998828125,5.56214453125,0.518582031250001,1.97848046875,6.0460625,1.73508984375,6.25008984375,0.086546875,6.945125,6.341390625,8.0219375,2.51588671875,5.32352734375,8.67064453125,6.75922265625,6.3508125,7.885421875,6.6586875,6.99630859375,5.53189453125,6.5436875,2.600921875,-0.37546875,6.0665390625,1.761640625
6.59574609375,-3.2564140625,5.173484375,3.5889140625,7.60137890625,5.93398828125,7.57914453125,-2.01741796875,4.06148046875,6.8300625,2.83408984375,8.64808984375,6.344546875,8.407125,7.985390625,9.6089375,-0.47311328125,7.39952734375,9.86364453125,7.81922265625,7.1138125,8.409421875,8.1556875,8.04730859375,6.31289453125,4.9926875,2.945921875,-0.14146875,6.5755390625,1.791640625
8.72974609375,-1.9744140625,5.308484375,5.4489140625,7.86837890625,6.66398828125,9.18814453125,-4.66841796875,6.41748046875,7.1540625,3.30608984375,10.51708984375,10.904546875,9.351125,9.050390625,10.5729375,-2.34511328125,8.87052734375,10.63264453125,8.42922265625,7.5698125,8.200421875,9.1566875,8.69730859375,6.71789453125,3.2146875,2.701921875,-0.73446875,6.2965390625,1.585640625
9.80674609375,-1.0504140625,5.307484375,7.0239140625,7.81137890625,6.80298828125,9.96114453125,-6.62741796875,8.71548046875,6.9300625,3.00808984375,11.29608984375,13.448546875,9.788125,9.505390625,10.7359375,-2.12711328125,9.73952734375,11.05064453125,8.55822265625,7.5938125,7.627421875,9.7066875,8.95830859375,6.78289453125,1.5866875,2.319921875,-1.80246875,5.4715390625,1.319640625
10.31674609375,-0.5414140625,5.375484375,8.0919140625,7.26037890625,6.15698828125,9.63414453125,-7.15841796875,10.51748046875,6.0620625,1.94508984375,10.59708984375,14.249546875,9.739125,9.336390625,10.0229375,0.234886718749999,10.01552734375,11.16964453125,8.22122265625,7.1138125,7.072421875,9.8806875,8.87930859375,6.55789453125,0.4666875,2.191921875,-2.88946875,4.4795390625,1.139640625
10.94074609375,-0.2404140625,5.288484375,8.5539140625,6.11637890625,4.72398828125,8.17814453125,-6.10341796875,11.42448046875,4.5470625,0.25508984375,8.35008984375,13.778546875,9.237125,8.531390625,8.4449375,3.76688671875,9.68252734375,10.98764453125,7.42422265625,6.1158125,6.714421875,9.7346875,8.49130859375,6.03889453125,0.0786874999999998,2.446921875,-3.64846875,3.6535390625,1.118640625
11.98274609375,0.0395859375000001,4.612484375,8.4309140625,4.50737890625,2.73298828125,5.81214453125,-4.12041796875,11.29048046875,2.5640625,-1.84291015625,4.84008984375,12.362546875,8.370125,7.108390625,6.0699375,6.93888671875,8.74252734375,10.45964453125,6.14022265625,4.6428125,6.478421875,9.3126875,7.79230859375,5.16689453125,0.4346875,2.914921875,-3.96346875,3.1585390625,1.260640625
13.17574609375,0.2335859375,3.060484375,7.8719140625,2.80937890625,0.58298828125,2.96314453125,-2.39941796875,10.33748046875,0.4920625,-4.11091015625,0.64708984375,10.087546875,7.291125,5.169390625,3.0359375,8.42388671875,7.29752734375,9.55664453125,4.34822265625,2.8008125,6.160421875,8.6596875,6.77730859375,3.88889453125,1.3026875,3.261921875,-3.92946875,2.9685390625,1.514640625
13.87474609375,0.0225859374999999,0.705484375,7.1259140625,1.50337890625,-1.27401171875,0.15514453125,-2.05641796875,9.03848046875,-1.2029375,-6.31491015625,-3.49691015625,6.923546875,6.194125,2.934390625,-0.4160625,7.67388671875,5.56752734375,8.31364453125,2.11022265625,0.7608125,5.603421875,7.8296875,5.47530859375,2.22789453125,2.2196875,3.181921875,-3.74646875,2.9375390625,1.760640625
13.44274609375,-0.9774140625,-2.048515625,6.4259140625,0.95537890625,-2.48601171875,-2.13585546875,-3.58841796875,7.85148046875,-2.1619375,-8.23191015625,-6.91091015625,2.943546875,5.233125,0.698390625,-3.9230625,4.99988671875,3.81652734375,6.81364453125,-0.38677734375,-1.2831875,4.806421875,6.8616875,3.95730859375,0.29789453125,2.5736875,2.516921875,-3.61846875,2.8815390625,1.792640625
11.60674609375,-3.0034140625,-4.661515625,5.8749140625,1.22437890625,-2.92201171875,-3.62085546875,-6.68641796875,6.99048046875,-2.3079375,-9.66591015625,-9.17291015625,-1.546453125,4.420125,-1.255609375,-7.0580625,1.24688671875,2.22652734375,5.12664453125,-2.86277734375,-3.1821875,3.902421875,5.7276875,2.30030859375,-1.76210546875,1.8126875,1.272921875,-3.68846875,2.6275390625,1.332640625
8.60774609375,-5.9674140625,-6.654515625,5.4259140625,2.03737890625,-2.69501171875,-4.24485546875,-10.44741796875,6.39648046875,-1.8729375,-10.45691015625,-10.21891015625,-5.940453125,3.614125,-2.725609375,-9.4180625,-2.63311328125,0.81652734375,3.27864453125,-5.01577734375,-4.8651875,3.067421875,4.3346875,0.55930859375,-3.84610546875,-0.3033125,-0.424078125,-4.02946875,2.0475390625,0.157640625000001
5.09074609375,-9.3614140625,-7.725515625,4.9939140625,2.92937890625,-2.07001171875,-4.17185546875,-13.82141796875,5.87248046875,-1.2559375,-10.50391015625,-10.27391015625,-9.291453125,2.621125,-3.603609375,-10.6990625,-5.89811328125,-0.527472656250001,1.29864453125,-6.58377734375,-6.2851875,2.420421875,2.6156875,-1.20069140625,-5.86310546875,-3.4913125,-2.374078125,-4.66046875,1.1005390625,-1.731359375
1.86774609375,-12.3214140625,-7.800515625,4.5849140625,3.46137890625,-1.33601171875,-3.72685546875,-16.03741796875,5.26948046875,-0.8079375,-9.79191015625,-9.69591015625,-10.388453125,1.347125,-3.860609375,-10.7610625,-8.18911328125,-1.92147265625,-0.706355468749999,-7.38477734375,-7.3451875,1.982421875,0.630687500000001,-2.86469140625,-7.66910546875,-6.9653125,-4.319078125,-5.56446875,-0.1384609375,-4.019359375
-0.30925390625,-13.9364140625,-7.065515625,4.3049140625,3.38137890625,-0.73601171875,-3.30285546875,-16.79541796875,4.58748046875,-0.6899375,-8.44891015625,-8.83991015625,-8.198453125,-0.116875,-3.568609375,-9.7030625,-9.63611328125,-3.37347265625,-2.53635546875,-7.37377734375,-7.9191875,1.679421875,-1.4073125,-4.27869140625,-9.05110546875,-9.7163125,-6.004078125,-6.71046875,-1.5054609375,-6.159359375
-0.93825390625,-13.6864140625,-5.943515625,4.2529140625,2.67137890625,-0.46101171875,-3.25985546875,-16.23841796875,3.96148046875,-0.8679375,-6.78591015625,-8.02191015625,-2.636453125,-1.533875,-2.924609375,-7.9020625,-10.77011328125,-4.75347265625,-3.97235546875,-6.68477734375,-7.9491875,1.384421875,-3.2173125,-5.32169140625,-9.80710546875,-10.9333125,-7.246078125,-8.04946875,-2.8104609375,-7.609359375
-0.00925390624999967,-11.7254140625,-4.949515625,4.3759140625,1.52937890625,-0.620011718750001,-3.80185546875,-14.81041796875,3.53048046875,-1.1909375,-5.23191015625,-7.48591015625,4.902546875,-2.614875,-2.218609375,-5.9260625,-12.12111328125,-5.86147265625,-4.85535546875,-5.61177734375,-7.5161875,0.985421875,-4.5603125,-5.94469140625,-9.83910546875,-10.3313125,-7.976078125,-9.47346875,-3.8724609375,-8.049359375
1.88374609375,-8.7984140625,-4.449515625,4.4499140625,0.299378906249999,-1.16901171875,-4.86185546875,-13.07841796875,3.33048046875,-1.4779375,-4.16791015625,-7.33791015625,11.881546875,-3.115875,-1.709609375,-4.3090625,-13.65411328125,-6.51247265625,-5.10535546875,-4.48277734375,-6.7821875,0.465421875000001,-5.2733125,-6.14069140625,-9.18710546875,-8.2123125,-8.211078125,-10.76046875,-4.5084609375,-7.448359375
3.76774609375,-5.8674140625,-4.470515625,4.2169140625,-0.623621093750001,-1.86901171875,-6.05885546875,-11.54441796875,3.29248046875,-1.5799375,-3.74991015625,-7.47091015625,15.802546875,-2.910875,-1.500609375,-3.3190625,-14.54611328125,-6.60247265625,-4.71535546875,-3.51477734375,-5.8801875,-0.0525781250000001,-5.2713125,-5.88069140625,-7.97910546875,-5.2883125,-7.990078125,-11.59146875,-4.5224609375,-5.990359375
4.81674609375,-3.7144140625,-4.725515625,3.5699140625,-0.95162109375,-2.37501171875,-6.82285546875,-10.50041796875,3.33648046875,-1.4229375,-3.84791015625,-7.60391015625,15.477546875,-2.055875,-1.507609375,-2.8890625,-13.67111328125,-6.14547265625,-3.75135546875,-2.74677734375,-4.8601875,-0.351578125,-4.5533125,-5.11969140625,-6.38210546875,-2.4133125,-7.342078125,-11.67146875,-3.7804609375,-3.978359375
4.79874609375,-2.7234140625,-4.838515625,2.6479140625,-0.64162109375,-2.41801171875,-6.67585546875,-10.02041796875,3.44848046875,-1.0229375,-4.13091015625,-7.41991015625,11.572546875,-0.800875,-1.528609375,-2.7090625,-10.51611328125,-5.27447265625,-2.37235546875,-2.06777734375,-3.7201875,-0.243578124999999,-3.2353125,-3.85169140625,-4.56710546875,-0.3173125,-6.324078125,-10.89446875,-2.3094609375,-1.751359375
4.11974609375,-2.8714140625,-4.607515625,1.7809140625,0.0493789062499994,-1.96001171875,-5.52085546875,-10.05641796875,3.65148046875,-0.4969375,-4.24791015625,-6.75191015625,6.145546875,0.470124999999999,-1.379609375,-2.4240625,-5.77311328125,-4.20947265625,-0.83835546875,-1.32077734375,-2.4751875,0.305421875,-1.5573125,-2.18269140625,-2.70610546875,0.6016875,-5.080078125,-9.44646875,-0.3654609375,0.374640625000001
3.53474609375,-3.8324140625,-4.100515625,1.3419140625,0.658378906249999,-1.21401171875,-3.74785546875,-10.49141796875,3.91648046875,-0.0489375000000001,-3.99791015625,-5.69691015625,1.501546875,1.363125,-0.992609375,-1.8270625,-1.03411328125,-3.20847265625,0.537644531250001,-0.41777734375,-1.2171875,1.146421875,0.1376875,-0.35269140625,-0.97810546875,0.3786875,-3.857078125,-7.73046875,1.6395390625,2.158640625
3.75674609375,-5.0914140625,-3.545515625,1.5919140625,0.732378906249999,-0.51501171875,-2.03185546875,-11.07041796875,4.11748046875,0.0990625000000005,-3.39491015625,-4.58391015625,-0.971453125,1.595125,-0.432609375,-0.9560625,2.20988671875,-2.49047265625,1.46464453125,0.59322265625,-0.1251875,2.037421875,1.4956875,1.31130859375,0.42589453125,-0.5803125,-2.929078125,-6.15546875,3.2765390625,3.483640625
5.10374609375,-6.0604140625,-3.099515625,2.5689140625,0.0903789062499998,-0.102011718750001,-0.94185546875,-11.35241796875,4.09448046875,-0.1629375,-2.60191015625,-3.78191015625,-1.349453125,1.110125,0.181390625,-0.0360624999999999,3.49388671875,-2.16447265625,1.78764453125,1.55622265625,0.6058125,2.785421875,2.2596875,2.50730859375,1.34189453125,-1.6953125,-2.468078125,-4.91846875,4.2775390625,4.373640625
7.30174609375,-6.2164140625,-2.698515625,4.0519140625,-1.01862109375,0.0399882812499994,-0.61485546875,-10.83941796875,3.76948046875,-0.7069375,-1.77291015625,-3.45691015625,-0.789453125,0.126124999999999,0.798390625,0.7109375,3.51288671875,-2.15847265625,1.58164453125,2.33622265625,0.8908125,3.344421875,2.3876875,3.10030859375,1.72789453125,-2.4603125,-2.434078125,-3.93346875,4.6225390625,4.943640625
9.57074609375,-5.2934140625,-2.094515625,5.6169140625,-1.99362109375,0.174988281249999,-0.70585546875,-9.22441796875,3.21948046875,-1.1659375,-0.95191015625,-3.44491015625,-0.538453125,-0.917875,1.492390625,1.2379375,3.46488671875,-2.24047265625,1.14564453125,2.93422265625,0.8378125,3.782421875,2.0686875,3.19030859375,1.71489453125,-2.6043125,-2.593078125,-2.97146875,4.5035390625,5.300640625
11.00374609375,-3.4454140625,-1.053515625,6.7919140625,-2.18262109375,0.62898828125,-0.63185546875,-6.57641796875,2.64648046875,-1.1029375,-0.0929101562499999,-3.34591015625,-1.022453125,-1.551875,2.388390625,1.6949375,4.16388671875,-2.12747265625,0.864644531250001,3.48922265625,0.7108125,4.145421875,1.6056875,3.04030859375,1.55989453125,-2.1373125,-2.663078125,-1.92346875,4.1485390625,5.449640625
10.94474609375,-1.2474140625,0.444484375,7.2189140625,-1.26862109375,1.51698828125,0.0321445312499998,-3.35841796875,2.25248046875,-0.2799375,0.80708984375,-2.80691015625,-1.647453125,-1.509875,3.511390625,2.2719375,5.54088671875,-1.66447265625,0.987644531250001,4.15022265625,0.7648125,4.318421875,1.2256875,2.91030859375,1.49889453125,-1.3013125,-2.504078125,-0.98346875,3.6615390625,5.271640625
9.15174609375,0.5265859375,2.141484375,6.7199140625,0.512378906249999,2.60498828125,1.25814453125,-0.32441796875,2.10048046875,1.1700625,1.62308984375,-1.76791015625,-1.415453125,-0.861875,4.689390625,3.0309375,6.76888671875,-0.95247265625,1.48364453125,4.93022265625,1.1068125,4.006421875,0.9556875,2.90130859375,1.62189453125,-0.4393125,-2.208078125,-0.59546875,2.9805390625,4.608640625
5.83074609375,1.2625859375,3.588484375,5.3169140625,2.46337890625,3.42498828125,2.59714453125,1.69758203125,2.09048046875,2.7840625,2.14408984375,-0.50691015625,0.104546875,0.0471249999999994,5.606390625,3.8479375,6.80988671875,-0.317472656250001,2.07264453125,5.67222265625,1.6608125,2.883421875,0.6636875,2.94230859375,1.86289453125,0.1356875,-2.017078125,-1.18946875,2.0035390625,3.413640625
1.73374609375,0.8035859375,4.329484375,3.2769140625,3.79437890625,3.59498828125,3.54014453125,2.17158203125,2.09548046875,4.0180625,2.25008984375,0.55308984375,2.233546875,0.839124999999999,5.998390625,4.5129375,5.01388671875,-0.10547265625,2.41464453125,6.14322265625,2.2558125,0.862421875000001,0.2236875,2.89530859375,2.09189453125,0.2476875,-2.111078125,-2.86746875,0.7725390625,1.876640625
-1.79825390625,-0.4884140625,4.114484375,1.1699140625,4.05637890625,3.11798828125,3.92714453125,1.18258203125,2.16248046875,4.5670625,2.05808984375,1.11608984375,3.578546875,1.329125,5.831390625,4.8709375,1.52288671875,-0.43347265625,2.34464453125,6.18822265625,2.7448125,-1.712578125,-0.3183125,2.69530859375,2.21589453125,-0.0873125000000001,-2.436078125,-5.24446875,-0.4204609375,0.436640625
-3.19625390625,-1.9454140625,3.062484375,-0.2030859375,3.34437890625,2.42698828125,4.05414453125,-0.538417968749999,2.56148046875,4.5200625,1.90508984375,1.14708984375,3.081546875,1.616125,5.351390625,4.8919375,-2.67811328125,-1.05647265625,1.98464453125,5.81822265625,3.0548125,-4.087578125,-0.7003125,2.42230859375,2.23089453125,-0.6763125,-2.683078125,-7.54346875,-1.0984609375,-0.341359375
-1.44625390625,-2.9604140625,1.654484375,-0.101085937500001,2.18237890625,2.11998828125,4.37714453125,-2.01541796875,3.60948046875,4.2750625,2.14408984375,0.80808984375,0.872546875,1.956125,4.933390625,4.6319375,-6.10011328125,-1.49447265625,1.65664453125,5.17322265625,3.1548125,-5.412578125,-0.5813125,2.23730859375,2.16989453125,-1.2423125,-2.462078125,-8.92846875,-0.8174609375,-0.0253593749999999
3.18874609375,-3.2844140625,0.514484375,1.7489140625,1.17037890625,2.57398828125,5.07614453125,-2.60341796875,5.37248046875,4.2600625,2.88708984375,0.28308984375,-1.787453125,2.526125,4.836390625,4.1109375,-7.43011328125,-1.34147265625,1.62264453125,4.38422265625,2.9798125,-5.196578125,0.1946875,2.22630859375,1.99789453125,-1.5463125,-1.589078125,-8.92146875,0.5225390625,1.411640625
9.02574609375,-3.0724140625,0.052484375,4.8779140625,0.64637890625,3.67398828125,5.82014453125,-2.34141796875,7.47248046875,4.6570625,3.87908984375,-0.36091015625,-3.363453125,3.250125,5.007390625,3.2409375,-6.25011328125,-0.58247265625,1.84364453125,3.43522265625,2.3928125,-3.688578125,1.3836875,2.25330859375,1.55989453125,-1.5023125,-0.289078125,-7.70246875,2.4795390625,3.435640625
13.49674609375,-2.6964140625,0.228484375,8.1729140625,0.578378906249999,4.88998828125,5.89214453125,-1.92341796875,9.14848046875,5.3310625,4.61508984375,-1.14391015625,-2.942453125,3.834125,5.105390625,1.9039375,-3.37911328125,0.32152734375,1.94864453125,2.17622265625,1.2698125,-1.897578125,2.3616875,1.98530859375,0.63989453125,-1.1913125,0.827921875,-6.09646875,4.1445390625,5.077640625
14.06474609375,-2.4684140625,0.597484375,10.3479140625,0.72537890625,5.59698828125,4.55914453125,-2.34841796875,9.55248046875,5.9700625,4.62908984375,-2.03791015625,-0.510453125,3.973125,4.718390625,0.1119375,-0.48011328125,0.66752734375,1.45364453125,0.46522265625,-0.3511875,-1.176578125,2.4256875,1.08030859375,-0.88210546875,-0.7803125,1.044921875,-5.20346875,4.5255390625,5.310640625
9.19874609375,-2.4944140625,0.632484375,10.5399140625,0.860378906249999,5.42698828125,1.43514453125,-4.41941796875,8.13748046875,6.3150625,3.73908984375,-2.90891015625,3.382546875,3.557125,3.616390625,-1.9280625,0.86288671875,-0.0984726562500002,0.0606445312500004,-1.68977734375,-2.2461875,-2.561578125,1.1586875,-0.59669140625,-2.93010546875,-0.4153125,-0.101078125,-5.85546875,3.0235390625,3.516640625
-0.91425390625,-2.7064140625,0.063484375,8.7009140625,0.886378906249999,4.40498828125,-3.33785546875,-8.31641796875,4.94048046875,6.2900625,2.07808984375,-3.62291015625,8.092546875,2.691125,1.851390625,-3.9650625,0.0278867187499996,-2.07147265625,-2.19035546875,-4.14477734375,-4.1541875,-6.223578125,-1.3663125,-2.92269140625,-5.29510546875,-0.1623125,-2.581078125,-8.19846875,-0.2824609375,-0.220359374999999
-14.24225390625,-3.0114140625,-0.980515625,5.6009140625,0.796378906249999,2.85698828125,-9.11885546875,-13.44141796875,0.63848046875,5.9990625,-0.0149101562499998,-4.19891015625,13.112546875,1.578125,-0.312609375,-5.9160625,-2.36111328125,-4.83347265625,-4.96335546875,-6.74077734375,-5.9861875,-11.356578125,-4.6453125,-5.60869140625,-7.78810546875,-0.00131250000000005,-5.885078125,-11.63846875,-4.6724609375,-5.129359375
-14.24225390625,-3.0114140625,-0.980515625,5.6009140625,0.796378906249999,2.85698828125,-9.11885546875,-13.44141796875,0.63848046875,5.9990625,-0.0149101562499998,-4.19891015625,13.112546875,1.578125,-0.312609375,-5.9160625,-2.36111328125,-4.83347265625,-4.96335546875,-6.74077734375,-5.9861875,-11.356578125,-4.6453125,-5.60869140625,-7.78810546875,-0.00131250000000005,-5.885078125,-11.63846875,-4.6724609375,-5.129359375
