"Fp1","Fpz","Fp2","F7","F3","Fz","F4","F8","FC5","FC1","FC2","FC6","T7","C3","Cz","C4","T8","CP5","CP1","CP2","CP6","P7","P3","Pz","P4","P8","POz","O1","Oz","O2"
-14.5004765625,-18.33210546875,-15.19337109375,-25.73640625,-17.2755390625,-24.08417578125,-21.8106484375,8.9441015625,-28.80625,-18.546421875,-22.54892578125,-34.372703125,-32.46954296875,-28.13643359375,-25.29298046875,-25.12193359375,23.83068359375,-27.994609375,-23.75965234375,-24.487921875,-35.7166796875,4.36735546875,-20.96288671875,-17.829703125,-11.615375,-11.56939453125,-5.61010546875,-21.11863671875,6.47943359375,-1.55055859375
-7.5334765625,-15.14110546875,-12.03337109375,-25.13240625,-13.0405390625,-15.00417578125,-22.3986484375,11.0591015625,-17.12025,-15.338421875,-19.61692578125,-23.762703125,-21.63754296875,-23.65943359375,-19.00598046875,-20.07093359375,22.53068359375,-25.130609375,-19.88965234375,-20.556921875,-30.1466796875,4.58535546875,-17.96788671875,-14.848703125,-8.509375,-5.69139453125,-4.10010546875,-21.04163671875,6.31343359375,0.92544140625
-1.9794765625,-11.74110546875,-8.17637109375,-24.20840625,-10.3235390625,-8.00617578125,-21.9436484375,11.3591015625,-10.80225,-12.401421875,-16.27592578125,-10.792703125,-15.01854296875,-20.64443359375,-13.79898046875,-14.01193359375,22.84268359375,-23.468609375,-16.47265234375,-16.363921875,-23.4886796875,3.64835546875,-15.77588671875,-12.295703125,-5.487375,0.98460546875,-2.74010546875,-21.09663671875,5.51443359375,2.83044140625
2.1105234375,-8.25110546875,-3.90637109375,-22.63340625,-9.4835390625,-3.03517578125,-18.9896484375,10.0441015625,-9.72325,-9.741421875,-12.41292578125,3.989296875,-11.88454296875,-18.85743359375,-9.59998046875,-6.95593359375,24.55868359375,-22.524609375,-13.43365234375,-11.906921875,-15.9126796875,2.40535546875,-14.27488671875,-10.144703125,-2.611375,7.99660546875,-1.59510546875,-21.28663671875,4.10543359375,3.92844140625
5.0975234375,-4.83710546875,0.21062890625,-20.09640625,-10.3325390625,0.54182421875,-12.4666484375,8.2391015625,-11.92525,-7.188421875,-8.01392578125,18.488296875,-10.06854296875,-17.47743359375,-6.01298046875,0.59906640625,26.96368359375,-21.250609375,-10.50065234375,-7.294921875,-8.1086796875,2.35735546875,-13.00288671875,-8.191703125,0.0376249999999994,14.31560546875,-0.66210546875,-21.48063671875,2.40743359375,4.12044140625
7.4315234375,-1.68010546875,3.57962890625,-16.56240625,-12.1115390625,3.41682421875,-2.8326484375,7.5791015625,-14.68025,-4.501421875,-3.29792578125,29.424296875,-7.41554296875,-15.58643359375,-2.66798046875,7.64906640625,29.33468359375,-18.680609375,-7.40865234375,-2.829921875,-1.1456796875,4.71835546875,-11.42688671875,-6.212703125,2.299625,18.62560546875,0.0918945312500004,-21.48963671875,0.89943359375,3.45944140625
9.2955234375,0.93689453125,5.71462890625,-12.51940625,-13.7075390625,5.89182421875,7.5293515625,9.3041015625,-15.72325,-1.644421875,1.11807421875,33.520296875,-3.14954296875,-12.73643359375,0.447019531249998,12.84206640625,31.24268359375,-14.579609375,-4.16465234375,0.897078124999998,3.7653203125,9.52135546875,-9.32488671875,-4.194703125,3.849625,19.77460546875,0.63289453125,-21.26263671875,-0.0535664062499999,2.08644140625
10.4915234375,2.63289453125,6.33662890625,-8.92440625,-13.9895390625,7.80882421875,15.1693515625,13.3921015625,-14.02625,1.054578125,4.30907421875,29.247296875,1.71445703125,-9.21443359375,2.92201953125,14.95006640625,32.52068359375,-9.651609375,-1.14765234375,3.136078125,5.6753203125,15.39735546875,-6.95088671875,-2.389703125,4.290625,17.32560546875,0.84989453125,-20.97363671875,-0.35956640625,0.205441406249999
10.7105234375,3.15489453125,5.52062890625,-6.74640625,-12.1525390625,8.84582421875,17.2623515625,18.3351015625,-9.85125,3.062578125,5.50307421875,18.212296875,5.21345703125,-5.79843359375,4.23101953125,13.57106640625,33.05868359375,-5.090609375,1.11134765625,3.380078125,4.4173203125,20.28035546875,-4.81888671875,-1.110703125,3.468625,12.02160546875,0.73089453125,-20.85663671875,-0.11356640625,-1.83255859375
9.9185234375,2.64389453125,3.80262890625,-6.35640625,-8.0055390625,8.91182421875,13.0653515625,21.7951015625,-4.27325,4.006578125,4.60707421875,5.037296875,5.91345703125,-3.22843359375,4.15101953125,9.56506640625,32.71868359375,-1.811609375,2.28434765625,1.781078125,0.895320312499997,22.62235546875,-3.28888671875,-0.434703125,1.748625,5.74360546875,0.517894531250001,-20.90463671875,0.61643359375,-3.47855859375
8.4945234375,1.60189453125,2.01162890625,-7.25240625,-2.1635390625,8.30282421875,4.2833515625,21.7411015625,1.38375,3.887578125,2.31707421875,-4.655703125,3.92545703125,-1.83043359375,2.94801953125,4.77906640625,31.46568359375,0.057390625,2.42934765625,-0.824921875000001,-3.1986796875,22.25435546875,-2.33288671875,-0.128703125,-0.0673750000000011,0.77760546875,0.62989453125,-20.77763671875,1.85943359375,-4.15355859375
6.9695234375,0.52789453125,0.82362890625,-8.33040625,4.0214609375,7.49982421875,-5.7236484375,17.4841015625,5.90275,2.972578125,-0.30092578125,-7.140703125,0.77645703125,-1.52243359375,1.18601953125,1.11706640625,29.58768359375,1.058390625,1.85034765625,-3.366921875,-6.1986796875,20.30535546875,-1.68388671875,0.111296875,-1.202375,-1.30239453125,1.33589453125,-20.02563671875,3.59243359375,-3.59355859375
5.6475234375,-0.46110546875,0.33762890625,-8.54840625,8.8994609375,6.79182421875,-13.3596484375,10.1051015625,8.34175,1.527578125,-2.42792578125,-2.526703125,-1.58354296875,-2.08943359375,-0.666980468750001,-0.43793359375,27.70068359375,1.831390625,0.795347656249998,-5.143921875,-7.2756796875,18.32035546875,-1.18488671875,0.344296875,-1.398375,-0.39239453125,2.44989453125,-18.46163671875,5.53743359375,-2.11055859375
4.4575234375,-1.66610546875,0.0396289062499996,-7.51340625,11.2054609375,6.07782421875,-16.1616484375,2.1101015625,8.17175,-0.317421875000001,-3.84692578125,5.474296875,-1.84854296875,-3.41743359375,-2.49098046875,-0.22793359375,26.39568359375,2.599390625,-0.72365234375,-6.138921875,-6.7396796875,17.28735546875,-1.02088671875,0.271296875,-1.071375,2.21660546875,3.32989453125,-16.38863671875,7.12543359375,-0.52655859375
3.1765234375,-3.45910546875,-0.79937109375,-5.63240625,10.6984609375,5.07982421875,-13.6226484375,-3.5218984375,5.46675,-2.484421875,-4.83692578125,11.685296875,0.16745703125,-5.48443359375,-4.42198046875,0.46806640625,25.79268359375,3.099390625,-2.83265234375,-6.869921875,-5.6856796875,17.27635546875,-1.62288671875,-0.572703125,-1.022375,4.68660546875,3.20489453125,-14.51763671875,7.69343359375,0.23944140625
1.7955234375,-5.82510546875,-2.53237109375,-3.72140625,8.3704609375,3.76882421875,-7.1306484375,-4.4868984375,1.03075,-4.721421875,-5.77492578125,12.166296875,3.77145703125,-8.13143359375,-6.51998046875,0.29906640625,25.47668359375,2.965390625,-5.50965234375,-7.912921875,-5.2806796875,17.79935546875,-3.30088671875,-2.425703125,-1.907375,5.64860546875,1.66589453125,-13.57463671875,6.85143359375,-0.32555859375
0.6495234375,-8.17410546875,-4.77837109375,-2.43440625,6.0164609375,2.57282421875,0.897351562500001,-0.0468984375000012,-3.75525,-6.500421875,-6.75092578125,5.932296875,7.97045703125,-10.88543359375,-8.51298046875,-1.38593359375,24.89468359375,2.152390625,-8.36965234375,-9.462921875,-6.1756796875,18.39435546875,-5.88688671875,-5.025703125,-3.810375,4.78160546875,-1.01210546875,-13.85363671875,4.77143359375,-2.05455859375
0.1555234375,-9.62010546875,-6.58637109375,-1.99340625,5.2854609375,2.08982421875,8.1553515625,8.6721015625,-7.46125,-7.232421875,-7.52092578125,-5.019703125,11.82645703125,-13.10143359375,-9.90798046875,-4.32493359375,23.84268359375,0.976390624999999,-10.79965234375,-11.258921875,-8.3516796875,18.79435546875,-8.74788671875,-7.688703125,-6.218375,2.68460546875,-3.96310546875,-15.04663671875,2.18043359375,-4.24755859375
0.3495234375,-9.58910546875,-7.02837109375,-2.38740625,6.7004609375,2.53882421875,13.1803515625,19.0321015625,-9.30225,-6.731421875,-7.82492578125,-17.063703125,14.35945703125,-14.39643359375,-10.39998046875,-7.70493359375,22.58768359375,-0.285609375,-12.38565234375,-12.891921875,-11.3566796875,18.58235546875,-11.19888671875,-9.729703125,-8.405375,0.26960546875,-6.21910546875,-16.50563671875,-0.0265664062499997,-6.13455859375
0.6925234375,-8.25410546875,-5.77137109375,-3.69740625,9.3104609375,3.46182421875,15.4103515625,27.8051015625,-9.50425,-5.529421875,-7.75492578125,-26.699703125,14.39445703125,-15.00343359375,-10.19298046875,-10.73793359375,21.60468359375,-1.765609375,-13.26965234375,-14.179921875,-14.6116796875,16.91935546875,-12.95788671875,-10.887703125,-9.889375,-1.81839453125,-7.24010546875,-17.70063671875,-1.27656640625,-7.30455859375
0.4125234375,-6.37310546875,-3.17837109375,-6.09040625,11.2504609375,3.96882421875,14.8513515625,32.3671015625,-9.00925,-4.677421875,-7.79692578125,-31.779703125,10.85645703125,-15.65243359375,-9.93598046875,-12.99793359375,21.20668359375,-3.906609375,-14.06765234375,-15.256921875,-17.5376796875,12.96935546875,-14.23388671875,-11.393703125,-10.622375,-3.34739453125,-7.10210546875,-18.46963671875,-1.54556640625,-7.78555859375
-0.8774765625,-4.66710546875,0.10462890625,-9.42940625,10.8744609375,3.34382421875,11.7703515625,31.6851015625,-8.74525,-5.100421875,-8.46392578125,-31.851703125,3.52645703125,-17.01343359375,-10.29798046875,-14.38693359375,21.39568359375,-6.930609375,-15.38165234375,-16.336921875,-19.5346796875,6.79035546875,-15.37888671875,-11.676703125,-10.816375,-4.25439453125,-6.28910546875,-18.89963671875,-1.19956640625,-7.80555859375
-2.8084765625,-3.28710546875,3.62662890625,-12.98940625,7.7154609375,1.53382421875,6.5693515625,26.5591015625,-9.04525,-6.997421875,-9.88192578125,-27.806703125,-6.35754296875,-19.17743359375,-11.54798046875,-14.94193359375,21.97468359375,-10.438609375,-17.32465234375,-17.421921875,-20.0216796875,-0.205644531250002,-16.50288671875,-11.998703125,-10.666375,-4.34139453125,-5.32610546875,-19.07763671875,-0.65556640625,-7.49755859375
-4.4904765625,-1.84910546875,7.27462890625,-15.69640625,2.6764609375,-0.80317578125,-0.214648437499999,18.9581015625,-9.67325,-9.746421875,-11.68292578125,-21.212703125,-16.33554296875,-21.58843359375,-13.41798046875,-14.72893359375,22.69968359375,-13.550609375,-19.44265234375,-18.253921875,-18.6486796875,-5.80164453125,-17.40188671875,-12.339703125,-10.212375,-3.24939453125,-4.56910546875,-18.98263671875,-0.18056640625,-6.83455859375
-5.1674765625,0.0838945312500003,11.05662890625,-16.76640625,-2.5345390625,-2.71317578125,-7.8446484375,10.8771015625,-10.31725,-12.311421875,-13.24292578125,-13.616703125,-23.76454296875,-23.42643359375,-15.28898046875,-13.84693359375,23.26868359375,-15.459609375,-21.01665234375,-18.497921875,-15.5386796875,-8.18664453125,-17.78288671875,-12.524703125,-9.390375,-0.74239453125,-4.17210546875,-18.55263671875,0.12443359375,-5.76655859375
-4.7244765625,2.58289453125,14.88962890625,-16.17640625,-6.2285390625,-3.46417578125,-15.2616484375,3.4701015625,-10.97225,-13.739421875,-13.96092578125,-5.944703125,-26.95754296875,-24.03843359375,-16.45998046875,-12.38393359375,23.27868359375,-15.852609375,-21.40865234375,-17.905921875,-11.3016796875,-6.88564453125,-17.44388671875,-12.335703125,-8.097375,2.98760546875,-4.06610546875,-17.70863671875,0.29943359375,-4.33455859375
-3.6374765625,5.38689453125,18.62462890625,-14.52340625,-7.3035390625,-2.80817578125,-20.9726484375,-2.9768984375,-11.81525,-13.411421875,-13.36692578125,1.776296875,-25.67854296875,-23.09443359375,-16.30498046875,-10.28593359375,22.41068359375,-14.892609375,-20.20865234375,-16.303921875,-6.7266796875,-2.78064453125,-16.25088671875,-11.504703125,-6.180375,7.22960546875,-3.90710546875,-16.27063671875,0.55443359375,-2.65355859375
-2.4864765625,8.20389453125,22.20562890625,-12.48440625,-5.4275390625,-0.88517578125,-23.2026484375,-8.3268984375,-12.74025,-11.101421875,-11.14492578125,10.050296875,-20.87654296875,-20.53343359375,-14.36298046875,-7.33493359375,20.77168359375,-12.901609375,-17.26065234375,-13.538921875,-2.4346796875,2.56235546875,-14.05888671875,-9.716703125,-3.455375,10.93160546875,-3.14910546875,-13.96163671875,1.22943359375,-0.85855859375
-1.5134765625,10.93389453125,25.72262890625,-10.39640625,-1.0475390625,1.96682421875,-20.4626484375,-11.8288984375,-13.12725,-7.010421875,-7.25192578125,18.893296875,-14.11954296875,-16.55943359375,-10.50498046875,-3.40293359375,18.98268359375,-10.170609375,-12.73265234375,-9.583921875,1.2203203125,7.62435546875,-10.81288671875,-6.789703125,0.113624999999999,13.01860546875,-1.36410546875,-10.65263671875,2.56843359375,0.86044140625
-0.5674765625,13.62789453125,29.31862890625,-8.27740625,4.6894609375,5.30882421875,-12.3496484375,-12.0088984375,-12.13825,-1.797421875,-2.08792578125,26.883296875,-7.09654296875,-11.71943359375,-5.13298046875,1.18006640625,17.84868359375,-7.021609375,-7.23665234375,-4.746921875,4.0343203125,11.30635546875,-6.78488671875,-2.939703125,4.218625,12.80660546875,1.39189453125,-6.66563671875,4.44643359375,2.19144140625
0.6385234375,16.33989453125,33.06962890625,-6.09640625,10.2394609375,8.63982421875,-0.0746484374999992,-7.4648984375,-9.29425,3.553578125,3.48407421875,31.311296875,-1.26354296875,-6.87443359375,0.805019531249998,5.55206640625,17.93268359375,-3.924609375,-1.75865234375,0.276078125,5.9153203125,13.01235546875,-2.65488671875,1.154296875,8.232625,10.39760546875,4.48589453125,-2.81863671875,6.30443359375,2.75644140625
2.2135234375,18.96989453125,36.85362890625,-3.98840625,14.2084609375,11.49682421875,13.6803515625,1.8781015625,-4.85425,8.029578125,8.36907421875,29.658296875,2.39545703125,-2.95243359375,6.10701953125,8.68106640625,19.33168359375,-1.457609375,2.66034765625,4.608078125,7.0083203125,12.71535546875,0.71411328125,4.581296875,11.471625,6.78060546875,6.96989453125,-0.082636718749999,7.37243359375,2.28044140625
3.8995234375,21.15689453125,40.21562890625,-2.26440625,15.8324609375,13.54882421875,25.5493515625,13.9251015625,0.236749999999999,10.878578125,11.56507421875,21.354296875,3.48045703125,-0.612433593749998,9.74301953125,9.86306640625,21.62968359375,-0.126609375000001,5.28934765625,7.490078125,7.6993203125,10.93435546875,2.62111328125,6.543296875,13.435625,3.33460546875,7.98489453125,0.879363281250001,6.99743359375,0.70444140625
5.0695234375,22.27289453125,42.31262890625,-1.29240625,15.0524609375,14.56582421875,32.4753515625,24.7891015625,4.70375,11.724578125,12.40007421875,8.410296875,2.19145703125,-0.0664335937499985,11.09701953125,8.94706640625,23.83468359375,-0.221609375,5.85334765625,8.427078125,8.2943203125,8.49435546875,2.73311328125,6.576296875,13.833625,0.91860546875,7.02389453125,-0.0346367187500007,4.86343359375,-1.89055859375
4.9805234375,21.62389453125,42.16362890625,-1.32740625,12.2784609375,14.30982421875,32.5533515625,30.4441015625,7.41075,10.533578125,10.63807421875,-5.540703125,-0.689542968750001,-1.13243359375,9.98601953125,6.19806640625,24.47768359375,-1.772609375,4.46534765625,7.182078125,8.6023203125,6.09135546875,1.06511328125,4.565296875,12.472625,-0.79739453125,3.99689453125,-2.42963671875,1.03843359375,-5.39455859375
3.1845234375,18.80589453125,39.13262890625,-2.37640625,8.1684609375,12.56882421875,25.5823515625,28.7611015625,7.74475,7.550578125,6.53407421875,-16.982703125,-3.90654296875,-3.40243359375,6.59901953125,2.06006640625,22.17868359375,-4.552609375,1.48934765625,3.781078125,7.8933203125,3.98635546875,-2.11388671875,0.710296875000001,9.257625,-3.08339453125,-0.78210546875,-5.65863671875,-4.07256640625,-9.64655859375
-0.1324765625,14.00089453125,33.36462890625,-4.17140625,3.5904609375,9.36182421875,13.2843515625,20.6181015625,5.78575,3.274578125,0.816074218750001,-23.866703125,-6.10254296875,-6.39343359375,1.48501953125,-2.93493359375,16.55868359375,-8.102609375,-2.54265234375,-1.398921875,5.4113203125,2.02235546875,-6.34588671875,-4.488703125,4.404625,-7.06839453125,-6.62710546875,-9.04363671875,-9.78356640625,-14.24355859375
-4.1414765625,8.01489453125,25.84562890625,-6.27440625,-0.4495390625,5.09582421875,-0.957648437499999,9.4211015625,2.20575,-1.596421875,-5.42892578125,-25.933703125,-6.41454296875,-9.65343359375,-4.48398046875,-8.11893359375,8.84368359375,-11.824609375,-6.98465234375,-7.553921875,1.0733203125,-0.0826445312500006,-10.99988671875,-10.251703125,-1.337375,-12.58639453125,-12.55710546875,-11.97163671875,-15.19156640625,-18.38755859375
-7.7114765625,2.03389453125,18.06862890625,-8.26340625,-3.0835390625,0.46982421875,-12.9666484375,-0.6228984375,-2.02125,-6.285421875,-11.00692578125,-24.178703125,-4.93254296875,-12.82343359375,-10.27998046875,-12.68193359375,1.55568359375,-15.123609375,-11.17665234375,-13.539921875,-4.1706796875,-2.42164453125,-15.33488671875,-15.624703125,-6.704375,-17.83839453125,-17.49610546875,-13.91163671875,-19.31456640625,-21.01355859375
-9.8764765625,-2.75210546875,11.51762890625,-9.83940625,-3.9525390625,-3.75517578125,-19.1856484375,-6.4168984375,-5.95125,-10.117421875,-14.93692578125,-20.015703125,-2.66054296875,-15.63143359375,-14.96498046875,-15.80693359375,-2.62431640625,-17.564609375,-14.56965234375,-18.154921875,-8.6106796875,-4.73864453125,-18.62788671875,-19.686703125,-10.280375,-20.16439453125,-20.57110546875,-14.42863671875,-21.32256640625,-21.20355859375
-10.2004765625,-5.52710546875,7.20862890625,-10.83740625,-3.3435390625,-6.97717578125,-18.1616484375,-7.1448984375,-8.91025,-12.688421875,-16.71592578125,-14.706703125,-0.99454296875,-17.83943359375,-17.89798046875,-16.93493359375,-2.10331640625,-18.926609375,-16.81465234375,-20.498921875,-10.5346796875,-6.49064453125,-20.34488671875,-21.783703125,-11.046375,-17.47539453125,-21.37810546875,-13.27663671875,-20.81956640625,-18.67255859375
-8.9224765625,-6.12810546875,5.40862890625,-11.23940625,-1.9845390625,-8.87417578125,-11.3076484375,-4.3118984375,-10.59525,-13.952421875,-16.45292578125,-9.264703125,-1.01654296875,-19.22643359375,-18.85498046875,-16.01793359375,2.92068359375,-19.206609375,-17.79865234375,-20.266921875,-9.0866796875,-7.11264453125,-20.29988671875,-21.727703125,-8.857375,-9.50839453125,-20.12910546875,-10.53563671875,-18.05256640625,-14.02555859375
-6.9024765625,-5.12110546875,5.58462890625,-11.21740625,-0.6855390625,-9.52317578125,-2.3966484375,-0.8368984375,-11.09725,-14.199421875,-14.81792578125,-4.625703125,-2.99254296875,-19.66643359375,-18.08898046875,-13.64093359375,10.50268359375,-18.602609375,-17.67065234375,-17.877921875,-4.7806796875,-6.36064453125,-18.76388671875,-19.878703125,-4.597375,1.76460546875,-17.61210546875,-6.72963671875,-13.92056640625,-8.64055859375
-5.3404765625,-3.61810546875,6.61262890625,-11.16340625,-0.0975390625000001,-9.43217578125,4.0543515625,0.3421015625,-10.87025,-13.937421875,-12.82092578125,-1.739703125,-6.28654296875,-19.26143359375,-16.30998046875,-10.90793359375,17.62868359375,-17.507609375,-16.83465234375,-14.390921875,0.578320312499999,-4.53564453125,-16.45088671875,-17.094703125,0.0696249999999994,12.73060546875,-14.98010546875,-2.78263671875,-9.75456640625,-4.20855859375
-5.3184765625,-2.84610546875,7.19062890625,-11.58340625,-0.6615390625,-9.35817578125,4.7133515625,-2.3848984375,-10.61325,-13.727421875,-11.47592578125,-1.422703125,-9.75754296875,-18.39843359375,-14.49398046875,-9.08993359375,21.32568359375,-16.452609375,-15.87265234375,-11.186921875,4.5793203125,-2.40564453125,-14.33688671875,-14.492703125,3.302625,19.46660546875,-13.37910546875,0.240363281250001,-6.88056640625,-2.12055859375
-7.3014765625,-3.63610546875,6.34462890625,-12.86540625,-2.6245390625,-9.91917578125,-1.1676484375,-8.5138984375,-11.02925,-14.003421875,-11.43792578125,-4.057703125,-12.40854296875,-17.62943359375,-13.52798046875,-9.12893359375,19.90768359375,-15.934609375,-15.34665234375,-9.482921875,5.2153203125,-0.84564453125,-13.31188671875,-13.055703125,3.815625,19.25860546875,-13.52110546875,1.52836328125,-6.13556640625,-2.95355859375
-10.8814765625,-6.04710546875,3.81162890625,-15.03740625,-5.9555390625,-11.25117578125,-11.4026484375,-15.5908984375,-12.49825,-14.896421875,-12.72692578125,-9.318703125,-13.89554296875,-17.42143359375,-13.83898046875,-11.21293359375,13.82568359375,-16.242609375,-15.56665234375,-9.848921875,1.8153203125,-0.447644531250001,-13.81988671875,-13.233703125,1.446625,11.78360546875,-15.39310546875,0.86136328125,-7.51056640625,-6.24055859375
-14.8704765625,-9.30410546875,0.16262890625,-17.63840625,-10.1195390625,-12.91417578125,-21.7246484375,-20.3378984375,-14.82625,-16.128421875,-14.65992578125,-15.989703125,-14.58854296875,-17.88843359375,-15.19098046875,-14.61393359375,5.63868359375,-17.346609375,-16.42365234375,-11.913921875,-4.5256796875,-1.38364453125,-15.66988671875,-14.711703125,-2.695375,-0.50139453125,-18.23110546875,-1.29763671875,-10.13156640625,-10.60355859375
-17.7214765625,-12.07810546875,-3.39837109375,-19.77740625,-13.9175390625,-14.05117578125,-27.5706484375,-20.1988984375,-17.21525,-17.056421875,-16.08792578125,-21.995703125,-15.17354296875,-18.67243359375,-16.75098046875,-17.90193359375,-1.02131640625,-18.927609375,-17.37765234375,-14.464921875,-11.2416796875,-3.50464453125,-18.09488671875,-16.508703125,-6.613375,-13.03639453125,-20.83010546875,-4.00063671875,-12.59656640625,-14.20455859375
-18.0964765625,-13.01810546875,-5.48837109375,-20.41640625,-15.6635390625,-13.70117578125,-26.0966484375,-14.5438984375,-18.54525,-16.899421875,-15.88992578125,-24.902703125,-16.07754296875,-19.05643359375,-17.42298046875,-19.50193359375,-3.06731640625,-20.467609375,-17.63865234375,-15.930921875,-15.3446796875,-6.43064453125,-20.05188671875,-17.385703125,-8.237375,-20.85439453125,-22.02710546875,-6.18263671875,-13.55356640625,-15.38655859375
-15.3884765625,-11.31810546875,-5.12337109375,-18.80640625,-13.8505390625,-11.21017578125,-17.4706484375,-4.9328984375,-17.86325,-15.086421875,-13.48792578125,-22.920703125,-17.04154296875,-18.26643359375,-16.33698046875,-18.39393359375,0.570683593750001,-21.353609375,-16.48265234375,-15.111921875,-14.8006796875,-9.48164453125,-20.58888671875,-16.405703125,-6.324375,-20.65039453125,-21.15710546875,-7.01863671875,-12.25756640625,-13.31655859375
-10.0194765625,-7.07910546875,-2.18537109375,-14.89540625,-8.0035390625,-6.60417578125,-4.7246484375,5.5491015625,-14.79425,-11.540421875,-9.12592578125,-15.875703125,-17.08154296875,-15.82443359375,-13.27298046875,-14.59893359375,8.38168359375,-20.977609375,-13.58265234375,-11.748921875,-9.5476796875,-11.61364453125,-19.15988671875,-13.356703125,-1.005375,-12.20239453125,-18.27610546875,-6.15663671875,-8.86956640625,-8.32155859375
-3.3324765625,-1.32810546875,2.44862890625,-9.46340625,0.8534609375,-0.69517578125,7.7933515625,13.5111015625,-9.64925,-6.757421875,-3.75892578125,-5.439703125,-14.91054296875,-11.75043359375,-8.75598046875,-9.16793359375,16.98168359375,-18.878609375,-9.16665234375,-6.633921875,-1.5156796875,-11.64564453125,-15.76388671875,-8.811703125,6.312625,1.56460546875,-14.06310546875,-3.77863671875,-4.32456640625,-1.74255859375
2.8875234375,4.33189453125,7.18762890625,-3.83940625,10.4864609375,5.19482421875,16.4473515625,16.4941015625,-3.25225,-1.650421875,1.35807421875,5.615296875,-9.69054296875,-6.56743359375,-3.79498046875,-3.68593359375,22.77368359375,-14.926609375,-3.93265234375,-1.210921875,6.3143203125,-8.81464453125,-10.92188671875,-3.830703125,13.592625,15.84060546875,-9.50510546875,-0.498636718749999,0.10443359375,4.62244140625
7.0055234375,8.25689453125,10.28362890625,0.59059375,18.3254609375,9.68482421875,19.6193515625,13.7811015625,3.25475,2.694578125,5.08207421875,14.496296875,-1.79354296875,-1.19343359375,0.503019531249999,0.34506640625,23.61268359375,-9.529609375,1.15134765625,3.028078125,11.1903203125,-3.40964453125,-5.56488671875,0.456296875,18.944625,25.78460546875,-5.58710546875,2.79336328125,3.28743359375,9.15544140625
7.9505234375,9.22289453125,10.37962890625,2.82659375,22.4034609375,11.64782421875,17.6883515625,6.4891015625,8.48575,5.230578125,6.56607421875,19.025296875,6.91045703125,3.17356640625,3.15701953125,1.84906640625,19.50868359375,-3.776609375,5.01934765625,4.963078125,11.4573203125,2.93235546875,-0.924886718749999,3.109296875,21.122625,28.14260546875,-3.14910546875,5.06936328125,4.49343359375,10.81044140625
5.3875234375,6.71489453125,6.90562890625,2.44559375,21.9544609375,10.40582421875,12.0883515625,-2.9968984375,10.97575,5.157578125,5.29507421875,17.813296875,13.56645703125,5.26256640625,3.41401953125,0.269066406249999,12.18868359375,0.715390625,6.67834765625,4.040078125,6.8413203125,7.60235546875,1.68111328125,3.494296875,19.690625,22.19860546875,-2.82010546875,5.35636328125,3.43843359375,9.24944140625
-0.1754765625,1.10089453125,0.35162890625,-0.362406249999999,17.5644609375,5.99582421875,4.4333515625,-11.9298984375,9.69275,2.211578125,1.24307421875,10.520296875,15.59345703125,4.17056640625,0.966019531249998,-4.30293359375,4.07768359375,2.408390625,5.52934765625,0.409078124999999,-1.5926796875,8.12035546875,1.29411328125,1.429296875,15.084625,9.96360546875,-4.83110546875,3.10036328125,0.31543359375,4.88344140625
-7.3544765625,-6.30510546875,-7.65937109375,-4.82340625,10.9234609375,-0.56117578125,-3.7436484375,-18.0458984375,4.75175,-3.009421875,-4.82992578125,-1.571703125,12.07545703125,-0.0754335937499988,-3.73098046875,-10.87293359375,-2.68231640625,0.697390624999999,1.77334765625,-4.945921875,-11.6546796875,3.49835546875,-2.11388671875,-2.591703125,8.633625,-4.46039453125,-8.73910546875,-1.40663671875,-4.12056640625,-1.10955859375
-14.1334765625,-13.47810546875,-14.75437109375,-9.70940625,4.2204609375,-7.35617578125,-10.8866484375,-20.1078984375,-2.27225,-9.011421875,-11.28092578125,-15.355703125,4.37245703125,-6.24343359375,-9.35598046875,-17.55293359375,-6.91731640625,-3.584609375,-3.41765234375,-10.344921875,-20.5976796875,-4.99364453125,-7.39488671875,-7.380703125,2.299625,-16.37039453125,-13.38810546875,-6.89963671875,-8.61656640625,-7.03155859375
-18.5324765625,-18.36610546875,-18.73737109375,-13.67740625,-0.6405390625,-12.27817578125,-15.5166484375,-18.0798984375,-8.89625,-13.889421875,-16.05792578125,-26.836703125,-4.52354296875,-12.28243359375,-14.15998046875,-22.19493359375,-8.67331640625,-8.479609375,-8.29565234375,-14.017921875,-26.1596796875,-14.27564453125,-12.64288671875,-11.455703125,-2.021375,-22.39239453125,-17.32010546875,-11.59963671875,-11.82256640625,-11.26955859375
-19.4424765625,-19.77910546875,-18.64737109375,-15.73540625,-2.6815390625,-13.93717578125,-16.7326484375,-12.9778984375,-12.88725,-16.174421875,-17.62192578125,-32.940703125,-11.49454296875,-16.21743359375,-16.74298046875,-23.39893359375,-8.91131640625,-11.918609375,-11.31965234375,-14.924921875,-27.5876796875,-20.94764453125,-16.10088671875,-13.713703125,-3.349375,-21.87139453125,-19.47210546875,-14.05763671875,-12.88456640625,-12.97655859375
-17.0914765625,-17.91310546875,-15.21937109375,-15.59540625,-2.0305390625,-12.26717578125,-14.6596484375,-6.5168984375,-13.27725,-15.488421875,-15.70692578125,-32.900703125,-14.62454296875,-16.99943359375,-16.67098046875,-21.19893359375,-8.71231640625,-12.704609375,-11.82765234375,-13.217921875,-25.8876796875,-22.83164453125,-16.94788671875,-13.893703125,-2.003375,-16.80839453125,-19.62410546875,-13.80563671875,-11.81056640625,-12.33855859375
-12.7924765625,-14.11210546875,-10.37637109375,-13.71040625,0.3674609375,-8.43717578125,-10.3976484375,-0.598898437500001,-10.59525,-12.590421875,-11.37092578125,-28.168703125,-13.62654296875,-14.79143359375,-14.52998046875,-16.88093359375,-8.43831640625,-10.857609375,-10.14965234375,-9.998921875,-23.0156796875,-19.65564453125,-15.44088671875,-12.493703125,0.788624999999999,-10.31639453125,-18.27210546875,-11.36763671875,-9.30856640625,-10.19455859375
-8.1774765625,-10.05610546875,-6.12337109375,-11.02540625,3.2964609375,-4.22417578125,-5.4966484375,3.2281015625,-6.35825,-8.880421875,-6.38792578125,-21.088703125,-9.49354296875,-10.68243359375,-11.48898046875,-12.13693359375,-7.50631640625,-7.285609375,-7.22965234375,-6.591921875,-20.5676796875,-12.72564453125,-12.47988671875,-10.309703125,3.723625,-4.65439453125,-16.12110546875,-7.76563671875,-6.27056640625,-7.36055859375
-4.5004765625,-7.03410546875,-3.66237109375,-8.64140625,5.7224609375,-1.26017578125,-1.4836484375,4.1221015625,-2.32825,-5.790421875,-2.46892578125,-13.551703125,-3.92054296875,-6.17643359375,-8.75898046875,-8.26793359375,-5.06731640625,-3.223609375,-4.13565234375,-3.940921875,-18.9716796875,-4.18064453125,-9.08388671875,-8.026703125,6.039625,-0.24339453125,-13.68210546875,-3.98663671875,-3.35356640625,-4.23355859375
-2.4234765625,-5.70310546875,-3.23137109375,-7.53440625,6.9274609375,-0.51917578125,0.314351562500001,1.9381015625,0.00174999999999947,-4.427421875,-0.79592578125,-6.587703125,1.17345703125,-2.77043359375,-7.27698046875,-5.93393359375,-1.10731640625,0.129390624999999,-1.81365234375,-2.494921875,-17.7416796875,3.59535546875,-6.15088671875,-6.164703125,7.486625,3.72960546875,-11.27710546875,-0.784636718750001,-0.93456640625,-0.954558593750001
-2.2504765625,-6.28110546875,-4.54737109375,-8.31840625,6.3924609375,-2.22617578125,-1.1566484375,-3.0348984375,-0.398250000000001,-5.452421875,-1.91792578125,-0.836703125,4.06645703125,-1.67143359375,-7.65198046875,-5.38693359375,3.04368359375,1.749390625,-1.04365234375,-2.477921875,-16.4176796875,8.35235546875,-4.49388671875,-5.259703125,7.881625,7.80460546875,-9.31110546875,1.24236328125,0.65743359375,2.13044140625
-4.1534765625,-8.73910546875,-7.25137109375,-11.05540625,3.6854609375,-6.03417578125,-6.3036484375,-10.2598984375,-3.97825,-8.990421875,-5.76692578125,2.948296875,3.67845703125,-3.54143359375,-10.15298046875,-6.71893359375,5.39668359375,0.903390625,-2.36265234375,-4.090921875,-15.2886796875,8.42935546875,-4.82788671875,-5.920703125,6.807625,11.20160546875,-8.40210546875,1.60836328125,0.99743359375,4.23044140625
-8.0694765625,-12.76410546875,-11.00337109375,-15.17640625,-1.3565390625,-11.18217578125,-14.3746484375,-18.8348984375,-10.38425,-14.496421875,-11.62092578125,4.016296875,-0.0885429687499997,-8.22443359375,-14.56898046875,-9.78193359375,4.70568359375,-2.599609375,-5.84665234375,-7.385921875,-15.2496796875,3.36435546875,-7.54188671875,-8.567703125,3.791625,12.12060546875,-9.16510546875,0.0973632812500007,-0.30456640625,4.38044140625
-13.3744765625,-17.62010546875,-15.26737109375,-19.62440625,-8.2445390625,-16.54917578125,-23.3356484375,-27.3248984375,-18.25825,-20.711421875,-18.12592578125,2.209296875,-6.33154296875,-14.63543359375,-20.04398046875,-13.93293359375,1.38068359375,-8.159609375,-10.87265234375,-11.952921875,-17.0116796875,-5.66764453125,-12.34788671875,-13.032703125,-1.191375,9.07960546875,-11.76710546875,-2.99163671875,-3.28356640625,2.05944140625
-18.7944765625,-22.21010546875,-19.19837109375,-23.20640625,-15.6525390625,-20.81517578125,-30.4726484375,-33.9248984375,-25.42825,-25.957421875,-23.57892578125,-1.702703125,-13.44354296875,-21.00643359375,-25.16998046875,-18.00293359375,-2.86131640625,-14.402609375,-16.16065234375,-16.788921875,-20.3816796875,-16.04964453125,-18.16888671875,-18.390703125,-7.380375,2.21260546875,-15.64410546875,-6.80263671875,-7.40056640625,-2.34255859375
-22.8034765625,-25.41910546875,-21.85937109375,-24.99140625,-21.7565390625,-22.87317578125,-33.4656484375,-37.0698984375,-29.66725,-28.726421875,-26.48192578125,-6.374703125,-19.61154296875,-25.49243359375,-28.47598046875,-20.68993359375,-6.20831640625,-19.607609375,-20.18565234375,-20.576921875,-24.1986796875,-24.65364453125,-23.43588671875,-23.231703125,-13.364375,-6.46139453125,-19.60810546875,-10.19063671875,-11.61956640625,-7.56055859375
-24.2864765625,-26.55510546875,-22.62237109375,-24.53840625,-24.9405390625,-22.29017578125,-31.3576484375,-36.0818984375,-29.68525,-28.276421875,-26.11192578125,-10.626703125,-23.33654296875,-26.86043359375,-29.03198046875,-21.11393359375,-7.71431640625,-22.340609375,-21.75965234375,-22.209921875,-26.8646796875,-29.04464453125,-26.66188671875,-26.200703125,-17.620375,-13.94839453125,-22.29710546875,-12.17263671875,-14.76456640625,-11.96855859375
-22.9974765625,-25.56210546875,-21.44637109375,-21.91340625,-24.4375390625,-19.44217578125,-24.9446484375,-31.4168984375,-25.75025,-24.916421875,-22.77592578125,-13.934703125,-23.84254296875,-24.91243359375,-26.79798046875,-19.16293359375,-7.32831640625,-21.983609375,-20.45565234375,-21.220921875,-27.0646796875,-28.35964453125,-26.98988671875,-26.488703125,-19.100375,-17.72939453125,-22.69410546875,-12.30563671875,-15.93756640625,-14.25755859375
-19.6084765625,-22.98610546875,-18.88237109375,-17.63440625,-20.5985390625,-15.28317578125,-16.4696484375,-24.4518984375,-19.57725,-19.861421875,-17.67292578125,-16.361703125,-21.27554296875,-20.50243359375,-22.59498046875,-15.48293359375,-5.35231640625,-18.937609375,-16.73365234375,-17.952921875,-24.3286796875,-23.51364453125,-24.47288671875,-24.068703125,-17.595375,-16.90539453125,-20.52610546875,-10.83363671875,-14.86556640625,-13.93955859375
-15.4524765625,-19.78410546875,-15.94437109375,-12.65540625,-14.8035390625,-11.05317578125,-8.7746484375,-17.1498984375,-13.59925,-14.808421875,-12.48592578125,-18.107703125,-16.65954296875,-15.22343359375,-17.83098046875,-11.23293359375,-2.17331640625,-14.489609375,-11.80665234375,-13.468921875,-19.3076796875,-16.77264453125,-20.06088671875,-19.708703125,-13.818375,-12.53139453125,-16.41710546875,-8.60963671875,-12.04656640625,-11.51555859375
-12.0904765625,-17.10010546875,-13.85337109375,-8.25240625,-9.0255390625,-8.01217578125,-4.2546484375,-11.6698984375,-9.97125,-11.380421875,-8.85492578125,-19.095703125,-11.56154296875,-10.85043359375,-14.07498046875,-7.73193359375,1.50368359375,-10.361609375,-7.27665234375,-9.220921875,-13.6696796875,-10.88964453125,-15.27288671875,-14.742703125,-9.196375,-7.12239453125,-11.71510546875,-6.76863671875,-8.59056640625,-8.26055859375
-10.6834765625,-15.84610546875,-13.56637109375,-5.57840625,-5.0745390625,-7.00617578125,-3.9506484375,-9.6718984375,-9.62225,-10.496421875,-7.76792578125,-18.827703125,-7.43154296875,-8.61843359375,-12.44298046875,-5.95993359375,4.55068359375,-7.968609375,-4.49965234375,-6.470921875,-9.4516796875,-7.96664453125,-11.55888671875,-10.548703125,-5.316375,-3.51139453125,-7.93710546875,-6.17663671875,-5.71656640625,-5.64255859375
-11.2724765625,-16.13310546875,-15.11837109375,-4.96340625,-3.7285390625,-7.87317578125,-7.0756484375,-11.3068984375,-11.70925,-11.835421875,-9.02492578125,-16.602703125,-4.86754296875,-8.54643359375,-12.94798046875,-6.01193359375,5.96968359375,-7.632609375,-3.85565234375,-5.603921875,-7.9606796875,-8.44064453125,-9.53888671875,-7.875703125,-3.145375,-3.39339453125,-5.97510546875,-6.86563671875,-4.06856640625,-4.53855859375
-12.4694765625,-16.91710546875,-17.25937109375,-5.50240625,-4.3175390625,-9.18817578125,-11.2506484375,-14.6298984375,-13.85725,-13.764421875,-11.10392578125,-11.960703125,-3.31654296875,-9.27543359375,-14.27298046875,-6.86093359375,5.74668359375,-8.298609375,-4.41365234375,-5.794921875,-8.8626796875,-10.81864453125,-8.64988671875,-6.413703125,-2.443375,-6.22239453125,-5.58210546875,-7.90263671875,-3.33856640625,-4.71355859375
-12.0694765625,-16.41210546875,-17.95937109375,-5.48140625,-5.2255390625,-8.88617578125,-13.5586484375,-16.3728984375,-13.34625,-14.055421875,-11.79592578125,-5.091703125,-1.61454296875,-8.78543359375,-14.38798046875,-6.80493359375,5.09768359375,-8.175609375,-4.42265234375,-5.442921875,-10.2286796875,-12.58864453125,-7.57088671875,-5.065703125,-1.912375,-9.32239453125,-5.59310546875,-7.94663671875,-2.55456640625,-4.98155859375
-8.4774765625,-13.28610546875,-15.72537109375,-3.48140625,-5.0555390625,-5.56917578125,-12.0426484375,-14.0338984375,-8.71325,-11.177421875,-9.45392578125,3.074296875,0.87945703125,-5.69743359375,-11.78898046875,-4.49693359375,5.69568359375,-6.029609375,-2.45765234375,-3.251921875,-9.7266796875,-11.94364453125,-5.26888671875,-2.830703125,-0.161375,-9.52539453125,-4.81810546875,-6.21363671875,-0.88256640625,-4.08355859375
-2.0544765625,-7.87210546875,-10.87137109375,0.575593750000001,-3.6055390625,0.36582421875,-6.9456484375,-7.9208984375,-0.802250000000001,-5.398421875,-4.15792578125,11.067296875,3.43645703125,-0.347433593749999,-6.59998046875,0.03406640625,8.32768359375,-2.256609375,1.50834765625,0.729078124999999,-6.2556796875,-9.16564453125,-1.91288671875,0.311296875,3.118625,-5.45639453125,-2.98210546875,-3.14663671875,1.63143359375,-1.70055859375
4.6555234375,-2.39710546875,-5.68837109375,5.23359375,-1.9215390625,6.59482421875,-0.868648437499999,-1.4028984375,7.45375,1.074578125,2.02207421875,17.117296875,4.18145703125,5.14256640625,-0.770980468750001,5.07606640625,11.96368359375,1.084390625,5.88034765625,4.868078125,-0.893679687500002,-6.60164453125,1.03411328125,3.182296875,6.651625,1.12660546875,-1.00810546875,-0.25763671875,3.97743359375,1.17344140625
8.1815234375,0.14189453125,-3.22637109375,8.33659375,-1.3995390625,9.94382421875,2.4683515625,1.1781015625,12.47475,5.153578125,5.96907421875,19.382296875,1.38845703125,7.97056640625,2.84601953125,7.94206640625,14.07568359375,1.419390625,8.29134765625,6.782078125,3.5763203125,-7.14764453125,1.69011328125,4.076296875,8.203625,6.12960546875,-0.39210546875,0.78836328125,4.83143359375,2.84544140625
6.1645234375,-2.21410546875,-5.41237109375,8.35059375,-2.6785390625,8.11582421875,0.365351562500001,-2.4438984375,11.88775,4.535578125,5.21307421875,16.400296875,-5.08754296875,6.27456640625,2.06301953125,6.39706640625,12.23368359375,-2.721609375,7.02934765625,4.764078125,4.3503203125,-12.26564453125,-0.98988671875,1.918296875,6.009625,5.69760546875,-2.10010546875,-0.741636718749998,3.50143359375,2.14744140625
-1.1204765625,-9.10510546875,-11.80037109375,5.31859375,-5.1575390625,1.05482421875,-7.1176484375,-10.7088984375,5.75175,-1.013421875,-0.65392578125,7.869296875,-13.34254296875,0.279566406250002,-3.35598046875,0.00406640624999977,5.94368359375,-10.662609375,2.13034765625,-1.082921875,0.436320312499998,-20.84364453125,-6.40588671875,-2.899703125,0.0546249999999988,-1.11839453125,-5.76010546875,-4.13363671875,0.51143359375,-0.61955859375
-10.7874765625,-17.94710546875,-19.75937109375,0.848593750000001,-7.4125390625,-8.89117578125,-17.0006484375,-19.1478984375,-3.51525,-9.500421875,-9.68592578125,-4.708703125,-20.26654296875,-7.74343359375,-11.45898046875,-9.44693359375,-2.67231640625,-19.766609375,-4.54865234375,-8.751921875,-6.5896796875,-29.62064453125,-12.49488671875,-8.569703125,-7.673375,-11.47339453125,-9.72910546875,-7.58963671875,-2.59756640625,-3.71055859375
-18.8434765625,-25.25010546875,-25.90537109375,-2.79740625,-8.0735390625,-18.08917578125,-24.9096484375,-23.2278984375,-12.37625,-17.680421875,-18.52192578125,-18.077703125,-23.07854296875,-14.61443359375,-19.06598046875,-18.70693359375,-9.93431640625,-26.705609375,-10.26565234375,-15.312921875,-13.3876796875,-34.79164453125,-16.74588671875,-12.757703125,-14.120375,-20.15039453125,-11.94210546875,-9.20363671875,-4.07956640625,-4.90255859375
-22.1454765625,-28.27310546875,-27.77537109375,-3.84940625,-6.4905390625,-23.28017578125,-27.2866484375,-21.0278984375,-17.77125,-22.520421875,-23.93492578125,-28.159703125,-20.55854296875,-17.72743359375,-23.24998046875,-24.52293359375,-12.67931640625,-28.994609375,-12.70765234375,-18.302921875,-16.6146796875,-33.79664453125,-17.40188671875,-13.742703125,-16.653375,-22.29639453125,-10.98810546875,-7.91463671875,-2.85656640625,-2.70355859375
-19.6904765625,-26.10810546875,-24.82037109375,-1.77440625,-2.9085390625,-22.84517578125,-23.0576484375,-14.0888984375,-18.25425,-22.405421875,-24.14892578125,-31.526703125,-13.43454296875,-16.07743359375,-22.54798046875,-25.00793359375,-9.99831640625,-25.992609375,-10.96165234375,-16.760921875,-14.5676796875,-26.37764453125,-14.19688671875,-11.147703125,-14.246375,-15.83639453125,-6.77910546875,-3.95263671875,1.01243359375,2.90944140625
-12.7604765625,-19.83910546875,-18.39937109375,2.63259375,1.6644609375,-17.21917578125,-14.0006484375,-6.2598984375,-14.25825,-17.655421875,-19.40392578125,-26.800703125,-3.96254296875,-10.48443359375,-17.40698046875,-20.29993359375,-3.71531640625,-19.020609375,-5.77565234375,-11.485921875,-7.9156796875,-14.60364453125,-8.38088671875,-6.005703125,-7.867375,-2.44439453125,-0.57710546875,1.32536328125,6.42543359375,10.49444140625
-4.1354765625,-11.89110546875,-11.01137109375,7.69459375,5.7164609375,-8.53017578125,-3.7486484375,-1.5298984375,-7.60025,-10.232421875,-11.64892578125,-15.286703125,4.94645703125,-3.08143359375,-9.82898046875,-12.33593359375,2.58368359375,-10.719609375,0.867347656249999,-4.549921875,0.686320312499998,-2.04464453125,-2.11288671875,-0.233703125,0.00262499999999921,13.19260546875,5.55889453125,6.06836328125,11.75143359375,17.77544140625
3.1925234375,-4.91910546875,-5.17937109375,11.59959375,7.6504609375,0.30482421875,4.0263515625,-2.0228984375,-0.568250000000001,-2.824421875,-3.57092578125,-0.436703125,10.75745703125,3.64056640625,-2.44098046875,-3.89793359375,5.47968359375,-3.944609375,6.65834765625,1.659078125,7.8623203125,7.50835546875,2.47011328125,4.220296875,6.487625,25.42760546875,9.65589453125,8.74336328125,15.53643359375,22.58944140625
7.2725234375,-0.71110546875,-2.38837109375,13.19359375,6.4674609375,6.72782421875,7.2323515625,-7.0178984375,4.98375,2.309578125,2.56507421875,13.606296875,12.18145703125,7.83256640625,2.64501953125,2.60506640625,3.68868359375,-0.637609375,9.96334765625,5.455078125,11.1163203125,11.37735546875,4.15811328125,6.208296875,9.596625,30.20160546875,10.68989453125,8.81036328125,17.10843359375,23.79944140625
7.8525234375,0.40389453125,-2.58037109375,12.43259375,2.4124609375,9.48282421875,5.8723515625,-13.4658984375,8.15775,4.181578125,5.68807421875,23.517296875,9.54745703125,8.88656640625,4.63001953125,5.99006640625,-1.15731640625,-1.141609375,10.42434765625,6.446078125,9.9663203125,8.93035546875,3.08511328125,5.785296875,9.052625,26.85360546875,8.99289453125,6.91436328125,16.78043359375,21.74644140625
6.0715234375,-0.67910546875,-4.49937109375,10.21859375,-2.9415390625,8.83682421875,1.3213515625,-17.8018984375,8.95775,3.182578125,5.94707421875,27.532296875,4.43945703125,7.35656640625,4.02201953125,6.35806640625,-5.62731640625,-4.331609375,8.82034765625,5.381078125,5.9083203125,1.65935546875,0.42711328125,3.936296875,6.152625,18.15360546875,5.91889453125,4.43236328125,15.49243359375,17.93244140625
3.4055234375,-2.70710546875,-6.70937109375,7.72159375,-7.4235390625,6.00782421875,-4.8296484375,-18.0718984375,7.85275,0.518578124999999,4.14107421875,25.349296875,-1.23354296875,4.34356640625,1.93901953125,4.46806640625,-6.92031640625,-8.467609375,6.30634765625,3.375078125,1.2013203125,-7.70364453125,-2.46488671875,1.789296875,2.751625,8.41860546875,2.94689453125,2.62036328125,14.08443359375,14.06344140625
0.6615234375,-4.93710546875,-8.55737109375,5.68159375,-9.4375390625,2.32782421875,-11.4246484375,-14.9918984375,5.36375,-2.594421875,1.05907421875,17.660296875,-6.12354296875,0.811566406250002,-0.706980468750001,1.01206640625,-4.87231640625,-12.179609375,3.64134765625,1.116078125,-2.6496796875,-16.52764453125,-4.87088671875,-0.114703125,0.0696249999999994,0.95760546875,0.80689453125,1.88836328125,12.71943359375,11.07044140625
-2.2524765625,-7.37510546875,-10.37337109375,4.19159375,-8.7545390625,-1.25817578125,-17.5546484375,-11.2328984375,1.98175,-5.406421875,-2.76792578125,5.819296875,-9.68454296875,-2.66843359375,-3.53398046875,-3.61893359375,-2.03131640625,-14.904609375,0.956347656249999,-1.361921875,-5.5926796875,-23.16764453125,-6.87288671875,-1.971703125,-1.821375,-3.42639453125,-0.72710546875,1.73936328125,10.89243359375,8.79344140625
-5.7344765625,-10.30610546875,-12.83137109375,3.03459375,-6.4375390625,-4.17817578125,-22.0466484375,-9.5018984375,-1.67725,-7.594421875,-6.87792578125,-8.238703125,-11.71554296875,-5.69843359375,-6.42698046875,-9.03493359375,-1.81131640625,-16.557609375,-1.84365234375,-4.252921875,-8.4886796875,-26.89764453125,-8.81188671875,-4.196703125,-3.552375,-6.00939453125,-2.28710546875,1.38436328125,8.03643359375,6.52344140625
-9.6684765625,-13.59410546875,-16.07937109375,2.16959375,-4.0265390625,-6.01217578125,-23.4196484375,-10.8358984375,-4.81625,-8.924421875,-10.55392578125,-21.975703125,-11.82754296875,-7.72443359375,-9.08998046875,-14.37393359375,-6.12731640625,-16.931609375,-4.51365234375,-7.340921875,-11.8876796875,-27.28664453125,-10.58588671875,-6.748703125,-5.524375,-8.37139453125,-4.10810546875,0.53836328125,4.23043359375,3.90944140625
-13.0804765625,-16.38110546875,-19.34037109375,1.89859375,-2.6575390625,-6.37317578125,-20.5986484375,-14.2358984375,-6.67325,-9.063421875,-12.79092578125,-32.340703125,-9.48954296875,-8.02043359375,-10.86898046875,-18.19393359375,-14.04631640625,-15.494609375,-6.26965234375,-9.734921875,-15.1246796875,-23.90564453125,-11.43688671875,-8.852703125,-7.277375,-10.75239453125,-5.63410546875,-0.26363671875,0.43643359375,1.50144140625
-14.5454765625,-17.45610546875,-21.25637109375,2.56759375,-2.7385390625,-4.99717578125,-13.9026484375,-17.6718984375,-6.91225,-7.742421875,-12.67492578125,-36.268703125,-4.73154296875,-6.10643359375,-11.01498046875,-18.93793359375,-22.20231640625,-11.839609375,-6.19365234375,-10.239921875,-16.4536796875,-16.79264453125,-10.44988671875,-9.380703125,-7.660375,-11.74039453125,-5.87010546875,-0.0796367187499989,-1.98256640625,0.45644140625
-13.0904765625,-16.04010546875,-20.71637109375,4.08559375,-4.2375390625,-2.01817578125,-5.4176484375,-19.5678984375,-5.89325,-5.162421875,-9.98692578125,-31.773703125,1.17445703125,-2.29543359375,-9.22898046875,-15.79593359375,-26.70331640625,-6.402609375,-3.93965234375,-8.156921875,-14.1956796875,-7.23664453125,-7.38588671875,-7.657703125,-5.703375,-9.47939453125,-4.20010546875,1.60936328125,-2.14256640625,1.64044140625
-9.0094765625,-12.45010546875,-17.62637109375,5.73259375,-7.0905390625,1.76282421875,1.6913515625,-19.7418984375,-4.59725,-2.217421875,-5.57292578125,-19.273703125,5.79645703125,2.11756640625,-6.08098046875,-9.44493359375,-25.41931640625,-0.777609375000001,-0.212652343750001,-3.955921875,-8.1466796875,1.96535546875,-3.19088671875,-4.102703125,-1.553375,-3.45139453125,-1.04010546875,4.29636328125,-0.29356640625,4.77144140625
-3.9924765625,-8.15910546875,-13.14137109375,6.47859375,-11.1745390625,4.95482421875,4.5813515625,-19.2978984375,-4.18225,-0.245421875000001,-1.14292578125,-2.240703125,6.61045703125,5.28656640625,-2.92998046875,-2.06093359375,-19.24131640625,2.797390625,3.41034765625,0.719078124999999,-0.192679687500002,7.31735546875,0.290113281250001,-0.214703125,3.265625,4.56160546875,2.19389453125,6.55136328125,2.23143359375,8.29944140625
-0.3544765625,-5.12610546875,-9.16637109375,5.65159375,-15.8795390625,6.19282421875,2.0393515625,-19.6738984375,-5.35025,-0.314421875000001,1.50907421875,13.677296875,2.47245703125,5.75656640625,-1.21998046875,3.55806640625,-11.40231640625,2.625390625,5.30434765625,3.833078125,6.4443203125,6.30835546875,1.30411328125,2.198296875,6.556625,11.12860546875,3.87889453125,6.84636328125,3.81943359375,10.21944140625
0.2555234375,-4.73510546875,-7.34937109375,3.46559375,-19.8345390625,5.02782421875,-4.8666484375,-21.4108984375,-7.82225,-2.485421875,1.47507421875,22.924296875,-5.43154296875,3.37156640625,-1.56498046875,5.37306640625,-5.32231640625,-1.294609375,4.78034765625,4.106078125,8.9523203125,-1.00164453125,-0.686886718749999,2.113296875,6.747625,13.02160546875,3.23289453125,4.60136328125,3.63143359375,9.30544140625
-2.1544765625,-6.94910546875,-8.14737109375,1.04359375,-21.2745390625,2.38882421875,-13.0206484375,-23.3838984375,-10.29225,-5.566421875,-0.70892578125,22.473296875,-13.84154296875,-0.459433593749999,-3.28398046875,3.15806640625,-2.54731640625,-6.979609375,2.56534765625,1.772078125,6.5493203125,-11.60764453125,-4.51688671875,-0.0277031250000004,3.902625,9.08460546875,0.93789453125,0.732363281250002,2.20243359375,5.93844140625
-5.8714765625,-10.27610546875,-10.57237109375,-0.11740625,-18.9775390625,0.15082421875,-18.3916484375,-23.1048984375,-11.01625,-7.652421875,-3.32792578125,13.040296875,-18.86854296875,-3.43643359375,-4.77598046875,-1.45193359375,-2.26331640625,-11.350609375,0.408347656249999,-1.573921875,0.958320312499998,-20.89064453125,-7.86188671875,-2.538703125,-0.225375000000001,0.96460546875,-1.14610546875,-2.73463671875,1.13743359375,1.94144140625
-8.4564765625,-12.62810546875,-12.81337109375,1.04959375,-13.1685390625,0.05082421875,-17.8426484375,-18.2158984375,-8.79125,-7.194421875,-4.47592578125,-1.444703125,-17.89254296875,-3.62243359375,-4.51998046875,-5.91993359375,-2.55731640625,-11.840609375,0.0493476562499993,-3.918921875,-4.5036796875,-24.93264453125,-8.52788671875,-3.493703125,-3.156375,-7.63339453125,-0.99210546875,-3.76763671875,2.08843359375,-0.43555859375
-8.1404765625,-12.55410546875,-13.35537109375,4.56259375,-5.7725390625,2.65482421875,-10.8586484375,-8.4458984375,-3.75325,-3.958421875,-3.16492578125,-15.530703125,-10.86654296875,-0.544433593749998,-2.01698046875,-8.13093359375,-2.19531640625,-7.708609375,2.19434765625,-3.949921875,-6.6406796875,-22.37164453125,-5.67188671875,-1.850703125,-3.018375,-12.73939453125,2.46589453125,-1.45363671875,5.69243359375,0.269441406249999
-4.8204765625,-10.08810546875,-11.90337109375,9.25759375,0.1984609375,6.99582421875,-0.146648437499999,3.3311015625,2.49975,0.733578124999999,0.10307421875,-24.217703125,-0.31854296875,4.52856640625,1.86701953125,-7.35193359375,-1.54331640625,-0.319609375000001,6.11534765625,-1.695921875,-3.9506796875,-14.69864453125,-0.216886718750001,1.984296875,0.476624999999999,-12.07639453125,8.73589453125,3.53736328125,11.15543359375,3.99944140625
-0.1464765625,-6.75210546875,-9.60437109375,13.21359375,1.8884609375,10.99082421875,9.4053515625,11.9541015625,7.52075,4.596578125,3.60607421875,-24.635703125,9.88345703125,9.20756640625,5.30101953125,-4.42493359375,-2.17831640625,7.639390625,10.00134765625,1.561078125,2.6793203125,-5.09764453125,5.65911328125,6.376296875,5.892625,-6.23839453125,15.96089453125,9.32136328125,16.65043359375,9.21644140625
3.3185234375,-4.76110546875,-8.43537109375,14.55959375,-2.0795390625,12.40382421875,12.9633515625,12.5621015625,9.05175,5.439578125,5.26607421875,-17.096703125,16.20845703125,11.12256640625,6.35201953125,-1.23293359375,-5.67531640625,13.393390625,11.81934765625,3.946078125,10.4363203125,3.14535546875,9.56811328125,9.254296875,10.736625,1.53060546875,21.72689453125,13.67636328125,20.20643359375,13.59244140625
3.4235234375,-5.85510546875,-10.07637109375,12.35759375,-10.8085390625,9.93582421875,8.0183515625,3.4761015625,6.01875,2.191578125,3.69107421875,-5.083703125,16.72645703125,8.98156640625,3.92701953125,0.24106640625,-12.37031640625,15.109390625,10.25234765625,3.894078125,15.9723203125,7.70035546875,9.92211328125,9.071296875,12.609625,6.94260546875,24.08689453125,14.97036328125,20.60343359375,15.04244140625
-0.4254765625,-10.31710546875,-14.83737109375,7.15259375,-21.3235390625,3.91182421875,-4.3606484375,-12.4188984375,-0.93325,-4.542421875,-1.07092578125,6.095296875,11.56745703125,3.15456640625,-1.60898046875,-1.09693359375,-20.76431640625,12.421390625,5.32834765625,0.927078125,17.0813203125,7.53135546875,6.54111328125,5.535296875,10.363625,6.92760546875,22.39989453125,12.77236328125,17.87843359375,12.69644140625
-6.8804765625,-16.67410546875,-21.27437109375,0.87559375,-29.7815390625,-3.75717578125,-19.8296484375,-28.7418984375,-9.60625,-12.608421875,-7.40192578125,11.639296875,2.68945703125,-4.43643359375,-8.44098046875,-4.86193359375,-27.91431640625,6.464390625,-1.48965234375,-4.011921875,13.8203203125,2.93835546875,0.70211328125,-0.173703125,4.720625,1.34460546875,17.62789453125,8.00236328125,13.28943359375,7.37544140625
-13.2304765625,-22.29910546875,-26.76237109375,-3.95140625,-33.1325390625,-10.36617578125,-32.4996484375,-38.6058984375,-17.03225,-19.101421875,-12.72692578125,9.481296875,-6.81254296875,-11.04643359375,-13.98898046875,-9.29693359375,-30.70831640625,-0.504609375000001,-7.82765234375,-8.890921875,8.4583203125,-4.45264453125,-5.36288671875,-5.835703125,-1.985375,-6.90039453125,11.93389453125,2.53836328125,8.75943359375,1.27744140625
-16.6404765625,-24.64010546875,-28.74037109375,-5.32740625,-30.3435390625,-13.52917578125,-37.3676484375,-37.8098984375,-20.57325,-21.549421875,-14.64392578125,1.176296875,-13.69654296875,-14.18643359375,-15.97598046875,-12.09193359375,-27.38631640625,-5.839609375,-11.35165234375,-11.459921875,4.2583203125,-11.95864453125,-9.33888671875,-9.137703125,-6.889375,-13.45739453125,7.72689453125,-1.54763671875,6.02743359375,-3.04755859375
-15.4344765625,-22.42110546875,-25.92737109375,-2.64440625,-22.6195390625,-12.15917578125,-32.4086484375,-26.5538984375,-18.92125,-18.959421875,-12.04092578125,-9.072703125,-15.73554296875,-12.62543359375,-13.41798046875,-11.52193359375,-18.49631640625,-7.452609375,-10.75265234375,-10.303921875,3.7473203125,-16.64664453125,-9.75688671875,-8.705703125,-7.940375,-14.92639453125,6.60489453125,-2.84563671875,5.91243359375,-3.89155859375
-9.8594765625,-16.22310546875,-18.92237109375,3.06859375,-12.7395390625,-6.93117578125,-19.4466484375,-9.0558984375,-12.66625,-12.263421875,-5.65292578125,-16.655703125,-12.67054296875,-6.93043359375,-7.10098046875,-7.34393359375,-6.78231640625,-4.668609375,-6.34165234375,-5.541921875,7.4163203125,-16.56564453125,-6.59588671875,-4.730703125,-4.837375,-10.60939453125,8.68889453125,-1.17963671875,8.00343359375,-1.17255859375
-2.0314765625,-8.27010546875,-10.02937109375,9.56059375,-4.0395390625,-0.07917578125,-3.4006484375,8.3261015625,-4.19125,-3.997421875,2.18107421875,-18.773703125,-6.40154296875,0.675566406250002,0.660019531249999,-1.01193359375,3.84868359375,1.403390625,0.0133476562499979,1.136078125,13.5053203125,-11.80564453125,-1.32488671875,1.080296875,0.871624999999999,-2.73039453125,12.61089453125,2.30736328125,10.85543359375,3.54844140625
4.8735234375,-1.58510546875,-2.44537109375,14.19459375,0.5244609375,5.47282421875,9.7903515625,19.4811015625,3.12575,2.651578125,8.43607421875,-15.523703125,-0.157542968750001,7.10756640625,6.90501953125,4.90506640625,9.72768359375,8.222390625,5.58634765625,7.129078125,18.8873203125,-4.71764453125,3.66011328125,6.209296875,6.514625,4.82160546875,16.11889453125,5.59136328125,12.58643359375,7.75544140625
7.9225234375,1.18189453125,0.93762890625,14.94159375,-0.8795390625,7.36682421875,15.6893515625,20.6551015625,6.21175,5.082578125,10.64107421875,-9.439703125,3.05845703125,9.63456640625,9.23101953125,7.83506640625,8.70468359375,12.866390625,7.91334765625,10.034078125,20.5813203125,1.05735546875,6.03911328125,8.402296875,9.499625,8.45160546875,17.07389453125,6.59936328125,11.65543359375,9.11144140625
5.7605234375,-1.06910546875,-1.19537109375,11.25359375,-8.3145390625,4.88082421875,13.1383515625,11.8351015625,3.62475,2.383578125,7.96607421875,-3.919703125,1.92645703125,7.06456640625,6.83801953125,6.41806640625,1.01068359375,13.384390625,5.90834765625,8.748078125,17.2033203125,2.41435546875,4.63811328125,6.721296875,8.513625,6.57960546875,14.45889453125,4.20636328125,7.60243359375,6.59144140625
-0.6034765625,-7.22110546875,-7.78437109375,4.48159375,-19.6985390625,-0.68217578125,4.4233515625,-3.0838984375,-3.66425,-4.170421875,1.68007421875,-1.399703125,-2.58454296875,0.394566406250002,0.943019531249998,1.25306640625,-10.55031640625,9.766390625,0.444347656249999,4.074078125,9.7563203125,-1.48764453125,0.0811132812499995,2.060296875,4.182625,0.36560546875,8.96189453125,-1.08963671875,1.43643359375,1.09444140625
-8.0614765625,-14.23810546875,-15.64637109375,-2.47040625,-31.1205390625,-6.55017578125,-6.1196484375,-17.6988984375,-12.51725,-11.566421875,-5.30692578125,-2.216703125,-7.77354296875,-7.51743359375,-5.67198046875,-5.22193359375,-21.31031640625,3.979390625,-5.95065234375,-1.543921875,1.3353203125,-8.68464453125,-5.41188671875,-3.174703125,-1.169375,-6.83239453125,2.75289453125,-7.23063671875,-4.63256640625,-4.85155859375
-12.7904765625,-18.50510546875,-20.86737109375,-6.30940625,-38.0975390625,-9.73717578125,-14.1966484375,-25.8508984375,-18.92725,-16.347421875,-9.71192578125,-4.626703125,-10.59954296875,-13.18143359375,-9.82598046875,-9.76193359375,-26.32331640625,-1.028609375,-10.22965234375,-5.095921875,-4.1736796875,-15.44364453125,-9.06088671875,-6.162703125,-4.601375,-10.97539453125,-1.50710546875,-11.49063671875,-8.11556640625,-8.21255859375
-12.1364765625,-17.58010546875,-20.70237109375,-4.85840625,-37.4565390625,-8.45717578125,-17.2476484375,-24.5748984375,-19.84325,-16.154421875,-9.34592578125,-5.829703125,-9.18754296875,-14.06143359375,-9.34698046875,-9.78393359375,-22.40331640625,-2.804609375,-10.26465234375,-4.391921875,-3.8926796875,-18.26964453125,-8.88888671875,-5.009703125,-3.971375,-9.19539453125,-1.94910546875,-11.78963671875,-7.41156640625,-6.90055859375
-5.9984765625,-11.44210546875,-14.95237109375,1.83259375,-28.9615390625,-3.00517578125,-15.0916484375,-15.5568984375,-14.62825,-10.786421875,-4.10992578125,-3.415703125,-3.74254296875,-9.74043359375,-4.07398046875,-4.62493359375,-9.83331640625,-0.602609375,-5.85665234375,0.873078124999999,2.5583203125,-15.73064453125,-4.71388671875,0.311296875,0.967624999999999,-1.27239453125,1.57489453125,-7.75363671875,-2.65356640625,-0.87655859375
3.0385234375,-2.56110546875,-6.07737109375,11.36959375,-15.6755390625,4.36082421875,-9.5046484375,-4.1038984375,-5.40125,-2.274421875,3.94607421875,3.288296875,3.49445703125,-2.10543359375,4.01701953125,4.02606640625,7.27568359375,4.281390625,1.17034765625,8.901078125,12.6243203125,-9.12964453125,1.74011328125,7.879296875,8.314625,9.86260546875,7.37989453125,-0.985636718749998,4.21243359375,7.66144140625
10.9295234375,5.25289453125,1.99962890625,20.00259375,-2.6855390625,10.50582421875,-3.1216484375,3.8691015625,3.98775,6.037578125,11.51107421875,12.445296875,9.23345703125,5.56356640625,11.69801953125,12.75006640625,22.53068359375,9.213390625,7.86634765625,16.537078125,21.7833203125,-1.71564453125,7.67511328125,14.680296875,14.790625,19.07260546875,12.73989453125,5.65436328125,10.25243359375,15.15544140625
14.1235234375,8.65789453125,5.79762890625,24.29059375,5.2384609375,12.91582421875,1.7793515625,5.0561015625,9.87075,11.005578125,15.48607421875,19.991296875,10.69045703125,10.15356640625,15.97701953125,17.86906640625,30.14268359375,11.603390625,11.58034765625,20.704078125,25.6033203125,3.10435546875,10.60911328125,18.011296875,17.271625,21.32660546875,15.23389453125,9.44436328125,12.90343359375,18.32944140625
11.2585234375,6.37689453125,3.93462890625,22.65559375,5.7424609375,10.81082421875,4.1183515625,0.3161015625,10.49775,11.079578125,14.38207421875,21.253296875,6.94945703125,10.14256640625,15.45501953125,17.12806640625,27.58768359375,10.242390625,11.19334765625,19.812078125,21.8793203125,3.47435546875,9.57311328125,16.753296875,14.336625,14.38260546875,13.94389453125,9.13736328125,11.20243359375,15.79144140625
3.7485234375,-0.240105468749999,-2.30237109375,16.03159375,-0.3365390625,5.36982421875,4.1783515625,-6.2308984375,6.63175,6.884578125,8.93407421875,13.411296875,-0.61354296875,6.16256640625,10.84801953125,10.73406640625,16.54568359375,5.807390625,7.50134765625,14.442078125,11.7073203125,-0.213644531250001,5.45711328125,11.810296875,6.989625,0.25260546875,9.82489453125,5.44336328125,6.17043359375,8.70644140625
-4.9824765625,-7.97010546875,-9.74437109375,7.34559375,-9.7195390625,-0.91617578125,3.1303515625,-9.8268984375,0.80875,0.736578124999999,1.67007421875,-2.487703125,-9.04054296875,0.462566406250001,4.51001953125,1.26106640625,1.79268359375,0.353390624999999,2.61234765625,6.976078125,-1.0536796875,-5.85564453125,0.40411328125,5.542296875,-1.839375,-15.51439453125,5.08589453125,0.462363281249999,0.18243359375,0.188441406249999
-11.1284765625,-13.28510546875,-14.92637109375,0.140593750000001,-18.2705390625,-5.33617578125,2.2453515625,-7.7998984375,-4.11025,-4.510421875,-4.28092578125,-21.277703125,-15.15654296875,-4.26643359375,-0.703980468750001,-7.48093359375,-11.15031640625,-3.770609375,-1.16265234375,0.484078124999998,-11.4976796875,-10.81464453125,-3.29088671875,0.606296875,-8.652375,-26.34239453125,2.04189453125,-3.48763671875,-4.23556640625,-6.17155859375
-12.1314765625,-13.86210546875,-15.55937109375,-2.90440625,-22.6185390625,-6.02417578125,2.1953515625,-0.871898437500001,-6.17125,-6.653421875,-6.49592578125,-35.522703125,-16.80354296875,-6.05243359375,-2.62698046875,-12.02393359375,-18.29631640625,-4.927609375,-2.29465234375,-2.532921875,-15.6556796875,-12.97564453125,-4.11688671875,-1.125703125,-10.855375,-27.52339453125,2.11689453125,-4.88763671875,-5.48056640625,-7.85455859375
-7.6244765625,-9.40210546875,-11.28437109375,-0.96640625,-21.2705390625,-2.63717578125,2.7163515625,7.3581015625,-4.85825,-4.909421875,-4.16292578125,-38.623703125,-13.50954296875,-4.31743359375,-0.562980468750001,-10.59193359375,-18.49631640625,-2.713609375,-0.530652343750001,-1.047921875,-11.9366796875,-11.38264453125,-1.80888671875,0.810296875000001,-7.738375,-18.19839453125,5.37589453125,-3.45763671875,-3.38056640625,-4.37655859375
0.5165234375,-1.63510546875,-3.64737109375,4.72159375,-14.9995390625,3.50482421875,2.7113515625,12.2451015625,-0.98425,-0.141421875000001,1.63507421875,-27.793703125,-6.53054296875,0.0255664062500021,4.51701953125,-3.77993359375,-13.49031640625,2.002390625,3.13834765625,4.151078125,-1.6916796875,-6.47764453125,2.66911328125,5.401296875,-0.712375000000001,-1.79439453125,10.58589453125,-0.0436367187500011,0.90743359375,2.58044140625
8.9235234375,6.35789453125,4.51362890625,11.43259375,-6.4455390625,9.85882421875,0.765351562500001,10.2941015625,3.78075,5.464578125,8.30307421875,-5.674703125,1.63945703125,4.98256640625,10.37401953125,5.60806640625,-6.91731640625,7.433390625,6.89834765625,10.732078125,11.1853203125,0.00935546874999993,7.49511328125,10.544296875,7.176625,15.13660546875,15.65589453125,3.83736328125,5.42843359375,9.82944140625
14.0305234375,11.31189453125,10.07262890625,16.06659375,0.9264609375,13.57382421875,-3.9906484375,0.885101562499999,7.54175,9.236578125,12.70407421875,20.124296875,8.20345703125,8.27356640625,14.35401953125,13.55706640625,-2.68731640625,11.536390625,8.80634765625,15.664078125,21.5833203125,5.61235546875,10.65611328125,13.829296875,12.382625,25.43160546875,18.38489453125,6.59236328125,8.20043359375,13.96144140625
13.5525234375,11.11789453125,10.81962890625,16.46159375,4.1754609375,12.65682421875,-11.0186484375,-13.1258984375,8.85775,9.179578125,12.50807421875,39.704296875,11.19245703125,8.31356640625,14.47601953125,16.42906640625,-3.24631640625,12.832390625,7.61834765625,16.471078125,25.1763203125,8.12535546875,10.78111328125,13.538296875,12.343625,24.41860546875,17.35289453125,7.17336328125,8.02143359375,12.85044140625
7.5595234375,5.81489453125,6.44162890625,12.38659375,2.0844609375,6.99082421875,-18.1106484375,-26.3128984375,7.27875,4.989578125,7.35807421875,44.956296875,10.25545703125,5.00256640625,10.37501953125,12.59606640625,-8.42831640625,11.078390625,3.44334765625,12.408078125,20.3903203125,6.67535546875,7.81011328125,9.497296875,6.721625,12.25360546875,12.65889453125,5.52536328125,5.00043359375,6.69644140625
-1.4284765625,-2.33210546875,-1.22937109375,5.70559375,-4.2615390625,-1.36717578125,-22.1216484375,-32.9008984375,3.52475,-1.673421875,-0.77392578125,33.294296875,6.68545703125,-0.129433593749999,3.62001953125,3.31806640625,-15.50131640625,7.384390625,-2.16165234375,4.952078125,9.3193203125,2.25135546875,3.11411328125,3.299296875,-2.295375,-5.89539453125,6.02389453125,2.64636328125,0.55543359375,-1.99655859375
-9.5084765625,-9.78010546875,-8.94037109375,-0.43540625,-11.8735390625,-8.94717578125,-20.3926484375,-29.3608984375,-0.799250000000001,-7.852421875,-8.36392578125,9.036296875,2.68645703125,-4.57243359375,-2.87398046875,-7.67893359375,-20.43331640625,3.690390625,-6.78665234375,-2.763921875,-3.0516796875,-2.69464453125,-1.07488671875,-2.323703125,-10.880375,-22.08339453125,0.13689453125,0.16636328125,-3.19156640625,-9.55655859375
-13.1284765625,-13.22810546875,-13.39037109375,-3.04240625,-17.1435390625,-12.42317578125,-12.0306484375,-16.0618984375,-3.80125,-10.588421875,-11.89192578125,-18.439703125,0.34545703125,-5.98043359375,-6.12098046875,-15.79193359375,-19.71831640625,1.874390625,-8.22265234375,-7.321921875,-10.9956796875,-5.39564453125,-2.65788671875,-4.697703125,-15.221375,-29.09139453125,-2.49110546875,-0.36263671875,-4.31956640625,-12.79455859375
-10.5914765625,-10.98710546875,-12.58137109375,-0.62040625,-17.4595390625,-10.12017578125,1.5083515625,2.8471015625,-4.00625,-8.228421875,-9.42792578125,-38.789703125,0.75045703125,-3.24043359375,-4.40498046875,-17.54093359375,-11.91431640625,2.941390625,-5.44765234375,-6.536921875,-10.4986796875,-4.04064453125,-0.610886718750001,-2.412703125,-13.148375,-23.42239453125,-0.61310546875,1.86036328125,-1.93456640625,-10.33255859375
-2.7004765625,-3.65710546875,-6.64237109375,6.14459375,-12.4125390625,-2.75817578125,16.6493515625,21.1331015625,-0.998250000000001,-1.190421875,-1.53792578125,-44.973703125,3.52045703125,2.95856640625,1.94501953125,-12.05593359375,1.62968359375,6.571390625,0.857347656249999,-0.432921875000002,-0.952679687500002,1.35835546875,4.51411328125,3.990296875,-5.052375,-6.63039453125,5.18989453125,6.49736328125,3.41843359375,-3.11955859375
7.6035234375,6.07589453125,2.17862890625,14.63659375,-4.0165390625,6.83382421875,28.5903515625,32.8661015625,4.21875,8.085578125,8.85507421875,-35.848703125,6.94345703125,10.29556640625,10.61601953125,-1.44893359375,16.93568359375,11.173390625,8.45834765625,8.701078125,14.5463203125,8.82935546875,10.72611328125,12.119296875,6.183625,15.27460546875,12.65089453125,12.10836328125,9.87543359375,5.94244140625
16.3705234375,14.46389453125,10.34162890625,21.34359375,4.2124609375,14.79482421875,32.7813515625,34.5301015625,9.42775,16.033578125,17.61207421875,-16.212703125,8.79145703125,15.70256640625,18.17901953125,10.03206640625,28.44268359375,14.445390625,14.37434765625,17.197078125,30.3583203125,15.14335546875,15.35211328125,18.622296875,16.224625,34.00460546875,18.65189453125,16.65436328125,14.91843359375,13.06844140625
20.1695234375,18.17989453125,14.44262890625,23.35459375,8.9464609375,17.74282421875,26.7353515625,26.2101015625,12.08175,19.411578125,21.11307421875,5.477296875,7.49145703125,16.67156640625,21.46401953125,17.78306640625,30.91068359375,14.367390625,16.10934765625,21.521078125,40.5123203125,17.18435546875,16.18711328125,20.569296875,20.983625,42.11060546875,20.49589453125,18.33736328125,16.40043359375,15.06544140625
17.4485234375,15.68789453125,12.65462890625,19.65859375,8.6494609375,14.20482421875,11.5293515625,11.4531015625,10.53275,16.718578125,17.84407421875,20.704296875,2.97245703125,12.42756640625,18.94001953125,18.79906640625,21.76468359375,10.178390625,12.78734765625,19.805078125,41.1683203125,13.40235546875,12.54711328125,16.780296875,18.351625,36.00260546875,17.10289453125,16.42336328125,13.51243359375,10.66944140625
9.1355234375,7.83089453125,5.47962890625,11.60659375,4.1784609375,5.29082421875,-7.9596484375,-4.2228984375,4.90175,8.873578125,9.08407421875,24.291296875,-3.36054296875,4.32956640625,11.42601953125,12.93906640625,2.80868359375,2.805390625,5.60034765625,12.658078125,32.2193203125,4.55635546875,5.63711328125,8.395296875,9.137625,17.54660546875,9.54689453125,11.60236328125,7.19243359375,1.14144140625
-1.8554765625,-2.60910546875,-4.57637109375,2.25059375,-1.8645390625,-5.81417578125,-24.6896484375,-15.6378984375,-2.93925,-1.192421875,-1.69892578125,16.204296875,-9.39954296875,-4.73043359375,1.73701953125,2.85406640625,-19.94231640625,-5.524609375,-2.71765234375,2.843078125,17.2593203125,-6.60464453125,-1.97888671875,-1.615703125,-3.299375,-6.68139453125,0.59389453125,5.65736328125,-0.28756640625,-10.26955859375
-11.8424765625,-12.08310546875,-14.08837109375,-5.03240625,-6.5125390625,-15.24817578125,-32.4356484375,-19.9088984375,-10.18425,-9.774421875,-10.36292578125,1.116296875,-13.19954296875,-11.56543359375,-6.52898046875,-7.26093359375,-38.52031640625,-12.209609375,-9.05265234375,-5.962921875,1.9613203125,-16.43564453125,-7.49188671875,-9.731703125,-14.529375,-28.21439453125,-6.47210546875,0.690363281250001,-6.30056640625,-19.70055859375
-17.6704765625,-17.52410546875,-19.94237109375,-7.84140625,-7.6625390625,-19.93317578125,-28.5786484375,-17.0268984375,-14.19925,-13.813421875,-13.73392578125,-13.917703125,-13.46654296875,-13.86343359375,-10.37798046875,-13.39693359375,-46.29231640625,-15.191609375,-11.07965234375,-10.619921875,-8.2506796875,-21.64164453125,-8.89888671875,-13.235703125,-20.828375,-40.09439453125,-9.12510546875,-1.63463671875,-8.87656640625,-24.19555859375
-17.5684765625,-17.24310546875,-20.23237109375,-5.44040625,-4.6615390625,-18.47817578125,-15.0876484375,-9.0178984375,-13.43925,-11.898421875,-10.64392578125,-22.567703125,-9.69554296875,-10.84843359375,-8.38198046875,-13.15893359375,-40.60331640625,-13.527609375,-7.95165234375,-9.550921875,-10.1446796875,-20.27264453125,-5.58388671875,-11.068703125,-20.434375,-39.22639453125,-6.40710546875,-0.563636718750001,-7.31356640625,-22.64455859375
-11.5564765625,-11.32610546875,-14.77537109375,1.20259375,1.7124609375,-11.42217578125,2.7933515625,1.4021015625,-7.94125,-4.611421875,-2.12292578125,-21.756703125,-2.30754296875,-3.38343359375,-1.03998046875,-6.46493359375,-23.62231640625,-7.628609375,-0.447652343750001,-3.111921875,-3.5646796875,-12.34064453125,1.62411328125,-4.015703125,-13.907375,-26.89439453125,0.87289453125,3.59536328125,-2.32556640625,-15.95555859375
-1.4524765625,-1.60610546875,-5.23537109375,9.82559375,9.6434609375,-1.02917578125,19.1303515625,11.7071015625,0.672749999999999,5.739578125,9.08807421875,-12.578703125,7.14545703125,6.33756640625,9.39801953125,4.54106640625,-1.25831640625,0.796390624999999,9.28634765625,6.623078125,8.8193203125,0.0423554687499994,10.74111328125,5.636296875,-3.716375,-7.75439453125,10.46689453125,9.54136328125,4.22143359375,-6.56555859375
9.5545234375,8.80689453125,5.24662890625,17.56759375,16.9144609375,9.33882421875,29.5503515625,19.7751015625,9.68475,15.855578125,19.43607421875,0.589296875,15.99745703125,15.40756640625,19.59701953125,16.23306640625,19.12868359375,9.122390625,18.33334765625,16.519078125,22.6073203125,13.16335546875,19.16011328125,14.805296875,6.657625,11.91560546875,19.38089453125,15.29936328125,9.89643359375,2.41144140625
17.8625234375,16.46889453125,13.03562890625,21.86859375,21.6704609375,16.28282421875,32.1763515625,23.9191015625,16.20775,22.501578125,25.64907421875,12.205296875,21.13245703125,21.09556640625,26.22101953125,24.72206640625,31.25868359375,14.606390625,23.88334765625,23.358078125,33.2043203125,22.87235546875,24.40511328125,20.564296875,13.839625,26.09160546875,24.83389453125,18.84136328125,12.51843359375,8.20044140625
20.7685234375,18.86789453125,15.41262890625,21.38059375,23.0464609375,17.60782421875,27.4373515625,23.2171015625,18.27275,23.651578125,25.82507421875,17.919296875,20.30545703125,21.82856640625,27.14901953125,27.26106640625,31.87268359375,15.445390625,24.24134765625,24.943078125,37.3653203125,26.11835546875,24.98311328125,21.141296875,15.662625,30.72060546875,25.25289453125,18.88536328125,11.01443359375,9.29244140625
17.6235234375,15.52589453125,11.81462890625,16.51659375,21.3944609375,13.22282421875,17.4153515625,18.0371015625,15.63475,19.308578125,20.17607421875,16.248296875,13.44045703125,17.86456640625,22.34001953125,23.33506640625,21.58968359375,11.625390625,19.56434765625,20.970078125,34.2973203125,22.24235546875,21.02311328125,16.623296875,11.952625,25.00160546875,20.92389453125,15.52636328125,5.92943359375,5.98644140625
10.1645234375,8.28789453125,4.14362890625,9.32459375,18.0524609375,5.20782421875,5.2123515625,10.2241015625,9.84775,11.547578125,11.04407421875,8.966296875,3.02045703125,11.23856640625,13.89501953125,14.92306640625,4.48168359375,5.048390625,11.89834765625,13.223078125,25.8793203125,13.34035546875,14.31711328125,8.987296875,4.605625,11.74960546875,13.92689453125,10.28836328125,-0.72956640625,0.262441406249999
1.7495234375,0.50589453125,-4.12937109375,2.68159375,14.8474609375,-3.04517578125,-5.6806484375,2.5541015625,3.51775,3.641578125,2.01907421875,0.105296875,-6.85754296875,4.90856640625,5.21901953125,5.69306640625,-13.43431640625,-1.228609375,4.38234765625,4.883078125,15.8203203125,3.37535546875,7.65111328125,1.336296875,-3.174375,-3.62139453125,7.26789453125,5.50136328125,-6.32456640625,-5.07555859375
-4.1724765625,-4.50810546875,-9.61037109375,-0.865406249999999,13.4974609375,-8.26417578125,-12.1446484375,-2.3548984375,-0.89425,-1.340421875,-3.52692578125,-5.968703125,-12.30454296875,1.47656640625,-0.386980468750002,-0.57093359375,-26.24331640625,-4.321609375,-0.0596523437500007,-0.799921875000001,8.0963203125,-3.57464453125,3.67911328125,-3.360703125,-8.208375,-15.27839453125,3.58489453125,3.27536328125,-8.72256640625,-7.60655859375
-5.5534765625,-4.91810546875,-10.43037109375,-0.0974062499999988,15.0014609375,-8.68617578125,-12.3456484375,-3.0698984375,-2.10425,-1.797421875,-3.80592578125,-6.507703125,-11.38754296875,2.11356640625,-1.06798046875,-1.57893359375,-30.03831640625,-2.766609375,0.0843476562499994,-1.855921875,5.3743203125,-5.05464453125,3.86911328125,-3.460703125,-8.636375,-19.29639453125,4.04589453125,4.57936328125,-7.18056640625,-6.29455859375
-2.4544765625,-0.98510546875,-6.79937109375,4.41859375,19.1624609375,-4.74817578125,-6.4746484375,0.232101562499999,-0.366250000000001,1.852578125,0.74607421875,-1.488703125,-4.89654296875,6.18856640625,2.89501953125,2.58606640625,-24.09131640625,2.876390625,4.36834765625,1.644078125,8.1373203125,-1.13364453125,7.94911328125,0.756296875,-4.583375,-15.00939453125,7.94089453125,8.82036328125,-2.60256640625,-1.82755859375
3.2445234375,5.26789453125,-0.61137109375,10.59859375,24.5084609375,1.27482421875,3.1483515625,5.9811015625,2.88675,7.506578125,7.78307421875,6.566296875,4.21145703125,11.67356640625,9.35301953125,9.66806640625,-11.00231640625,10.297390625,10.68334765625,7.740078125,14.7433203125,5.83535546875,14.06311328125,7.293296875,2.021625,-4.92539453125,13.08889453125,14.07536328125,2.88543359375,3.78144140625
8.8155234375,11.04489453125,5.49862890625,15.71659375,28.7464609375,6.44282421875,12.9073515625,11.8161015625,5.82375,12.377578125,14.12607421875,13.939296875,12.29745703125,16.07056640625,15.31901953125,16.34106640625,4.16568359375,16.408390625,16.20234765625,13.489078125,22.2263203125,12.32635546875,19.53311328125,13.315296875,8.313625,6.55160546875,16.83889453125,17.89136328125,6.81343359375,8.10344140625
11.8415234375,13.96689453125,9.18362890625,17.55659375,29.6334609375,8.49682421875,19.3693515625,15.3381015625,6.95175,14.204578125,17.10907421875,17.544296875,16.61145703125,17.42956640625,18.25501953125,19.66706640625,15.58168359375,18.599390625,18.54334765625,16.225078125,27.4523203125,15.12035546875,21.93411328125,16.310296875,11.655625,14.93360546875,17.19889453125,18.33536328125,7.34843359375,9.31044140625
11.1095234375,12.99189453125,9.19562890625,15.32159375,25.9364609375,6.74082421875,20.6543515625,14.8851015625,5.58675,12.168578125,15.62607421875,16.294296875,16.16745703125,15.08056640625,17.05101953125,18.27006640625,18.80268359375,15.750390625,16.68634765625,14.627078125,28.2693203125,12.59635546875,20.05811328125,15.061296875,10.639625,17.31460546875,13.62689453125,14.85836328125,3.98243359375,6.90844140625
6.9735234375,8.72989453125,5.74162890625,9.90059375,18.0894609375,2.14582421875,16.9943515625,10.1791015625,2.02875,7.150578125,10.44207421875,11.319296875,11.72145703125,9.82356640625,12.33901953125,12.74506640625,12.66368359375,8.618390625,11.30434765625,9.171078125,24.2643203125,5.35235546875,14.36411328125,10.042296875,5.544625,13.28660546875,7.16189453125,8.52636328125,-2.33556640625,1.84844140625
1.0675234375,3.03489453125,0.25362890625,3.33859375,8.1694609375,-3.24617578125,10.2913515625,2.5571015625,-2.54325,1.221578125,3.68307421875,4.987296875,5.11745703125,3.53756640625,6.06401953125,5.19906640625,-0.134316406250001,-0.554609375,4.37234765625,1.792078125,16.8373203125,-4.11464453125,6.71311328125,3.092296875,-1.944375,4.73860546875,-0.14310546875,1.47136328125,-9.69656640625,-4.00955859375
-4.4644765625,-1.89910546875,-5.27837109375,-2.17740625,-0.8855390625,-7.32717578125,3.0353515625,-5.3928984375,-6.46425,-3.332421875,-2.18892578125,-0.577703125,-1.53454296875,-1.62943359375,0.547019531249999,-1.79993359375,-14.30331640625,-9.022609375,-1.72865234375,-5.043921875,8.5093203125,-12.55864453125,-0.47488671875,-3.455703125,-9.568375,-5.28339453125,-6.17410546875,-4.13263671875,-16.08956640625,-8.83055859375
-7.8484765625,-4.44610546875,-9.09837109375,-5.24040625,-6.5265390625,-8.83517578125,-2.7126484375,-10.7298984375,-8.19625,-4.955421875,-5.37192578125,-4.510703125,-6.55554296875,-4.09043359375,-2.48898046875,-6.28493359375,-24.46231640625,-14.619609375,-5.17165234375,-9.353921875,1.8433203125,-17.37764453125,-5.20588671875,-7.716703125,-15.425375,-13.97239453125,-9.58510546875,-6.99563671875,-20.17956640625,-11.55455859375
-8.2384765625,-4.03710546875,-10.21337109375,-5.55940625,-7.6135390625,-7.68217578125,-5.8026484375,-11.2758984375,-6.91225,-3.309421875,-5.23092578125,-7.146703125,-9.07154296875,-3.30043359375,-2.43098046875,-7.43893359375,-27.32931640625,-16.418609375,-5.23765234375,-10.223921875,-1.4336796875,-17.55664453125,-6.53888671875,-8.799703125,-18.477375,-19.58839453125,-10.08510546875,-7.03863671875,-21.60956640625,-12.06655859375
-5.7574765625,-1.09310546875,-8.50337109375,-3.65240625,-4.6195390625,-4.59517578125,-5.8696484375,-6.4788984375,-2.77525,0.865578125,-2.18192578125,-9.054703125,-9.02454296875,0.273566406250001,0.341019531249998,-5.46293359375,-22.48731640625,-14.748609375,-2.28165234375,-7.781921875,-0.693679687500001,-13.75764453125,-4.64488671875,-6.801703125,-18.498375,-21.43739453125,-8.17010546875,-5.05563671875,-20.77956640625,-10.78355859375
-1.1534765625,3.44689453125,-4.49937109375,-0.27440625,0.9924609375,-0.47217578125,-2.9846484375,2.4001015625,3.17375,6.293578125,2.80807421875,-10.019703125,-6.84354296875,5.54356640625,4.93701953125,-1.05793359375,-11.86031640625,-10.682609375,2.70134765625,-2.789921875,3.8123203125,-7.66964453125,-0.424886718749999,-2.438703125,-15.733375,-19.38239453125,-4.60810546875,-2.05463671875,-18.36956640625,-8.11755859375
4.6175234375,8.62289453125,0.93862890625,3.95559375,7.6444609375,4.05282421875,2.5293515625,12.8881015625,9.45375,11.771578125,8.71807421875,-8.885703125,-2.98954296875,11.29056640625,10.38401953125,5.00506640625,1.27368359375,-5.390609375,8.56034765625,3.758078125,11.2403203125,-1.04564453125,4.99811328125,3.345296875,-10.647375,-13.52939453125,-0.0771054687499997,1.27736328125,-14.98356640625,-4.26055859375
10.6375234375,13.70289453125,6.85262890625,8.55659375,14.1584609375,8.60082421875,9.9693515625,22.2751015625,14.66675,16.501578125,14.69107421875,-4.412703125,2.23045703125,16.51356640625,15.79701953125,11.94006640625,13.17468359375,0.291390625,14.27434765625,10.800078125,20.2553203125,4.98735546875,10.62611328125,9.563296875,-3.962375,-4.38739453125,4.87489453125,4.69636328125,-11.07556640625,0.592441406249999
15.9985234375,18.05389453125,12.21762890625,12.92759375,19.6904609375,12.75882421875,18.0023515625,28.3921015625,17.85475,20.035578125,19.91807421875,3.487296875,8.37745703125,20.49156640625,20.31701953125,18.70706640625,20.39768359375,5.812390625,18.96534765625,17.150078125,28.9763203125,9.93935546875,15.61811328125,15.164296875,3.133625,6.68860546875,9.59889453125,8.09936328125,-7.14056640625,5.81344140625
19.6385234375,20.88689453125,15.91362890625,16.13259375,23.3614609375,15.80282421875,24.6813515625,29.8981015625,18.54175,21.970578125,23.40407421875,13.083296875,14.39345703125,22.61856640625,22.99301953125,23.81906640625,20.55768359375,10.519390625,21.76334765625,21.424078125,35.0363203125,13.38435546875,19.13211328125,18.963296875,8.917625,17.21460546875,13.12589453125,11.09236328125,-3.90256640625,10.11244140625
20.3765234375,21.24389453125,16.87062890625,17.00659375,24.0594609375,16.69682421875,27.9373515625,26.3281015625,16.61375,21.767578125,24.01207421875,21.271296875,18.54045703125,22.28756640625,22.86101953125,25.57306640625,13.08968359375,13.390390625,21.81234765625,22.257078125,36.0653203125,14.42835546875,20.27811328125,19.796296875,11.476625,23.96060546875,14.26089453125,12.84036328125,-2.26156640625,11.82044140625
17.3615234375,18.42289453125,14.47962890625,14.67959375,20.7454609375,14.53082421875,26.4213515625,18.2311015625,12.27975,18.949578125,20.92707421875,24.916296875,19.12245703125,19.08956640625,19.32401953125,22.76306640625,-0.253316406250001,13.320390625,18.59134765625,18.863078125,30.6473203125,11.94235546875,18.42011328125,16.997296875,9.506625,24.13860546875,12.11489453125,12.42936328125,-2.89856640625,9.66644140625
10.7655234375,12.60689453125,9.11162890625,9.23759375,13.2034609375,9.21982421875,20.2563515625,7.4041015625,6.23475,13.586578125,14.32507421875,22.326296875,15.60545703125,13.27056640625,12.69601953125,15.52606640625,-15.55431640625,9.895390625,12.40934765625,11.697078125,19.3213203125,5.54435546875,13.69911328125,10.971296875,3.165625,16.90160546875,6.78989453125,9.53536328125,-5.77056640625,3.65444140625
2.1695234375,5.19889453125,2.28662890625,2.00259375,2.6884609375,1.96682421875,11.2113515625,-3.2228984375,-0.22025,6.671578125,5.70907421875,14.053296875,9.22845703125,6.04756640625,4.47801953125,5.68506640625,-27.87631640625,4.008390625,4.66134765625,2.676078125,4.9073203125,-3.49264453125,7.33911328125,3.398296875,-5.604375,4.22560546875,-0.30010546875,4.89936328125,-9.89256640625,-4.60955859375
-5.8444765625,-1.53910546875,-3.77137109375,-4.89240625,-8.1605390625,-5.01917578125,2.1233515625,-10.4338984375,-5.40925,-0.00442187500000024,-2.46292578125,2.670296875,2.45545703125,-0.615433593749998,-3.01298046875,-3.78193359375,-33.18731640625,-2.302609375,-2.51665234375,-5.384921875,-8.3456796875,-12.35964453125,1.33311328125,-3.275703125,-13.681375,-9.60739453125,-6.85210546875,0.177363281249999,-13.66856640625,-12.48755859375
-10.8014765625,-5.44210546875,-7.11137109375,-9.49740625,-16.3295390625,-9.51617578125,-4.2806484375,-12.1348984375,-7.90225,-4.507421875,-7.76392578125,-8.246703125,-2.41354296875,-4.78743359375,-7.58798046875,-9.98293359375,-30.21531640625,-6.806609375,-7.10565234375,-9.935921875,-16.5306796875,-17.96064453125,-2.40988671875,-6.886703125,-18.101375,-19.85739453125,-10.71010546875,-2.82063671875,-15.64256640625,-17.56255859375
-11.4984765625,-5.46610546875,-6.99237109375,-10.97440625,-19.7755390625,-10.32017578125,-6.6146484375,-8.5198984375,-7.15825,-5.596421875,-8.85092578125,-15.408703125,-4.45654296875,-5.42843359375,-8.14698046875,-11.35493359375,-21.05931640625,-8.172609375,-8.06265234375,-9.832921875,-17.8266796875,-18.47364453125,-2.94388671875,-6.551703125,-17.424375,-23.54939453125,-10.90210546875,-3.04163671875,-15.21256640625,-18.80855859375
-8.4824765625,-2.14310546875,-4.18337109375,-9.85040625,-18.2245390625,-7.65817578125,-5.4176484375,-2.1108984375,-3.76525,-3.230421875,-5.97592578125,-16.873703125,-4.31254296875,-2.75743359375,-5.06598046875,-8.20893359375,-10.05831640625,-6.436609375,-5.66065234375,-5.750921875,-13.1756796875,-14.11964453125,-0.597886718749999,-2.976703125,-12.315375,-20.75239453125,-8.00910546875,-0.639636718750001,-12.84156640625,-16.96055859375
-3.5854765625,2.83689453125,-0.41837109375,-7.47740625,-12.9675390625,-2.83017578125,-2.6256484375,3.5521015625,0.890749999999999,1.542578125,-0.66792578125,-12.575703125,-3.33054296875,2.04756640625,0.168019531249998,-2.34093359375,-1.57831640625,-2.610609375,-1.13565234375,0.321078125,-5.5466796875,-6.69664453125,3.43911328125,2.085296875,-5.049375,-14.17539453125,-3.65410546875,3.31036328125,-9.62656640625,-13.85955859375
1.1415234375,7.60589453125,2.66362890625,-5.09140625,-5.9515390625,2.54182421875,-0.194648437499999,5.8841015625,5.30975,7.182578125,5.12007421875,-4.208703125,-2.41154296875,7.55956640625,5.76001953125,3.94106640625,2.00768359375,2.163390625,4.04834765625,6.150078125,1.6723203125,1.64735546875,7.92411328125,6.839296875,1.724625,-7.43239453125,0.50789453125,7.60836328125,-6.54856640625,-11.26255859375
4.4095234375,11.02389453125,4.38162890625,-3.13840625,1.1454609375,7.15982421875,1.1793515625,4.6721015625,8.52275,12.305578125,9.86307421875,5.443296875,-1.41754296875,12.69056640625,10.34701953125,8.76806640625,1.13868359375,7.231390625,8.82734765625,10.210078125,6.1393203125,9.47835546875,12.16111328125,10.250296875,6.163625,-3.14139453125,3.60489453125,11.60136328125,-3.97256640625,-9.90255859375
6.0835234375,12.98489453125,5.17062890625,-1.26740625,7.3054609375,10.34482421875,2.3223515625,2.0381015625,10.35075,16.034578125,12.84507421875,13.481296875,0.49545703125,16.86756640625,13.33901953125,11.19706640625,-1.60331640625,12.423390625,12.71334765625,12.037078125,7.1533203125,16.29535546875,16.02011328125,12.225296875,7.752625,-1.99039453125,5.69089453125,15.27336328125,-1.69656640625,-9.35955859375
6.8315234375,14.06189453125,5.98762890625,1.10759375,12.0114609375,11.94782421875,4.6433515625,0.9601015625,11.17275,17.987578125,14.04307421875,17.829296875,3.96045703125,19.80956640625,14.76401953125,11.18506640625,-3.22831640625,17.556390625,15.54434765625,11.981078125,5.3233203125,21.99135546875,19.49111328125,13.194296875,7.067625,-3.02639453125,7.26989453125,18.76636328125,0.54743359375,-8.66455859375
7.4145234375,14.86389453125,7.45562890625,4.14559375,14.9134609375,12.06482421875,8.8083515625,3.2811015625,11.43675,18.111578125,13.76707421875,17.829296875,8.59945703125,21.24256640625,14.87901953125,9.26806640625,-2.16231640625,21.933390625,17.14634765625,10.673078125,1.8123203125,26.13935546875,22.20811328125,13.530296875,5.133625,-4.65039453125,8.63889453125,21.81436328125,2.60643359375,-7.11355859375
8.1155234375,15.57989453125,9.37162890625,7.29759375,15.6994609375,10.82882421875,14.0893515625,8.5221015625,11.31575,16.595578125,12.40607421875,14.335296875,12.99345703125,20.86656640625,13.89701953125,6.25006640625,0.888683593749999,24.335390625,17.22034765625,8.641078125,-2.2716796875,27.77335546875,23.37511328125,13.241296875,2.863625,-5.54739453125,9.55889453125,23.58236328125,3.81143359375,-4.74455859375
8.7015234375,15.97889453125,10.92462890625,9.56459375,14.2704609375,8.46182421875,18.7853515625,14.2311015625,10.79775,13.914578125,10.39507421875,9.341296875,15.52045703125,18.64156640625,12.02401953125,3.04006640625,3.56268359375,23.600390625,15.58134765625,6.271078125,-6.0996796875,25.87735546875,22.19211328125,12.100296875,0.803624999999999,-5.16239453125,9.42789453125,23.07136328125,3.37243359375,-2.25155859375
8.8215234375,15.77989453125,11.39562890625,10.09159375,11.0174609375,5.47082421875,21.2363515625,17.5481015625,10.05575,10.890578125,8.29507421875,5.220296875,15.48945703125,15.14456640625,9.69601953125,0.55606640625,3.44168359375,19.454390625,12.52934765625,3.970078125,-9.0826796875,20.25035546875,18.49811328125,10.038296875,-0.807375000000001,-3.71739453125,7.76689453125,19.78436328125,0.94643359375,-0.52055859375
8.4445234375,15.05589453125,10.78562890625,8.71359375,6.9674609375,2.68182421875,20.6213515625,16.8971015625,9.65275,8.594578125,6.79407421875,3.779296875,13.72145703125,11.60656640625,7.67801953125,-0.424933593750001,-0.454316406250001,12.992390625,8.98034765625,2.293078125,-10.7936796875,12.12235546875,13.13311328125,7.443296875,-1.873375,-1.91739453125,4.65189453125,14.19736328125,-2.98956640625,-0.0985585937500004
7.9885234375,14.36589453125,9.91462890625,6.13259375,3.6514609375,1.01082421875,17.1943515625,12.8001015625,10.32775,8.032578125,6.52107421875,5.505296875,12.11545703125,9.48156640625,6.85401953125,0.52306640625,-7.06031640625,6.407390625,6.20634765625,1.862078125,-10.9276796875,3.97135546875,7.72411328125,5.134296875,-2.274375,-0.48639453125,0.81589453125,7.70636328125,-7.22556640625,-0.87455859375
8.1145234375,14.50889453125,9.97362890625,3.65259375,2.6254609375,1.12782421875,12.1233515625,7.5201015625,12.49875,9.721578125,7.79807421875,9.462296875,12.40845703125,9.74256640625,7.84701953125,3.34706640625,-13.68031640625,2.019390625,5.26534765625,3.146078125,-9.2276796875,-1.51864453125,3.97111328125,4.025296875,-1.795375,0.33560546875,-2.61710546875,2.05636328125,-10.31356640625,-2.09555859375
9.3615234375,16.08889453125,11.87062890625,2.59359375,4.7654609375,3.19182421875,7.1393515625,3.9021015625,15.82575,13.368578125,10.46207421875,13.987296875,14.93445703125,12.29756640625,10.66701953125,7.56006640625,-17.15331640625,1.109390625,6.46134765625,6.218078125,-5.4506796875,-2.84064453125,2.82811328125,4.674296875,-0.167375000000001,1.06360546875,-4.62910546875,-1.42863671875,-11.21756640625,-2.70555859375
11.8355234375,19.13789453125,15.72262890625,3.64659375,9.6664609375,6.73382421875,4.0653515625,4.0031015625,19.14575,17.848578125,13.85907421875,17.751296875,18.25645703125,15.90156640625,14.57901953125,12.42206640625,-15.38431640625,3.255390625,9.11034765625,10.597078125,0.474320312499998,-0.53164453125,4.04611328125,6.932296875,2.712625,2.72960546875,-4.80510546875,-2.43963671875,-9.81756640625,-1.90955859375
15.0605234375,22.96089453125,20.66762890625,6.50859375,15.5944609375,10.70482421875,4.1723515625,8.1181015625,20.89775,21.543578125,17.00007421875,20.427296875,19.94645703125,18.66056640625,18.25601953125,17.08806640625,-8.70431640625,6.571390625,11.77334765625,15.249078125,8.0363203125,3.09135546875,6.32611328125,9.877296875,6.464625,6.09060546875,-3.60810546875,-1.76763671875,-7.00856640625,0.29244140625
18.0675234375,26.30989453125,25.05962890625,9.99659375,20.1464609375,13.77682421875,7.5913515625,14.6141015625,19.90575,22.956578125,18.84507421875,22.471296875,18.04845703125,18.92756640625,20.22101953125,20.68806640625,-0.207316406250001,8.782390625,12.87734765625,18.808078125,15.7773203125,5.25935546875,8.01111328125,12.109296875,10.038625,10.71460546875,-2.23010546875,-0.861636718749999,-4.34256640625,2.91044140625
19.7265234375,27.81289453125,27.05962890625,12.59259375,21.3224609375,14.84782421875,13.1433515625,20.6821015625,16.12375,21.321578125,18.64007421875,24.277296875,12.31045703125,16.13056640625,19.45701953125,22.41106640625,5.51268359375,8.481390625,11.44434765625,19.986078125,21.4363203125,4.32535546875,7.92611328125,12.318296875,11.929625,14.67760546875,-2.06210546875,-1.07963671875,-3.33556640625,4.34144140625
19.2165234375,26.58389453125,25.47362890625,13.12259375,18.3974609375,13.48182421875,18.7913515625,23.6841015625,10.81175,16.949578125,16.21007421875,25.491296875,4.42445703125,11.06156640625,15.87301953125,21.69306640625,4.81368359375,5.829390625,7.54434765625,18.083078125,22.7683203125,0.588355468749999,5.93411328125,9.893296875,10.822625,15.37260546875,-3.98810546875,-3.01363671875,-4.74656640625,3.19844140625
16.4665234375,22.73989453125,20.48462890625,11.29259375,12.2174609375,10.06282421875,22.5223515625,22.4301015625,6.01675,11.159578125,12.11407421875,25.162296875,-2.74454296875,5.52956640625,10.41601953125,18.51206640625,-2.69931640625,2.364390625,2.30534765625,13.369078125,18.7213203125,-4.05464453125,2.95911328125,5.290296875,6.368625,11.15260546875,-7.84910546875,-6.16963671875,-8.15656640625,-0.81655859375
12.3975234375,17.57589453125,13.85762890625,7.89559375,4.9614609375,5.68582421875,23.1593515625,17.7421015625,3.70375,5.862578125,7.57007421875,22.676296875,-6.41554296875,1.62056640625,4.80201953125,13.64306640625,-13.60331640625,0.191390624999999,-2.47965234375,7.172078125,10.2933203125,-7.19864453125,0.58611328125,0.000296875000000085,-0.340375000000001,2.78460546875,-12.34910546875,-9.13463671875,-12.04356640625,-6.48855859375
8.7475234375,13.18989453125,8.37062890625,4.58259375,-0.5375390625,1.87682421875,20.7103515625,12.0311015625,5.06175,2.933578125,4.10307421875,18.636296875,-4.99654296875,0.955566406250002,0.978019531249998,8.59506640625,-22.35631640625,1.079390625,-4.96665234375,1.534078125,0.411320312499997,-7.00864453125,0.447113281250001,-3.926703125,-6.999375,-6.40739453125,-15.48110546875,-10.12463671875,-14.36156640625,-11.43555859375
7.3905234375,11.60789453125,6.58662890625,3.15359375,-1.8305390625,0.13682421875,16.1693515625,8.0571015625,10.18175,3.558578125,2.96207421875,14.852296875,1.28545703125,4.15656640625,0.425019531249999,5.09506640625,-24.30531640625,5.821390625,-3.92365234375,-1.545921875,-7.2976796875,-2.85964453125,3.59911328125,-4.667703125,-11.008375,-12.08639453125,-15.37710546875,-7.74663671875,-13.39356640625,-13.14455859375
9.3485234375,13.77089453125,9.53062890625,4.63459375,1.9554609375,1.31282421875,10.9953515625,7.5161015625,18.06275,7.721578125,4.54407421875,13.308296875,10.39545703125,10.62356640625,3.50301953125,4.26506640625,-18.17831640625,13.952390625,0.737347656249998,-0.996921875000002,-10.3116796875,4.52135546875,10.05511328125,-1.440703125,-10.690375,-11.32239453125,-11.17710546875,-1.63463671875,-8.51256640625,-10.20255859375
14.0525234375,18.89789453125,15.96762890625,8.64959375,9.4464609375,5.05382421875,6.5513515625,10.1331015625,26.81675,14.104578125,8.10607421875,14.839296875,19.19145703125,18.67056640625,9.15801953125,5.98206640625,-6.67431640625,23.898390625,7.81234765625,2.757078125,-8.5996796875,13.38735546875,18.65611328125,5.066296875,-6.159375,-4.40339453125,-3.51610546875,7.30936328125,-0.48356640625,-3.06055859375
19.3945234375,24.65089453125,22.75762890625,13.55759375,17.4894609375,9.80182421875,3.7293515625,13.7861015625,34.10375,20.489578125,11.99507421875,18.463296875,24.73345703125,26.05556640625,15.26001953125,8.83406640625,4.96668359375,33.520390625,15.17634765625,7.923078125,-4.7446796875,21.65235546875,27.41311328125,12.903296875,0.665624999999999,5.11460546875,5.68689453125,17.21136328125,8.81543359375,6.10744140625
22.6695234375,28.14089453125,26.23462890625,17.33759375,22.7104609375,13.44882421875,2.8323515625,15.6801015625,37.79075,24.601578125,14.35507421875,21.775296875,25.64645703125,30.75156640625,19.48501953125,10.78806640625,11.49568359375,40.884390625,20.58634765625,12.153078125,-2.6316796875,27.69535546875,34.22111328125,19.654296875,6.943625,12.22160546875,14.01389453125,25.91336328125,17.15143359375,14.39444140625
21.9705234375,27.34989453125,24.02562890625,18.66459375,23.2484609375,14.32082421875,3.6983515625,14.0561015625,36.69675,25.035578125,13.99207421875,22.100296875,22.75545703125,31.67256640625,20.31601953125,10.23806640625,10.10468359375,44.919390625,22.56234765625,13.669078125,-5.2996796875,30.84835546875,37.64011328125,23.434296875,10.291625,13.15760546875,19.54689453125,31.74336328125,22.78443359375,19.48144140625
17.2145234375,22.20289453125,16.34862890625,17.51759375,19.5724609375,11.94382421875,5.9163515625,9.4181015625,31.07975,21.818578125,10.96707421875,17.743296875,18.48545703125,29.01156640625,17.64401953125,6.86806640625,1.71068359375,45.636390625,20.90034765625,12.077078125,-13.1416796875,31.35835546875,37.35411328125,23.597296875,9.911625,7.47260546875,21.55589453125,34.01036328125,25.03143359375,20.58444140625
10.1935234375,14.61989453125,6.00462890625,14.96159375,13.9384609375,7.19682421875,9.0373515625,4.3861015625,22.54875,16.289578125,6.53407421875,8.792296875,15.38945703125,24.02056640625,12.69601953125,1.83206640625,-9.51531640625,43.850390625,16.60334765625,8.447078125,-23.5106796875,29.96435546875,34.10711328125,20.814296875,6.840625,-1.74339453125,20.57189453125,33.07136328125,24.31843359375,18.56044140625
3.6375234375,7.53989453125,-2.94037109375,12.36659375,9.0254609375,1.86782421875,12.7003515625,2.1521015625,13.44475,10.423578125,2.50607421875,-2.710703125,14.81345703125,18.39556640625,7.38901953125,-2.76993359375,-18.19531640625,40.673390625,11.33334765625,4.667078125,-31.9516796875,27.49335546875,29.24911328125,16.583296875,3.261625,-9.55739453125,17.91389453125,30.03536328125,21.79443359375,15.23244140625
-0.0824765625,3.55289453125,-7.00737109375,10.60859375,6.7214609375,-2.13617578125,16.6113515625,4.5481015625,6.03975,6.010578125,0.45907421875,-13.263703125,16.57645703125,13.63756640625,3.51001953125,-4.78893359375,-20.27031640625,37.109390625,6.72734765625,2.543078125,-34.3096796875,24.74535546875,24.22111328125,12.534296875,1.373625,-11.69539453125,15.03589453125,26.31636328125,18.80543359375,12.44044140625
0.1035234375,3.87489453125,-4.72237109375,9.73159375,7.6394609375,-3.54617578125,20.3723515625,10.9851015625,1.91775,4.112578125,1.18407421875,-18.986703125,19.61845703125,10.66056640625,2.10801953125,-2.85793359375,-14.71231640625,33.904390625,3.90434765625,3.092078125,-28.5646796875,22.57135546875,20.17411328125,9.869296875,2.441625,-6.46439453125,13.03189453125,23.20236328125,16.46743359375,11.32944140625
3.7315234375,8.01689453125,2.92862890625,9.10459375,11.2034609375,-2.15017578125,23.2803515625,18.7621015625,1.64075,4.839578125,4.51507421875,-17.011703125,22.83045703125,9.67356640625,3.24901953125,3.10606640625,-3.70531640625,31.513390625,3.20834765625,6.258078125,-15.6206796875,21.81035546875,17.73111328125,9.050296875,6.365625,4.66260546875,12.36389453125,21.47336328125,15.35143359375,12.04544140625
9.1555234375,14.07789453125,12.98462890625,7.88359375,15.9054609375,1.21682421875,24.2963515625,24.3371015625,4.64475,7.405578125,9.41007421875,-6.713703125,25.35745703125,10.21956640625,6.11301953125,11.79306640625,8.50468359375,29.983390625,4.17734765625,10.969078125,1.0433203125,22.89035546875,16.79811328125,9.710296875,11.747625,17.74660546875,12.76789453125,21.09636328125,15.30443359375,13.78544140625
14.2185234375,19.50289453125,21.67262890625,5.51459375,19.6344609375,5.04782421875,22.3623515625,24.8351015625,9.36775,10.403578125,14.25407421875,9.702296875,26.37445703125,11.33056640625,9.31401953125,20.81606640625,17.40368359375,28.805390625,5.70634765625,15.486078125,16.5473203125,25.29635546875,16.53411328125,10.777296875,16.356625,27.90360546875,13.32889453125,21.15836328125,15.45643359375,15.13644140625
17.0115234375,22.08589453125,25.83862890625,2.12659375,20.3284609375,7.73282421875,17.0453515625,19.2921015625,13.71975,12.370578125,17.39407421875,27.625296875,24.92245703125,11.89556640625,11.41901953125,27.46506640625,19.91768359375,26.966390625,6.50434765625,18.000078125,26.2643203125,27.37935546875,15.64211328125,10.918296875,17.937625,31.11360546875,12.83889453125,20.22536328125,14.59943359375,14.66744140625
16.5775234375,20.87489453125,24.17462890625,-1.35240625,16.9614609375,8.20782421875,9.2223515625,9.2461015625,15.90375,12.479578125,17.84207421875,41.479296875,20.27445703125,11.21756640625,11.59801953125,29.74206640625,15.47868359375,23.416390625,5.74834765625,17.404078125,27.4913203125,26.89135546875,13.03411328125,9.216296875,15.183625,25.78860546875,10.40189453125,17.08936328125,11.84843359375,11.63444140625
13.2845234375,16.55789453125,17.70762890625,-3.50440625,10.3504609375,6.46282421875,1.2443515625,-1.6568984375,15.25875,11.025578125,15.81207421875,46.791296875,12.66745703125,9.47756640625,10.12301953125,27.26406640625,6.07768359375,17.784390625,3.63234765625,13.908078125,20.5493203125,22.10935546875,8.55511328125,5.780296875,8.474625,13.47960546875,6.03389453125,11.52136328125,7.25843359375,6.47444140625
8.6695234375,11.09389453125,9.29262890625,-3.11440625,3.0574609375,3.60382421875,-3.8146484375,-9.1148984375,12.57675,9.320578125,12.69007421875,42.023296875,3.73045703125,7.74856640625,8.34901953125,21.50306640625,-4.77931640625,10.871390625,1.39734765625,9.065078125,8.6963203125,12.97935546875,3.27811328125,1.856296875,-0.0913750000000011,-1.68039453125,0.83189453125,4.55836328125,1.93943359375,0.74744140625
4.7545234375,6.78089453125,2.30462890625,0.13959375,-1.7945390625,1.29882421875,-3.5596484375,-10.1118984375,9.66675,9.011578125,10.37707421875,29.282296875,-3.89754296875,7.44256640625,8.03501953125,15.14106640625,-13.61731640625,4.523390625,0.730347656249998,5.095078125,-3.2436796875,1.55435546875,-0.889886718750001,-0.710703125,-7.512375,-14.60339453125,-3.45710546875,-1.91263671875,-2.42956640625,-3.51055859375
3.2075234375,5.27689453125,-0.76037109375,5.46959375,-2.1015390625,0.93182421875,2.5343515625,-4.2278984375,8.45075,11.196578125,10.37407421875,13.465296875,-7.61954296875,9.53256640625,10.40201953125,10.87006640625,-18.13031640625,0.887390625,2.86434765625,3.857078125,-10.8496796875,-8.64564453125,-2.10888671875,-0.361703125,-11.132375,-21.15639453125,-5.23410546875,-6.00763671875,-4.39756640625,-4.64955859375
4.7515234375,7.01789453125,0.84662890625,11.34859375,2.2374609375,2.96082421875,12.8633515625,6.3651015625,10.08275,15.856578125,13.10507421875,0.192296875,-5.98054296875,14.02456640625,15.47501953125,10.25206640625,-17.52531640625,1.438390625,7.91634765625,6.039078125,-11.7096796875,-14.12764453125,0.51011328125,3.430296875,-9.693375,-19.48139453125,-3.76710546875,-6.66463671875,-3.39056640625,-2.04755859375
8.9375234375,11.15589453125,6.06662890625,16.13859375,9.4344609375,6.74082421875,24.3273515625,18.0151015625,14.45875,21.798578125,17.72507421875,-6.481703125,0.66845703125,19.88856640625,22.01001953125,13.13906640625,-12.45531640625,6.235390625,14.73134765625,10.898078125,-6.0756796875,-13.08164453125,6.42111328125,9.858296875,-3.793375,-10.43639453125,0.45889453125,-4.06763671875,0.0464335937500002,3.65544140625
14.2595234375,15.90589453125,12.59262890625,18.58359375,16.7594609375,10.72982421875,33.3523515625,26.9331015625,20.17075,27.050578125,22.39407421875,-5.512703125,10.13245703125,25.38356640625,27.89701953125,17.78306640625,-5.02331640625,13.723390625,21.22434765625,16.531078125,3.4373203125,-6.27564453125,13.74111328125,16.965296875,4.305625,2.75060546875,5.84089453125,0.414363281250001,4.42843359375,10.70344140625
18.5895234375,19.18989453125,17.77462890625,18.03759375,21.7124609375,13.01582421875,36.9133515625,30.2411015625,24.96475,29.577578125,24.91207421875,1.121296875,19.02545703125,28.65256640625,30.89201953125,21.58206640625,1.43668359375,21.239390625,25.09834765625,20.564078125,12.8763203125,3.31035546875,19.91311328125,22.280296875,11.472625,15.45060546875,10.19089453125,4.75736328125,7.85143359375,16.70944140625
20.0025234375,19.46789453125,19.64362890625,14.57659375,22.8824609375,12.15182421875,33.4613515625,26.6751015625,26.68875,28.114578125,23.63407421875,9.789296875,24.05745703125,28.45556640625,29.52801953125,22.26206640625,3.49868359375,26.105390625,24.75134765625,21.110078125,18.4893203125,11.97535546875,22.74811328125,23.783296875,14.933625,23.20160546875,11.61189453125,7.10536328125,8.76143359375,19.50744140625
17.7455234375,16.49889453125,17.74362890625,9.04759375,20.2364609375,8.00582421875,23.5283515625,17.0211015625,24.40175,22.813578125,18.33307421875,17.199296875,23.51745703125,24.79856640625,23.88501953125,19.05806640625,-0.502316406249999,26.834390625,20.06234765625,17.679078125,18.3313203125,17.02335546875,21.40911328125,20.853296875,13.516625,23.53260546875,9.38389453125,6.57136328125,6.67743359375,18.11944140625
12.7355234375,11.54389453125,13.32262890625,2.85559375,14.8294609375,1.98982421875,9.7153515625,3.9941015625,18.93975,15.273578125,10.48407421875,21.905296875,18.06245703125,18.99956640625,15.69801953125,13.17606640625,-9.26931640625,23.738390625,12.52334765625,11.485078125,13.1343203125,17.71635546875,16.76511328125,14.636296875,8.218625,17.15060546875,4.33889453125,3.57636328125,2.43843359375,13.29244140625
7.0525234375,6.69489453125,8.57862890625,-2.61440625,8.1074609375,-3.70717578125,-4.1146484375,-8.6878984375,12.40775,7.773578125,2.60507421875,24.369296875,10.15245703125,13.00456640625,7.52001953125,7.11406640625,-19.22131640625,18.487390625,4.50434765625,4.826078125,5.7913203125,14.96835546875,10.80611328125,7.449296875,1.609625,7.57160546875,-1.62610546875,-0.52263671875,-2.26456640625,7.10644140625
2.6395234375,3.61589453125,5.29662890625,-6.65840625,1.1984609375,-7.43517578125,-14.2106484375,-17.7948984375,6.86875,2.101578125,-3.06092578125,25.639296875,2.44945703125,8.30056640625,1.40201953125,3.13906640625,-26.66131640625,12.944390625,-1.96765234375,-0.190921875000001,-0.378679687500002,10.23735546875,5.48311328125,1.534296875,-3.654375,-0.85639453125,-6.63010546875,-4.25163671875,-5.81156640625,1.83744140625
0.1385234375,2.55089453125,3.79262890625,-9.48040625,-5.3685390625,-8.97417578125,-18.2886484375,-21.8388984375,3.22275,-1.262421875,-5.67292578125,25.781296875,-3.60854296875,5.21256640625,-2.02498046875,1.98006640625,-29.77331640625,8.165390625,-6.11465234375,-2.706921875,-3.4746796875,4.63035546875,1.76811328125,-2.019703125,-6.234375,-5.37739453125,-9.72010546875,-6.71063671875,-7.40656640625,-1.17455859375
-1.2834765625,2.33989453125,2.92362890625,-11.76340625,-11.4035390625,-9.40217578125,-16.3086484375,-21.4058984375,1.06175,-3.068421875,-5.98392578125,23.454296875,-8.05954296875,3.04656640625,-3.50498046875,2.60706640625,-29.10331640625,4.219390625,-8.41965234375,-3.290921875,-3.8276796875,-1.21564453125,-0.475886718749999,-3.491703125,-6.548375,-6.15339453125,-11.05410546875,-7.74063671875,-7.20556640625,-1.93055859375
-3.0934765625,1.38889453125,1.10962890625,-13.98540625,-16.5795390625,-10.17717578125,-10.3146484375,-18.4738984375,-0.61125,-4.504421875,-5.57692578125,17.015296875,-11.55454296875,0.870566406250001,-4.33498046875,3.16406640625,-26.58731640625,0.748390624999999,-9.91665234375,-3.243921875,-3.3716796875,-6.73564453125,-1.94188671875,-3.931703125,-6.106375,-5.68739453125,-11.40710546875,-7.65663671875,-5.92756640625,-1.35755859375
-6.1974765625,-1.14610546875,-2.42837109375,-16.02640625,-20.2525390625,-12.13017578125,-3.3496484375,-15.1788984375,-2.47225,-6.309421875,-5.76092578125,6.177296875,-14.34154296875,-1.73543359375,-5.43798046875,2.29606640625,-24.11631640625,-2.407609375,-11.36065234375,-3.632921875,-4.1396796875,-11.18964453125,-3.19488671875,-4.293703125,-6.335375,-6.80339453125,-11.48910546875,-6.90163671875,-4.34556640625,-0.51955859375
-10.2404765625,-4.76810546875,-7.04037109375,-17.31540625,-21.7245390625,-14.95617578125,2.0183515625,-12.7478984375,-4.43325,-8.360421875,-6.85892578125,-7.189703125,-15.91054296875,-4.42543359375,-6.86198046875,-0.0319335937499998,-22.58631640625,-4.987609375,-12.80265234375,-4.702921875,-6.9076796875,-13.84264453125,-4.31988671875,-4.906703125,-7.676375,-10.54739453125,-11.56010546875,-5.88563671875,-3.01256640625,-0.0205585937500006
-13.7704765625,-7.93710546875,-10.96237109375,-17.28040625,-20.6655390625,-17.41417578125,4.7233515625,-11.1458984375,-5.80925,-9.853421875,-8.22092578125,-19.723703125,-15.35954296875,-6.37443359375,-7.92098046875,-2.65093359375,-21.78531640625,-6.541609375,-13.70965234375,-5.909921875,-10.7816796875,-14.31764453125,-4.99288671875,-5.464703125,-9.445375,-15.39139453125,-11.45010546875,-4.97563671875,-2.23856640625,0.132441406249999
-15.0884765625,-8.92410546875,-12.25237109375,-15.72140625,-17.3105390625,-18.07017578125,5.2233515625,-9.5148984375,-5.83525,-9.842421875,-8.79692578125,-28.178703125,-11.99154296875,-6.80343359375,-7.75398046875,-4.01093359375,-20.91731640625,-6.772609375,-13.41065234375,-6.427921875,-13.8856796875,-12.76064453125,-4.79288671875,-5.414703125,-10.412375,-18.19139453125,-10.85110546875,-4.52863671875,-2.19456640625,0.265441406249999
-13.1694765625,-6.68410546875,-9.74937109375,-12.87440625,-12.2895390625,-16.08617578125,4.7233515625,-6.9728984375,-4.13425,-7.766421875,-7.80892578125,-30.842703125,-5.66654296875,-5.39343359375,-5.87798046875,-3.06993359375,-19.28231640625,-5.717609375,-11.53365234375,-5.687921875,-14.5726796875,-9.69464453125,-3.49188671875,-4.364703125,-9.600375,-16.15139453125,-9.58210546875,-4.81263671875,-2.94656640625,0.69544140625
-8.1324765625,-1.29910546875,-3.58637109375,-9.19540625,-6.2895390625,-11.58117578125,4.2813515625,-3.1648984375,-0.871250000000001,-3.714421875,-5.12592578125,-28.102703125,3.13945703125,-2.36643359375,-2.39998046875,0.25306640625,-16.63931640625,-3.674609375,-8.17865234375,-3.637921875,-12.3456796875,-5.72264453125,-1.16988671875,-2.289703125,-6.798375,-8.49239453125,-7.67410546875,-5.85063671875,-4.38556640625,1.55644140625
-1.1324765625,6.08089453125,4.87562890625,-5.10340625,0.1664609375,-5.49917578125,4.3403515625,1.6531015625,3.38375,1.614578125,-1.26692578125,-22.117703125,13.46145703125,1.64856640625,2.10901953125,5.15206640625,-13.17431640625,-1.048609375,-3.85765234375,-0.685921875000002,-8.0516796875,-1.32364453125,1.83211328125,0.509296875,-2.611375,3.04860546875,-5.31310546875,-7.32063671875,-6.16656640625,2.79944140625
-1.1324765625,6.08089453125,4.87562890625,-5.10340625,0.1664609375,-5.49917578125,4.3403515625,1.6531015625,3.38375,1.614578125,-1.26692578125,-22.117703125,13.46145703125,1.64856640625,2.10901953125,5.15206640625,-13.17431640625,-1.048609375,-3.85765234375,-0.685921875000002,-8.0516796875,-1.32364453125,1.83211328125,0.509296875,-2.611375,3.04860546875,-5.31310546875,-7.32063671875,-6.16656640625,2.79944140625
