"Fp1","Fpz","Fp2","F7","F3","Fz","F4","F8","FC5","FC1","FC2","FC6","T7","C3","Cz","C4","T8","CP5","CP1","CP2","CP6","P7","P3","Pz","P4","P8","POz","O1","Oz","O2"
-59.2998671875,-38.37802734375,-42.04611328125,-16.12514453125,-27.995203125,-24.93052734375,-25.956859375,-34.786828125,-12.55531640625,-23.6652734375,-19.859484375,-74.34517578125,-32.715125,-23.4833125,-23.55446875,-26.29823828125,-21.95055078125,-27.163265625,-22.44337890625,-22.23834765625,-25.4974921875,-28.40094921875,-25.61265625,-26.40486328125,-20.2277578125,-25.68730078125,-24.87804296875,-30.72851171875,-29.0888125,-29.69835546875
-56.6298671875,-36.91502734375,-38.83011328125,-5.99114453125,-39.220203125,-30.00852734375,-25.945859375,-32.566828125,-21.42831640625,-31.7462734375,-25.225484375,-69.92217578125,-18.534125,-32.9223125,-27.95146875,-29.91023828125,-23.12555078125,-36.708265625,-28.93637890625,-26.76334765625,-27.8134921875,-30.36094921875,-30.78765625,-30.06686328125,-23.4487578125,-26.90630078125,-26.66704296875,-32.22551171875,-30.3688125,-30.72235546875
-54.9558671875,-35.14002734375,-36.35611328125,0.015855468749999,-44.686203125,-32.14752734375,-25.499859375,-31.152828125,-24.62931640625,-35.5252734375,-27.772484375,-67.63417578125,-11.048125,-37.0663125,-29.89046875,-31.85523828125,-23.83855078125,-40.727265625,-31.79337890625,-28.82134765625,-28.8704921875,-30.73694921875,-32.66865625,-31.63786328125,-25.0587578125,-27.42730078125,-27.42104296875,-32.52051171875,-30.6728125,-31.00735546875
-54.0338671875,-33.10802734375,-34.48211328125,1.65685546875,-44.381203125,-31.43652734375,-24.605859375,-30.415828125,-22.64731640625,-35.0512734375,-27.535484375,-67.10717578125,-10.305125,-36.1543125,-29.43246875,-32.12323828125,-24.12555078125,-39.374265625,-31.10937890625,-28.45134765625,-28.7174921875,-29.70094921875,-31.45565625,-31.17086328125,-25.0817578125,-27.27930078125,-27.24504296875,-31.74351171875,-30.0218125,-30.56735546875
-53.3978671875,-31.12402734375,-32.95411328125,-0.0961445312500011,-40.195203125,-28.97952734375,-23.471859375,-30.081828125,-17.89831640625,-31.8112734375,-25.468484375,-67.29517578125,-14.138125,-32.2563125,-27.47746875,-31.23623828125,-24.17055078125,-34.763265625,-28.21137890625,-26.50234765625,-27.8104921875,-27.99694921875,-28.47165625,-29.39286328125,-24.0447578125,-26.73930078125,-26.57604296875,-30.43551171875,-28.7808125,-29.65735546875
-52.6398671875,-29.61702734375,-31.65011328125,-3.59714453125,-34.807203125,-26.24152734375,-22.406859375,-29.988828125,-13.29431640625,-27.8582734375,-22.865484375,-67.13017578125,-19.405125,-28.0513125,-25.23246875,-29.88823828125,-24.23355078125,-29.707265625,-24.88637890625,-24.12434765625,-26.7234921875,-26.49694921875,-25.36465625,-27.25286328125,-22.6527578125,-26.19530078125,-25.89604296875,-29.25951171875,-27.4798125,-28.63735546875
-51.5058671875,-28.88502734375,-30.65311328125,-7.12614453125,-30.481203125,-24.35352734375,-21.616859375,-30.134828125,-10.77431640625,-24.8562734375,-20.762484375,-66.06017578125,-23.447125,-25.5003125,-23.62446875,-28.57723828125,-24.54455078125,-26.316265625,-22.55837890625,-22.25834765625,-25.8754921875,-25.78694921875,-23.33365625,-25.48686328125,-21.4697578125,-25.97930078125,-25.50204296875,-28.72951171875,-26.5938125,-27.83135546875
-49.9528671875,-28.95302734375,-30.17511328125,-9.37614453125,-28.374203125,-23.75252734375,-21.142859375,-30.596828125,-10.64631640625,-23.5412734375,-19.631484375,-64.23917578125,-24.966125,-25.1633125,-22.99746875,-27.48323828125,-25.21255078125,-25.317265625,-21.83837890625,-21.36334765625,-25.4254921875,-25.98094921875,-22.76065625,-24.40986328125,-20.7847578125,-26.23230078125,-25.44304296875,-29.04951171875,-26.3708125,-27.43335546875
-48.2438671875,-29.63702734375,-30.46611328125,-9.78114453125,-28.521203125,-24.23952734375,-20.976859375,-31.451828125,-11.90131640625,-23.7642734375,-19.426484375,-62.34917578125,-24.044125,-26.4003125,-23.17246875,-26.59723828125,-26.16555078125,-26.262265625,-22.53837890625,-21.42634765625,-25.3494921875,-26.81794921875,-23.33165625,-23.98486328125,-20.6317578125,-26.85630078125,-25.59704296875,-30.07751171875,-26.7658125,-27.46635546875
-46.9418671875,-30.72702734375,-31.68611328125,-8.61714453125,-30.206203125,-25.30152734375,-21.194859375,-32.720828125,-13.11231640625,-24.8842734375,-19.844484375,-61.20117578125,-21.585125,-28.0873125,-23.73046875,-25.94223828125,-27.15555078125,-28.179265625,-24.01537890625,-22.15034765625,-25.5794921875,-27.89994921875,-24.42465625,-24.00286328125,-20.9007578125,-27.60130078125,-25.81204296875,-31.40651171875,-27.4868125,-27.82035546875
-46.6228671875,-32.06902734375,-33.77611328125,-6.83714453125,-32.384203125,-26.41952734375,-21.904859375,-34.273828125,-13.26931640625,-26.1722734375,-20.576484375,-61.29617578125,-18.769125,-29.2773125,-24.28046875,-25.64723828125,-27.84155078125,-30.087265625,-25.54137890625,-23.15934765625,-26.0824921875,-28.88994921875,-25.46665625,-24.25586328125,-21.4317578125,-28.19730078125,-25.99404296875,-32.51851171875,-28.1528125,-28.32535546875
-47.4598671875,-33.49702734375,-36.36511328125,-5.66814453125,-33.979203125,-27.19652734375,-23.072859375,-35.790828125,-12.19131640625,-27.0352734375,-21.387484375,-62.51917578125,-16.800125,-29.4583125,-24.55946875,-25.80923828125,-27.94655078125,-31.169265625,-26.54337890625,-24.09834765625,-26.8154921875,-29.59894921875,-26.09465625,-24.58286328125,-22.0337578125,-28.47930078125,-26.11704296875,-32.97851171875,-28.4458125,-28.82535546875
-49.0188671875,-34.69202734375,-38.79211328125,-6.12014453125,-34.128203125,-27.35152734375,-24.393859375,-36.865828125,-10.47331640625,-27.0812734375,-22.051484375,-64.11317578125,-16.803125,-28.4683125,-24.41246875,-26.25823828125,-27.41655078125,-30.795265625,-26.67637890625,-24.64234765625,-27.6074921875,-29.95694921875,-26.13265625,-24.83586328125,-22.4737578125,-28.41230078125,-26.16304296875,-32.58651171875,-28.2208125,-29.19735546875
-50.4288671875,-35.18302734375,-40.28111328125,-8.56214453125,-32.447203125,-26.69952734375,-25.361859375,-37.187828125,-9.09931640625,-26.1432734375,-22.297484375,-65.03617578125,-19.558125,-26.3753125,-23.75546875,-26.51923828125,-26.47455078125,-28.675265625,-25.84837890625,-24.51834765625,-28.1134921875,-29.94594921875,-25.53665625,-24.85986328125,-22.5097578125,-28.05030078125,-26.08004296875,-31.44751171875,-27.5248125,-29.36135546875
-50.8378671875,-34.55002734375,-40.23411328125,-12.53214453125,-29.277203125,-25.25252734375,-25.516859375,-36.665828125,-8.89531640625,-24.3632734375,-21.913484375,-64.57417578125,-25.002125,-23.5333125,-22.63746875,-26.08723828125,-25.49455078125,-25.168265625,-24.26037890625,-23.62034765625,-27.9724921875,-29.57894921875,-24.43365625,-24.56086328125,-22.0177578125,-27.50130078125,-25.81904296875,-29.93651171875,-26.5758125,-29.30335546875
-49.8328671875,-32.72702734375,-38.55311328125,-16.89314453125,-25.678203125,-23.33952734375,-24.740859375,-35.433828125,-10.10331640625,-22.2292734375,-20.945484375,-62.79217578125,-31.887125,-20.6693125,-21.32146875,-24.84723828125,-24.76455078125,-21.391265625,-22.40737890625,-22.15134765625,-27.0634921875,-28.93894921875,-23.16265625,-23.99386328125,-21.1247578125,-26.90930078125,-25.40604296875,-28.57351171875,-25.6898125,-29.10335546875
-47.5728671875,-30.11402734375,-35.74711328125,-20.31814453125,-23.020203125,-21.54852734375,-23.388859375,-33.792828125,-12.32031640625,-20.4462734375,-19.761484375,-60.44017578125,-38.068125,-18.7103125,-20.23646875,-23.24823828125,-24.30255078125,-18.781265625,-20.90337890625,-20.60834765625,-25.6354921875,-28.17794921875,-22.18065625,-23.35486328125,-20.1817578125,-26.42230078125,-24.96604296875,-27.80351171875,-25.1658125,-28.92735546875
-44.5988671875,-27.40102734375,-32.68411328125,-21.88714453125,-22.298203125,-20.44452734375,-22.099859375,-32.122828125,-14.74731640625,-19.5972734375,-18.855484375,-58.38717578125,-41.498125,-18.3043125,-19.75646875,-22.05623828125,-23.87055078125,-18.274265625,-20.17037890625,-19.54234765625,-24.1904921875,-27.43594921875,-21.79665625,-22.83686328125,-19.5657578125,-26.14230078125,-24.61904296875,-27.76951171875,-25.1288125,-28.92235546875
-41.5088671875,-25.23102734375,-30.15711328125,-21.48314453125,-23.589203125,-20.25852734375,-21.392859375,-30.761828125,-16.48531640625,-19.8352734375,-18.547484375,-57.06817578125,-41.325125,-19.3743125,-19.96846875,-21.86223828125,-23.19255078125,-19.742265625,-20.20037890625,-19.26034765625,-23.2044921875,-26.73794921875,-21.95165625,-22.48786328125,-19.4547578125,-26.07630078125,-24.36604296875,-28.20151171875,-25.4408125,-29.11735546875
-38.8008671875,-24.00102734375,-28.58011328125,-19.74514453125,-26.080203125,-20.81852734375,-21.353859375,-29.938828125,-16.78431640625,-20.8592734375,-18.820484375,-56.36617578125,-38.234125,-21.1923125,-20.64546875,-22.72523828125,-22.20755078125,-22.198265625,-20.63737890625,-19.70334765625,-22.9044921875,-26.00894921875,-22.28365625,-22.21386328125,-19.7537578125,-26.16130078125,-24.08704296875,-28.55151171875,-25.7788125,-29.40135546875
-36.9038671875,-23.84102734375,-27.98311328125,-17.64014453125,-28.654203125,-21.75952734375,-21.667859375,-29.761828125,-15.41131640625,-22.1812734375,-19.403484375,-55.90317578125,-33.781125,-22.9463125,-21.44846875,-24.17423828125,-21.14855078125,-24.614265625,-21.09337890625,-20.55234765625,-23.2114921875,-25.22794921875,-22.44765625,-21.92986328125,-20.2117578125,-26.32230078125,-23.67604296875,-28.32251171875,-25.8448125,-29.60835546875
-36.1738671875,-24.66102734375,-28.18611328125,-15.97714453125,-30.537203125,-22.74852734375,-21.902859375,-30.243828125,-13.01131640625,-23.4102734375,-19.958484375,-55.39317578125,-29.370125,-24.2623125,-22.13646875,-25.49823828125,-20.38155078125,-26.561265625,-21.41637890625,-21.42334765625,-23.8254921875,-24.55594921875,-22.36865625,-21.67086328125,-20.5857578125,-26.49730078125,-23.16304296875,-27.37251171875,-25.5378125,-29.61735546875
-36.6958671875,-26.16002734375,-28.92311328125,-15.16014453125,-31.480203125,-23.54252734375,-21.756859375,-31.258828125,-11.01031640625,-24.3072734375,-20.218484375,-54.76017578125,-25.745125,-25.2003125,-22.59646875,-26.08123828125,-20.14955078125,-28.134265625,-21.65337890625,-21.99834765625,-24.3714921875,-24.25194921875,-22.20365625,-21.55286328125,-20.7257578125,-26.60230078125,-22.69104296875,-25.97551171875,-24.9638125,-29.38335546875
-38.0598671875,-27.86602734375,-29.89211328125,-15.22114453125,-31.511203125,-23.91752734375,-21.126859375,-32.505828125,-10.83931640625,-24.6732734375,-20.017484375,-54.01217578125,-23.183125,-25.8443125,-22.74246875,-25.63023828125,-20.41055078125,-29.401265625,-21.82637890625,-22.07434765625,-24.5344921875,-24.44294921875,-22.08965625,-21.63186328125,-20.5607578125,-26.50230078125,-22.37104296875,-24.62851171875,-24.3038125,-28.91935546875
-39.4788671875,-29.31302734375,-30.81011328125,-15.99114453125,-30.673203125,-23.67052734375,-20.086859375,-33.606828125,-12.89731640625,-24.3282734375,-19.308484375,-53.09917578125,-21.893125,-26.0413125,-22.46346875,-24.24523828125,-20.89755078125,-30.060265625,-21.80737890625,-21.57634765625,-24.1644921875,-24.97194921875,-21.97765625,-21.83086328125,-20.0657578125,-26.04630078125,-22.18104296875,-23.75851171875,-23.6918125,-28.27235546875
-40.2388671875,-30.24602734375,-31.47111328125,-17.22614453125,-29.045203125,-22.75252734375,-18.880859375,-34.313828125,-16.11831640625,-23.2472734375,-18.191484375,-51.90617578125,-22.135125,-25.5333125,-21.70346875,-22.36223828125,-21.30055078125,-29.621265625,-21.40337890625,-20.59334765625,-23.3454921875,-25.45694921875,-21.69465625,-21.99286328125,-19.2787578125,-25.16830078125,-22.00504296875,-23.53351171875,-23.1918125,-27.53235546875
-40.0848671875,-30.65802734375,-31.71211328125,-18.65314453125,-26.929203125,-21.37052734375,-17.876859375,-34.618828125,-18.54631640625,-21.7002734375,-16.913484375,-50.39617578125,-24.021125,-24.2583125,-20.57946875,-20.59223828125,-21.44955078125,-27.837265625,-20.55837890625,-19.38134765625,-22.3764921875,-25.53794921875,-21.13865625,-22.00486328125,-18.3317578125,-23.98430078125,-21.75104296875,-23.84651171875,-22.8618125,-26.84535546875
-39.2388671875,-30.65702734375,-31.32511328125,-19.95414453125,-24.878203125,-19.94352734375,-17.412859375,-34.654828125,-18.56831640625,-20.1812734375,-15.811484375,-48.73517578125,-27.285125,-22.4753125,-19.39046875,-19.49423828125,-21.38755078125,-24.959265625,-19.43737890625,-18.30134765625,-21.6604921875,-25.08694921875,-20.40765625,-21.86386328125,-17.4537578125,-22.80230078125,-21.44104296875,-24.44351171875,-22.7888125,-26.40535546875
-38.1258671875,-30.31502734375,-30.08611328125,-20.81114453125,-23.476203125,-18.90152734375,-17.633859375,-34.533828125,-15.92631640625,-19.1542734375,-15.182484375,-47.29317578125,-31.234125,-20.6253125,-18.49446875,-19.35123828125,-21.33155078125,-21.681265625,-18.35237890625,-17.68534765625,-21.5154921875,-24.27694921875,-19.77265625,-21.65086328125,-16.9007578125,-22.03330078125,-21.21004296875,-25.08451171875,-23.0658125,-26.39535546875
-37.1198671875,-29.71102734375,-28.02611328125,-21.05814453125,-23.073203125,-18.51052734375,-18.468859375,-34.306828125,-11.87631640625,-18.8432734375,-15.170484375,-46.48217578125,-34.886125,-19.1603125,-18.17646875,-20.07623828125,-21.54655078125,-18.919265625,-17.61537890625,-17.71334765625,-22.0344921875,-23.48794921875,-19.54065625,-21.47586328125,-16.8567578125,-22.02330078125,-21.23204296875,-25.63551171875,-23.7268125,-26.92535546875
-36.4968671875,-29.09402734375,-25.72011328125,-20.83314453125,-23.741203125,-18.84552734375,-19.754859375,-34.035828125,-8.45331640625,-19.2452734375,-15.761484375,-46.55917578125,-37.213125,-18.5183125,-18.58246875,-21.32123828125,-22.21455078125,-17.577265625,-17.46537890625,-18.38734765625,-23.0774921875,-23.14294921875,-19.94965625,-21.45986328125,-17.3847578125,-22.90630078125,-21.65404296875,-26.08951171875,-24.7118125,-27.99335546875
-36.4778671875,-28.96202734375,-24.27011328125,-20.52914453125,-25.409203125,-19.86752734375,-21.340859375,-33.848828125,-7.35531640625,-20.2882734375,-16.852484375,-47.50817578125,-37.455125,-19.1363125,-19.73846875,-22.69623828125,-23.35355078125,-18.333265625,-18.07137890625,-19.59334765625,-24.4064921875,-23.56094921875,-21.12365625,-21.74786328125,-18.4367578125,-24.54730078125,-22.55704296875,-26.52051171875,-25.9008125,-29.48835546875
-37.2058671875,-29.85602734375,-24.81111328125,-20.58614453125,-27.880203125,-21.44252734375,-23.063859375,-33.888828125,-9.10531640625,-21.8622734375,-18.282484375,-49.00217578125,-35.475125,-21.2373125,-21.51546875,-23.89623828125,-24.81555078125,-21.341265625,-19.47137890625,-21.13534765625,-25.8054921875,-24.83094921875,-23.00765625,-22.45086328125,-19.8727578125,-26.57930078125,-23.91704296875,-27.00951171875,-27.1548125,-31.21235546875
-38.6238671875,-31.93202734375,-27.74411328125,-21.31914453125,-30.645203125,-23.23452734375,-24.645859375,-34.241828125,-12.90131640625,-23.6592734375,-19.751484375,-50.46417578125,-32.017125,-24.4393125,-23.54046875,-24.64623828125,-26.35255078125,-25.921265625,-21.41937890625,-22.69534765625,-27.0764921875,-26.70894921875,-25.25465625,-23.50286328125,-21.4117578125,-28.50430078125,-25.52804296875,-27.55051171875,-28.3198125,-32.87535546875
-40.3708671875,-34.67802734375,-32.26911328125,-22.82714453125,-32.814203125,-24.66952734375,-25.672859375,-34.878828125,-17.11831640625,-25.0862734375,-20.787484375,-51.24817578125,-28.538125,-27.6423125,-25.20046875,-24.63523828125,-27.69155078125,-30.570265625,-23.32637890625,-23.80534765625,-27.9704921875,-28.61994921875,-27.21565625,-24.56786328125,-22.6307578125,-29.82530078125,-26.98804296875,-27.98551171875,-29.2058125,-34.11935546875
-41.8668671875,-37.06702734375,-36.59311328125,-24.88814453125,-33.493203125,-25.15552734375,-25.750859375,-35.631828125,-20.15231640625,-25.5272734375,-20.933484375,-50.91117578125,-26.529125,-29.5483125,-25.88746875,-23.63323828125,-28.59655078125,-33.579265625,-24.50137890625,-24.01334765625,-28.2204921875,-29.87594921875,-28.19965625,-25.18886328125,-23.0897578125,-30.20430078125,-27.83304296875,-28.07551171875,-29.6218125,-34.60035546875
-42.5638671875,-38.10702734375,-38.80411328125,-26.89514453125,-32.388203125,-24.47752734375,-24.770859375,-36.220828125,-21.13531640625,-24.8062734375,-20.087484375,-49.40917578125,-26.684125,-29.4863125,-25.36046875,-21.75323828125,-28.90855078125,-33.992265625,-24.58037890625,-23.16534765625,-27.6874921875,-30.02794921875,-27.88965625,-25.09486328125,-22.5807578125,-29.59130078125,-27.78504296875,-27.67451171875,-29.4788125,-34.14735546875
-42.2398671875,-37.41102734375,-37.85911328125,-28.05014453125,-30.072203125,-23.01452734375,-23.101859375,-36.359828125,-20.20831640625,-23.4002734375,-18.676484375,-47.06717578125,-28.518125,-27.8483125,-23.95046875,-19.59223828125,-28.56555078125,-32.154265625,-23.77537890625,-21.57834765625,-26.5124921875,-29.11394921875,-26.58665625,-24.41286328125,-21.2917578125,-28.24930078125,-26.93204296875,-26.86151171875,-28.8798125,-32.87835546875
-41.0958671875,-35.38902734375,-34.13111328125,-27.81914453125,-27.610203125,-21.56652734375,-21.538859375,-35.926828125,-18.27131640625,-22.1572734375,-17.473484375,-44.38717578125,-30.724125,-25.7503125,-22.39646875,-18.06823828125,-27.62755078125,-29.430265625,-22.72637890625,-19.92234765625,-25.0994921875,-27.60194921875,-25.03565625,-23.59686328125,-19.7397578125,-26.64430078125,-25.70004296875,-25.92251171875,-28.0978125,-31.18035546875
-39.5948671875,-32.98702734375,-29.19711328125,-26.33414453125,-25.889203125,-20.90552734375,-20.950859375,-35.061828125,-16.46031640625,-21.7532734375,-17.176484375,-41.89117578125,-31.997125,-24.2623125,-21.45246875,-17.97623828125,-26.29455078125,-27.318265625,-22.08537890625,-18.89534765625,-23.9584921875,-26.09994921875,-23.98565625,-23.13386328125,-18.5267578125,-25.25930078125,-24.63204296875,-25.18451171875,-27.4508125,-29.55435546875
-38.1498671875,-31.15602734375,-25.01511328125,-24.41914453125,-25.183203125,-21.38452734375,-21.816859375,-34.094828125,-15.63231640625,-22.3342734375,-18.038484375,-40.06417578125,-31.769125,-23.8343125,-21.52946875,-19.57623828125,-24.90955078125,-26.615265625,-22.17937890625,-18.91734765625,-23.5014921875,-25.02894921875,-23.80065625,-23.28486328125,-18.0907578125,-24.44530078125,-24.13404296875,-24.84851171875,-27.1668125,-28.42635546875
-36.9398671875,-30.41602734375,-22.99911328125,-23.18914453125,-25.199203125,-22.81452734375,-23.969859375,-33.354828125,-16.04831640625,-23.5322734375,-19.789484375,-39.30217578125,-30.441125,-24.2233125,-22.56746875,-22.45623828125,-23.87555078125,-27.092265625,-22.91437890625,-19.99234765625,-23.9104921875,-24.46594921875,-24.35265625,-24.00186328125,-18.5707578125,-24.35130078125,-24.32104296875,-24.91851171875,-27.3068125,-28.00935546875
-35.9348671875,-30.68202734375,-23.47211328125,-23.53914453125,-25.402203125,-24.61952734375,-26.714859375,-33.009828125,-17.32731640625,-24.7432734375,-21.820484375,-39.74517578125,-29.075125,-24.7763125,-24.13946875,-25.75023828125,-23.50855078125,-27.776265625,-23.89437890625,-21.77434765625,-25.1084921875,-24.18794921875,-25.16765625,-25.00786328125,-19.8037578125,-24.92330078125,-25.01004296875,-25.21651171875,-27.7598125,-28.24835546875
-35.0288671875,-31.39902734375,-25.66611328125,-25.73614453125,-25.346203125,-26.13352734375,-29.183859375,-33.007828125,-18.71131640625,-25.4322734375,-23.482484375,-41.07217578125,-28.769125,-24.8203125,-25.68246875,-28.53723828125,-23.90955078125,-27.585265625,-24.64037890625,-23.73334765625,-26.7994921875,-23.87294921875,-25.72265625,-25.95886328125,-21.4217578125,-25.93930078125,-25.84304296875,-25.48051171875,-28.3018125,-28.88435546875
-34.1238671875,-31.83902734375,-28.16011328125,-29.26314453125,-24.914203125,-26.89652734375,-30.684859375,-33.128828125,-19.51331640625,-25.3712734375,-24.355484375,-42.51417578125,-30.085125,-24.0263125,-26.75146875,-30.20023828125,-24.94855078125,-26.007265625,-24.83737890625,-25.38034765625,-28.5814921875,-23.31694921875,-25.73465625,-26.62586328125,-23.0117578125,-27.09930078125,-26.49504296875,-25.50251171875,-28.7148125,-29.59135546875
-33.1908671875,-31.47002734375,-29.56111328125,-32.92914453125,-24.411203125,-26.85952734375,-30.939859375,-33.155828125,-19.46631640625,-24.7572734375,-24.407484375,-43.23817578125,-32.794125,-22.6443125,-27.20946875,-30.61923828125,-26.33855078125,-23.470265625,-24.49737890625,-26.44634765625,-30.1024921875,-22.57694921875,-25.32165625,-27.00986328125,-24.2927578125,-28.13230078125,-26.85404296875,-25.26151171875,-28.9198125,-30.15635546875
-32.3578671875,-30.24602734375,-29.15211328125,-35.27514453125,-24.433203125,-26.37052734375,-30.158859375,-33.079828125,-18.73531640625,-24.1282734375,-23.957484375,-42.86117578125,-36.037125,-21.4343125,-27.25746875,-30.13223828125,-27.72255078125,-21.155265625,-23.95437890625,-26.94534765625,-31.1774921875,-21.93294921875,-24.92165625,-27.32686328125,-25.2037578125,-28.87930078125,-27.07804296875,-24.96251171875,-29.0178125,-30.57035546875
-31.9058671875,-28.63702734375,-27.18511328125,-35.20914453125,-25.491203125,-25.94052734375,-28.912859375,-33.179828125,-17.67731640625,-24.0602734375,-23.474484375,-41.70217578125,-38.795125,-21.2293125,-27.25946875,-29.30123828125,-28.76255078125,-20.304265625,-23.64437890625,-27.07734765625,-31.8114921875,-21.70194921875,-24.99965625,-27.84386328125,-25.8567578125,-29.31030078125,-27.46504296875,-24.93251171875,-29.2068125,-30.97635546875
-32.0708671875,-27.34702734375,-24.64511328125,-32.62314453125,-27.540203125,-25.89652734375,-27.821859375,-33.820828125,-16.59531640625,-24.7632734375,-23.296484375,-40.54917578125,-40.392125,-22.3433125,-27.45646875,-28.58623828125,-29.24855078125,-21.414265625,-23.80537890625,-27.05134765625,-32.0944921875,-22.00294921875,-25.70965625,-28.65186328125,-26.3797578125,-29.46830078125,-28.21704296875,-25.40251171875,-29.6038125,-31.50635546875
-32.7788671875,-26.88302734375,-22.64511328125,-28.65214453125,-29.743203125,-26.15252734375,-27.255859375,-35.109828125,-15.61231640625,-25.8452734375,-23.457484375,-40.14117578125,-40.752125,-24.2173125,-27.78446875,-28.13223828125,-29.17855078125,-23.834265625,-24.28637890625,-26.94034765625,-32.0704921875,-22.63194921875,-26.75165625,-29.53486328125,-26.7717578125,-29.39430078125,-29.24604296875,-26.31151171875,-30.1048125,-32.12435546875
-33.6308671875,-27.30502734375,-21.88311328125,-25.27014453125,-30.749203125,-26.27552734375,-27.256859375,-36.736828125,-14.65231640625,-26.4762734375,-23.714484375,-40.69817578125,-40.307125,-25.6173125,-27.91546875,-27.78723828125,-28.74655078125,-26.104265625,-24.61637890625,-26.65834765625,-31.6914921875,-23.15294921875,-27.50865625,-30.04286328125,-26.8637578125,-29.07730078125,-30.16904296875,-27.27351171875,-30.4008125,-32.60035546875
-34.1828671875,-28.30102734375,-22.45411328125,-24.32014453125,-29.471203125,-25.82352734375,-27.685859375,-38.125828125,-13.54631640625,-25.9262734375,-23.764484375,-41.77817578125,-39.659125,-25.3703125,-27.53246875,-27.31023828125,-28.21355078125,-26.847265625,-24.32337890625,-26.07034765625,-30.8744921875,-23.14394921875,-27.41665625,-29.75186328125,-26.4237578125,-28.44930078125,-30.50604296875,-27.76651171875,-30.1418125,-32.62435546875
-34.2568671875,-29.45102734375,-23.98511328125,-26.49114453125,-25.886203125,-24.71152734375,-28.388859375,-38.716828125,-12.30231640625,-24.1402734375,-23.503484375,-42.52817578125,-39.260125,-23.1963125,-26.62946875,-26.61923828125,-27.74355078125,-25.646265625,-23.30937890625,-25.16034765625,-29.6304921875,-22.46694921875,-26.33965625,-28.57286328125,-25.3447578125,-27.43130078125,-29.97304296875,-27.42451171875,-29.1648125,-31.99635546875
-34.0278671875,-30.44702734375,-25.87811328125,-30.89114453125,-21.287203125,-23.34152734375,-29.227859375,-38.152828125,-11.34531640625,-21.9162734375,-23.134484375,-42.16117578125,-39.218125,-20.0623125,-25.60346875,-25.87823828125,-27.33955078125,-23.308265625,-22.00437890625,-24.13534765625,-28.1334921875,-21.36394921875,-24.70165625,-26.87986328125,-23.7857578125,-26.00130078125,-28.67804296875,-26.25351171875,-27.6358125,-30.76135546875
-33.8568671875,-31.12002734375,-27.49911328125,-35.50514453125,-17.739203125,-22.39352734375,-30.023859375,-36.350828125,-11.45831640625,-20.5102734375,-23.026484375,-40.40417578125,-39.308125,-17.7303125,-25.04446875,-25.37523828125,-26.91855078125,-21.384265625,-21.15937890625,-23.35734765625,-26.6884921875,-20.32994921875,-23.27665625,-25.35386328125,-22.1487578125,-24.26230078125,-27.08004296875,-24.64651171875,-26.0028125,-29.21035546875
-34.0518671875,-31.36402734375,-28.31311328125,-38.29414453125,-16.983203125,-22.39752734375,-30.543859375,-33.541828125,-13.31831640625,-20.8812734375,-23.440484375,-37.65117578125,-39.134125,-17.7253125,-25.35046875,-25.29223828125,-26.44555078125,-21.264265625,-21.39037890625,-23.13734765625,-25.5904921875,-19.84994921875,-22.74865625,-24.61686328125,-20.8827578125,-22.44530078125,-25.73804296875,-23.17651171875,-24.7888125,-27.72735546875
-34.6428671875,-31.06002734375,-27.99911328125,-38.24914453125,-19.447203125,-23.38652734375,-30.556859375,-30.285828125,-16.93731640625,-23.0742734375,-24.311484375,-34.75717578125,-38.352125,-20.3633125,-26.44246875,-25.56823828125,-26.00855078125,-23.401265625,-22.75137890625,-23.52934765625,-24.9984921875,-20.16094921875,-23.31365625,-24.87786328125,-20.2427578125,-20.85330078125,-25.00304296875,-22.30851171875,-24.3488125,-26.59935546875
-35.2618671875,-30.10102734375,-26.51211328125,-35.77114453125,-23.988203125,-24.85552734375,-29.931859375,-27.336828125,-21.41631640625,-26.1352734375,-25.284484375,-32.58317578125,-36.820125,-24.4873125,-27.77146875,-25.95123828125,-25.77155078125,-27.085265625,-24.65937890625,-24.28734765625,-24.8894921875,-21.16394921875,-24.58565625,-25.82986328125,-20.1857578125,-19.76130078125,-24.85104296875,-22.18151171875,-24.7108125,-25.90235546875
-35.2388671875,-28.44902734375,-24.09611328125,-32.19614453125,-28.564203125,-26.05852734375,-28.717859375,-25.390828125,-25.26531640625,-28.6572734375,-25.927484375,-31.58617578125,-34.635125,-28.1293125,-28.64046875,-26.16623828125,-25.86455078125,-30.838265625,-26.21737890625,-25.01934765625,-25.1014921875,-22.49594921875,-25.83165625,-26.85286328125,-20.4337578125,-19.32330078125,-24.94904296875,-22.59451171875,-25.5908125,-25.52035546875
-33.9318671875,-26.21602734375,-21.20911328125,-28.91214453125,-31.366203125,-26.43352734375,-27.199859375,-24.823828125,-27.13131640625,-29.5702734375,-25.979484375,-31.65117578125,-32.159125,-29.6513125,-28.59646875,-26.06423828125,-26.27755078125,-33.130265625,-26.71137890625,-25.39834765625,-25.4234921875,-23.68694921875,-26.38665625,-27.37186328125,-20.6567578125,-19.52330078125,-24.88604296875,-23.15151171875,-26.5408125,-25.25635546875
-31.1318671875,-23.69202734375,-18.42011328125,-26.69714453125,-31.677203125,-25.89152734375,-25.834859375,-25.582828125,-26.49931640625,-28.6812734375,-25.467484375,-32.26417578125,-30.017125,-28.6213125,-27.66546875,-25.67823828125,-26.84755078125,-33.059265625,-25.97237890625,-25.32334765625,-25.6744921875,-24.34794921875,-25.97965625,-27.14486328125,-20.6397578125,-20.17930078125,-24.42904296875,-23.47951171875,-27.1438125,-24.96435546875
-27.2798671875,-21.33702734375,-16.31111328125,-25.61314453125,-29.970203125,-24.81352734375,-25.077859375,-27.222828125,-23.86831640625,-26.6532734375,-24.665484375,-32.85417578125,-29.009125,-25.8903125,-26.29646875,-25.17723828125,-27.32355078125,-30.702265625,-24.42537890625,-24.92634765625,-25.7444921875,-24.33294921875,-24.83565625,-26.33886328125,-20.3667578125,-20.99530078125,-23.64404296875,-23.41651171875,-27.1738125,-24.61935546875
-23.3848671875,-19.72502734375,-15.40111328125,-25.33114453125,-27.392203125,-23.80652734375,-25.176859375,-29.104828125,-20.33331640625,-24.5282734375,-23.945484375,-33.07717578125,-29.793125,-22.9513125,-25.10446875,-24.77423828125,-27.49855078125,-27.031265625,-22.82137890625,-24.47434765625,-25.6064921875,-23.81294921875,-23.53365625,-25.39386328125,-20.0027578125,-21.65530078125,-22.84304296875,-23.07051171875,-26.6668125,-24.32535546875
-20.7458671875,-19.45202734375,-16.10711328125,-25.56614453125,-25.059203125,-23.40552734375,-26.119859375,-30.715828125,-16.92731640625,-23.1752734375,-23.619484375,-32.90517578125,-32.456125,-21.0793125,-24.59246875,-24.65723828125,-27.33255078125,-23.493265625,-21.87437890625,-24.24634765625,-25.3254921875,-23.21794921875,-22.71565625,-24.78686328125,-19.8117578125,-21.94630078125,-22.42504296875,-22.74651171875,-25.8928125,-24.26535546875
-20.5488671875,-21.00402734375,-18.67411328125,-26.32414453125,-23.640203125,-23.90052734375,-27.735859375,-31.953828125,-14.20031640625,-22.9952734375,-23.856484375,-32.56317578125,-36.245125,-20.8413125,-25.00046875,-24.95823828125,-27.01755078125,-21.448265625,-22.00537890625,-24.44934765625,-25.0764921875,-23.06794921875,-22.84465625,-24.86786328125,-20.0577578125,-21.88330078125,-22.71504296875,-22.79851171875,-25.2498125,-24.64035546875
-23.3858671875,-24.53302734375,-23.02811328125,-27.80714453125,-23.349203125,-25.32152734375,-29.790859375,-33.140828125,-12.26531640625,-23.9762734375,-24.698484375,-32.40517578125,-39.749125,-22.1593125,-26.32046875,-25.73623828125,-26.94855078125,-21.704265625,-23.29037890625,-25.20734765625,-25.1414921875,-23.75394921875,-24.08165625,-25.78386328125,-20.9387578125,-21.76330078125,-23.86004296875,-23.47551171875,-25.1298125,-25.59935546875
-28.8478671875,-29.60802734375,-28.58111328125,-30.08914453125,-24.141203125,-27.48752734375,-31.992859375,-34.701828125,-11.17431640625,-25.8872734375,-26.062484375,-32.77517578125,-41.570125,-24.6273125,-28.34846875,-26.92123828125,-27.58155078125,-24.251265625,-25.52037890625,-26.53834765625,-25.8264921875,-25.38594921875,-26.28765625,-27.47986328125,-22.5157578125,-22.05030078125,-25.79104296875,-24.82451171875,-25.7828125,-27.18335546875
-35.4468671875,-35.09902734375,-34.18111328125,-32.82914453125,-25.834203125,-30.00352734375,-33.952859375,-36.745828125,-11.22231640625,-28.3572734375,-27.697484375,-33.86117578125,-41.082125,-27.7023125,-30.68646875,-28.24323828125,-29.19855078125,-28.254265625,-28.23837890625,-28.26834765625,-27.2594921875,-27.72594921875,-29.04465625,-29.66386328125,-24.6147578125,-23.12130078125,-28.20504296875,-26.64451171875,-27.1968125,-29.25935546875
-41.0398671875,-39.37602734375,-38.35411328125,-35.26114453125,-28.028203125,-32.22752734375,-35.226859375,-38.826828125,-12.83731640625,-30.8062734375,-29.132484375,-35.54317578125,-38.738125,-30.6463125,-32.71646875,-29.21423828125,-31.65055078125,-32.316265625,-30.74037890625,-29.94234765625,-29.1804921875,-30.22694921875,-31.68265625,-31.76486328125,-26.7457578125,-24.97730078125,-30.56204296875,-28.48451171875,-29.0308125,-31.46535546875
-43.6158671875,-40.83202734375,-39.78111328125,-36.47414453125,-29.978203125,-33.32752734375,-35.390859375,-40.027828125,-16.09031640625,-32.3812734375,-29.721484375,-37.29117578125,-35.681125,-32.4673125,-33.64946875,-29.23723828125,-34.21055078125,-34.934265625,-32.13437890625,-30.84334765625,-30.8814921875,-32.14194921875,-33.35065625,-32.99186328125,-28.1357578125,-27.09630078125,-32.12104296875,-29.69351171875,-30.6328125,-33.21035546875
-42.0598671875,-38.53002734375,-37.79711328125,-35.81814453125,-30.625203125,-32.48952734375,-34.097859375,-39.284828125,-20.24631640625,-32.1052734375,-28.818484375,-38.18817578125,-32.972125,-32.0863125,-32.71446875,-27.80223828125,-35.68255078125,-34.965265625,-31.53537890625,-30.18534765625,-31.3894921875,-32.66094921875,-33.18065625,-32.50586328125,-27.9097578125,-28.53430078125,-32.06204296875,-29.51951171875,-31.1538125,-33.75335546875
-36.5468671875,-32.61302734375,-32.60011328125,-33.20014453125,-28.914203125,-29.20352734375,-31.098859375,-35.846828125,-23.76331640625,-29.2312734375,-25.986484375,-37.14917578125,-31.021125,-28.7473125,-29.43146875,-24.67923828125,-34.77155078125,-31.888265625,-28.35937890625,-27.40134765625,-29.8284921875,-31.07794921875,-30.51865625,-29.69086328125,-25.3787578125,-28.22230078125,-29.67604296875,-27.28151171875,-29.7468125,-32.36535546875
-28.3848671875,-24.26302734375,-25.09311328125,-29.08014453125,-24.308203125,-23.50652734375,-26.314859375,-29.667828125,-24.82031640625,-23.6462734375,-21.165484375,-33.30717578125,-29.494125,-22.4383125,-23.83246875,-19.97523828125,-30.64655078125,-25.883265625,-22.58337890625,-22.37534765625,-25.7734921875,-26.99894921875,-25.16365625,-24.39486328125,-20.3117578125,-25.37330078125,-24.61704296875,-22.57751171875,-25.8338125,-28.55135546875
-19.4168671875,-15.22202734375,-16.49811328125,-24.16714453125,-17.210203125,-16.05452734375,-19.945859375,-21.535828125,-22.04531640625,-16.0802734375,-14.733484375,-26.42117578125,-27.650125,-14.0543125,-16.54346875,-14.07223828125,-23.42555078125,-17.798265625,-14.87237890625,-15.54734765625,-19.4524921875,-20.54694921875,-17.55365625,-17.07986328125,-13.0997578125,-19.82830078125,-17.13204296875,-15.51851171875,-19.3798125,-22.30035546875
-11.2868671875,-7.14802734375,-7.99811328124999,-19.04414453125,-8.936203125,-7.98652734375,-12.557859375,-12.826828125,-15.09031640625,-7.9342734375,-7.467484375,-17.12617578125,-24.815125,-5.1553125,-8.65246875,-7.50923828125001,-14.31355078125,-8.989265625,-6.46037890625,-7.83734765625,-11.7054921875,-12.45294921875,-8.75465625,-8.77486328125,-4.7197578125,-12.20030078125,-8.11904296875,-6.83051171875,-11.0388125,-14.22435546875
-4.92086718749999,-1.10702734375,-0.561113281249995,-13.97614453125,-1.177203125,-0.57852734375,-5.029859375,-4.992828125,-4.83631640625,-0.758273437499998,-0.352484375,-6.86417578125,-20.739125,2.6146875,-1.38246875,-0.881238281250006,-5.20155078125,-0.935265625000003,1.22062109375,-0.377347656250002,-3.7124921875,-3.90694921875,-0.18165625,-0.797863281250002,3.5452421875,-3.69030078125,1.08295703125,2.28448828125,-2.0088125,-5.44235546875
-0.444867187499995,2.63397265625,5.11288671875,-8.95014453125,4.775796875,5.19047265625,1.657140625,0.929171875000002,6.78968359375,4.4017265625,5.739515625,2.53782421875,-15.651125,8.1836875,4.32353125,5.24576171875,2.11944921875,5.26873437499999,7.06062109375,5.86765234375,3.4065078125,3.83205078125,6.90234375,5.68613671875,10.5392421875,4.35969921875,9.14795703125,10.54148828125,6.3791875,2.78764453125
2.55413281250001,4.48297265625,8.64688671875,-3.83414453125,8.533796875,8.96047265625,6.739140625,4.600171875,17.34068359375,7.39272656250001,10.340515625,9.50382421875,-10.029125,11.3876875,8.11253125,10.42976171875,6.71944921875,9.234734375,10.65762109375,10.41065234375,8.94950781249999,9.85405078125,11.82434375,10.06713671875,15.6182421875,10.95669921875,15.22595703125,16.99648828125,13.1311875,9.51864453125
4.6481328125,5.19697265625,10.08788671875,1.38885546875,10.587796875,11.01147265625,9.937140625,6.349171875,24.62368359375,8.8797265625,13.471515625,13.24282421875,-4.335125,12.8446875,10.25253125,14.41376171875,8.83444921875,11.232734375,12.36862109375,13.31465234375,12.7555078125,13.82905078125,14.62534375,12.42513671875,18.7682421875,15.70069921875,19.13795703125,21.27348828125,17.8471875,14.36464453125
6.2901328125,5.55497265625,9.96688671875,6.43185546875,11.868796875,12.02647265625,11.509140625,6.905171875,27.48668359375,9.8877265625,15.485515625,13.93182421875,1.025875,13.5206875,11.39253125,17.11776171875,9.55144921875,11.918734375,13.02062109375,15.01565234375,15.0705078125,15.95805078125,15.87534375,13.36613671875,20.4212421875,18.70969921875,21.26395703125,23.51048828125,20.6611875,17.44264453125
7.73113281250001,6.13997265625,9.18188671875001,10.66985546875,13.235796875,12.75047265625,12.048140625,7.015171875,26.28268359375,11.2647265625,16.802515625,12.49782421875,5.578875,14.2826875,12.21353125,18.59976171875,10.10544921875,12.084734375,13.51062109375,16.05065234375,16.3075078125,16.75805078125,16.34234375,13.67113671875,21.1412421875,20.34369921875,22.23195703125,24.16848828125,21.9961875,19.12364453125
9.0871328125,7.26297265625,8.67988671875001,13.37685546875,15.141796875,13.71147265625,12.189140625,7.128171875,22.69868359375,13.3497265625,17.735515625,10.20882421875,8.721875,15.6426875,13.17653125,19.04776171875,11.22744921875,12.491734375,14.48162109375,16.84065234375,16.8325078125,16.82305078125,16.70034375,13.98213671875,21.3692421875,20.95369921875,22.61095703125,23.81948828125,22.3261875,19.78764453125
10.4521328125,8.97197265625,9.07388671875,14.13285546875,17.569796875,15.09547265625,12.381140625,7.338171875,18.99368359375,15.9367265625,18.440515625,8.23382421875,9.920875,17.6866875,14.42453125,18.76876171875,12.88944921875,13.709734375,16.15062109375,17.60065234375,16.8895078125,16.64905078125,17.33834375,14.60313671875,21.3332421875,20.78769921875,22.75495703125,22.98648828125,22.0471875,19.72964453125
11.8961328125,11.05697265625,10.38088671875,13.15085546875,20.111796875,16.73747265625,12.801140625,7.550171875,16.98968359375,18.4617265625,18.940515625,7.29082421875,9.048875,20.1046875,15.82353125,18.13876171875,14.51144921875,15.902734375,18.28162109375,18.33065234375,16.6065078125,16.51705078125,18.27434375,15.46213671875,21.0672421875,20.01069921875,22.76795703125,22.04248828125,21.4501875,19.17364453125
13.2621328125,13.05097265625,11.97588671875,11.27785546875,22.074796875,18.18247265625,13.318140625,7.650171875,17.29568359375,20.2217265625,19.148515625,7.44582421875,6.658875,22.2346875,17.03253125,17.46876171875,15.40444921875,18.608734375,20.26962109375,18.85365234375,16.0375078125,16.44205078125,19.17734375,16.19013671875,20.4902421875,18.75469921875,22.55895703125,21.16548828125,20.7361875,18.31664453125
13.9711328125,14.26397265625,12.80988671875,9.64585546875,22.628796875,18.82147265625,13.517140625,7.500171875,19.18268359375,20.5687265625,18.887515625,8.14282421875001,3.992875,23.1906875,17.59253125,16.86076171875,15.13944921875,20.738734375,21.33162109375,18.87365234375,15.1735078125,16.21805078125,19.48934375,16.28713671875,19.4842421875,17.14369921875,21.93495703125,20.36348828125,20.0161875,17.33264453125
13.2131328125,14.00197265625,11.90988671875,9.17585546875,21.133796875,18.12847265625,12.873140625,6.884171875,21.18568359375,19.1287265625,17.965515625,8.53482421875,2.568875,22.2136875,17.09253125,16.18676171875,13.70244921875,21.012734375,20.82262109375,18.10165234375,13.9565078125,15.59105078125,18.70434375,15.35113671875,17.9662421875,15.28869921875,20.73295703125,19.56948828125,19.3331875,16.35964453125
10.5741328125,11.98097265625,9.00088671875,10.17085546875,17.624796875,15.97647265625,11.103140625,5.570171875,22.07668359375,16.0577265625,16.329515625,7.97282421875001,3.426875,19.2006875,15.40953125,15.25076171875,11.43044921875,18.772734375,18.60162109375,16.44165234375,12.3395078125,14.49605078125,16.70434375,13.32113671875,15.9862421875,13.32169921875,18.96795703125,18.76848828125,18.7131875,15.50664453125
6.61513281250001,8.66497265625,4.85388671875,12.18285546875,13.109796875,12.85947265625,8.456140625,3.497171875,21.54068359375,12.1857265625,14.220515625,6.40982421875,6.438875,15.0436875,12.91253125,14.00576171875,8.85844921875,14.688734375,15.24762109375,14.15465234375,10.3995078125,13.21405078125,13.99534375,10.63713671875,13.8112421875,11.45069921875,16.93995703125,18.09148828125,18.2311875,14.89964453125
2.82213281250001,5.20597265625,1.00788671875001,14.20885546875,9.325796875,9.80347265625,5.711140625,0.937171874999997,20.06768359375,8.8157265625,12.182515625,4.46482421875,10.286875,11.4006875,10.42153125,12.66376171875,6.56544921875,10.659734375,11.92762109375,11.85065234375,8.43450781249999,12.28905078125,11.58834375,8.15913671875,11.9192421875,9.98869921875,15.18695703125,17.80848828125,18.0311875,14.70264453125
0.874132812500008,2.94497265625,-1.01711328124999,15.18885546875,7.918796875,7.95347265625,3.846140625,-1.484828125,18.28468359375,7.1967265625,10.856515625,3.06882421875,13.261875,9.9076875,8.88053125,11.59576171875,5.07344921875,8.812734375,9.89062109375,10.26665234375,6.9305078125,12.24205078125,10.53534375,6.82813671875,10.8542421875,9.30269921875,14.26695703125,18.18548828125,18.2441875,15.08064453125
1.74013281250001,2.76597265625,-0.468113281249991,14.56885546875,9.544796875,8.01347265625,3.593140625,-2.924828125,16.43268359375,7.90772656250001,10.672515625,2.93982421875,14.330875,11.2766875,8.90153125,11.12276171875,4.74444921875,10.214734375,9.86962109375,9.91765234375,6.3945078125,13.25905078125,11.35934375,7.22513671875,10.9862421875,9.66769921875,14.48395703125,19.29448828125,18.8611875,16.07764453125
5.1751328125,4.68297265625,2.36488671875001,12.61585546875,13.454796875,9.89847265625,5.127140625,-2.616828125,14.48768359375,10.5437265625,11.633515625,4.22082421875,13.659875,14.8576875,10.45153125,11.36576171875,5.68744921875,14.209734375,11.72662109375,10.85365234375,7.1285078125,15.04805078125,13.76334375,9.28713671875,12.3072421875,11.09469921875,15.72295703125,20.88848828125,19.6551875,17.51064453125
9.87113281250001,7.89497265625,6.43488671875001,10.28685546875,17.881796875,12.78647265625,8.013140625,-0.253828124999998,12.69268359375,13.9087265625,13.349515625,6.51582421875,12.202875,18.9916875,12.88653125,12.24276171875,7.70544921875,18.848734375,14.58362109375,12.66965234375,9.0645078125,16.97705078125,16.79834375,12.34513671875,14.4142421875,13.24069921875,17.49395703125,22.46448828125,20.2271875,18.95064453125
14.1801328125,11.27197265625,10.54988671875,8.73785546875,21.018796875,15.58447265625,11.444140625,3.804171875,11.84968359375,16.6597265625,15.268515625,9.21682421875001,10.732875,21.9856875,15.31053125,13.57076171875,10.34144921875,22.125734375,17.34362109375,14.74865234375,11.7615078125,18.39405078125,19.40334375,15.47513671875,16.6832421875,15.49869921875,19.18295703125,23.49348828125,20.1871875,19.85764453125
17.0031328125,13.98397265625,13.96488671875,8.74185546875,22.016796875,17.50147265625,14.638140625,8.683171875,12.94668359375,18.0187265625,16.955515625,11.82882421875,9.153875,23.0996875,17.04953125,15.15576171875,13.01244921875,23.216734375,19.28062109375,16.56665234375,14.5455078125,18.96205078125,20.96034375,17.91813671875,18.5272421875,17.21369921875,20.33995703125,23.67048828125,19.3571875,19.81364453125
18.2561328125,15.85597265625,16.58588671875,10.32385546875,21.337796875,18.36547265625,17.116140625,13.373171875,16.34368359375,18.0857265625,18.212515625,14.08582421875,6.722875,22.8376875,17.91453125,16.81876171875,15.16344921875,22.816734375,20.29762109375,17.86265234375,16.7305078125,18.79905078125,21.49834375,19.33313671875,19.5972421875,17.94469921875,20.83595703125,23.04648828125,17.8701875,18.71464453125
18.5871328125,17.20997265625,18.65888671875,12.78385546875,20.221796875,18.49647265625,18.677140625,17.057171875,21.18668359375,17.5357265625,19.015515625,15.85182421875,3.079875,22.3376875,18.11853125,18.35476171875,16.39244921875,22.346734375,20.73462109375,18.60765234375,17.8225078125,18.33805078125,21.46934375,19.77113671875,19.8162421875,17.59869921875,20.79995703125,21.95748828125,16.1101875,16.81764453125
18.6121328125,18.37297265625,20.21788671875,15.12885546875,19.726796875,18.31747265625,19.217140625,19.219171875,25.60768359375,17.0107265625,19.376515625,17.00582421875,-0.871124999999999,22.3876875,17.97653125,19.54276171875,16.53844921875,22.721734375,20.93162109375,18.86965234375,17.6635078125,18.03905078125,21.30334375,19.46713671875,19.3132421875,16.41769921875,20.42595703125,20.82948828125,14.5361875,14.62064453125
18.3671328125,19.27797265625,20.80388671875,16.59685546875,20.070796875,18.02547265625,18.682140625,19.641171875,27.59468359375,16.6997265625,19.275515625,17.43582421875,-3.126125,22.8676875,17.65553125,20.20876171875,15.70044921875,23.681734375,20.92562109375,18.69965234375,16.4545078125,18.09305078125,21.10134375,18.64713671875,18.2892421875,14.82969921875,19.79895703125,19.95148828125,13.4731875,12.64564453125
17.3791328125,19.46997265625,19.71788671875,16.95485546875,20.673796875,17.52947265625,17.188140625,18.401171875,25.97068359375,16.3477265625,18.683515625,17.12982421875,-1.798125,22.9386875,17.10953125,20.30976171875,14.19644921875,24.126734375,20.46162109375,18.10465234375,14.6625078125,18.31405078125,20.62234375,17.44713671875,16.9312421875,13.26269921875,18.86895703125,19.35448828125,12.9931875,11.24864453125
15.2041328125,18.47197265625,16.64488671875,16.39985546875,20.702796875,16.61947265625,15.096140625,15.888171875,20.92968359375,15.5737265625,17.619515625,16.22182421875,3.509875,21.7226875,16.18553125,19.92076171875,12.48744921875,23.037734375,19.24962109375,17.08465234375,12.8305078125,18.25605078125,19.53334375,15.95313671875,15.3792421875,12.01669921875,17.54495703125,18.83648828125,12.9311875,10.52164453125
11.9251328125,16.21697265625,12.16888671875,15.26485546875,19.637796875,15.17947265625,12.907140625,12.756171875,13.91368359375,14.1827265625,16.182515625,14.93982421875,11.217875,18.9326875,14.78453125,19.14476171875,11.05744921875,20.215734375,17.24262109375,15.69365234375,11.3815078125,17.49705078125,17.68934375,14.27213671875,13.7482421875,11.21869921875,15.82895703125,18.13648828125,13.0091875,10.31064453125
8.2791328125,13.21697265625,7.73388671875001,13.79785546875,17.522796875,13.31747265625,11.058140625,9.823171875,6.97868359375,12.2947265625,14.536515625,13.51682421875,18.505875,15.0796875,12.96853125,18.05776171875,10.27944921875,16.385734375,14.74362109375,14.07165234375,10.5015078125,15.92505078125,15.26934375,12.56913671875,12.1692421875,10.85769921875,13.88795703125,17.12648828125,13.0011875,10.33764453125
5.3481328125,10.35597265625,4.97888671875,12.14885546875,14.877796875,11.36447265625,9.821140625,7.867171875,1.97968359375,10.2857265625,12.886515625,12.13482421875,22.658875,11.2496875,10.98253125,16.74876171875,10.29944921875,12.757734375,12.29262109375,12.43065234375,10.1625078125,13.82505078125,12.71834375,11.03313671875,10.8002421875,10.86169921875,12.02995703125,15.90748828125,12.8371875,10.34964453125
4.01113281250001,8.43697265625,4.82588671875001,10.43785546875,12.441796875,9.77147265625,9.301140625,7.349171875,-0.0293164062499986,8.65472656250001,11.469515625,10.95882421875,22.172875,8.6566875,9.21453125,15.40776171875,11.00144921875,10.445734375,10.46862109375,11.02565234375,10.2295078125,11.71905078125,10.56834375,9.83313671875,9.8062421875,11.16069921875,10.60295703125,14.74648828125,12.5971875,10.23664453125
4.49013281250001,7.76897265625,6.95888671875001,8.77685546875,10.905796875,8.95447265625,9.471140625,8.183171875,1.00668359375,7.8507265625,10.535515625,10.18982421875,17.176875,8.1596875,8.07253125,14.34076171875,12.08244921875,10.079734375,9.69262109375,10.11065234375,10.5735078125,10.08605078125,9.25134375,9.09713671874999,9.3232421875,11.70569921875,9.87695703125,13.92748828125,12.4311875,10.05564453125
6.2731328125,8.07597265625,10.08088671875,7.27885546875,10.637796875,9.11347265625,10.202140625,9.741171875,4.27268359375,8.0897265625,10.263515625,10.03382421875,9.264875,9.8776875,7.82153125,13.83876171875,13.19044921875,11.656734375,10.07662109375,9.85065234375,11.0985078125,9.13905078125,8.96234375,8.88613671875,9.3952421875,12.42869921875,9.95595703125,13.60748828125,12.4311875,9.94764453125
8.4611328125,8.76197265625,12.75388671875,6.11885546875,11.459796875,10.10647265625,11.306140625,11.190171875,8.39168359375,9.1737265625,10.641515625,10.56082421875,0.956875,13.0116875,8.43353125,13.98476171875,14.02744921875,14.522734375,11.33762109375,10.22165234375,11.7015078125,8.79205078125,9.57534375,9.14913671874999,9.9242421875,13.18969921875,10.72895703125,13.74748828125,12.5741875,10.00164453125
10.2331328125,9.28797265625,14.14388671875,5.60085546875,12.635796875,11.44247265625,12.542140625,11.904171875,11.81268359375,10.4787265625,11.407515625,11.56682421875,-5.063125,16.0566875,9.54353125,14.56676171875,14.39344921875,17.504734375,12.84662109375,10.97265234375,12.2395078125,8.77905078125,10.66434375,9.70713671874999,10.6792421875,13.78569921875,11.89295703125,14.16148828125,12.7321875,10.19364453125
11.1021328125,9.39397265625,14.18588671875,6.02585546875,13.193796875,12.47747265625,13.604140625,11.690171875,13.28768359375,11.2147265625,12.143515625,12.59282421875,-6.829125,17.4436875,10.60253125,15.17976171875,14.21344921875,19.266734375,13.86662109375,11.72665234375,12.5645078125,8.83305078125,11.67434375,10.29313671875,11.3852421875,14.02669921875,13.05695703125,14.60848828125,12.7811875,10.41764453125
10.9281328125,9.07697265625,13.20988671875,7.39485546875,12.516796875,12.73947265625,14.156140625,10.731171875,12.33968359375,10.8757265625,12.494515625,13.18382421875,-3.834125,16.3436875,11.15853125,15.45876171875,13.58044921875,18.864734375,13.90962109375,12.17765234375,12.5955078125,8.80405078125,12.17334375,10.68813671875,11.8512421875,13.85369921875,13.89995703125,14.89648828125,12.7001875,10.59964453125
9.86813281250001,8.46197265625,11.55188671875,9.22285546875,10.791796875,12.18947265625,13.991140625,9.422171875,9.47168359375,9.5947265625,12.368515625,13.22182421875,2.732875,13.1496875,11.11053125,15.29576171875,12.75944921875,16.240734375,12.99262109375,12.27165234375,12.3875078125,8.70405078125,12.05634375,10.84913671875,12.0602421875,13.38969921875,14.30095703125,14.95448828125,12.6141875,10.76564453125
8.35013281250001,7.74697265625,9.49488671875,10.73185546875,8.948796875,11.25347265625,13.220140625,8.238171875,5.99168359375,8.1167265625,11.989515625,13.03782421875,10.453875,9.2876875,10.74953125,14.89576171875,12.12344921875,12.298734375,11.63762109375,12.21765234375,12.1195078125,8.67305078125,11.56934375,10.94013671875,12.1562421875,12.89069921875,14.37095703125,14.85748828125,12.7451875,11.02864453125
6.9641328125,7.21297265625,7.44888671875,11.30585546875,8.122796875,10.59647265625,12.277140625,7.628171875,3.48368359375,7.40472656250001,11.772515625,13.20382421875,16.661875,6.4836875,10.58953125,14.65876171875,12.00744921875,8.519734375,10.60362109375,12.36465234375,12.0545078125,8.91705078125,11.16434375,11.25413671875,12.3682421875,12.65069921875,14.36495703125,14.81148828125,13.3031875,11.50964453125
6.2271328125,7.19497265625,6.01688671875001,10.81185546875,9.031796875,10.79047265625,11.724140625,7.887171875,3.15668359375,8.1377265625,12.125515625,14.13082421875,19.464875,5.9836875,11.09053125,14.95476171875,12.57244921875,6.302734375,10.53962109375,13.00065234375,12.4555078125,9.62105078125,11.27934375,12.05713671875,12.9132421875,12.90869921875,14.54195703125,15.07148828125,14.3851875,12.26064453125
6.34113281250001,7.93197265625,5.75588671875001,9.54585546875,11.646796875,12.04447265625,11.973140625,9.040171875,5.33568359375,10.3947265625,13.241515625,15.79182421875,18.325875,8.1076875,12.41753125,15.92876171875,13.74344921875,6.400734375,11.70162109375,14.19165234375,13.4825078125,10.85105078125,12.14134375,13.42413671875,13.8902421875,13.78469921875,15.02695703125,15.80948828125,15.9111875,13.22564453125
7.11013281250001,9.37597265625,6.81288671875001,7.95985546875,15.246796875,14.11047265625,13.108140625,10.803171875,9.32868359375,13.6317265625,14.985515625,17.72082421875,14.069875,12.2306875,14.35453125,17.40876171875,15.23144921875,8.69273437499999,13.84662109375,15.70865234375,15.0785078125,12.47605078125,13.64634375,15.15713671875,15.2032421875,15.21469921875,15.74895703125,16.99848828125,17.6271875,14.24464453125
8.07813281250001,11.10297265625,8.75488671875001,6.43185546875,18.745796875,16.39047265625,14.828140625,12.641171875,13.75468359375,16.9137265625,16.920515625,19.26882421875,8.433875,17.0836875,16.37653125,18.98276171875,16.64244921875,12.353734375,16.34062109375,17.10465234375,16.9285078125,14.19105078125,15.40134375,16.82713671875,16.5602421875,16.91969921875,16.48995703125,18.38948828125,19.1761875,15.10164453125
8.7941328125,12.47797265625,10.78488671875,5.18785546875,21.123796875,18.20147265625,16.555140625,13.925171875,17.17768359375,19.2937265625,18.486515625,19.93682421875,3.416875,21.2376875,17.89153125,20.19576171875,17.61844921875,16.270734375,18.42462109375,17.91865234375,18.5515078125,15.63105078125,16.90234375,17.96313671875,17.5802421875,18.44769921875,17.01695703125,19.61748828125,20.2391875,15.59964453125
9.1171328125,12.99297265625,12.22588671875,4.34985546875,21.840796875,19.08147265625,17.692140625,14.191171875,18.68468359375,20.2087265625,19.266515625,19.59882421875,0.577874999999999,23.6316875,18.51153125,20.77576171875,17.96944921875,19.506734375,19.54962109375,17.90965234375,19.4995078125,16.54205078125,17.77634375,18.27813671875,17.9692421875,19.34569921875,17.22595703125,20.37148828125,20.6641875,15.65164453125
9.36313281250001,12.59997265625,12.91388671875,3.97285546875,21.064796875,18.99547265625,17.979140625,13.403171875,18.16368359375,19.7147265625,19.184515625,18.52082421875,0.449874999999999,23.9766875,18.24953125,20.73876171875,17.74444921875,21.608734375,19.59562109375,17.19765234375,19.5585078125,16.89605078125,17.94634375,17.81913671875,17.6672421875,19.36269921875,17.20595703125,20.51648828125,20.5121875,15.31964453125
10.1151328125,11.74797265625,13.20588671875,4.04485546875,19.569796875,18.32347265625,17.644140625,12.017171875,16.17068359375,18.4387265625,18.533515625,17.19182421875,2.353875,22.8146875,17.49853125,20.33876171875,17.18344921875,22.643734375,18.88662109375,16.20665234375,18.8385078125,16.87905078125,17.63334375,16.93613671875,16.8702421875,18.59369921875,17.17995703125,20.11948828125,20.0071875,14.80264453125
11.7211328125,11.07097265625,13.57988671875,4.48385546875,18.284796875,17.60447265625,17.207140625,10.742171875,13.55068359375,17.1947265625,17.793515625,16.08182421875,4.845875,21.1296875,16.79353125,19.88076171875,16.58644921875,22.907734375,17.95862109375,15.43665234375,17.6995078125,16.75205078125,17.18034375,16.07613671875,15.9312421875,17.43269921875,17.36395703125,19.40448828125,19.4201875,14.34664453125
13.8691328125,10.90797265625,14.12288671875,5.19185546875,17.707796875,17.17147265625,17.038140625,10.129171875,11.07768359375,16.4937265625,17.321515625,15.43982421875,6.639875,19.7086875,16.47853125,19.52676171875,16.16344921875,22.523734375,17.21162109375,15.17965234375,16.5685078125,16.66605078125,16.81434375,15.52213671875,15.1732421875,16.35569921875,17.82795703125,18.66448828125,18.9501875,14.14464453125
15.6181328125,11.03797265625,14.34888671875,6.12385546875,17.608796875,16.95247265625,17.066140625,10.285171875,9.29168359375,16.2527265625,17.148515625,15.22382421875,7.363875,18.6876875,16.50653125,19.21876171875,15.95144921875,21.263734375,16.68762109375,15.35065234375,15.7375078125,16.57205078125,16.50634375,15.23413671875,14.7212421875,15.67169921875,18.45195703125,18.17048828125,18.6711875,14.25264453125
15.9431328125,10.87397265625,13.54588671875,7.26785546875,17.277796875,16.58547265625,16.881140625,10.881171875,8.47968359375,15.9687265625,17.017515625,15.19382421875,7.555875,17.6686875,16.54053125,18.78776171875,15.85344921875,18.827734375,16.13562109375,15.57265234375,15.2715078125,16.32505078125,16.07134375,14.94713671875,14.4882421875,15.40169921875,19.01695703125,18.09348828125,18.5591875,14.58064453125
14.3941328125,9.96997265625,11.42488671875,8.50185546875,16.144796875,15.77247265625,16.100140625,11.419171875,8.60568359375,15.2017265625,16.647515625,15.09682421875,7.958875,16.2696875,16.25253125,18.13476171875,15.77244921875,15.345734375,15.31762109375,15.45165234375,15.0645078125,15.86405078125,15.40434375,14.41713671875,14.2822421875,15.34769921875,19.34795703125,18.46048828125,18.5581875,14.95164453125
11.3901328125,8.43697265625,8.56588671875001,9.50085546875,14.245796875,14.55447265625,14.695140625,11.557171875,9.22368359375,13.9467265625,15.978515625,14.84282421875,8.814875,14.5786875,15.59253125,17.33976171875,15.71144921875,11.605734375,14.24962109375,14.84065234375,14.9575078125,15.30005078125,14.61534375,13.62513671875,13.9542421875,15.26669921875,19.38595703125,19.11848828125,18.5961875,15.15964453125
7.99113281250001,6.91997265625,6.22388671875001,9.86385546875,12.135796875,13.26847265625,13.053140625,11.338171875,9.59868359375,12.5857265625,15.180515625,14.54882421875,9.769875,13.0686875,14.78953125,16.57776171875,15.76144921875,8.708734375,13.16462109375,13.87765234375,14.8205078125,14.80905078125,13.91934375,12.75013671875,13.4562421875,15.00269921875,19.14195703125,19.75948828125,18.5611875,15.01864453125
5.3371328125,6.16597265625,5.57888671875001,9.39585546875,10.433796875,12.29147265625,11.779140625,11.157171875,9.12468359375,11.5487265625,14.492515625,14.44682421875,10.344875,12.1706875,14.16853125,15.96976171875,15.96844921875,7.43973437499999,12.29962109375,12.84665234375,14.5895078125,14.46405078125,13.42134375,12.00113671875,12.8162421875,14.52069921875,18.61795703125,20.04148828125,18.2841875,14.40364453125
4.1531328125,6.53497265625,6.95988671875001,8.27885546875,9.478796875,11.83247265625,11.394140625,11.476171875,7.77768359375,11.0607265625,14.090515625,14.72482421875,10.434875,11.9796875,13.98153125,15.51876171875,16.23144921875,7.863734375,11.76962109375,12.02665234375,14.2825078125,14.19905078125,13.04734375,11.49713671875,12.1342421875,13.88969921875,17.81995703125,19.78248828125,17.6371875,13.33264453125
4.5471328125,7.79597265625,9.64488671875001,6.98385546875,9.318796875,11.91947265625,12.114140625,12.475171875,6.20068359375,11.1287265625,14.069515625,15.41782421875,10.435875,12.3196875,14.35853125,15.19276171875,16.31044921875,9.404734375,11.59962109375,11.62865234375,14.0125078125,13.91105078125,12.67434375,11.28013671875,11.5782421875,13.23669921875,16.83695703125,19.10148828125,16.6561875,12.02364453125
6.1261328125,9.31397265625,12.35788671875,6.03085546875,9.852796875,12.45747265625,13.794140625,13.915171875,5.29268359375,11.6367265625,14.447515625,16.41482421875,10.972875,12.9436875,15.29553125,15.01376171875,15.94944921875,11.204734375,11.77762109375,11.76065234375,13.9395078125,13.57105078125,12.28334375,11.36313671875,11.3502421875,12.71669921875,15.87995703125,18.33648828125,15.5801875,10.83764453125
8.26113281250001,10.46197265625,14.07988671875,5.78085546875,10.921796875,13.26947265625,15.998140625,15.293171875,5.59068359375,12.3887265625,15.123515625,17.52982421875,12.439875,13.6436875,16.61353125,15.06376171875,15.03644921875,12.509734375,12.23062109375,12.38965234375,14.1785078125,13.23705078125,11.97434375,11.72013671875,11.5832421875,12.46069921875,15.18895703125,17.79948828125,14.7321875,10.12164453125
10.3091328125,10.98897265625,14.57488671875,6.31085546875,12.338796875,14.12247265625,18.113140625,16.136171875,6.91268359375,13.1327265625,15.851515625,18.57782421875,14.582875,14.3136875,17.95253125,15.39976171875,13.70044921875,12.967734375,12.79662109375,13.32665234375,14.7235078125,13.00805078125,11.89534375,12.27713671875,12.2562421875,12.54169921875,14.91495703125,17.57248828125,14.3511875,10.05364453125
11.7791328125,11.11597265625,14.33088671875,7.38985546875,13.927796875,14.79347265625,19.500140625,16.213171875,8.53068359375,13.6497265625,16.327515625,19.40882421875,16.453875,15.0056875,18.88253125,15.98976171875,12.30444921875,12.776734375,13.28162109375,14.29365234375,15.4445078125,12.99905078125,12.16934375,12.93313671875,13.1992421875,12.95669921875,15.05595703125,17.49648828125,14.4951875,10.58764453125
12.4381328125,11.30697265625,14.03588671875,8.55985546875,15.516796875,15.14947265625,19.717140625,15.558171875,9.65968359375,13.8387265625,16.334515625,19.91482421875,16.904875,15.8726875,19.07853125,16.70576171875,11.30444921875,12.528734375,13.54762109375,15.03665234375,16.1655078125,13.32505078125,12.83234375,13.60113671875,14.1862421875,13.63169921875,15.48195703125,17.34248828125,15.0511875,11.51964453125
12.3561328125,11.88297265625,14.05488671875,9.35985546875,16.852796875,15.15447265625,18.760140625,14.364171875,9.85068359375,13.6967265625,15.848515625,20.03682421875,15.404875,16.9296875,18.44653125,17.36276171875,11.01844921875,12.735734375,13.52362109375,15.39465234375,16.7245078125,14.02605078125,13.75834375,14.20613671875,15.0112421875,14.43769921875,15.98495703125,16.98548828125,15.8041875,12.59864453125
11.7851328125,12.75497265625,14.24688671875,9.56285546875,17.548796875,14.82347265625,17.099140625,12.822171875,9.04368359375,13.2367265625,15.025515625,19.76082421875,12.598875,17.8466875,17.14053125,17.78176171875,11.44244921875,13.364734375,13.16462109375,15.31065234375,17.0245078125,14.97205078125,14.63934375,14.64413671875,15.5502421875,15.21169921875,16.32995703125,16.48348828125,16.5191875,13.60664453125
10.9621328125,13.48897265625,14.19688671875,9.24685546875,17.236796875,14.20047265625,15.430140625,11.016171875,7.44068359375,12.4777265625,14.125515625,19.11482421875,10.089875,18.0626875,15.50753125,17.84976171875,12.23544921875,13.825734375,12.46262109375,14.84265234375,17.0635078125,15.84905078125,15.10934375,14.79413671875,15.7812421875,15.79569921875,16.33095703125,16.01748828125,17.0031875,14.39064453125
10.0281328125,13.65797265625,13.65088671875,8.67285546875,15.913796875,13.42247265625,14.318140625,8.970171875,5.47368359375,11.5617265625,13.426515625,18.17282421875,9.478875,17.2486875,14.01253125,17.56276171875,12.91344921875,13.506734375,11.54862109375,14.17365234375,16.9465078125,16.30005078125,14.99434375,14.61113671875,15.7922421875,16.07469921875,15.92695703125,15.74748828125,17.1441875,14.85964453125
9.1631328125,13.21297265625,12.82288671875,8.11085546875,14.170796875,12.78847265625,14.002140625,6.840171875,3.84568359375,10.8677265625,13.159515625,17.08582421875,11.305875,15.7576875,13.15253125,17.03476171875,13.14344921875,12.440734375,10.77762109375,13.58965234375,16.8525078125,16.16605078125,14.50334375,14.23013671875,15.7312421875,15.98969921875,15.23995703125,15.66848828125,16.9031875,14.95864453125
8.75913281250001,12.58797265625,12.33288671875,7.76385546875,13.000796875,12.70447265625,14.428140625,5.036171875,3.42268359375,10.9177265625,13.455515625,16.12382421875,14.700875,14.5836875,13.31453125,16.47476171875,12.91244921875,11.438734375,10.64362109375,13.39765234375,16.9645078125,15.62105078125,14.15334375,13.96413671875,15.7332421875,15.54369921875,14.52995703125,15.57148828125,16.3011875,14.66264453125
9.32813281250001,12.42697265625,12.78788671875,7.79585546875,13.229796875,13.48047265625,15.387140625,4.099171875,4.85068359375,12.0607265625,14.297515625,15.67382421875,18.006875,14.7606875,14.60453125,16.12576171875,12.48844921875,11.509734375,11.52362109375,13.79465234375,17.3875078125,15.07205078125,14.46634375,14.16813671875,15.8542421875,14.80669921875,14.07095703125,15.16648828125,15.4011875,14.02664453125
11.1881328125,13.15297265625,14.32088671875,8.34685546875,15.009796875,15.11547265625,16.624140625,4.387171875,8.11368359375,14.1887265625,15.503515625,16.11482421875,19.840875,16.6676875,16.75853125,16.18476171875,12.20744921875,13.057734375,13.41962109375,14.77365234375,18.0975078125,14.91005078125,15.63034375,15.04813671875,16.0712421875,13.95069921875,14.01595703125,14.31248828125,14.3391875,13.23064453125
14.2121328125,14.72897265625,16.47288671875,9.47785546875,17.774796875,17.25547265625,17.932140625,5.860171875,12.37068359375,16.7387265625,16.784515625,17.59682421875,19.735875,19.7806875,19.22953125,16.71676171875,12.24744921875,15.587734375,15.90862109375,16.12565234375,18.9455078125,15.30705078125,17.40234375,16.55713671875,16.3212421875,13.23069921875,14.35595703125,13.17448828125,13.3461875,12.57664453125
17.8691328125,16.76997265625,18.52388671875,11.08585546875,20.615796875,19.35647265625,19.196140625,8.108171875,16.26568359375,18.9767265625,17.843515625,19.87982421875,18.062875,23.0196875,21.41553125,17.59376171875,12.54944921875,18.096734375,18.33462109375,17.52565234375,19.6915078125,16.19105078125,19.28134375,18.42913671875,16.5612421875,12.90169921875,14.95495703125,12.18448828125,12.6981875,12.37664453125
21.4571328125,18.82797265625,19.95688671875,12.87785546875,22.720796875,20.91147265625,20.346140625,10.537171875,18.53968359375,20.3397265625,18.485515625,22.36782421875,15.596875,25.3516875,22.86653125,18.51776171875,12.90344921875,19.736734375,20.09962109375,18.65065234375,20.0805078125,17.34305078125,20.78934375,20.28413671875,16.7852421875,13.10469921875,15.62895703125,11.79948828125,12.6051875,12.79664453125
24.3481328125,20.58497265625,20.68988671875,14.45485546875,23.577796875,21.59847265625,21.233140625,12.562171875,18.54468359375,20.5777265625,18.643515625,24.33982421875,13.214875,26.1776875,23.37653125,19.11476171875,13.12044921875,20.164734375,20.85662109375,19.26365234375,19.9325078125,18.48605078125,21.64634375,21.75613671875,17.0162421875,13.78769921875,16.21095703125,12.25948828125,13.0971875,13.78264453125
26.1561328125,21.87297265625,20.99488671875,15.46285546875,22.991796875,21.31847265625,21.581140625,13.776171875,16.36868359375,19.7267265625,18.326515625,25.27782421875,11.736875,25.3986875,22.94753125,19.07376171875,13.13544921875,19.483734375,20.54862109375,19.25465234375,19.2275078125,19.32905078125,21.78134375,22.57013671875,17.2502421875,14.71869921875,16.58495703125,13.46848828125,14.0011875,15.09364453125
26.8621328125,22.63597265625,21.24288671875,15.71585546875,21.123796875,20.19647265625,21.126140625,14.084171875,12.62068359375,18.0467265625,17.573515625,25.09482421875,11.709875,23.3456875,21.73853125,18.28976171875,12.98044921875,18.056734375,19.35962109375,18.65065234375,18.1215078125,19.61505078125,21.27934375,22.60913671875,17.4292421875,15.56569921875,16.70995703125,15.05448828125,15.0101875,16.40764453125
26.8431328125,22.94397265625,21.70188671875,15.25585546875,18.558796875,18.58747265625,19.831140625,13.726171875,8.18568359375,16.0157265625,16.474515625,24.16282421875,13.080875,20.7016875,20.05653125,16.94776171875,12.69444921875,16.439734375,17.67962109375,17.62865234375,16.9045078125,19.24205078125,20.36434375,21.97013671875,17.4562421875,16.00969921875,16.61495703125,16.54548828125,15.8041875,17.41864453125
26.7391328125,23.00997265625,22.48288671875,14.34485546875,16.203796875,17.00947265625,17.972140625,13.115171875,4.12068359375,14.2547265625,15.225515625,23.09682421875,15.105875,18.3516875,18.31053125,15.47276171875,12.29144921875,15.328734375,16.03562109375,16.49765234375,15.9055078125,18.37505078125,19.37734375,20.95113671875,17.2642421875,15.86969921875,16.39595703125,17.57348828125,16.1801875,17.92064453125
27.1531328125,23.12097265625,23.58388671875,13.42685546875,14.898796875,15.95147265625,16.024140625,12.612171875,1.56068359375,13.2967265625,14.080515625,22.39582421875,16.705875,17.0416875,16.88953125,14.32676171875,11.80644921875,15.297734375,14.91662109375,15.58265234375,15.3605078125,17.42905078125,18.66534375,19.92913671875,16.8552421875,15.18169921875,16.16295703125,17.99748828125,16.1061875,17.84164453125
28.3231328125,23.46097265625,24.94088671875,13.00485546875,14.936796875,15.60547265625,14.420140625,12.377171875,1.40968359375,13.2937265625,13.215515625,22.17882421875,17.089875,16.9806875,15.97253125,13.74476171875,11.32844921875,16.387734375,14.53162109375,15.05565234375,15.2985078125,16.85805078125,18.37034375,19.16013671875,16.2692421875,14.17069921875,15.97395703125,17.88348828125,15.6801875,17.25464453125
29.9181328125,23.93997265625,26.38388671875,13.39985546875,15.874796875,15.74547265625,13.344140625,12.333171875,3.85468359375,13.9017265625,12.612515625,22.16982421875,16.174875,17.6916875,15.44453125,13.61276171875,10.97144921875,17.913734375,14.66862109375,14.82565234375,15.5145078125,16.87205078125,18.30734375,18.64813671875,15.5262421875,13.13769921875,15.79295703125,17.39848828125,15.0451875,16.33964453125
31.0721328125,24.17497265625,27.53788671875,14.50685546875,16.809796875,15.86947265625,12.682140625,12.220171875,8.02268359375,14.4887265625,12.121515625,21.96982421875,14.528875,18.2916875,15.00053125,13.58276171875,10.81044921875,18.786734375,14.82962109375,14.62765234375,15.6805078125,17.28405078125,18.07034375,18.19713671875,14.6342421875,12.31669921875,15.52495703125,16.72648828125,14.3341875,15.34064453125
30.7401328125,23.65897265625,27.81088671875,15.75785546875,16.950796875,15.53247265625,12.187140625,11.723171875,12.13368359375,14.5247265625,11.651515625,21.39582421875,12.992875,18.0276875,14.39953125,13.36776171875,10.84544921875,18.187734375,14.55362109375,14.24365234375,15.5505078125,17.61305078125,17.32034375,17.60813671875,13.6492421875,11.81469921875,15.10495703125,16.04848828125,13.6711875,14.51464453125
28.2411328125,22.03197265625,26.54988671875,16.40485546875,16.074796875,14.63347265625,11.730140625,10.668171875,14.20768359375,13.8887265625,11.298515625,20.64682421875,12.273875,16.6896875,13.65053125,12.98076171875,11.01144921875,16.067734375,13.68862109375,13.68465234375,15.1185078125,17.36805078125,16.02534375,16.84713671875,12.7162421875,11.64069921875,14.56095703125,15.53148828125,13.2061875,14.08164453125
23.6791328125,19.29197265625,23.35288671875,15.92785546875,14.611796875,13.46147265625,11.443140625,9.155171875,13.01368359375,12.8967265625,11.294515625,20.16782421875,12.649875,14.6666875,13.00253125,12.74376171875,11.23144921875,13.128734375,12.44362109375,13.18565234375,14.6285078125,16.32905078125,14.47834375,16.07213671875,12.0382421875,11.76769921875,13.99995703125,15.29648828125,13.0991875,14.16264453125
17.9851328125,15.85997265625,18.38288671875,14.27685546875,13.364796875,12.51247265625,11.607140625,7.524171875,8.74168359375,12.1007265625,11.843515625,20.31182421875,13.821875,12.6956875,12.78253125,13.06776171875,11.46544921875,10.393734375,11.25462109375,13.05465234375,14.4325078125,14.67005078125,13.12334375,15.53313671875,11.7772421875,12.16169921875,13.52795703125,15.33948828125,13.4481875,14.72164453125
12.5981328125,12.50097265625,12.54988671875,11.84985546875,13.062796875,12.23247265625,12.400140625,6.184171875,2.98768359375,12.0157265625,12.970515625,21.07382421875,15.047875,11.5136875,13.19153125,14.16976171875,11.73344921875,8.745734375,10.57162109375,13.48365234375,14.7875078125,12.87705078125,12.33934375,15.42413671875,11.9702421875,12.76669921875,13.18695703125,15.49348828125,14.1981875,15.55264453125
8.9831328125,10.11097265625,7.38988671875001,9.33185546875,13.955796875,12.80747265625,13.732140625,5.472171875,-1.97231640625,12.8697265625,14.466515625,22.08282421875,15.602875,11.5346875,14.18453125,15.89476171875,12.09444921875,8.669734375,10.66662109375,14.41165234375,15.7045078125,11.51105078125,12.29334375,15.77913671875,12.4872421875,13.46569921875,12.93395703125,15.45548828125,15.1001875,16.34164453125
8.14313281250001,9.39997265625,4.56988671875001,7.46085546875,15.666796875,14.07947265625,15.270140625,5.594171875,-4.24331640625,14.4797265625,15.944515625,22.85382421875,15.320875,12.6796875,15.46153125,17.74876171875,12.59344921875,10.164734375,11.52462109375,15.51965234375,16.9285078125,10.95005078125,12.89634375,16.44313671875,13.0562421875,14.08569921875,12.67395703125,14.90948828125,15.7921875,16.78264453125
10.2271328125,10.56397265625,5.13288671875001,6.76385546875,17.424796875,15.62747265625,16.584140625,6.555171875,-3.09331640625,16.3467265625,16.979515625,23.11282421875,14.708875,14.4616875,16.59153125,19.12476171875,13.19444921875,12.796734375,12.86162109375,16.35765234375,18.0415078125,11.26405078125,13.87934375,17.14213671875,13.3742421875,14.44769921875,12.33995703125,13.70548828125,15.9621875,16.72264453125
14.4001328125,13.11097265625,8.84988671875001,7.33385546875,18.538796875,16.96747265625,17.302140625,8.070171875,0.912683593750002,17.9127265625,17.290515625,22.98782421875,14.487875,16.2716875,17.20253125,19.58876171875,13.76844921875,15.850734375,14.27962109375,16.57265234375,18.6685078125,12.26205078125,14.94234375,17.62213671875,13.2482421875,14.44969921875,11.95995703125,12.03848828125,15.5381875,16.23564453125
19.1051328125,15.97297265625,14.12488671875,8.79485546875,18.742796875,17.74647265625,17.232140625,9.582171875,6.31768359375,18.8057265625,16.841515625,22.89882421875,14.972875,17.6476875,17.11353125,19.06776171875,14.13944921875,18.508734375,15.42562109375,16.07965234375,18.6315078125,13.59905078125,15.84534375,17.75413671875,12.6942421875,14.11469921875,11.66695703125,10.45148828125,14.7501875,15.59364453125
22.6331328125,17.89697265625,18.64088671875,10.46885546875,18.150796875,17.80447265625,16.444140625,10.462171875,11.33668359375,18.8867265625,15.814515625,23.25382421875,15.865875,18.2896875,16.33453125,17.83876171875,14.17144921875,19.994734375,16.04762109375,15.06065234375,17.9975078125,14.83505078125,16.38834375,17.53013671875,11.8972421875,13.57069921875,11.61495703125,9.61648828125,13.9961875,15.10864453125
23.7451328125,17.97397265625,20.48888671875,11.65685546875,16.951796875,17.14447265625,15.246140625,10.304171875,14.35368359375,18.1507265625,14.500515625,24.18982421875,16.596875,17.9456875,14.98753125,16.36876171875,13.83544921875,19.715734375,15.97762109375,13.83865234375,16.9935078125,15.48605078125,16.36434375,17.00413671875,11.0922421875,12.96169921875,11.85395703125,9.95748828125,13.6011875,14.94664453125
22.0901328125,16.07397265625,19.12788671875,11.88085546875,15.219796875,15.91147265625,14.072140625,9.131171875,14.36968359375,16.6787265625,13.224515625,25.53182421875,16.829875,16.4386875,13.27053125,15.13676171875,13.23344921875,17.503734375,15.17562109375,12.74765234375,15.9015078125,15.19605078125,15.62734375,16.27313671875,10.4732421875,12.36469921875,12.29595703125,11.38848828125,13.6321875,15.04964453125
18.3311328125,12.97097265625,15.62488671875,11.02885546875,13.039796875,14.41147265625,13.336140625,7.400171875,11.38568359375,14.7157265625,12.297515625,26.93982421875,16.685875,13.8846875,11.47853125,14.50076171875,12.53744921875,13.813734375,13.80962109375,12.05565234375,14.9825078125,13.96605078125,14.25334375,15.50513671875,10.1582421875,11.75169921875,12.77195703125,13.30348828125,13.8861875,15.18464453125
13.9231328125,10.04197265625,12.05488671875,9.42185546875,10.729796875,13.06147265625,13.297140625,5.849171875,6.49168359375,12.7117265625,11.934515625,28.06082421875,16.545875,10.8296875,9.98553125,14.60676171875,11.91844921875,9.67073437499999,12.26062109375,11.91665234375,14.4135078125,12.25705078125,12.60634375,14.92513671875,10.1782421875,11.00769921875,13.13795703125,14.84948828125,14.0251875,15.10164453125
10.6021328125,8.68297265625,10.44788671875,7.75685546875,8.874796875,12.24347265625,13.964140625,5.238171875,1.50768359375,11.2097265625,12.148515625,28.63182421875,16.654875,8.1176875,9.12853125,15.33076171875,11.51344921875,6.316734375,10.98462109375,12.33065234375,14.2425078125,10.80205078125,11.21634375,14.73713671875,10.4682421875,10.00969921875,13.33695703125,15.29848828125,13.7621875,14.67064453125
9.7541328125,9.72497265625,11.87388671875,6.85485546875,8.068796875,12.12547265625,15.080140625,6.043171875,-1.73331640625,10.5977265625,12.715515625,28.55582421875,16.898875,6.5276875,9.05153125,16.32176171875,11.43644921875,4.745734375,10.31662109375,13.13465234375,14.3635078125,10.22805078125,10.53434375,15.02113671875,10.8702421875,8.73269921875,13.39595703125,14.35948828125,12.9951875,13.94964453125
11.9231328125,13.10097265625,16.05488671875,7.28385546875,8.569796875,12.58247265625,16.224140625,8.242171875,-2.10431640625,10.8887265625,13.256515625,27.96082421875,16.886875,6.4286875,9.61853125,17.14876171875,11.78344921875,5.362734375,10.33162109375,14.05265234375,14.5725078125,10.71705078125,10.72534375,15.67313671875,11.2002421875,7.33969921875,13.37195703125,12.29748828125,11.8391875,13.15364453125
16.6581328125,17.90797265625,21.58888671875,9.04085546875,10.102796875,13.25347265625,17.005140625,11.318171875,0.43068359375,11.6857265625,13.373515625,27.15882421875,16.269875,7.6286875,10.44553125,17.46376171875,12.57544921875,7.877734375,10.81962109375,14.76565234375,14.6635078125,11.92305078125,11.58234375,16.42013671875,11.3082421875,6.17869921875,13.28995703125,9.84248828125,10.5681875,12.54764453125
22.7091328125,22.77497265625,26.58188671875,11.51285546875,11.965796875,13.68847265625,17.223140625,14.479171875,4.84068359375,12.3607265625,12.784515625,26.47482421875,15.044875,9.4826875,11.03553125,17.09776171875,13.71044921875,11.436734375,11.37562109375,14.97165234375,14.5165078125,13.17305078125,12.61034375,16.89713671875,11.1222421875,5.66269921875,13.10895703125,7.90748828124999,9.4951875,12.32364453125
28.4651328125,26.36597265625,29.36188671875,13.73285546875,13.360796875,13.53347265625,16.864140625,16.940171875,9.42768359375,12.3657265625,11.402515625,26.06182421875,13.643875,11.1976875,10.96853125,16.05876171875,14.95444921875,14.940734375,11.57762109375,14.45265234375,14.1305078125,13.82405078125,13.25934375,16.77413671875,10.6392421875,6.06769921875,12.74295703125,7.21148828124999,8.8561875,12.51164453125
32.4561328125,27.78097265625,28.99988671875,14.83785546875,13.764796875,12.65047265625,15.979140625,18.109171875,12.47668359375,11.4977265625,9.371515625,25.82682421875,12.728875,12.1826875,10.06153125,14.45576171875,16.01844921875,17.421734375,11.17162109375,13.13265234375,13.5865078125,13.60105078125,13.18634375,15.88413671875,9.8962421875,7.35369921875,12.12495703125,7.94348828124999,8.7261875,12.97564453125
33.8051328125,26.76797265625,25.54388671875,14.46085546875,13.133796875,11.14947265625,14.591140625,17.693171875,12.91468359375,9.9667265625,7.007515625,25.50982421875,12.805875,12.2536875,8.42353125,12.42476171875,16.63744921875,18.350734375,10.16662109375,11.09465234375,12.9675078125,12.70205078125,12.39934375,14.28713671875,8.9232421875,9.13169921875,11.24695703125,9.63748828125,8.9891875,13.46764453125
32.4501328125,23.72697265625,19.97988671875,12.89485546875,11.846796875,9.29947265625,12.721140625,15.748171875,10.69468359375,8.2377265625,4.693515625,24.84382421875,13.917875,11.5866875,6.40453125,10.09376171875,16.63844921875,17.754734375,8.79062109375,8.56965234375,12.3015078125,11.64805078125,11.19434375,12.24013671875,7.7322421875,10.80669921875,10.15095703125,11.34248828125,9.3741875,13.72564453125
29.0571328125,19.56197265625,13.90588671875,10.91485546875,10.463796875,7.43847265625,10.496140625,12.675171875,6.75568359375,6.7857265625,2.771515625,23.72682421875,15.618875,10.5196875,4.46753125,7.63576171875,16.00244921875,16.138734375,7.36062109375,5.90665234375,11.5805078125,10.98205078125,9.97834375,10.11213671875,6.3652421875,11.86969921875,8.91995703125,12.05648828125,9.5591875,13.58364453125
24.6501328125,15.36597265625,8.93988671875,9.35885546875,9.475796875,5.90247265625,8.225140625,9.118171875,2.63268359375,5.9257265625,1.510515625,22.29582421875,17.190875,9.3726875,3.06453125,5.33476171874999,14.91644921875,14.264734375,6.18062109375,3.55265234375,10.8495078125,10.99005078125,9.07634375,8.29713671875,4.9762421875,12.15869921875,7.67795703125,11.21848828125,9.3121875,13.06564453125
20.1911328125,12.05197265625,6.08988671875001,8.70185546875,9.147796875,4.98147265625,6.376140625,5.818171875,-0.127316406249999,5.7917265625,1.099515625,20.89582421875,17.951875,8.3916875,2.53153125,3.59276171874999,13.76444921875,12.851734375,5.47562109375,1.98265234375,10.2515078125,11.57605078125,8.61534375,7.11613671875,3.8372421875,11.92069921875,6.57495703125,9.00448828124999,8.5791875,12.37764453125
16.3461328125,10.09697265625,5.46188671875001,8.87485546875,9.477796875,4.85847265625,5.458140625,3.481171875,-0.567316406249999,6.3657265625,1.618515625,19.93682421875,17.517875,7.7716875,2.99453125,2.82276171874999,12.96944921875,12.307734375,5.34362109375,1.54465234375,9.9675078125,12.30905078125,8.50034375,6.70413671875,3.2272421875,11.60769921875,5.74595703125,6.24048828125,7.4851875,11.79664453125
13.4791328125,9.52897265625,6.45788671875,9.42485546875,10.236796875,5.52547265625,5.805140625,2.647171875,1.26968359375,7.5067265625,2.970515625,19.74982421875,15.993875,7.6376875,4.31753125,3.25876171874999,12.77544921875,12.594734375,5.74062109375,2.30665234375,10.0945078125,12.61105078125,8.47334375,6.96413671874999,3.2772421875,11.54269921875,5.24595703125,3.96248828124999,6.2431875,11.51664453125
11.7481328125,10.09397265625,8.24888671875001,9.86885546875,11.081796875,6.75547265625,7.377140625,3.517171875,4.37968359375,8.95372656250001,4.855515625,20.49582421875,14.026875,7.9956875,6.13053125,4.80976171875,13.08444921875,13.297734375,6.49562109375,3.99965234375,10.5665078125,12.00405078125,8.27634375,7.60413671875,3.8922421875,11.70169921875,5.02895703125,2.87448828125,5.0631875,11.56264453125
11.2141328125,11.44497265625,10.13088671875,9.99385546875,11.713796875,8.16547265625,9.729140625,5.826171875,7.31368359375,10.3707265625,6.813515625,22.13482421875,12.584875,8.6976875,7.94753125,7.05976171875,13.50844921875,13.863734375,7.38262109375,6.11465234375,11.1685078125,10.30905078125,7.80934375,8.28413671875,4.7962421875,11.75069921875,4.98795703125,3.03748828125,4.0911875,11.80764453125
11.9041328125,13.20997265625,11.62588671875,9.90285546875,12.001796875,9.35247265625,12.220140625,8.904171875,8.85068359375,11.4337265625,8.357515625,24.41482421875,12.497875,9.4886875,9.33053125,9.40976171875,13.59044921875,13.890734375,8.18362109375,8.08065234375,11.6325078125,7.72905078125,7.17834375,8.75813671874999,5.6652421875,11.27969921875,5.03095703125,3.94648828124999,3.4051875,12.06464453125
13.7551328125,14.98297265625,12.41388671875,9.81785546875,11.976796875,10.01747265625,14.273140625,11.911171875,8.45068359375,11.9257265625,9.119515625,26.88682421875,13.999875,10.0866875,10.00753125,11.28376171875,13.07344921875,13.267734375,8.72062109375,9.43165234375,11.7385078125,4.77205078125,6.60034375,8.93313671875,6.2352421875,10.05769921875,5.10695703125,4.90348828125,3.0241875,12.16164453125
16.4081328125,16.30197265625,12.24488671875,9.84185546875,11.684796875,10.00647265625,15.511140625,14.100171875,6.29068359375,11.7517265625,8.963515625,28.97082421875,16.621875,10.1996875,9.89753125,12.31376171875,12.04544921875,12.099734375,8.84262109375,9.90965234375,11.3835078125,2.06005078125,6.22034375,8.82313671874999,6.3582421875,8.14869921875,5.17795703125,5.38248828124999,2.9021875,11.97764453125
19.0571328125,16.73297265625,10.97488671875,9.87885546875,11.053796875,9.30047265625,15.738140625,15.007171875,3.03268359375,10.9187265625,8.027515625,30.13182421875,19.474875,9.5516875,9.08353125,12.41576171875,10.88544921875,10.537734375,8.43162109375,9.48765234375,10.6065078125,0.112050781249998,5.99134375,8.47113671875,5.9992421875,5.87169921875,5.16995703125,5.19048828124999,2.9371875,11.45364453125
20.6521328125,16.02897265625,8.67688671875,9.76485546875,9.940796875,8.01547265625,14.940140625,14.568171875,-0.469316406249998,9.5557265625,6.667515625,30.08382421875,21.668875,7.9906875,7.79653125,11.75476171875,10.05844921875,8.72873437499999,7.45462109375,8.35165234375,9.55950781249999,-0.800949218750002,5.72334375,7.91313671875,5.2212421875,3.66969921875,4.97495703125,4.43248828125,2.9951875,10.60964453125
20.3911328125,14.27697265625,5.75088671875,9.42885546875,8.335796875,6.42247265625,13.323140625,13.135171875,-3.41631640625,7.97172656250001,5.352515625,28.92082421875,22.584875,5.6876875,6.40453125,10.65076171875,9.88044921875,6.87873437499999,6.05062109375,6.84165234375,8.4685078125,-0.677949218750001,5.24434375,7.19913671875,4.1802421875,1.97569921875,4.52095703125,3.39448828124999,2.9801875,9.59064453125
18.1591328125,11.88397265625,2.88788671875,8.91685546875,6.536796875,4.92547265625,11.310140625,11.332171875,-5.27331640625,6.6397265625,4.518515625,27.09182421875,21.919875,3.2106875,5.34353125,9.45876171875,10.38344921875,5.312734375,4.55862109375,5.36765234375,7.5785078125,0.261050781249999,4.56034375,6.44013671875,3.1212421875,1.12369921875,3.87095703125,2.41548828125,2.8891875,8.67664453124999
14.6051328125,9.42597265625,0.904886718750006,8.29585546875,5.081796875,3.95047265625,9.415140625,9.811171875,-5.83931640625,6.0527265625,4.432515625,25.25182421875,19.631875,1.3536875,4.98053125,8.47876171874999,11.34044921875,4.42073437499999,3.42262109375,4.29965234375,7.1055078125,1.67005078125,3.88734375,5.80613671875,2.3332421875,1.29369921875,3.24795703125,1.79048828125,2.8301875,8.22864453124999
10.9061328125,7.49397265625,0.532886718750007,7.59885546875,4.480796875,3.77547265625,8.072140625,9.066171875,-5.15631640625,6.4667265625,5.098515625,24.05182421875,15.933875,0.761687500000001,5.44853125,7.90976171875,12.39544921875,4.511734375,2.99862109375,3.86365234375,7.18150781249999,3.18105078125,3.53234375,5.47213671875,2.0702421875,2.47769921875,2.96195703125,1.69048828124999,2.9641875,8.53864453125
8.3731328125,6.58497265625,2.19488671875001,6.85185546875,4.909796875,4.38847265625,7.511140625,9.398171875,-3.34531640625,7.7047265625,6.241515625,23.94182421875,11.393875,1.5636875,6.56453125,7.81776171874999,13.21444921875,5.642734375,3.36762109375,4.07965234375,7.8025078125,4.50305078125,3.69934375,5.51813671875,2.4312421875,4.46369921875,3.25595703125,2.12748828125,3.4111875,9.66664453125
8.04213281250001,7.03397265625,5.81388671875001,6.13385546875,6.088796875,5.46547265625,7.705140625,10.914171875,-0.610316406249998,9.1627265625,7.402515625,25.02482421875,7.007875,3.2636875,7.88953125,8.12676171875,13.58844921875,7.495734375,4.26262109375,4.76265234375,8.80650781249999,5.48505078125,4.35234375,5.87013671875,3.3012421875,6.87469921875,4.16895703125,2.97448828124999,4.1701875,11.36164453125
10.3251328125,8.92797265625,10.74588671875,5.57085546875,7.398796875,6.49347265625,8.394140625,13.491171875,2.54368359375,10.0567265625,8.109515625,27.00482421875,4.029875,4.9466875,8.89253125,8.63176171874999,13.47744921875,9.401734375,5.18762109375,5.60765234375,9.92850781249999,6.11005078125,5.20734375,6.31113671875,4.3782421875,9.25269921875,5.48795703125,4.00148828124999,5.0921875,13.13164453125
14.8611328125,11.99797265625,15.93288671875,5.28385546875,8.166796875,6.98047265625,9.180140625,16.739171875,5.16368359375,9.75872656250001,8.036515625,29.23882421875,3.484875,5.6796875,9.15253125,9.03376171874999,12.98744921875,10.529734375,5.61562109375,6.28965234375,10.8785078125,6.43305078125,5.85334375,6.55713671874999,5.2812421875,11.17669921875,6.79795703125,4.93548828125,5.9171875,14.43464453125
20.6031328125,15.60297265625,20.24288671875,5.35685546875,7.948796875,6.62547265625,9.667140625,20.042171875,6.11668359375,8.0667265625,7.061515625,30.92382421875,5.570875,4.8936875,8.48353125,9.01776171874999,12.29144921875,10.209734375,5.19062109375,6.53065234375,11.4165078125,6.49705078125,5.91734375,6.35413671875,5.6722421875,12.35369921875,7.61895703125,5.50948828125,6.3531875,14.86864453125
26.1261328125,18.87297265625,22.82488671875,5.82085546875,6.715796875,5.40647265625,9.575140625,22.685171875,4.75168359375,5.2847265625,5.273515625,31.37682421875,9.381875,2.6056875,6.97653125,8.35876171875,11.55044921875,8.269734375,3.85362109375,6.15265234375,11.3975078125,6.30605078125,5.22434375,5.57013671875,5.3562421875,12.63769921875,7.57795703125,5.53148828125,6.1941875,14.28264453125
30.0531328125,21.00797265625,23.31088671875,6.63785546875,4.877796875,3.58847265625,8.805140625,24.044171875,1.45168359375,2.1287265625,2.959515625,30.31782421875,13.219875,-0.5673125,4.96753125,7.05476171874999,10.86244921875,5.254734375,1.88762109375,5.13965234375,10.8055078125,5.88605078125,3.89634375,4.28413671874999,4.3572421875,12.02769921875,6.56195703125,4.96948828125,5.4321875,12.79964453125
31.5011328125,21.59097265625,21.84588671875,7.68185546875,3.130796875,1.64747265625,7.475140625,23.797171875,-2.41631640625,-0.516273437499997,0.582515625000003,28.03082421875,15.395875,-3.6043125,2.94453125,5.37676171875,10.27944921875,2.311734375,-0.157378906250003,3.68365234375,9.7795078125,5.35605078125,2.34434375,2.79713671875,2.9232421875,10.66569921875,4.76995703125,3.99348828125,4.3081875,10.76364453125
30.3791328125,20.71197265625,18.99688671875,8.75585546875,2.161796875,0.11047265625,5.922140625,22.112171875,-5.20231640625,-1.9182734375,-1.316484375,25.26382421875,15.059875,-5.4883125,1.39953125,3.77876171874999,9.82644921875,0.663734374999997,-1.66437890625,2.13865234375,8.5865078125,4.92005078125,1.09234375,1.53913671875,1.4352421875,8.84269921875,2.63095703125,2.90248828125,3.2291875,8.63864453125
27.3401328125,18.82897265625,15.55788671875,9.65485546875,2.325796875,-0.664527343749999,4.588140625,19.641171875,-5.87831640625,-1.7902734375,-2.322484375,22.91682421875,12.610875,-5.6633125,0.654531249999998,2.67376171874999,9.50544921875,0.921734374999996,-2.21737890625,0.878652343749998,7.5205078125,4.71905078125,0.509343749999999,0.866136718749996,0.2562421875,6.94769921875,0.616957031249999,1.95448828125,2.5721875,6.87064453125
23.3911328125,16.46897265625,12.29588671875,10.21585546875,3.460796875,-0.657527343750001,3.772140625,17.230171875,-4.55831640625,-0.414273437499997,-2.332484375,21.64082421875,9.509875,-4.3103125,0.738531249999998,2.20776171875,9.28044921875,2.661734375,-1.79137890625,0.13065234375,6.7705078125,4.67505078125,0.609343750000001,0.885136718749997,-0.410757812500002,5.35769921875,-0.93204296875,1.21148828124999,2.4921875,5.75664453125
19.4491328125,14.01697265625,9.72688671875001,10.35185546875,4.988796875,-0.170527343749999,3.454140625,15.518171875,-2.32131640625,1.5037265625,-1.602484375,21.57782421875,7.545875,-2.2403125,1.40653125,2.19676171875,9.07744921875,4.654734375,-0.731378906250001,-0.103347656250001,6.3375078125,4.46905078125,1.08334375,1.41313671875,-0.573757812500002,4.29669921875,-1.88204296875,0.507488281249994,2.8641875,5.36664453125
16.1481328125,11.73997265625,8.03788671875001,10.06685546875,6.264796875,0.374472656249999,3.389140625,14.734171875,-0.429316406249999,3.2037265625,-0.603484374999997,22.37282421875,7.916875,-0.392312499999999,2.29153125,2.27176171875,8.82744921875,5.669734375,0.471621093749999,0.0166523437499997,6.0625078125,3.73805078125,1.52934375,2.10513671875,-0.385757812500003,3.77369921875,-2.23704296875,-0.394511718750003,3.3921875,5.56664453125
13.9371328125,9.95497265625,7.18288671875001,9.46985546875,6.968796875,0.722472656250002,3.386140625,14.804171875,0.502683593750001,4.2407265625,0.223515625000001,23.43282421875,10.591875,0.730687500000002,3.11953125,2.15476171875,8.51844921875,5.300734375,1.46462109375,0.31365234375,5.7435078125,2.38405078125,1.73534375,2.67013671875,-0.0327578125000016,3.64069921875,-2.03304296875,-1.56251171875001,3.8281875,6.13764453125
13.2051328125,9.11797265625,7.04788671875001,8.75885546875,7.236796875,0.917472656250002,3.495140625,15.576171875,0.807683593750001,4.6257265625,0.663515625000002,24.27282421875,14.372875,1.3076875,3.80153125,1.82776171874999,8.19744921875,4.218734375,2.18262109375,0.710652343749999,5.2695078125,0.755050781249999,1.79534375,3.02213671875,0.363242187499999,3.72969921875,-1.27604296875,-2.72051171875,4.1391875,6.89764453125
14.1941328125,9.61997265625,7.53888671875001,8.15885546875,7.424796875,1.19247265625,3.896140625,16.911171875,1.30368359375,4.6377265625,0.729515625000001,24.69882421875,17.666875,1.8886875,4.35453125,1.49176171874999,7.91844921875,3.614734375,2.73562109375,1.22465234375,4.6595078125,-0.48494921875,1.96234375,3.24613671874999,0.751242187499997,3.94969921875,-0.00404296874999943,-3.31751171875,4.5011875,7.75364453125
16.7711328125,11.42497265625,8.52388671875001,7.85285546875,7.691796875,1.67047265625,4.619140625,18.624171875,2.49268359375,4.4657265625,0.503515625000002,24.75782421875,19.450875,2.7896875,4.70853125,1.32276171874999,7.66844921875,4.268734375,3.15162109375,1.81865234375,4.0065078125,-0.736949218750002,2.35534375,3.42513671875,1.0662421875,4.26669921875,1.60395703125,-2.83151171875,5.1431875,8.65764453125
20.2641328125,13.82697265625,9.72088671875001,7.92585546875,7.786796875,2.15347265625,5.367140625,20.402171875,4.05368359375,4.0067265625,-0.0454843749999974,24.55682421875,19.764875,3.6876875,4.60053125,1.23576171874999,7.35244921875,5.95173437499999,3.20162109375,2.27365234375,3.3685078125,0.177050781249999,2.78234375,3.47013671874999,1.1592421875,4.62069921875,3.15895703125,-1.11451171875001,6.1601875,9.52764453125
23.5201328125,15.57797265625,10.64088671875,8.31785546875,7.235796875,2.18447265625,5.573140625,21.779171875,4.97468359375,2.9877265625,-1.079484375,24.09982421875,19.433875,3.7736875,3.67953125,0.865761718749994,6.85244921875,7.589734375,2.49362109375,2.20265234375,2.7095078125,1.92905078125,2.82834375,3.13013671874999,0.810242187499998,4.87769921875,4.17095703125,1.45548828124999,7.4301875,10.22364453125
25.2291328125,15.40497265625,10.68388671875,8.80385546875,5.786796875,1.35647265625,4.682140625,22.231171875,4.23468359375,1.2887265625,-2.731484375,23.28582421875,19.331875,2.3446875,1.75253125,-0.200238281250005,6.12744921875,8.055734375,0.785621093749999,1.26565234375,1.9535078125,3.90105078125,2.17034375,2.17313671875,-0.129757812500003,4.88069921875,4.26295703125,4.13248828124999,8.6831875,10.60164453125
24.4411328125,12.64197265625,9.36088671875001,9.07085546875,3.723796875,-0.353527343749999,2.519140625,21.396171875,1.53168359375,-0.797273437499996,-4.887484375,22.03882421875,19.767875,-0.6023125,-0.984468750000001,-2.10223828125001,5.27144921875,6.94873437499999,-1.74137890625,-0.577347656250002,1.0835078125,5.54005078125,0.84134375,0.603136718749997,-1.6007578125,4.56769921875,3.37595703125,6.14148828124999,9.6371875,10.59364453125
21.0371328125,7.63697265625,6.52188671875,8.87585546875,1.787796875,-2.48352734375,-0.473859375,19.308171875,-2.42931640625,-2.6082734375,-7.114484375,20.42882421875,20.410875,-4.2453125,-3.92446875,-4.54123828125001,4.47844921875,4.81473437499999,-4.46137890625,-2.95834765625,0.193507812499998,6.58405078125,-0.741656249999998,-1.26586328125,-3.3137578125,4.03069921875,1.80995703125,6.97548828125,10.0871875,10.23264453125
15.8361328125,1.66597265625,2.47588671875,8.20685546875,0.755796875000001,-4.29052734375,-3.341859375,16.471171875,-6.24731640625,-3.4372734375,-8.792484375,18.69882421875,20.737875,-7.3383125,-6.26146875,-6.89223828125001,3.94344921875,2.677734375,-6.57037890625,-5.21634765625,-0.545492187500003,7.05205078125,-2.02465625,-2.93686328125001,-4.8797578125,3.45669921875,0.0749570312500012,6.49948828125,9.9181875,9.58764453125
10.2241328125,-3.59602734375,-2.04811328124999,7.31085546875,1.023796875,-5.10152734375,-5.061859375,13.666171875,-8.48331640625,-2.8832734375,-9.345484375,17.17682421875,20.555875,-8.8043125,-7.28646875,-8.48523828125001,3.76744921875,1.363734375,-7.41637890625,-6.65034765625,-0.974492187500001,7.07505078125,-2.60265625,-3.94186328125,-5.9697578125,3.00769921875,-1.33904296875,4.90848828125,9.0881875,8.69964453125
5.63913281250001,-6.71102734375,-6.03711328124999,6.58885546875,2.479796875,-4.55952734375,-5.020859375,11.667171875,-8.23431640625,-0.990273437499997,-8.445484375,16.22082421875,20.137875,-8.1373125,-6.60746875,-8.85523828125001,3.92644921875,1.162734375,-6.70637890625,-6.75034765625,-1.0044921875,6.77005078125,-2.35365625,-4.00286328125,-6.4127578125,2.74069921875,-2.12104296875,2.61848828124999,7.6391875,7.58164453125
3.23213281250001,-6.89902734375,-8.36011328124999,6.41585546875,4.710796875,-2.66652734375,-3.225859375,11.050171875,-5.39631640625,1.8627265625,-6.100484375,16.18082421875,19.888875,-5.4403125,-4.22546875,-7.84923828125001,4.31044921875,1.989734375,-4.51437890625,-5.32934765625,-0.611492187500001,6.23405078125,-1.36765625,-3.07886328125,-6.1777578125,2.63169921875,-2.17004296875,0.127488281249995,5.7351875,6.30064453125
3.7451328125,-4.13002734375,-8.01711328124999,6.99485546875,7.249796875,0.280472656250002,-0.209859375000001,12.124171875,-0.695316406249999,5.1577265625,-2.680484375,17.31482421875,19.928875,-1.2913125,-0.526468749999999,-5.61523828125,4.77844921875,3.645734375,-1.21637890625,-2.57134765625,0.173507812499999,5.58105078125,0.17234375,-1.34186328125,-5.3347578125,2.63269921875,-1.55704296875,-2.13651171875,3.6451875,5.01564453125
7.3521328125,0.948972656250003,-4.52011328124999,8.29085546875,9.660796875,3.75847265625,3.176140625,14.827171875,4.49068359375,8.3337265625,1.131515625,19.59682421875,20.062875,3.3836875,3.76253125,-2.57823828125001,5.20244921875,5.83573437499999,2.57862109375,0.98165234375,1.2485078125,4.92805078125,2.01934375,0.850136718749997,-4.0377578125,2.70869921875,-0.48704296875,-3.93551171875,1.6581875,3.92564453125
13.4301328125,7.15697265625,1.69688671875001,10.03885546875,11.497796875,7.06147265625,6.007140625,18.638171875,8.51768359375,10.8127265625,4.468515625,22.57582421875,20.123875,7.4546875,7.68053125,0.614761718749996,5.50044921875,7.99773437499999,6.09662109375,4.53665234375,2.4285078125,4.33705078125,3.83234375,3.01313671875,-2.5207578125,2.82069921875,0.72795703125,-5.21851171875,-0.012812499999999,3.16764453124999
20.5201328125,13.00897265625,9.15388671875001,11.82285546875,12.333796875,9.44847265625,7.582140625,22.664171875,10.09968359375,12.0867265625,6.522515625,25.47482421875,20.241875,9.8666875,10.28453125,3.23476171874999,5.65444921875,9.333734375,8.56962109375,7.24765234375,3.4705078125,3.81205078125,5.19634375,4.65513671875,-1.0757578125,2.91969921875,1.74895703125,-5.98551171875,-1.2548125,2.76564453125
26.7381328125,17.11397265625,15.74188671875,13.19485546875,11.948796875,10.40147265625,7.692140625,25.969171875,8.90268359375,11.9257265625,6.836515625,27.53082421875,20.715875,10.0546875,10.98653125,4.71176171874999,5.71144921875,9.202734375,9.49462109375,8.49365234375,4.1675078125,3.37805078125,5.77034375,5.45513671875,0.0252421874999982,2.95969921875,2.34895703125,-6.14051171875001,-2.0088125,2.66764453125
30.4761328125,18.65197265625,19.58188671875,13.78485546875,10.518796875,9.87247265625,6.703140625,27.946171875,5.73668359375,10.5557265625,5.523515625,28.36682421875,21.613875,8.2536875,9.83053125,4.85676171874999,5.75044921875,7.612734375,8.86262109375,8.10765234375,4.4525078125,3.16905078125,5.48034375,5.41813671875,0.630242187499999,2.94369921875,2.53095703125,-5.48151171875,-2.1978125,2.83664453125
31.0271328125,17.69197265625,19.88688671875,13.39385546875,8.602796875,8.33447265625,5.336140625,28.515171875,2.12468359375,8.63372656250001,3.242515625,28.14082421875,22.548875,5.4216875,7.50053125,3.93376171875,5.83544921875,5.37573437499999,7.19662109375,6.44065234375,4.4365078125,3.39005078125,4.60934375,4.88513671875,0.770242187499999,2.96269921875,2.54695703125,-3.86551171875,-1.7348125,3.29464453125
28.8021328125,15.14297265625,17.31388671875,12.05785546875,6.899796875,6.56847265625,4.311140625,28.087171875,-0.498316406249998,6.9537265625,0.931515624999999,27.39482421875,22.822875,2.7806875,5.04553125,2.50676171875,5.97344921875,3.734734375,5.32462109375,4.21165234375,4.3485078125,4.17405078125,3.67734375,4.37213671875,0.638242187499998,3.17669921875,2.76995703125,-1.41751171875,-0.583812500000001,4.10064453124999
25.0541328125,12.31697265625,13.59288671875,10.07285546875,5.925796875,5.30047265625,4.054140625,27.357171875,-1.46431640625,6.0817265625,-0.582484375,26.72182421875,21.836875,1.2356875,3.43353125,1.17176171874999,6.10844921875,3.653734375,4.00762109375,2.21465234375,4.3975078125,5.43805078125,3.17734375,4.32413671875,0.5002421875,3.73769921875,3.49095703125,1.41848828125,1.1561875,5.27564453125
21.2441328125,10.33097265625,10.60788671875,7.93885546875,5.806796875,4.89747265625,4.587140625,26.995171875,-1.03731640625,6.1237265625,-0.891484374999997,26.45182421875,19.492875,1.0126875,3.18753125,0.304761718749994,6.16444921875,5.22273437499999,3.63362109375,1.04165234375,4.6775078125,6.85405078125,3.33034375,4.91913671875,0.586242187499998,4.69569921875,4.76295703125,4.03448828125,3.2241875,6.73264453125
18.4171328125,9.64897265625,9.44788671875001,6.22885546875,6.267796875,5.27247265625,5.590140625,27.331171875,-0.0773164062499987,6.7337265625,-0.102484375,26.52982421875,16.375875,1.6616875,4.22153125,-0.0242382812500033,6.09244921875,7.52473437499999,4.11262109375,0.92965234375,5.1345078125,7.96005078125,3.99834375,6.03113671874999,1.0212421875,5.95269921875,6.35495703125,5.92948828125,5.2531875,8.27664453125
16.9491328125,10.01197265625,9.99088671875001,5.42585546875,6.819796875,6.01147265625,6.597140625,28.235171875,0.559683593750002,7.34672656250001,1.299515625,26.62782421875,13.598875,2.3916875,5.95553125,0.0387617187499956,5.91144921875,9.110734375,5.00762109375,1.75365234375,5.6375078125,8.37305078125,4.79234375,7.32413671875,1.7892421875,7.28069921875,7.84895703125,6.90648828125,6.8671875,9.65664453125
16.7571328125,10.76997265625,11.26188671875,5.77485546875,7.043796875,6.64147265625,7.263140625,29.277171875,0.535683593750001,7.4907265625,2.704515625,26.40282421875,12.288875,2.5456875,7.61153125,0.307761718749994,5.69444921875,8.849734375,5.80062109375,3.14465234375,6.0635078125,7.97605078125,5.29634375,8.42013671874999,2.7492421875,8.40769921875,8.82295703125,7.08748828124999,7.8011875,10.65464453125
17.6521328125,11.37797265625,12.25088671875,7.17785546875,6.811796875,6.87447265625,7.528140625,30.060171875,0.166683593750001,7.0157265625,3.640515625,25.73382421875,13.008875,1.9596875,8.55253125,0.690761718749997,5.52844921875,6.62873437499999,6.15362109375,4.64465234375,6.3475078125,6.99805078125,5.28334375,9.04113671875,3.6772421875,9.08869921875,9.03695703125,6.77648828124999,7.9751875,11.16064453125
19.4871328125,11.69897265625,12.56388671875,9.18585546875,6.309796875,6.68847265625,7.554140625,30.412171875,0.114683593750001,6.1087265625,3.909515625,24.77882421875,15.463875,0.994687500000001,8.51753125,1.19476171874999,5.44744921875,3.417734375,6.00762109375,5.85765234375,6.4775078125,5.88905078125,4.80134375,9.08213671874999,4.3402421875,9.18669921875,8.52195703125,6.28248828124999,7.5171875,11.20664453125
22.0641328125,11.95997265625,12.53188671875,11.11285546875,5.842796875,6.24347265625,7.507140625,30.377171875,0.85068359375,5.1137265625,3.577515625,23.86382421875,18.641875,0.263687500000003,7.63953125,1.82176171875,5.42344921875,0.673734374999995,5.51262109375,6.53465234375,6.4565078125,5.08305078125,4.09634375,8.59313671875,4.5762421875,8.71469921875,7.52995703125,5.77848828125,6.7011875,10.93964453125
25.0511328125,12.49497265625,12.85788671875,12.30285546875,5.609796875,5.72547265625,7.372140625,30.110171875,2.28268359375,4.3137265625,2.830515625,23.29982421875,21.212875,0.2436875,6.30253125,2.45976171874999,5.39144921875,-0.462265625000004,4.86862109375,6.58165234375,6.2665078125,4.77505078125,3.44034375,7.71113671875,4.3352421875,7.85469921875,6.38595703125,5.26348828124999,5.8361875,10.53664453125
28.0211328125,13.50197265625,14.12888671875,12.38985546875,5.584796875,5.22547265625,6.944140625,29.790171875,3.75868359375,3.7867265625,1.824515625,23.22082421875,21.994875,1.0076875,4.92053125,2.86676171874999,5.28944921875,0.315734374999998,4.19162109375,6.01665234375,5.8695078125,4.88505078125,2.98734375,6.59013671875,3.6722421875,6.89969921875,5.32295703125,4.63048828125,5.1491875,10.10964453125
30.4761328125,14.88897265625,16.41788671875,11.40885546875,5.561796875,4.71647265625,5.938140625,29.531171875,4.39668359375,3.4087265625,0.613515625000002,23.51282421875,20.431875,2.1806875,3.75453125,2.74676171874999,5.08344921875,2.447734375,3.48362109375,4.92165234375,5.2305078125,5.16405078125,2.71234375,5.35013671875,2.7002421875,6.11869921875,4.40695703125,3.78348828125,4.7241875,9.64864453125
31.8401328125,16.26697265625,19.17088671875,9.71385546875,5.257796875,4.08747265625,4.168140625,29.292171875,3.50668359375,2.9527265625,-0.819484374999998,23.83282421875,16.973875,3.0866875,2.84853125,1.87576171875,4.77044921875,4.818734375,2.67762109375,3.41365234375,4.3455078125,5.35905078125,2.45334375,4.06213671875,1.5262421875,5.62269921875,3.55195703125,2.74448828125,4.5141875,9.06464453125
31.5751328125,17.07597265625,21.42088671875,7.81985546875,4.447796875,3.24247265625,1.734140625,28.903171875,0.935683593750001,2.2327265625,-2.484484375,23.75382421875,13.038875,3.0316875,2.09953125,0.203761718749995,4.38544921875,6.249734375,1.71362109375,1.62965234375,3.2475078125,5.31905078125,2.01034375,2.75113671875,0.227242187499996,5.31969921875,2.62395703125,1.68048828125,4.4151875,8.28864453125
29.4651328125,16.82697265625,22.23088671875,6.24585546875,3.091796875,2.19247265625,-0.869859375000001,28.219171875,-2.73931640625,1.2487265625,-4.291484375,22.99182421875,10.363875,1.6506875,1.39953125,-2.08823828125,4.00044921875,6.002734375,0.608621093749999,-0.258347656249999,2.0105078125,5.03405078125,1.27234375,1.44413671874999,-1.1407578125,4.99769921875,1.55295703125,0.826488281249997,4.3481875,7.36264453124999
25.8611328125,15.33797265625,21.09788671875,5.36485546875,1.450796875,1.12647265625,-2.866859375,27.256171875,-6.27131640625,0.272726562500001,-5.995484375,21.59082421875,10.046875,-0.8203125,0.77853125,-4.57223828125001,3.72344921875,4.116734375,-0.485378906250002,-2.01434765625,0.762507812499997,4.60205078125,0.313343750000001,0.240136718749998,-2.4707578125,4.50769921875,0.40795703125,0.376488281249994,4.3181875,6.46964453125
21.6621328125,12.85397265625,18.14088671875,5.26785546875,0.0747968750000005,0.374472656249999,-3.532859375,26.184171875,-8.15031640625,-0.215273437499999,-7.223484375,19.95282421875,11.953875,-3.5373125,0.42953125,-6.66123828125,3.65944921875,1.390734375,-1.27737890625,-3.33834765625,-0.314492187500001,4.16405078125,-0.59165625,-0.653863281250004,-3.5757578125,3.88969921875,-0.61804296875,0.414488281249994,4.4111875,5.87364453125
18.0021328125,9.96997265625,14.05888671875,5.73585546875,-0.429203124999997,0.255472656249999,-2.586859375,25.219171875,-7.32031640625,0.220726562500001,-7.618484375,18.64382421875,14.945875,-5.4193125,0.590531249999998,-7.80323828125,3.84044921875,-1.041265625,-1.46437890625,-3.95034765625,-1.0254921875,3.84605078125,-1.09865625,-0.983863281250002,-4.2247578125,3.36669921875,-1.30504296875,0.905488281249994,4.7331875,5.80064453125
15.8331328125,7.42997265625,9.87688671875001,6.35485546875,0.243796875000001,0.890472656250001,-0.412859375,24.512171875,-3.89531640625,1.6677265625,-7.028484375,18.09182421875,17.665875,-5.7343125,1.35453125,-7.72923828125001,4.16044921875,-2.328265625,-0.920378906250001,-3.71134765625,-1.2504921875,3.73905078125,-0.98165625,-0.575863281250005,-4.2637578125,3.20369921875,-1.53304296875,1.75148828124999,5.3191875,6.31664453125
15.5631328125,5.87597265625,6.56088671875001,6.69685546875,1.860796875,2.11347265625,2.029140625,24.081171875,0.647683593750001,3.7357265625,-5.594484375,18.36482421875,19.249875,-4.4923125,2.56453125,-6.57223828125001,4.37244921875,-2.308265625,0.20562109375,-2.69034765625,-1.0044921875,3.91605078125,-0.24865625,0.565136718749997,-3.6927578125,3.55969921875,-1.32804296875,2.84948828124999,6.0981875,7.30264453125
16.9291328125,5.65597265625,4.63388671875001,6.43385546875,3.753796875,3.57347265625,3.558140625,23.769171875,4.04068359375,5.7237265625,-3.647484375,19.18582421875,19.540875,-2.3693125,3.88653125,-4.76323828125,4.17944921875,-1.470265625,1.57162109375,-1.09934765625,-0.409492187500003,4.45105078125,0.909343750000001,2.27713671875,-2.6447578125,4.42569921875,-0.820042968750002,4.14648828125,6.9311875,8.52664453125
19.1951328125,6.74997265625,4.01888671875,5.39685546875,5.203796875,4.93247265625,3.265140625,23.302171875,4.34368359375,6.9997265625,-1.515484375,20.14182421875,18.864875,-0.239312499999997,5.00153125,-2.77223828125,3.37944921875,-0.560265625000003,2.84562109375,0.83365234375,0.387507812499997,5.39005078125,2.25934375,4.34613671875,-1.2927578125,5.67669921875,-0.149042968749999,5.64448828124999,7.7031875,9.77364453125
21.6201328125,8.82397265625,4.23288671875001,3.62985546875,5.857796875,6.02447265625,0.966140624999998,22.467171875,0.996683593750001,7.3367265625,0.616515625000002,20.94082421875,17.689875,1.3496875,5.77253125,-0.884238281250006,1.97644921875,-0.102265625000005,3.86962109375,2.94765234375,1.2805078125,6.69805078125,3.64534375,6.59913671875,0.2242421875,7.15769921875,0.589957031249998,7.34648828124999,8.3691875,10.93364453125
23.8701328125,11.37697265625,4.74788671875,1.42285546875,5.903796875,6.90747265625,-2.642859375,21.311171875,-4.80231640625,7.0207265625,2.708515625,21.54182421875,16.392875,2.4136875,6.29253125,0.861761718749996,0.20144921875,-0.130265625000003,4.69962109375,5.14365234375,2.2095078125,8.22505078125,5.00834375,8.92713671875,1.8132421875,8.73669921875,1.34795703125,9.19248828125,8.9611875,12.01464453125
23.8701328125,11.37697265625,4.74788671875,1.42285546875,5.903796875,6.90747265625,-2.642859375,21.311171875,-4.80231640625,7.0207265625,2.708515625,21.54182421875,16.392875,2.4136875,6.29253125,0.861761718749996,0.20144921875,-0.130265625000003,4.69962109375,5.14365234375,2.2095078125,8.22505078125,5.00834375,8.92713671875,1.8132421875,8.73669921875,1.34795703125,9.19248828125,8.9611875,12.01464453125
