"Fp1","Fpz","Fp2","F7","F3","Fz","F4","F8","FC5","FC1","FC2","FC6","T7","C3","Cz","C4","T8","CP5","CP1","CP2","CP6","P7","P3","Pz","P4","P8","POz","O1","Oz","O2"
1.1548515625,-0.20087109375,-5.0743046875,3.7546015625,9.63336328125,-1.58179296875,-5.57388671875,-1.630953125,1.75546484375,0.7299296875,10.63098828125,7.73403125,-10.072,-1.9426875,4.12849609375,12.898015625,9.59012890625,-0.824402343749999,3.36855859375,7.49775390625,13.15058203125,-0.91080859375,3.92730859375,13.78611328125,12.3448828125,3.7743125,5.0244921875,7.92332421875,4.40396484375,12.66334765625
-0.0661484375,-0.98987109375,-4.8283046875,1.4926015625,5.22536328125,-2.90979296875,-6.68688671875,-1.757953125,-1.28653515625,-1.3640703125,9.62698828125,9.15303125,-12.393,-3.6866875,3.99349609375,14.458015625,11.91712890625,-2.87440234375,3.49755859375,9.13075390625,15.56958203125,-2.43580859375,3.28930859375,14.85211328125,13.6088828125,5.2133125,5.4254921875,6.83132421875,3.51296484375,12.51234765625
-1.7191484375,-1.82687109375,-4.8363046875,-0.5543984375,2.18136328125,-3.95679296875,-7.57788671875,-1.821953125,-4.18453515625,-2.8750703125,8.50398828125,9.79703125,-13.63,-4.9446875,3.99249609375,15.253015625,12.65912890625,-4.48140234375,3.84555859375,10.16975390625,16.83558203125,-3.61880859375,2.76030859375,15.72911328125,14.5068828125,6.5623125,5.1754921875,5.75332421875,2.47296484375,12.28034765625
-3.5841484375,-2.42887109375,-5.0043046875,-1.9813984375,0.937363281250001,-4.37979296875,-8.08288671875,-1.769953125,-6.37053515625,-3.4730703125,7.46998828125,9.75003125,-13.683,-5.2836875,4.31249609375,15.344015625,11.89812890625,-5.14140234375,4.60155859375,10.66775390625,17.02158203125,-3.95680859375,2.76430859375,16.47211328125,15.0468828125,7.9943125,4.5294921875,5.00832421875,1.59796484375,12.11834765625
-5.2301484375,-2.51687109375,-5.1953046875,-2.3863984375,1.52536328125,-3.97879296875,-8.16688671875,-1.605953125,-7.24153515625,-3.0480703125,6.72598828125,9.24303125,-12.742,-4.4346875,5.00549609375,14.915015625,10.19312890625,-4.42840234375,5.81055859375,10.74175390625,16.44358203125,-2.98580859375,3.68130859375,17.08811328125,15.2018828125,9.5593125,3.9254921875,4.87932421875,1.21096484375,12.11334765625
-6.2391484375,-2.04587109375,-5.3553046875,-1.6363984375,3.47036328125,-2.90979296875,-8.00988671875,-1.460953125,-6.53753515625,-1.8580703125,6.28698828125,8.43803125,-11.163,-2.5256875,5.86449609375,14.077015625,8.20112890625,-2.28040234375,7.26855859375,10.41275390625,15.36858203125,-0.57180859375,5.54830859375,17.45111328125,14.8158828125,10.9623125,3.7004921875,5.40032421875,1.40896484375,12.16534765625
-6.4201484375,-1.27887109375,-5.5643046875,-0.00139843749999979,5.89336328125,-1.67979296875,-7.99788671875,-1.626953125,-4.53453515625,-0.4640703125,5.94598828125,7.30503125,-9.338,-0.0806874999999998,6.48049609375,12.794015625,6.32412890625,0.90259765625,8.59555859375,9.58475390625,13.83758203125,2.95319140625,7.99230859375,17.36511328125,13.6748828125,11.6113125,3.9514921875,6.37232421875,2.04196484375,12.03934765625
-5.9021484375,-0.67687109375,-5.9963046875,1.9176015625,7.80136328125,-0.949792968750001,-8.58688671875,-2.480953125,-1.94053515625,0.5069296875,5.37298828125,5.67303125,-7.603,2.1873125,6.45649609375,10.973015625,4.56612890625,4.37159765625,9.42755859375,8.17675390625,11.73658203125,6.85719140625,10.40830859375,16.72511328125,11.7138828125,10.9013125,4.5994921875,7.56432421875,2.90296484375,11.57034765625
-5.0561484375,-0.68787109375,-6.8173046875,3.4316015625,8.46136328125,-1.25079296875,-10.11188671875,-4.291953125,0.40346484375,0.6279296875,4.28898828125,3.37503125,-6.196,3.6513125,5.60549609375,8.600015625,2.66812890625,7.28659765625,9.59155859375,6.24775390625,8.98958203125,10.25019140625,12.23630859375,15.63611328125,9.1658828125,8.5773125,5.5404921875,8.90732421875,3.93196484375,10.84234765625
-4.3051484375,-1.51287109375,-8.0483046875,4.0436015625,7.65636328125,-2.74379296875,-12.60088671875,-7.001953125,1.84546484375,-0.1570703125,2.62098828125,0.452031249999999,-5.207,3.9883125,4.06149609375,5.860015625,0.40512890625,8.98759765625,9.16655859375,4.06275390625,5.76958203125,12.39019140625,13.20130859375,14.42611328125,6.5578828125,4.9663125,6.7674921875,10.54332421875,5.30596484375,10.21834765625
-3.9131484375,-2.97387109375,-9.4553046875,3.6466015625,5.73736328125,-5.09379296875,-15.66788671875,-10.118953125,2.13546484375,-1.5150703125,0.600988281250002,-2.70796875,-4.541,3.2853125,2.25049609375,3.171015625,-2.13387109375,9.19459765625,8.45655859375,2.05175390625,2.56858203125,12.96319140625,13.41730859375,13.55111328125,4.5438828125,0.932312499999999,8.3934921875,12.71032421875,7.35796484375,10.21534765625
-3.8711484375,-4.51987109375,-10.5583046875,2.5476015625,3.46836328125,-7.52779296875,-18.54588671875,-12.800953125,1.46346484375,-2.8390703125,-1.24401171875,-5.38996875,-3.95,1.9993125,0.768496093749999,1.106015625,-4.47087109375,8.09259765625,7.87555859375,0.699753906250001,0.084582031250001,12.20419140625,13.31130859375,13.43311328125,3.6598828125,-2.4186875,10.5664921875,15.55632421875,10.37896484375,11.27834765625
-3.9351484375,-5.45387109375,-10.7973046875,1.3136015625,1.74236328125,-9.10579296875,-20.30088671875,-14.137953125,0.34146484375,-3.4760703125,-2.26701171875,-6.79796875,-3.171,0.7873125,0.166496093749998,0.212015625000001,-5.91987109375,6.25059765625,7.79855859375,0.381753906249999,-1.05341796875,10.76319140625,13.40130859375,14.30111328125,4.1198828125,-4.1776875,13.3304921875,18.97432421875,14.38596484375,13.57234765625
-3.7801484375,-5.24687109375,-9.8123046875,0.5076015625,1.25436328125,-9.10879296875,-20.19888671875,-13.535953125,-0.61253515625,-2.9850703125,-1.98601171875,-6.41896875,-2.111,0.2563125,0.739496093749999,0.805015625000001,-5.94887109375,4.40059765625,8.41955859375,1.22375390625,-0.563417968749999,9.38619140625,14.03830859375,16.08211328125,5.7488828125,-3.9826875,16.5014921875,22.53532421875,18.96796484375,16.85034765625
-3.2001484375,-3.80087109375,-7.6723046875,0.4546015625,2.25236328125,-7.34879296875,-18.07188671875,-11.040953125,-0.90753515625,-1.3190703125,-0.348011718749998,-4.29496875,-0.928,0.7373125,2.39449609375,2.827015625,-4.51687109375,3.15859765625,9.66755859375,3.03975390625,1.34858203125,8.57819140625,15.23930859375,18.40711328125,8.0738828125,-2.1106875,19.6424921875,25.54432421875,23.33096484375,20.48834765625
-2.2301484375,-1.49687109375,-4.8973046875,1.1396015625,4.46836328125,-4.25379296875,-14.43388671875,-7.395953125,-0.34753515625,1.1509296875,2.21098828125,-1.05396875,0.0680000000000001,2.1753125,4.68849609375,5.857015625,-2.16287109375,2.80059765625,11.24555859375,5.40175390625,4.08558203125,8.41919140625,16.70030859375,20.74711328125,10.5308828125,0.705312499999999,22.1844921875,27.24132421875,26.54596484375,23.67334765625
-1.1101484375,1.00112890625,-2.2403046875,2.2866015625,7.29636328125,-0.653792968750001,-10.24188671875,-3.733953125,0.93846484375,3.8229296875,4.99798828125,2.35503125,0.622,4.2073125,7.04649609375,9.267015625,0.24712890625,3.23859765625,12.77755859375,7.81775390625,6.93558203125,8.63119140625,17.97830859375,22.63211328125,12.6918828125,3.6383125,23.6714921875,27.10332421875,27.92096484375,25.71134765625
-0.0981484375,3.12112890625,-0.2793046875,3.5836015625,10.15136328125,2.67420703125,-6.37288671875,-1.027953125,2.64846484375,6.2019296875,7.47798828125,5.13703125,0.722,6.4253125,9.08549609375,12.506015625,2.00812890625,4.21359765625,14.05555859375,9.99575390625,9.43458203125,8.85219140625,18.78830859375,23.91111328125,14.4578828125,6.1443125,24.0274921875,25.12832421875,27.33596484375,26.32434765625
0.7878515625,4.71912890625,0.9406953125,4.9186015625,12.81836328125,5.45020703125,-3.13988671875,0.383046875,4.57246484375,8.2249296875,9.64198828125,7.07303125,0.655,8.6753125,10.88149609375,15.386015625,3.00112890625,5.59259765625,15.24255859375,12.04075390625,11.60358203125,8.96019140625,19.24830859375,24.90111328125,16.1108828125,8.1583125,23.6824921875,21.97032421875,25.34296484375,25.77834765625
1.8698515625,6.14712890625,1.9506953125,6.4566015625,15.54636328125,8.03220703125,-0.16688671875,0.910046875,6.76146484375,10.3359296875,12.02298828125,8.62603125,0.867,11.1783125,12.96049609375,18.145015625,3.75512890625,7.50359765625,16.84455859375,14.41175390625,13.89958203125,9.19519140625,19.84930859375,26.27211328125,18.1388828125,9.9843125,23.3864921875,18.72432421875,22.92296484375,24.71134765625
3.6288515625,7.96312890625,3.5006953125,8.4726015625,18.80336328125,11.09720703125,3.25011328125,1.376046875,9.42646484375,13.1769296875,15.29898828125,10.56903125,1.693,14.2963125,15.93849609375,21.202015625,5.05612890625,10.16559765625,19.37655859375,17.57275390625,16.81358203125,9.95119140625,21.10530859375,28.61611328125,20.8648828125,11.9353125,23.7334921875,16.38432421875,20.92696484375,23.71634765625
6.3228515625,10.45412890625,6.0026953125,11.0436015625,22.83136328125,15.05520703125,7.53611328125,2.451046875,12.64746484375,17.0739296875,19.70898828125,13.37803125,3.085,18.1193125,20.01049609375,24.723015625,7.36612890625,13.52159765625,22.89755859375,21.52675390625,20.37558203125,11.39419140625,23.07230859375,31.93711328125,24.0788828125,13.9633125,24.6774921875,15.26432421875,19.53596484375,22.91734765625
9.6618515625,13.33912890625,9.1486953125,13.8286015625,27.29636328125,19.63020703125,12.38811328125,4.203046875,16.09746484375,21.6509296875,24.69498828125,16.80403125,4.567,22.1513125,24.63649609375,28.325015625,10.44212890625,16.97559765625,26.75355859375,25.57775390625,23.92558203125,13.19919140625,25.12930859375,35.42311328125,26.9638828125,15.5823125,25.4064921875,14.77132421875,18.10396484375,21.84334765625
12.7978515625,15.82512890625,11.9806953125,16.1216015625,31.27936328125,23.86720703125,16.79111328125,6.027046875,19.02646484375,25.8549296875,29.02698828125,19.91303125,5.464,25.3813125,28.64949609375,31.115015625,13.40712890625,19.47959765625,29.72855859375,28.50375390625,26.32858203125,14.63819140625,26.18630859375,37.69811328125,28.4008828125,16.1143125,24.7194921875,13.73132421875,15.53796484375,19.71334765625
14.6658515625,16.99712890625,13.3556953125,17.1616015625,33.64136328125,26.54420703125,19.49011328125,6.997046875,20.54146484375,28.3819296875,31.32798828125,21.53703125,5.274,26.6923125,30.72749609375,32.048015625,15.18112890625,19.95659765625,30.55655859375,29.07675390625,26.51158203125,14.94219140625,25.23130859375,37.43511328125,27.4898828125,15.0843125,21.7004921875,11.09732421875,11.01496484375,15.96134765625
14.4758515625,16.28012890625,12.5316953125,16.5246015625,33.56536328125,26.73820703125,19.62411328125,6.391046875,20.03046484375,28.2799296875,30.70898828125,20.85003125,3.954,25.4043125,29.96649609375,30.399015625,15.01812890625,17.84459765625,28.50855859375,26.62975390625,23.99258203125,13.74219140625,21.90130859375,34.00511328125,23.9938828125,12.4873125,16.2954921875,6.63432421875,4.60096484375,10.68834765625
12.0928515625,13.72912890625,9.5556953125,14.3436015625,30.95536328125,24.24820703125,17.13811328125,4.085046875,17.49546484375,25.4029296875,27.16998828125,17.77003125,1.931,21.6413125,26.27449609375,26.127015625,12.83212890625,13.46759765625,23.75955859375,21.39075390625,19.13658203125,11.31819140625,16.75930859375,27.82911328125,18.4868828125,8.8173125,9.4664921875,1.18632421875,-2.57703515625,4.77034765625
8.1108515625,10.00012890625,5.2516953125,11.2456015625,26.50236328125,19.68720703125,12.78011328125,0.572046875,13.59946484375,20.4849296875,21.56798828125,12.98403125,-0.153,16.3323125,20.42149609375,19.941015625,9.17612890625,7.99959765625,17.35055859375,14.42675390625,13.02358203125,8.52319140625,11.11530859375,20.24411328125,12.1378828125,4.8623125,2.8314921875,-3.64367578125,-8.73403515625,-0.454652343749999
3.6078515625,6.03812890625,0.8236953125,8.0766015625,21.37936328125,14.21220703125,7.71411328125,-3.327953125,9.41946484375,14.8089296875,15.22898828125,7.63103125,-1.773,10.8263125,13.70849609375,13.050015625,4.92312890625,3.01559765625,10.75555859375,7.20675390625,6.99258203125,6.38819140625,6.46330859375,12.95711328125,6.2618828125,1.3773125,-2.0125078125,-6.24467578125,-12.20503515625,-3.76765234375
-0.2691484375,2.67712890625,-2.7063046875,5.5736015625,16.77736328125,9.03420703125,3.02911328125,-6.851953125,6.02746484375,9.6609296875,9.41298828125,2.82203125,-2.721,6.3373125,7.46249609375,6.702015625,0.89412890625,-0.15240234375,5.28855859375,1.03675390625,2.12258203125,5.63419140625,3.84030859375,7.35111328125,1.8288828125,-1.1916875,-4.1365078125,-5.77067578125,-12.19103515625,-4.59565234375
-2.7101484375,0.34612890625,-4.8953046875,4.1296015625,13.47936328125,4.97620703125,-0.62288671875,-9.563953125,4.09246484375,5.8739296875,4.91998828125,-0.746968750000001,-3.08,3.5153125,2.59149609375,1.776015625,-2.37687109375,-0.928402343749999,1.65055859375,-3.35624609375,-1.10741796875,6.37919140625,3.43930859375,4.00711328125,-0.805117187499999,-2.8296875,-3.5735078125,-2.52267578125,-9.08203515625,-3.23365234375
-3.4791484375,-0.97987109375,-5.9343046875,3.7076015625,11.65436328125,2.29820703125,-3.10888671875,-11.438953125,3.68146484375,3.6439296875,1.97098828125,-2.92396875,-3.065,2.3193125,-0.604503906250001,-1.420984375,-4.69187109375,0.363597656250001,-0.190441406249999,-5.90924609375,-2.83441796875,8.15819140625,4.67230859375,2.65911328125,-1.8941171875,-3.8786875,-1.1655078125,2.24832421875,-4.20703515625,-0.65665234375
-2.9271484375,-1.63687109375,-6.3863046875,3.9086015625,10.90936328125,0.784207031249999,-4.67588671875,-12.777953125,4.28746484375,2.6469296875,0.338988281250002,-4.01996875,-2.873,2.1923125,-2.35750390625,-3.103984375,-6.12587109375,2.73559765625,-0.786441406249999,-7.03824609375,-3.60541796875,10.19719140625,6.56330859375,2.52111328125,-2.0671171875,-4.8426875,1.8974921875,6.95232421875,0.799964843750001,1.93134765625
-1.7921484375,-2.05187109375,-6.8163046875,4.1706015625,10.58536328125,-0.00679296875000146,-5.69688671875,-14.008953125,5.09746484375,2.3179296875,-0.394011718749999,-4.58496875,-2.62,2.4183125,-3.16750390625,-3.804984375,-6.91987109375,5.02759765625,-0.821441406249999,-7.32424609375,-4.07141796875,11.76919140625,8.24530859375,2.78511328125,-1.9971171875,-6.1636875,4.6024921875,10.32532421875,4.66096484375,3.57934765625
-0.8391484375,-2.50887109375,-7.4793046875,4.0416015625,10.14136328125,-0.438792968750001,-6.41488671875,-15.418953125,5.37946484375,2.1799296875,-0.580011718749999,-5.12096875,-2.331,2.4823125,-3.47850390625,-4.071984375,-7.32487109375,6.42559765625,-0.722441406249999,-7.21424609375,-4.67141796875,12.49219140625,9.32630859375,3.04511328125,-2.0811171875,-8.0166875,6.5014921875,11.90232421875,6.89496484375,3.94334765625
-0.4731484375,-2.98287109375,-8.1823046875,3.4416015625,9.46936328125,-0.568792968750001,-6.76888671875,-16.940953125,4.87046484375,2.1009296875,-0.318011718749998,-5.79296875,-1.921,2.3433125,-3.40650390625,-4.144984375,-7.39687109375,6.80859765625,-0.431441406249998,-6.80324609375,-5.38941796875,12.49419140625,10.02230859375,3.48511328125,-2.2341171875,-10.1566875,7.8604921875,12.13332421875,7.90096484375,3.40534765625
-0.5271484375,-3.09487109375,-8.3603046875,2.7446015625,8.96936328125,-0.0907929687500011,-6.38188671875,-18.080953125,3.93146484375,2.3589296875,0.596988281250001,-6.26196875,-1.22,2.4443125,-2.66250390625,-3.794984375,-6.84887109375,6.75059765625,0.552558593750001,-5.79024609375,-5.70041796875,12.36719140625,10.99030859375,4.75511328125,-1.8771171875,-11.8936875,9.4854921875,12.11832421875,8.70896484375,2.93534765625
-0.3801484375,-2.30887109375,-7.3683046875,2.5926015625,9.30936328125,1.45320703125,-4.75688671875,-18.083953125,3.34646484375,3.4569296875,2.51298828125,-5.83396875,-0.0859999999999999,3.4373125,-0.773503906250001,-2.455984375,-5.15687109375,7.15559765625,2.83055859375,-3.67724609375,-4.81441796875,12.86419140625,12.90430859375,7.54811328125,-0.226117187499998,-12.2976875,12.2704921875,13.03432421875,10.44396484375,3.68834765625
0.6068515625,-0.28687109375,-4.8893046875,3.5056015625,10.96936328125,4.27920703125,-1.64788671875,-16.326953125,3.83846484375,5.7409296875,5.61098828125,-3.88696875,1.408,5.7053125,2.50449609375,0.362015625000002,-1.91787109375,8.68759765625,6.60655859375,-0.159246093749999,-2.14241796875,14.44819140625,15.96130859375,12.08011328125,3.2328828125,-10.6076875,16.6064921875,15.46232421875,13.70496484375,6.44934765625
2.6308515625,2.80612890625,-1.2043046875,5.5136015625,13.82936328125,8.04420703125,2.63111328125,-12.751953125,5.58546484375,9.0469296875,9.60998828125,-0.329968750000001,2.904,9.0043125,6.83649609375,4.640015625,2.73312890625,11.31659765625,11.35655859375,4.53775390625,2.26458203125,16.94519140625,19.59630859375,17.77111328125,8.3248828125,-6.6426875,22.0024921875,18.97032421875,18.13796484375,11.16734765625
5.2738515625,6.29612890625,2.8806953125,8.0696015625,17.10936328125,11.88320703125,7.20511328125,-8.033953125,8.07746484375,12.6629296875,13.75098828125,4.24003125,3.92,12.4753125,11.31449609375,9.709015625,7.99312890625,14.28259765625,15.91655859375,9.60575390625,7.64058203125,19.58419140625,22.63930859375,23.36711328125,14.1328828125,-0.968687500000001,27.1434921875,22.21632421875,22.46796484375,16.86134765625
7.7298515625,9.30812890625,6.4366953125,10.3166015625,19.73136328125,14.79720703125,11.01511328125,-3.298953125,10.39846484375,15.6389296875,17.11098828125,8.79503125,4.169,15.0573125,14.84549609375,14.516015625,12.66912890625,16.49859765625,18.99055859375,13.95775390625,12.81458203125,21.38119140625,23.84130859375,27.44911328125,19.3368828125,5.2913125,30.4194921875,23.54532421875,25.01196484375,21.96234765625
9.2468515625,11.18712890625,8.8506953125,11.5196015625,20.89036328125,16.14220703125,13.34211328125,0.417046875,11.71046484375,17.2429296875,19.04698828125,12.35903125,3.751,16.0163125,16.66249609375,18.107015625,15.70912890625,17.13259765625,19.75955859375,16.70075390625,16.71658203125,21.63519140625,22.47130859375,29.02111328125,22.7448828125,10.8503125,30.5964921875,21.76032421875,24.38496484375,24.90434765625
9.4848515625,11.74912890625,10.0176953125,11.4106015625,20.44136328125,15.90420703125,14.12111328125,2.601046875,11.66446484375,17.2889296875,19.48198828125,14.42403125,3.078,15.2843125,16.63749609375,20.003015625,16.64412890625,16.01459765625,18.22255859375,17.46975390625,18.75758203125,20.22219140625,18.66530859375,27.86011328125,23.6908828125,14.6643125,27.2894921875,16.64932421875,20.05796484375,24.67234765625
8.6318515625,11.27712890625,10.2366953125,10.2556015625,18.90636328125,14.65920703125,13.87011328125,3.347046875,10.51646484375,16.1619296875,18.86798828125,15.08103125,2.579,13.4343125,15.24349609375,20.306015625,15.73112890625,13.66059765625,15.13355859375,16.47775390625,18.93058203125,17.56419140625,13.36830859375,24.48211328125,22.1668828125,16.2053125,21.0394921875,9.06132421875,12.53796484375,21.08734765625
7.2508515625,10.30712890625,9.9456953125,8.6936015625,17.15836328125,13.25020703125,13.34011328125,3.135046875,8.96646484375,14.5829296875,17.88298828125,14.86603125,2.431,11.3683125,13.23649609375,19.514015625,13.75812890625,10.96659765625,11.60055859375,14.29975390625,17.65858203125,14.36819140625,7.94930859375,19.84111328125,18.6958828125,15.5373125,13.0574921875,0.566324218750001,3.17196484375,14.79134765625
5.9558515625,9.33612890625,9.4836953125,7.4086015625,15.98136328125,12.35620703125,13.09611328125,2.534046875,7.78046484375,13.2449296875,17.03798828125,14.40503125,2.465,9.8623125,11.25249609375,18.197015625,11.65912890625,8.75159765625,8.57755859375,11.55175390625,15.53558203125,11.26919140625,3.65130859375,14.92211328125,14.0708828125,13.2053125,4.7964921875,-7.10167578125,-6.30703515625,7.01534765625
5.0848515625,8.59712890625,8.9596953125,6.7986015625,15.70336328125,12.15020703125,13.22611328125,1.946046875,7.40746484375,12.4599296875,16.39898828125,14.06303125,2.282,9.2013125,9.51449609375,16.715015625,10.10912890625,7.38759765625,6.49055859375,8.62975390625,13.06458203125,8.60219140625,1.14830859375,10.41711328125,9.0888828125,9.9663125,-2.4455078125,-12.58267578125,-14.27303515625,-0.799652343749997
4.5488515625,7.96812890625,8.2536953125,6.7886015625,16.05136328125,12.22020703125,13.30011328125,1.443046875,7.74946484375,12.0129296875,15.54698828125,13.75403125,1.498,9.0763125,7.79149609375,15.105015625,9.25512890625,6.69359765625,5.14455859375,5.62275390625,10.52358203125,6.38219140625,0.37930859375,6.60011328125,4.3698828125,6.4923125,-7.8025078125,-15.22267578125,-19.61303515625,-7.37865234375
3.9328515625,7.08012890625,7.1216953125,6.8866015625,16.31636328125,11.79220703125,12.60511328125,0.765046875,8.23746484375,11.2849296875,13.81098828125,13.02803125,-0.0369999999999999,8.7793125,5.60449609375,13.138015625,8.71412890625,6.12959765625,3.92655859375,2.40075390625,7.95758203125,4.48319140625,0.730308593750001,3.40011328125,0.2798828125,3.1723125,-10.9375078125,-15.08967578125,-21.90103515625,-11.89765234375
2.7708515625,5.53612890625,5.3606953125,6.4706015625,15.73536328125,10.15620703125,10.55411328125,-0.516953125,8.14246484375,9.5939296875,10.67098828125,11.35403125,-2.174,7.6033125,2.54249609375,10.495015625,7.83212890625,5.15459765625,2.18655859375,-1.19924609375,5.26158203125,2.85819140625,1.40930859375,0.607113281250001,-3.0561171875,0.107312499999999,-11.9875078125,-12.76667578125,-21.35003515625,-14.07365234375
0.8008515625,3.16112890625,2.9306953125,5.1306015625,13.89636328125,7.05520703125,7.05011328125,-2.744953125,6.95646484375,6.5799296875,6.10898828125,8.44003125,-4.559,5.2253125,-1.46650390625,6.970015625,6.04612890625,3.53559765625,-0.409441406249998,-5.20624609375,2.31558203125,1.63219140625,1.83030859375,-1.91688671875,-5.6721171875,-2.7336875,-11.3935078125,-9.03467578125,-18.59403515625,-14.09065234375
-1.9081484375,0.13812890625,0.0166953125,2.8936015625,10.92836328125,2.85520703125,2.59011328125,-5.978953125,4.64946484375,2.4309296875,0.71598828125,4.44303125,-6.78,1.8973125,-6.06250390625,2.623015625,3.16612890625,1.46559765625,-3.69544140625,-9.42124609375,-0.88241796875,1.04219140625,1.83330859375,-4.11588671875,-7.6641171875,-5.3276875,-9.7015078125,-4.62267578125,-14.43003515625,-12.41465234375
-4.9551484375,-3.00587109375,-2.9943046875,0.2246015625,7.44136328125,-1.55379296875,-1.90488671875,-9.906953125,1.70246484375,-2.1280703125,-4.48001171875,-0.0329687500000011,-8.467,-1.6386875,-10.54450390625,-2.147984375,-0.53187109375,-0.54140234375,-7.05444140625,-13.41524609375,-4.14341796875,1.28119140625,1.66230859375,-5.74788671875,-9.0971171875,-7.4846875,-7.3845078125,-0.0846757812499987,-9.59003515625,-9.59565234375
-7.7041484375,-5.58487109375,-5.5773046875,-2.1643984375,4.28636328125,-5.09179296875,-5.43388671875,-13.864953125,-1.08353515625,-6.0890703125,-8.39701171875,-4.12996875,-9.34,-4.4556875,-14.09850390625,-6.667984375,-4.40587109375,-1.88340234375,-9.66544140625,-16.61924609375,-7.08041796875,2.36719140625,1.77230859375,-6.49488671875,-9.9411171875,-8.8856875,-4.7535078125,4.20832421875,-4.62803515625,-6.12565234375
-9.4691484375,-7.00487109375,-7.1943046875,-3.6063984375,2.23736328125,-6.90179296875,-7.26688671875,-16.977953125,-2.90753515625,-8.5490703125,-10.28501171875,-7.02196875,-9.24,-5.8216875,-16.06550390625,-10.153984375,-7.68287109375,-2.11240234375,-10.83444140625,-18.46424609375,-9.19841796875,4.11219140625,2.56230859375,-6.11188671875,-10.0561171875,-9.2146875,-1.9565078125,8.01432421875,0.0929648437500017,-2.35965234375
-9.7521484375,-6.98687109375,-7.4753046875,-3.7363984375,1.71036328125,-6.66079296875,-7.17488671875,-18.453953125,-3.28153515625,-9.0460703125,-9.97001171875,-8.17396875,-8.161,-5.4756875,-16.15650390625,-11.922984375,-9.71187109375,-1.07640234375,-10.25044140625,-18.53124609375,-10.03441796875,6.22319140625,4.19430859375,-4.53388671875,-9.2211171875,-8.2856875,0.968492187499999,11.18532421875,4.36096484375,1.48134765625
-8.4421484375,-5.65287109375,-6.3823046875,-2.5943984375,2.64636328125,-4.65379296875,-5.47188671875,-17.916953125,-2.17253515625,-7.7000703125,-7.85701171875,-7.48896875,-6.275,-3.6696875,-14.51450390625,-11.580984375,-10.15687109375,1.07159765625,-8.06144140625,-16.68024609375,-9.29341796875,8.45519140625,6.56130859375,-1.89888671875,-7.2121171875,-6.1216875,4.0244921875,13.64432421875,8.05196484375,5.25034765625
-5.8711484375,-3.44187109375,-4.2573046875,-0.5553984375,4.60136328125,-1.60079296875,-2.85288671875,-15.589953125,0.0464648437499999,-5.1080703125,-4.70501171875,-5.30096875,-3.908,-0.9916875,-11.62950390625,-9.142984375,-9.06887109375,3.95959765625,-4.78544140625,-13.11724609375,-6.96141796875,10.69919140625,9.36930859375,1.49211328125,-3.9421171875,-2.9726875,7.1924921875,15.37032421875,11.07696484375,8.81034765625
-2.6981484375,-0.92687109375,-1.7173046875,1.8666015625,6.99836328125,1.66020703125,-0.0918867187499997,-12.183953125,2.79946484375,-2.0530703125,-1.32201171875,-2.24896875,-1.48,1.8903125,-8.14850390625,-5.087984375,-6.81387109375,7.10559765625,-1.09944140625,-8.39924609375,-3.34941796875,12.90819140625,12.25930859375,5.23111328125,0.383882812500001,0.705312499999999,10.3654921875,16.37232421875,13.33496484375,11.96734765625
0.3018515625,1.37312890625,0.5766953125,4.1936015625,9.35236328125,4.46720703125,2.21211328125,-8.611953125,5.50246484375,0.7799296875,1.67098828125,0.918031249999999,0.546,4.4403125,-4.69350390625,-0.300984374999999,-3.94887109375,9.97959765625,2.33355859375,-3.37424609375,0.905582031250001,14.91919140625,14.85530859375,8.82811328125,5.1638828125,4.2923125,13.2644921875,16.62632421875,14.66696484375,14.42534765625
2.4408515625,3.08312890625,2.0936953125,6.0426015625,11.33236328125,6.48020703125,3.73211328125,-5.753953125,7.66846484375,2.9509296875,3.89698828125,3.50003125,1.706,6.3083125,-1.77950390625,4.071015625,-1.13387109375,12.00559765625,4.94755859375,0.936753906250001,4.89758203125,16.29319140625,16.74130859375,11.70011328125,9.4098828125,7.0723125,15.3864921875,16.01432421875,14.83596484375,15.75934765625
3.2678515625,3.95912890625,2.5316953125,7.1166015625,12.69636328125,7.62720703125,4.34511328125,-4.294953125,8.92646484375,4.2389296875,5.14698828125,4.94003125,1.601,7.2623125,0.182496093749998,6.867015625,0.90612890625,12.59359765625,6.28055859375,3.52675390625,7.59958203125,16.37619140625,17.42630859375,13.21611328125,11.9608828125,8.3523125,16.0474921875,14.31432421875,13.55796484375,15.48534765625
2.6618515625,3.86912890625,1.8556953125,7.2026015625,13.23336328125,7.96920703125,4.05711328125,-4.586953125,9.03246484375,4.5469296875,5.30398828125,4.91003125,0.0320000000000005,7.1283125,0.890496093749999,7.251015625,1.50612890625,11.28359765625,5.99855859375,3.68075390625,8.16658203125,14.60719140625,16.43730859375,12.85811328125,11.8788828125,7.6833125,14.6274921875,11.34132421875,10.67496484375,13.27134765625
0.8848515625,2.83112890625,0.3196953125,6.2426015625,12.78436328125,7.58720703125,2.97411328125,-6.496953125,7.93246484375,3.8669296875,4.35498828125,3.43003125,-2.843,5.8203125,0.236496093749999,5.066015625,0.30712890625,7.97859765625,4.00555859375,1.30175390625,6.32258203125,10.91419140625,13.55130859375,10.48311328125,8.9178828125,5.1353125,10.9354921875,7.19232421875,6.39496484375,9.25634765625
-1.4911484375,1.06712890625,-1.5753046875,4.4176015625,11.31236328125,6.56120703125,1.30911328125,-9.405953125,5.81646484375,2.3039296875,2.45298828125,0.92903125,-6.471,3.4373125,-1.59650390625,0.997015625000001,-2.49387109375,3.11959765625,0.575558593750001,-2.93024609375,2.60558203125,5.90719140625,9.03930859375,6.51811328125,3.7748828125,1.4593125,5.4794921875,2.41932421875,1.44596484375,4.22734765625
-3.7831484375,-1.02487109375,-3.2633046875,2.1396015625,8.94236328125,4.96520703125,-0.66588671875,-12.427953125,3.08346484375,0.0949296875000005,-0.0970117187499984,-1.86796875,-10.039,0.3193125,-4.14150390625,-3.644984375,-6.14087109375,-2.36640234375,-3.65144140625,-7.74124609375,-1.76541796875,0.70219140625,3.70130859375,1.88311328125,-2.0941171875,-2.0776875,-0.5935078125,-2.07067578125,-3.07503515625,-0.542652343749999
-5.4851484375,-3.01687109375,-4.3643046875,-0.0823984375000002,5.95636328125,2.86620703125,-2.70488671875,-14.745953125,0.21946484375,-2.4420703125,-2.93501171875,-4.22696875,-12.737,-3.0206875,-6.82450390625,-7.480984375,-9.59687109375,-7.34240234375,-7.84044140625,-11.77624609375,-5.39341796875,-3.52880859375,-1.38369140625,-2.36088671875,-7.0601171875,-4.1886875,-5.9135078125,-5.36367578125,-6.11203515625,-3.78865234375
-6.4451484375,-4.59787109375,-4.8563046875,-1.8193984375,2.76636328125,0.347207031249999,-4.65188671875,-15.883953125,-2.34553515625,-4.9820703125,-5.76101171875,-5.70096875,-14.024,-6.0306875,-9.19850390625,-9.656984375,-11.93987109375,-10.83140234375,-11.23844140625,-14.16324609375,-7.30541796875,-6.00280859375,-5.24269140625,-5.42988671875,-10.0031171875,-4.1656875,-9.4235078125,-6.92667578125,-7.10703515625,-4.80165234375
-6.8441484375,-5.62887109375,-5.0093046875,-2.8463984375,-0.133636718749999,-2.41479296875,-6.42188671875,-15.795953125,-4.28053515625,-7.2340703125,-8.36101171875,-6.22796875,-13.806,-8.2366875,-11.05550390625,-10.133984375,-12.65887109375,-12.29940234375,-13.37844140625,-14.79824609375,-7.30841796875,-6.55980859375,-7.32769140625,-7.04688671875,-10.6951171875,-2.2096875,-10.7415078125,-6.77767578125,-6.20803515625,-3.70565234375
-6.9781484375,-6.08587109375,-5.1303046875,-3.1593984375,-2.25463671875,-5.05279296875,-7.92688671875,-14.786953125,-5.33953515625,-8.9260703125,-10.53101171875,-6.01696875,-12.431,-9.3096875,-12.36050390625,-9.530984375,-11.73987109375,-11.74940234375,-14.13544140625,-14.22024609375,-5.94141796875,-5.59280859375,-7.60469140625,-7.40488671875,-9.7281171875,0.697312499999999,-10.1945078125,-5.37867578125,-4.13903515625,-1.34065234375
-6.9821484375,-5.96887109375,-5.2963046875,-2.8833984375,-3.20263671875,-7.01879296875,-8.99488671875,-13.307953125,-5.34553515625,-9.7760703125,-12.00101171875,-5.33196875,-10.477,-9.1056875,-13.08750390625,-8.673984375,-9.59587109375,-9.61540234375,-13.65644140625,-13.20424609375,-4.12541796875,-3.76180859375,-6.45769140625,-6.93288671875,-8.0951171875,3.2693125,-8.5515078125,-3.36967578125,-1.84403515625,1.15234765625
-6.6791484375,-5.25287109375,-5.2593046875,-2.1493984375,-2.75563671875,-7.71379296875,-9.34188671875,-11.720953125,-4.21253515625,-9.5200703125,-12.41801171875,-4.33596875,-8.418,-7.6796875,-13.09250390625,-8.119984375,-6.87887109375,-6.52040234375,-12.22144140625,-12.32524609375,-2.69041796875,-1.65280859375,-4.45069140625,-6.02888671875,-6.6581171875,4.5033125,-6.6155078125,-1.29767578125,-0.0620351562499994,2.83534765625
-5.6431484375,-3.88187109375,-4.5643046875,-0.9983984375,-0.893636718749999,-6.70379296875,-8.64588671875,-10.159953125,-1.97153515625,-7.9670703125,-11.43801171875,-3.02196875,-6.407,-5.2526875,-12.10750390625,-7.860984375,-4.21587109375,-3.03540234375,-10.10644140625,-11.68124609375,-2.01041796875,0.44519140625,-2.07169140625,-4.86388671875,-5.7711171875,4.0903125,-4.8665078125,0.557324218750001,0.96096484375,3.36234765625
-3.4731484375,-1.81287109375,-2.8173046875,0.6086015625,2.17136328125,-3.90479296875,-6.69488671875,-8.554953125,1.19846484375,-5.1020703125,-8.90001171875,-1.26696875,-4.324,-2.1636875,-9.87950390625,-7.361984375,-1.98187109375,0.45659765625,-7.51044140625,-10.91124609375,-1.87241796875,2.50619140625,0.419308593750001,-3.34388671875,-5.2111171875,2.4823125,-3.3185078125,2.20132421875,1.51496484375,3.07334765625
-0.1531484375,0.87012890625,0.0316953125000001,2.6636015625,5.95536328125,0.285207031249999,-3.57188671875,-6.800953125,4.92646484375,-1.2200703125,-5.01101171875,1.01203125,-2.048,1.1553125,-6.42150390625,-5.936984375,-0.24787109375,3.69859765625,-4.61344140625,-9.49524609375,-1.69641796875,4.53219140625,2.94730859375,-1.29088671875,-4.4461171875,0.607312499999999,-1.7015078125,3.78232421875,2.16396484375,2.72034765625
3.7468515625,3.82912890625,3.5016953125,4.9276015625,9.70636328125,4.99120703125,0.23611328125,-4.933953125,8.59646484375,3.0119296875,-0.440011718749998,3.65203125,0.302,4.1813125,-2.19550390625,-3.260984375,1.05212890625,6.41059765625,-1.70244140625,-7.18024609375,-0.97741796875,6.32119140625,5.41830859375,1.27811328125,-3.0871171875,-0.631687500000001,0.1874921875,5.37032421875,3.32896484375,2.97334765625
7.1958515625,6.47112890625,6.6536953125,6.8796015625,12.54836328125,9.07520703125,3.90411328125,-3.228953125,11.44246484375,6.6669296875,3.81298828125,6.16103125,2.355,6.3773125,1.93049609375,0.320015625000002,1.88812890625,8.22859765625,0.799558593750001,-4.23724609375,0.33658203125,7.47719140625,7.58330859375,3.98811328125,-1.1981171875,-0.776687500000001,2.2184921875,6.83432421875,4.98796484375,4.00334765625
9.1298515625,8.14812890625,8.4706953125,7.8776015625,13.77236328125,11.54920703125,6.54411328125,-2.123953125,12.81546484375,8.8939296875,6.76598828125,7.87103125,3.717,7.3933125,5.02449609375,3.885015625,2.04912890625,8.83659765625,2.49155859375,-1.36824609375,1.80758203125,7.67519140625,9.11630859375,6.23411328125,0.741882812500002,0.0793124999999995,3.9694921875,7.94532421875,6.73096484375,5.44934765625
8.9828515625,8.47712890625,8.3656953125,7.4866015625,13.17136328125,12.00020703125,7.57611328125,-2.010953125,12.50746484375,9.3119296875,7.88198828125,8.26903125,4.208,7.2803125,6.52249609375,6.401015625,1.28912890625,8.21659765625,3.24655859375,0.680753906250001,2.81058203125,6.97119140625,9.85230859375,7.51211328125,2.1718828125,1.5113125,5.0234921875,8.60232421875,8.09396484375,6.75434765625
6.9948515625,7.55912890625,6.5336953125,5.7706015625,11.18836328125,10.76520703125,7.01211328125,-2.983953125,10.91646484375,8.2119296875,7.30298828125,7.28503125,3.955,6.5493125,6.50349609375,7.245015625,-0.39487109375,6.79059765625,3.34955859375,1.52475390625,2.95858203125,5.88819140625,9.97830859375,7.74011328125,2.8308828125,3.1073125,5.2994921875,9.00232421875,8.91996484375,7.62834765625
4.1398515625,5.96812890625,3.9066953125,3.3526015625,8.77836328125,8.76920703125,5.47011328125,-4.715953125,8.91746484375,6.4529296875,5.78198828125,5.37503125,3.294,5.9763125,5.63249609375,6.495015625,-2.60187109375,5.34059765625,3.39255859375,1.33375390625,2.36958203125,5.23319140625,10.00430859375,7.32811328125,2.9378828125,4.7203125,5.1624921875,9.57932421875,9.48096484375,8.28534765625
1.7008515625,4.49812890625,1.7216953125,1.1646015625,6.99136328125,7.11620703125,3.90811328125,-6.574953125,7.49446484375,5.0699296875,4.34398828125,3.35103125,2.601,6.2673125,4.82049609375,4.870015625,-4.64587109375,4.71259765625,3.99255859375,0.718753906250001,1.61358203125,5.73819140625,10.52930859375,6.98911328125,3.0668828125,6.4793125,5.2534921875,10.74932421875,10.29196484375,9.29634765625
0.7048515625,3.80712890625,0.9396953125,0.0226015625000002,6.50336328125,6.62920703125,3.20611328125,-7.914953125,7.30646484375,4.8229296875,3.84698828125,2.04003125,2.17,7.7333125,4.80149609375,3.354015625,-5.87887109375,5.45959765625,5.47355859375,0.397753906249999,1.39458203125,7.72219140625,11.94430859375,7.37111328125,3.8188828125,8.6043125,6.1334921875,12.62032421875,11.75996484375,11.16034765625
1.4818515625,4.14012890625,1.8136953125,0.2336015625,7.34136328125,7.54220703125,3.82811328125,-8.357953125,8.39646484375,5.8759296875,4.65698828125,1.95103125,2.159,10.1323125,5.81949609375,2.740015625,-6.01387109375,7.57559765625,7.69455859375,0.84875390625,2.15858203125,10.90219140625,14.22430859375,8.75111328125,5.4778828125,11.1523125,7.9644921875,14.85332421875,13.89396484375,13.90134765625
3.5618515625,5.27012890625,3.8476953125,1.4546015625,8.95336328125,9.48320703125,5.69711328125,-7.921953125,10.20046484375,7.7889296875,6.57098828125,3.08703125,2.597,12.7803125,7.58249609375,3.309015625,-5.20387109375,10.50059765625,10.11955859375,2.11275390625,3.86158203125,14.45419140625,16.92930859375,10.91411328125,7.8598828125,13.8633125,10.4164921875,16.79132421875,16.24096484375,16.95734765625
5.9488515625,6.68812890625,6.1316953125,2.8986015625,10.56836328125,11.74220703125,8.29711328125,-6.976953125,11.86446484375,9.8129296875,8.99398828125,4.99803125,3.419,14.8753125,9.49649609375,4.819015625,-3.88087109375,13.37259765625,12.09455859375,3.85975390625,6.01658203125,17.33919140625,19.42030859375,13.29611328125,10.4188828125,16.2063125,12.8354921875,17.78432421875,18.08696484375,19.44334765625
7.6468515625,7.89112890625,7.8356953125,3.7576015625,11.61336328125,13.66220703125,10.91211328125,-6.058953125,12.69046484375,11.2969296875,11.25198828125,7.01003125,4.517,15.8643125,11.01349609375,6.708015625,-2.51287109375,15.43859765625,13.16555859375,5.60675390625,7.97058203125,18.78219140625,21.15030859375,15.26611328125,12.5158828125,17.6003125,14.5574921875,17.51132421875,18.78896484375,20.57834765625
8.1258515625,8.60112890625,8.5546953125,3.6196015625,11.97336328125,14.92020703125,12.89811328125,-5.624953125,12.45846484375,11.9899296875,12.86498828125,8.49903125,5.77,15.6623125,11.91249609375,8.397015625,-1.43187109375,16.36659765625,13.26355859375,6.97175390625,9.20358203125,18.63319140625,21.87930859375,16.37911328125,13.7078828125,17.6643125,15.1804921875,16.11432421875,18.04996484375,20.03934765625
7.5178515625,8.82612890625,8.3796953125,2.6536015625,11.97236328125,15.59020703125,13.90211328125,-5.815953125,11.46046484375,12.0889296875,13.68598828125,9.12703125,7.049,14.6363125,12.35249609375,9.518015625,-0.76687109375,16.31959765625,12.67855859375,7.82275390625,9.53058203125,17.40819140625,21.70730859375,16.51811328125,13.9248828125,16.4003125,14.6954921875,14.09732421875,16.04596484375,18.07634765625
6.4618515625,8.78912890625,7.7406953125,1.4656015625,12.14136328125,16.03220703125,13.98811328125,-6.360953125,10.29146484375,12.0739296875,13.90298828125,8.96603125,8.207,13.4063125,12.74049609375,10.038015625,-0.427871093749999,15.76359765625,11.90155859375,8.30575390625,9.15958203125,15.97819140625,20.98230859375,15.89811328125,13.4868828125,14.2363125,13.4534921875,12.09132421875,13.37496484375,15.38334765625
5.7338515625,8.82212890625,7.1906953125,0.7526015625,12.90936328125,16.70720703125,13.60411328125,-6.690953125,9.55446484375,12.4589296875,13.93998828125,8.48603125,9.089,12.5953125,13.49549609375,10.258015625,-0.13287109375,15.19259765625,11.42255859375,8.76175390625,8.60258203125,15.12619140625,20.14530859375,14.97611328125,12.9738828125,11.9153125,12.0064921875,10.63132421875,10.86196484375,12.81934765625
5.8668515625,9.23812890625,7.2176953125,0.9376015625,14.39936328125,17.99120703125,13.41511328125,-6.186953125,9.61546484375,13.5789296875,14.30798828125,8.36903125,9.582,12.6233125,14.85149609375,10.671015625,0.487128906250001,14.93059765625,11.58355859375,9.56075390625,8.49258203125,15.20419140625,19.59630859375,14.29011328125,12.9888828125,10.2573125,10.9104921875,10.00932421875,9.26196484375,11.10034765625
6.9358515625,10.21412890625,8.0976953125,1.9806015625,16.39436328125,20.01420703125,14.03311328125,-4.438953125,10.48946484375,15.4689296875,15.42198828125,9.21003125,9.654,13.5993125,16.75849609375,11.742015625,1.70012890625,15.08259765625,12.49255859375,10.92575390625,9.33958203125,16.02919140625,19.60630859375,14.27611328125,13.9098828125,9.8593125,10.5374921875,10.22932421875,8.96796484375,10.58434765625
8.6068515625,11.70812890625,9.8196953125,3.4406015625,18.46636328125,22.61520703125,15.76511328125,-1.420953125,11.88346484375,17.8799296875,17.45998828125,11.24703125,9.385,15.3233125,18.94449609375,13.712015625,3.50712890625,15.60559765625,14.02255859375,12.83875390625,11.33558203125,17.04919140625,20.26930859375,15.12011328125,15.7478828125,10.8713125,10.9824921875,11.05332421875,9.86296484375,11.20934765625
10.4118515625,13.49312890625,12.1196953125,4.7796015625,20.19536328125,25.43120703125,18.49311328125,2.486046875,13.38546484375,20.4119296875,20.31098828125,14.29003125,8.987,17.4233125,21.07249609375,16.533015625,5.61212890625,16.42659765625,15.90455859375,15.08775390625,14.29258203125,17.67919140625,21.52630859375,16.71411328125,18.1848828125,12.9553125,12.0884921875,12.12432421875,11.40996484375,12.60934765625
12.0568515625,15.30512890625,14.6056953125,5.7376015625,21.37936328125,28.08620703125,21.76611328125,6.638046875,14.71546484375,22.6979296875,23.63998828125,17.84603125,8.784,19.5153125,22.90849609375,19.947015625,7.61012890625,17.53159765625,17.84055859375,17.40375390625,17.74558203125,17.63319140625,23.19930859375,18.72911328125,20.7308828125,15.4343125,13.5364921875,13.10332421875,12.92596484375,14.29534765625
13.5378515625,16.96812890625,16.9026953125,6.4966015625,22.09636328125,30.30920703125,24.99311328125,10.371046875,15.84046484375,24.4889296875,26.97698828125,21.32403125,9.113,21.2973125,24.36849609375,23.594015625,9.23412890625,18.92159765625,19.55155859375,19.55775390625,21.11258203125,17.02919140625,24.98930859375,20.71811328125,22.8988828125,17.5213125,14.9274921875,13.72232421875,13.84596484375,15.80234765625
14.9638515625,18.39112890625,18.6976953125,7.4816015625,22.54536328125,31.91120703125,27.60911328125,13.181046875,16.84746484375,25.5849296875,29.76698828125,24.16703125,10.147,22.4843125,25.39649609375,27.040015625,10.45212890625,20.43759765625,20.72455859375,21.32475390625,23.80958203125,16.19919140625,26.43730859375,22.20311328125,24.2838828125,18.5213125,15.8144921875,13.74532421875,13.82096484375,16.71834765625
16.2468515625,19.46312890625,19.7096953125,8.9326015625,22.75636328125,32.69020703125,29.15411328125,14.755046875,17.69946484375,25.7289296875,31.39998828125,25.90703125,11.734,22.7173125,25.80749609375,29.765015625,11.33412890625,21.62259765625,20.96755859375,22.40575390625,25.31658203125,15.36019140625,26.95830859375,22.72411328125,24.5738828125,18.0013125,15.7334921875,12.93032421875,12.69096484375,16.67334765625
16.9808515625,19.97412890625,19.6856953125,10.5776015625,22.44836328125,32.41220703125,29.31411328125,14.930046875,18.10646484375,24.6279296875,31.32198828125,26.20403125,13.394,21.6193125,25.29449609375,31.208015625,11.84812890625,21.81159765625,19.90855859375,22.44375390625,25.26658203125,14.41819140625,26.03630859375,21.96411328125,23.5738828125,15.9123125,14.3324921875,11.08632421875,10.46196484375,15.41334765625
16.6308515625,19.67712890625,18.4886953125,11.7166015625,21.20036328125,30.93320703125,28.01111328125,13.737046875,17.66946484375,22.1649296875,29.25398828125,24.94303125,14.519,19.0273125,23.61249609375,30.913015625,11.80512890625,20.48359765625,17.44355859375,21.19775390625,23.56858203125,13.05119140625,23.51630859375,19.89711328125,21.3048828125,12.6363125,11.5694921875,8.23732421875,7.34196484375,12.94234765625
14.9168515625,18.44912890625,16.2186953125,11.6436015625,18.81136328125,28.36220703125,25.48611328125,11.487046875,16.16446484375,18.6169296875,25.39398828125,22.32203125,14.669,15.2483125,20.82749609375,28.734015625,11.02312890625,17.63859765625,13.93755859375,18.74175390625,20.50758203125,10.98419140625,19.80730859375,16.90011328125,18.0798828125,8.9023125,7.8324921875,4.72832421875,3.77396484375,9.63534765625
12.0918515625,16.42712890625,13.2786953125,10.1206015625,15.56636328125,25.14320703125,22.28511328125,8.767046875,13.76146484375,14.6979296875,20.46098828125,18.87403125,13.802,11.1043125,17.43149609375,24.968015625,9.53912890625,13.90659765625,10.21955859375,15.54475390625,16.72758203125,8.23619140625,15.80930859375,13.67211328125,14.4708828125,5.5483125,3.8574921875,1.18632421875,0.377964843750002,6.16134765625
8.9248515625,14.03112890625,10.2976953125,7.5666015625,12.19636328125,21.97820703125,19.12511328125,6.285046875,11.01546484375,11.3459296875,15.51498828125,15.37203125,12.277,7.6923125,14.20749609375,20.347015625,7.69512890625,10.31459765625,7.29955859375,12.32575390625,13.05658203125,5.18719140625,12.56530859375,10.97811328125,11.1358828125,3.2143125,0.4504921875,-1.68567578125,-2.22303515625,3.23434765625
6.3708515625,11.82712890625,7.9296953125,4.8726015625,9.55636328125,19.57220703125,16.66811328125,4.629046875,8.64646484375,9.3289296875,11.58198828125,12.59703125,10.654,5.9173125,11.88749609375,15.805015625,6.01012890625,7.80559765625,5.92455859375,9.74575390625,10.20658203125,2.42119140625,10.78130859375,9.31611328125,8.5538828125,2.0743125,-1.8575078125,-3.39567578125,-3.64303515625,1.30734765625
5.1028515625,10.26512890625,6.5816953125,2.9136015625,8.20436328125,18.30420703125,15.28111328125,4.040046875,7.19346484375,8.8589296875,9.23798828125,11.02903125,9.382,6.0383125,10.75849609375,12.105015625,4.89512890625,6.76759765625,6.17755859375,8.06675390625,8.46258203125,0.40719140625,10.45130859375,8.66911328125,6.7978828125,1.7473125,-3.0435078125,-3.90567578125,-3.92103515625,0.365347656250002
5.1648515625,9.44912890625,6.2346953125,2.0816015625,8.10036328125,18.02620703125,14.87211328125,4.281046875,6.73446484375,9.4349296875,8.35998828125,10.62803125,8.586,7.4703125,10.48349609375,9.506015625,4.38812890625,6.83059765625,7.37855859375,7.00675390625,7.55358203125,-0.76480859375,10.83430859375,8.52611328125,5.5068828125,1.4603125,-3.5755078125,-3.65467578125,-3.53403515625,-0.0386523437499982
5.9748515625,9.11912890625,6.4926953125,2.1306015625,8.63536328125,18.14420703125,14.95311328125,4.723046875,6.85546484375,10.0639296875,8.22098828125,10.87503125,8.06,9.0313125,10.26749609375,7.708015625,4.14612890625,7.06059765625,8.39155859375,5.93275390625,6.84458203125,-1.42580859375,10.83830859375,8.17211328125,4.1258828125,0.481312499999999,-4.1165078125,-3.30167578125,-3.12503515625,-0.495652343749999
6.6838515625,8.84512890625,6.8366953125,2.4326015625,8.99036328125,17.96320703125,14.91811328125,4.687046875,6.90046484375,9.7659296875,7.90498828125,11.08603125,7.449,9.5103125,9.32249609375,6.120015625,3.74212890625,6.47159765625,8.20155859375,4.26575390625,5.75658203125,-2.10880859375,9.62830859375,7.12311328125,2.2908828125,-1.4266875,-5.1145078125,-3.30467578125,-3.11603515625,-1.34365234375
6.6438515625,8.29612890625,6.8936953125,2.4186015625,8.57336328125,17.03120703125,14.34911328125,3.845046875,6.34146484375,8.0609296875,6.76498828125,10.77803125,6.479,8.2473125,7.29049609375,4.237015625,3.04612890625,4.53959765625,6.41855859375,1.82575390625,4.13158203125,-3.23180859375,7.05930859375,5.38311328125,0.0888828125000014,-3.8136875,-6.5555078125,-3.65067578125,-3.46403515625,-2.45065234375
5.6838515625,7.38112890625,6.5196953125,1.8826015625,7.26336328125,15.28420703125,13.14011328125,2.383046875,5.03546484375,5.1419296875,4.65098828125,9.83903125,5.123,5.3733125,4.37149609375,1.884015625,2.35612890625,1.44959765625,3.40055859375,-1.11424609375,2.27858203125,-4.85480859375,3.70230859375,3.37911328125,-2.0261171875,-5.7716875,-8.0315078125,-3.93867578125,-3.75903515625,-3.31865234375
4.0808515625,6.23212890625,5.7366953125,0.9886015625,5.33236328125,12.96220703125,11.40611328125,0.811046875,3.23446484375,1.6829296875,1.84298828125,8.45503125,3.638,1.6603125,1.13549609375,-0.780984374999999,2.16312890625,-2.04240234375,-0.00444140624999889,-4.03224609375,0.729582031250001,-6.62180859375,0.50130859375,1.65511328125,-3.5471171875,-6.4446875,-9.0425078125,-3.71067578125,-3.55703515625,-3.43665234375
2.3148515625,5.07612890625,4.6346953125,0.0746015624999998,3.22036328125,10.43720703125,9.33611328125,-0.402953125,1.41846484375,-1.5300703125,-1.17301171875,6.91503125,2.454,-1.8926875,-1.80550390625,-3.399984375,2.74512890625,-4.96340234375,-2.90144140625,-6.43324609375,-0.107417968749999,-7.91280859375,-1.66869140625,0.570113281250002,-4.2221171875,-5.4936875,-9.2925078125,-2.76967578125,-2.67803515625,-2.60565234375
0.7958515625,4.09512890625,3.3276953125,-0.5903984375,1.32636328125,8.04020703125,7.12111328125,-1.072953125,0.0544648437499999,-3.9490703125,-3.93001171875,5.44403125,1.938,-4.4806875,-4.06550390625,-5.606984375,3.90512890625,-6.53840234375,-4.70944140625,-8.02824609375,-0.15441796875,-8.12080859375,-2.33869140625,0.155113281249999,-4.1451171875,-3.2476875,-8.8145078125,-1.26567578125,-1.28103515625,-1.05065234375
-0.3081484375,3.31712890625,1.9436953125,-0.9573984375,-0.130636718749999,5.93420703125,4.93311328125,-1.351953125,-0.61853515625,-5.4520703125,-6.13901171875,4.11303125,2.162,-5.7876875,-5.60750390625,-7.188984375,5.01312890625,-6.48640234375,-5.33744140625,-8.79924609375,0.31758203125,-6.96780859375,-1.57669140625,0.139113281250001,-3.6491171875,-0.529687500000001,-7.9115078125,0.406324218750001,0.243964843750001,0.686347656250001
-1.1141484375,2.58512890625,0.5796953125,-1.2333984375,-1.19663671875,4.06720703125,2.86811328125,-1.639953125,-0.70453515625,-6.3520703125,-7.79001171875,2.81303125,2.832,-6.0636875,-6.70650390625,-8.183984375,5.29312890625,-5.14240234375,-5.15944140625,-8.97324609375,0.821582031250001,-4.69380859375,0.0613085937500006,0.0891132812500004,-3.1321171875,1.6993125,-7.0165078125,1.79832421875,1.44996484375,1.97734765625
-1.9201484375,1.61112890625,-0.7543046875,-1.7733984375,-2.19763671875,2.19820703125,0.86911328125,-2.442953125,-0.62053515625,-7.2400703125,-9.15801171875,1.30703125,3.432,-5.9736875,-7.82150390625,-8.883984375,4.18112890625,-3.31140234375,-4.82144140625,-8.94324609375,0.82958203125,-1.98680859375,1.75230859375,-0.404886718749999,-2.9311171875,2.6893125,-6.5355078125,2.56832421875,1.98896484375,2.31834765625
-3.0611484375,0.0941289062499999,-2.1793046875,-2.8893984375,-3.62363671875,-0.0157929687500014,-1.29588671875,-4.185953125,-0.91053515625,-8.7170703125,-10.71401171875,-0.680968750000001,3.471,-6.2846875,-9.42850390625,-9.739984375,1.55412890625,-1.92740234375,-4.98244140625,-9.16724609375,-0.0624179687499993,0.29919140625,2.70330859375,-1.56988671875,-3.2701171875,2.1193125,-6.7095078125,2.58032421875,1.71396484375,1.48834765625
-4.7621484375,-2.15687109375,-3.9213046875,-4.6863984375,-5.90663671875,-2.88779296875,-3.93088671875,-7.022953125,-2.01453515625,-11.1440703125,-12.94201171875,-3.34996875,2.702,-7.5306875,-11.87350390625,-11.210984375,-2.22987109375,-1.66040234375,-6.08144140625,-10.06124609375,-2.03141796875,1.50419140625,2.42830859375,-3.38788671875,-4.2741171875,0.140312499999999,-7.5485078125,1.93732421875,0.712964843750001,-0.39765234375
-7.0521484375,-5.10987109375,-6.2053046875,-7.0003984375,-9.18963671875,-6.54479296875,-7.22788671875,-10.752953125,-4.07753515625,-14.4980703125,-16.11701171875,-6.69696875,1.218,-9.8106875,-15.26950390625,-13.595984375,-6.48087109375,-2.69040234375,-8.21444140625,-11.90624609375,-4.98041796875,1.40419140625,0.904308593750001,-5.63588671875,-5.9841171875,-2.7266875,-8.8475078125,0.927324218750002,-0.72503515625,-2.94465234375
-9.7171484375,-8.45587109375,-9.0533046875,-9.4513984375,-13.20463671875,-10.77679296875,-11.07088671875,-14.842953125,-6.86053515625,-18.3740703125,-20.12301171875,-10.44196875,-0.561,-12.7706875,-19.41650390625,-16.897984375,-10.41487109375,-4.69740234375,-11.12144140625,-14.73624609375,-8.55641796875,0.26519140625,-1.45769140625,-7.99688671875,-8.3471171875,-5.7776875,-10.2855078125,-0.0806757812499992,-2.19703515625,-5.59665234375
-12.3211484375,-11.63287109375,-12.1383046875,-11.5653984375,-17.30563671875,-15.00479296875,-14.96288671875,-18.549953125,-9.79853515625,-22.1130703125,-24.40001171875,-14.05596875,-2.017,-15.7756875,-23.80450390625,-20.780984375,-13.38487109375,-7.03440234375,-14.28444140625,-18.27724609375,-12.20641796875,-1.28580859375,-3.98969140625,-10.16688671875,-11.1631171875,-8.3166875,-11.5325078125,-0.752675781249998,-3.29903515625,-7.77165234375
-14.3211484375,-13.98587109375,-14.8123046875,-12.9183984375,-20.66363671875,-18.44979296875,-18.14088671875,-21.116953125,-12.18453515625,-25.0370703125,-28.11901171875,-16.92596875,-2.562,-18.1696875,-27.72150390625,-24.653984375,-15.04787109375,-8.97540234375,-17.10844140625,-21.96324609375,-15.32141796875,-2.50280859375,-6.03169140625,-11.92088671875,-14.0661171875,-9.8276875,-12.3485078125,-0.885675781249999,-3.73903515625,-9.00365234375
-15.2731484375,-15.01787109375,-16.3733046875,-13.2673984375,-22.57963671875,-20.44279296875,-19.89888671875,-22.044953125,-13.43653515625,-26.6770703125,-30.50101171875,-18.58596875,-1.912,-19.5226875,-30.47250390625,-27.844984375,-15.45087109375,-9.96440234375,-19.11844140625,-25.09324609375,-17.40341796875,-2.82580859375,-7.17969140625,-13.15388671875,-16.5841171875,-10.1046875,-12.6465078125,-0.477675781249999,-3.43303515625,-9.06065234375
-15.0351484375,-14.61787109375,-16.4303046875,-12.6283984375,-22.77163671875,-20.72779296875,-19.92888671875,-21.333953125,-13.32453515625,-26.9230703125,-31.14301171875,-18.89696875,-0.26,-19.7426875,-31.60650390625,-29.807984375,-14.99087109375,-9.81140234375,-20.08744140625,-27.05024609375,-18.22341796875,-2.11780859375,-7.42269140625,-13.89188671875,-18.2811171875,-9.2926875,-12.4995078125,0.272324218750001,-2.54703515625,-8.03865234375
-13.8231484375,-13.10387109375,-15.1223046875,-11.2633984375,-21.45663671875,-19.55479296875,-18.46988671875,-19.511953125,-12.04853515625,-25.9890703125,-30.13501171875,-18.05096875,1.777,-19.0336875,-31.04450390625,-30.240984375,-14.21487109375,-8.73840234375,-20.04744140625,-27.48324609375,-17.84641796875,-0.737808593750001,-7.08469140625,-14.25288671875,-18.8771171875,-7.7886875,-12.0755078125,1.04732421875,-1.42303515625,-6.32465234375
-12.0721484375,-11.06987109375,-13.0213046875,-9.5633984375,-19.18563671875,-17.51879296875,-16.13988671875,-17.351953125,-10.13053515625,-24.2390703125,-27.92401171875,-16.41596875,3.423,-17.7396875,-29.01950390625,-29.114984375,-13.53187109375,-7.25940234375,-19.17844140625,-26.35024609375,-16.53041796875,0.63119140625,-6.62869140625,-14.34588671875,-18.3011171875,-6.0366875,-11.5175078125,1.58132421875,-0.409035156249999,-4.41765234375
-10.1911484375,-9.10587109375,-10.8113046875,-7.9103984375,-16.54763671875,-15.24979296875,-13.58988671875,-15.462953125,-8.17753515625,-21.9850703125,-25.04201171875,-14.32596875,4.075,-16.1816875,-25.92250390625,-26.603984375,-12.99187109375,-5.94140234375,-17.68344140625,-23.86024609375,-14.56741796875,1.31419140625,-6.40769140625,-14.16888671875,-16.6591171875,-4.3266875,-10.8465078125,1.79232421875,0.313964843750002,-2.70065234375
-8.4071484375,-7.58587109375,-8.9693046875,-6.5833984375,-13.98263671875,-13.16879296875,-11.24788671875,-14.062953125,-6.65353515625,-19.4090703125,-21.90201171875,-11.98996875,3.515,-14.5726875,-22.16350390625,-23.023984375,-12.32687109375,-5.17240234375,-15.72244140625,-20.39324609375,-12.19441796875,0.93819140625,-6.53469140625,-13.59788671875,-14.1821171875,-2.7296875,-9.9895078125,1.79032421875,0.75596484375,-1.32265234375
-6.8011484375,-6.60387109375,-7.6523046875,-5.7513984375,-11.75463671875,-11.43179296875,-9.27988671875,-13.034953125,-5.74053515625,-16.6280703125,-18.76401171875,-9.54396875,1.921,-13.0186875,-18.13350390625,-18.808984375,-11.21887109375,-5.04640234375,-13.44944140625,-16.44524609375,-9.61941796875,-0.44480859375,-6.90669140625,-12.49488671875,-11.2061171875,-1.1936875,-8.9205078125,1.71932421875,0.996964843750002,-0.271652343749999
-5.4281484375,-6.05287109375,-6.7853046875,-5.4593984375,-10.00763671875,-10.03479296875,-7.70288671875,-12.143953125,-5.32253515625,-13.7950703125,-15.79901171875,-7.17096875,-0.283,-11.5486875,-14.21950390625,-14.489984375,-9.57687109375,-5.37240234375,-11.04344140625,-12.56624609375,-7.08641796875,-2.44980859375,-7.32469140625,-10.85588671875,-8.1261171875,0.317312499999999,-7.7705078125,1.60932421875,1.03496484375,0.478347656250001
-4.3811484375,-5.73487109375,-6.2003046875,-5.6073984375,-8.77963671875,-8.92679296875,-6.47488671875,-11.195953125,-5.06653515625,-11.1100703125,-13.11601171875,-5.11696875,-2.587,-10.1146875,-10.75450390625,-10.603984375,-7.62387109375,-5.77740234375,-8.66344140625,-9.21424609375,-4.85341796875,-4.51280859375,-7.57369140625,-8.84588671875,-5.2891171875,1.7713125,-6.7895078125,1.33832421875,0.762964843750002,0.90034765625
-3.7221484375,-5.43287109375,-5.7003046875,-5.9293984375,-7.99363671875,-8.02679296875,-5.51488671875,-10.103953125,-4.59253515625,-8.7400703125,-10.73001171875,-3.58796875,-4.483,-8.5976875,-7.91150390625,-7.524984375,-5.75587109375,-5.84940234375,-6.35544140625,-6.57724609375,-3.08741796875,-6.04480859375,-7.43669140625,-6.68088671875,-2.8531171875,3.1203125,-6.1545078125,0.773324218750002,0.0989648437500001,0.971347656250002
-3.3801484375,-4.96787109375,-5.0723046875,-6.0823984375,-7.48263671875,-7.21179296875,-4.67688671875,-8.882953125,-3.68153515625,-6.7440703125,-8.53501171875,-2.62696875,-5.48,-6.8646875,-5.62250390625,-5.319984375,-4.31287109375,-5.28840234375,-4.02444140625,-4.49024609375,-1.76541796875,-6.55280859375,-6.70169140625,-4.48288671875,-0.734117187499999,4.3763125,-5.8135078125,-0.0766757812499996,-0.862035156249998,0.76234765625
-3.1561484375,-4.25487109375,-4.1493046875,-5.7993984375,-7.08263671875,-6.35479296875,-3.78288671875,-7.622953125,-2.43353515625,-5.1010703125,-6.37401171875,-2.10896875,-5.193,-4.8996875,-3.64350390625,-3.768984375,-3.42587109375,-4.02340234375,-1.54344140625,-2.56624609375,-0.700417968749999,-5.75880859375,-5.23969140625,-2.21888671875,1.3158828125,5.6033125,-5.4655078125,-0.990675781249999,-1.80403515625,0.469347656250001
-2.8591484375,-3.36587109375,-2.9293046875,-5.0543984375,-6.72663671875,-5.43379296875,-2.72388671875,-6.445953125,-1.25353515625,-3.7960703125,-4.18401171875,-1.85296875,-3.528,-2.8906875,-1.72950390625,-2.517984375,-3.01087109375,-2.23840234375,1.07755859375,-0.458246093750001,0.33558203125,-3.70080859375,-3.10669140625,0.20811328125,3.5188828125,6.8613125,-4.7275078125,-1.61467578125,-2.30903515625,0.354347656250003
-2.4331484375,-2.54187109375,-1.6703046875,-4.0923984375,-6.48363671875,-4.58979296875,-1.57088671875,-5.491953125,-0.65053515625,-2.8700703125,-2.09001171875,-1.73696875,-0.893,-1.1856875,0.209496093749999,-1.285984375,-2.88187109375,-0.28540234375,3.62255859375,1.92875390625,1.47258203125,-0.74080859375,-0.567691406249999,2.82511328125,5.9178828125,8.1493125,-3.3345078125,-1.60267578125,-2.04303515625,0.64334765625
-1.9841484375,-2.11687109375,-0.8403046875,-3.3283984375,-6.51163671875,-4.07779296875,-0.60388671875,-4.913953125,-0.96753515625,-2.3980703125,-0.395011718749998,-1.73496875,1.805,-0.1206875,2.06549609375,0.0160156250000014,-2.90287109375,1.45359765625,5.75255859375,4.38475390625,2.67558203125,2.52019140625,1.97630859375,5.48811328125,8.3138828125,9.3813125,-1.2765078125,-0.768675781249998,-0.921035156249999,1.43034765625
-1.7051484375,-2.39887109375,-0.9333046875,-3.1503984375,-6.98963671875,-4.17979296875,-0.22588671875,-4.866953125,-2.22653515625,-2.4390703125,0.524988281250002,-1.90796875,3.474,0.1223125,3.56449609375,1.238015625,-3.08587109375,2.67159765625,7.14355859375,6.49075390625,3.74058203125,5.40219140625,4.10830859375,7.87511328125,10.3138828125,10.4033125,1.1714921875,0.812324218750001,0.818964843750001,2.61734765625
-1.8001484375,-3.56587109375,-2.2423046875,-3.7703984375,-8.06063671875,-5.12479296875,-0.81588671875,-5.462953125,-4.18253515625,-3.0430703125,0.342988281250001,-2.40496875,3.355,-0.4526875,4.33749609375,2.014015625,-3.60387109375,3.16659765625,7.58655859375,7.75175390625,4.31458203125,7.32519140625,5.46130859375,9.53011328125,11.4288828125,10.9993125,3.5044921875,2.77432421875,2.66496484375,3.91034765625
-2.4421484375,-5.59987109375,-4.7163046875,-5.1653984375,-9.81763671875,-7.04879296875,-2.59688671875,-6.736953125,-6.50253515625,-4.2700703125,-1.14001171875,-3.46196875,1.43,-1.7336875,4.00949609375,1.850015625,-4.71387109375,2.85259765625,7.00255859375,7.72375390625,3.96258203125,7.98419140625,5.74830859375,9.97811328125,11.2048828125,10.9363125,5.1184921875,4.56032421875,4.00496484375,4.89634765625
-3.7411484375,-8.26987109375,-7.9613046875,-7.1273984375,-12.28463671875,-9.93279296875,-5.55588671875,-8.632953125,-8.92853515625,-6.1820703125,-3.92501171875,-5.32396875,-1.547,-3.5846875,2.32049609375,0.324015625000001,-6.62087109375,1.76859765625,5.42855859375,6.14775390625,2.31958203125,7.44719140625,4.80530859375,8.87611328125,9.3808828125,10.0363125,5.4814921875,5.61732421875,4.36496484375,5.18934765625
-5.6931484375,-11.17487109375,-11.3633046875,-9.3583984375,-15.37463671875,-13.52579296875,-9.40988671875,-10.985953125,-11.31553515625,-8.7510703125,-7.75901171875,-8.08596875,-4.431,-5.8686875,-0.70750390625,-2.675984375,-9.34387109375,0.0895976562500005,3.00955859375,3.08075390625,-0.70541796875,6.10919140625,2.65930859375,6.17311328125,6.0188828125,8.2753125,4.3254921875,5.61932421875,3.59596484375,4.58734765625
-8.0941484375,-13.81487109375,-14.2493046875,-11.5193984375,-18.79963671875,-17.29679296875,-13.59988671875,-13.460953125,-13.54953515625,-11.7360703125,-12.06801171875,-11.53296875,-6.268,-8.4096875,-4.64550390625,-6.747984375,-12.60787109375,-1.89740234375,0.0255585937500005,-0.99724609375,-4.75641796875,4.52119140625,-0.409691406249999,2.23411328125,1.5968828125,5.8543125,1.8134921875,4.59832421875,1.95196484375,3.17334765625
-10.4811484375,-15.67487109375,-16.0023046875,-13.2463984375,-22.01963671875,-20.47279296875,-17.32788671875,-15.530953125,-15.42253515625,-14.6070703125,-15.97001171875,-15.04996875,-6.705,-10.9126875,-8.65150390625,-10.945984375,-15.82787109375,-3.84340234375,-3.06744140625,-5.19724609375,-8.99841796875,3.17019140625,-3.83969140625,-2.15588671875,-3.0081171875,3.2323125,-1.3895078125,2.96632421875,0.0249648437500003,1.36234765625
-12.1941484375,-16.29987109375,-16.1573046875,-14.1583984375,-24.31563671875,-22.19479296875,-19.71088671875,-16.566953125,-16.55553515625,-16.6070703125,-18.42701171875,-17.72496875,-6.05,-12.9246875,-11.63950390625,-13.994984375,-18.20587109375,-5.39540234375,-5.64444140625,-8.38024609375,-12.30241796875,2.34719140625,-6.85769140625,-5.93088671875,-6.6811171875,1.0853125,-4.2185078125,1.41732421875,-1.39103515625,-0.161652343749999
-12.5791484375,-15.42587109375,-14.5323046875,-13.9543984375,-25.02563671875,-21.82279296875,-20.06388671875,-16.075953125,-16.50153515625,-17.0120703125,-18.59601171875,-18.64396875,-5.001,-13.9116875,-12.64450390625,-14.753984375,-18.98087109375,-6.25640234375,-7.04544140625,-9.52924609375,-13.62741796875,2.08819140625,-8.68969140625,-8.05688671875,-8.3981171875,0.1353125,-5.5315078125,0.697324218750001,-1.55903515625,-0.649652343749999
-11.3051484375,-13.14887109375,-11.4093046875,-12.5733984375,-23.86863671875,-19.27279296875,-18.22288671875,-13.975953125,-14.99153515625,-15.4870703125,-16.23401171875,-17.33696875,-4.283,-13.4826875,-11.25050390625,-12.772984375,-17.75987109375,-6.25940234375,-6.83844140625,-8.19624609375,-12.50041796875,2.19719140625,-8.86369140625,-7.94488671875,-7.6571171875,0.807312499999999,-4.6025078125,1.26732421875,-0.137035156249999,0.367347656250001
-8.5901484375,-10.01087109375,-7.5913046875,-10.3113984375,-21.13263671875,-15.19179296875,-14.72988671875,-10.756953125,-12.18053515625,-12.3320703125,-11.94601171875,-14.12096875,-4.343,-11.6236875,-7.84650390625,-8.624984375,-14.77587109375,-5.41840234375,-5.05844140625,-4.79224609375,-9.32341796875,2.34219140625,-7.45469140625,-5.73688671875,-4.7871171875,2.9033125,-1.5215078125,3.02332421875,2.55496484375,2.77234765625
-5.1551484375,-6.83387109375,-4.1573046875,-7.7203984375,-17.56963671875,-10.72079296875,-10.67588671875,-7.364953125,-8.64453515625,-8.3770703125,-7.00401171875,-10.05896875,-5.14,-8.7166875,-3.46050390625,-3.730984375,-10.88587109375,-3.87440234375,-2.20744140625,-0.44324609375,-5.26541796875,2.27419140625,-5.03069140625,-2.26088671875,-0.863117187499999,5.5603125,2.7814921875,5.30332421875,5.58596484375,5.84434765625
-1.8821484375,-4.33487109375,-1.9723046875,-5.3293984375,-14.00563671875,-6.94079296875,-7.21788671875,-4.814953125,-5.11853515625,-4.5530703125,-2.76601171875,-6.48896875,-6.059,-5.3176875,0.756496093749998,0.305015625000001,-7.23987109375,-1.77440234375,1.03055859375,3.56075390625,-1.72241796875,2.04419140625,-2.31469140625,1.38411328125,2.7808828125,7.6383125,6.9784921875,7.24732421875,7.85096484375,8.60034765625
0.6088515625,-2.75987109375,-1.2353046875,-3.3723984375,-10.93463671875,-4.34779296875,-5.04488671875,-3.688953125,-2.13953515625,-1.4210703125,-0.0480117187499989,-4.38196875,-6.089,-1.8516875,4.08349609375,2.472015625,-4.78587109375,0.80759765625,4.13355859375,6.38575390625,0.34658203125,2.04319140625,0.189308593750001,4.34211328125,5.1828828125,8.3243125,9.9704921875,8.27232421875,8.63296484375,10.29634765625
2.1908515625,-1.83687109375,-1.4233046875,-1.7423984375,-8.36663671875,-2.74379296875,-4.13988671875,-3.858953125,0.13746484375,1.0069296875,1.16198828125,-3.95496875,-4.284,1.4943125,6.41949609375,2.734015625,-3.89187109375,3.80259765625,6.88355859375,7.93975390625,0.802582031250001,2.75519140625,2.33230859375,6.28411328125,6.1378828125,7.5493125,11.3244921875,8.33532421875,7.92196484375,10.76134765625
3.1258515625,-1.05487109375,-1.6673046875,-0.1893984375,-6.03763671875,-1.56179296875,-3.98788671875,-4.640953125,1.85946484375,3.0549296875,1.48298828125,-4.72196875,-0.342,4.6673125,8.07149609375,1.865015625,-4.29487109375,7.00059765625,9.26455859375,8.69475390625,0.231582031250001,4.36919140625,4.17930859375,7.34711328125,6.1338828125,5.9323125,11.2814921875,7.82732421875,6.29396484375,10.35234765625
3.7738515625,-0.08387109375,-1.3293046875,1.4046015625,-3.78463671875,-0.370792968750001,-4.02088671875,-5.284953125,3.24346484375,5.0029296875,1.64298828125,-5.88896875,5.069,7.5503125,9.36449609375,0.893015625,-5.35687109375,9.97859765625,11.26655859375,9.23875390625,-0.501417968749999,6.55719140625,5.76630859375,7.87211328125,5.9558828125,4.3533125,10.4504921875,7.23432421875,4.49496484375,9.62534765625
4.3448515625,0.98812890625,-0.3753046875,2.8966015625,-1.78163671875,0.818207031249999,-3.97488671875,-5.439953125,4.36446484375,6.8209296875,2.04798828125,-6.80096875,10.495,9.8833125,10.38649609375,0.542015625000001,-6.44287109375,12.22159765625,12.79755859375,9.90275390625,-0.74441796875,8.60419140625,7.00330859375,8.15711328125,6.2418828125,3.4423125,9.4294921875,6.83732421875,3.04896484375,8.98634765625
4.8388515625,1.73912890625,0.6806953125,3.9666015625,-0.453636718749999,1.62320703125,-3.91788671875,-5.251953125,5.12746484375,8.2189296875,2.68198828125,-7.19796875,14.342,11.3773125,11.02849609375,0.965015625000001,-7.19487109375,13.39059765625,13.74955859375,10.66275390625,-0.302417968749999,9.79519140625,7.76030859375,8.36311328125,7.2198828125,3.3523125,8.5984921875,6.65532421875,2.12496484375,8.55934765625
5.1538515625,1.76412890625,1.2076953125,4.3526015625,-0.144636718749998,1.66320703125,-4.01488671875,-5.080953125,5.40346484375,8.9409296875,3.31498828125,-7.16296875,15.632,11.9443125,11.21749609375,1.852015625,-7.52787109375,13.54559765625,14.16555859375,11.32475390625,0.63358203125,9.83619140625,8.07230859375,8.58111328125,8.7238828125,3.8933125,8.1434921875,6.62032421875,1.69396484375,8.31434765625
5.2308515625,1.04512890625,0.9506953125,4.0376015625,-0.792636718749998,0.944207031249999,-4.26388671875,-5.114953125,5.22346484375,9.0529296875,3.78698828125,-6.88596875,14.44,11.8593125,11.11749609375,2.752015625,-7.45687109375,13.16659765625,14.30055859375,11.77275390625,1.74558203125,9.01719140625,8.23830859375,8.92311328125,10.3888828125,4.8393125,8.1824921875,6.79232421875,1.77996484375,8.26734765625
5.1068515625,0.02112890625,0.1876953125,3.2786015625,-1.88563671875,-0.0627929687500011,-4.44588671875,-5.199953125,4.82246484375,8.9599296875,4.12998828125,-6.48996875,11.774,11.6543125,11.07949609375,3.320015625,-6.96187109375,12.88759765625,14.49155859375,12.05575390625,2.76858203125,8.01319140625,8.67630859375,9.49411328125,11.8118828125,6.0923125,8.8134921875,7.36632421875,2.51496484375,8.52934765625
4.8428515625,-0.69387109375,-0.5373046875,2.4556015625,-2.72363671875,-0.726792968750001,-4.33188671875,-5.007953125,4.50846484375,9.1129296875,4.41798828125,-6.06296875,8.997,11.7703125,11.34949609375,3.337015625,-6.05587109375,13.08159765625,14.85955859375,12.20175390625,3.46658203125,7.43019140625,9.56930859375,10.23011328125,12.5838828125,7.5613125,10.0014921875,8.45232421875,3.94196484375,9.12734765625
4.4258515625,-0.74287109375,-0.8763046875,1.8696015625,-2.81463671875,-0.718792968750001,-3.94188671875,-4.374953125,4.44446484375,9.6429296875,4.55898828125,-5.80396875,7.176,12.2043125,11.76649609375,2.573015625,-4.96087109375,13.58859765625,15.10355859375,11.99175390625,3.51558203125,7.43319140625,10.59530859375,10.75911328125,12.2678828125,8.9403125,11.4314921875,9.79932421875,5.75996484375,9.77434765625
3.7738515625,-0.26187109375,-0.9533046875,1.6356015625,-2.13663671875,-0.241792968750001,-3.63788671875,-3.510953125,4.56046484375,10.2279296875,4.23698828125,-6.06396875,6.692,12.4593125,11.75949609375,0.762015625000002,-4.16187109375,13.81259765625,14.58555859375,10.93775390625,2.51958203125,7.70119140625,10.99230859375,10.47611328125,10.4938828125,9.6773125,12.5114921875,10.78732421875,7.30096484375,9.86034765625
2.8458515625,0.23212890625,-1.2713046875,1.7246015625,-1.09163671875,0.111207031249999,-3.91988671875,-2.916953125,4.65346484375,10.3019296875,3.10498828125,-7.16796875,7.227,11.8623125,10.66349609375,-2.244984375,-4.21587109375,13.12259765625,12.70655859375,8.56875390625,0.229582031250001,7.71619140625,9.98630859375,8.83911328125,7.1618828125,9.2063125,12.6094921875,10.70932421875,7.82796484375,8.72834765625
1.7508515625,0.16312890625,-2.3603046875,2.0366015625,-0.247636718749998,-0.268792968750001,-5.10188671875,-3.056953125,4.55246484375,9.4109296875,1.05098828125,-9.17596875,8.026,10.0063125,8.14949609375,-6.259984375,-5.43387109375,11.27159765625,9.30055859375,4.79375390625,-3.20641796875,7.10919140625,7.25730859375,5.69411328125,2.6078828125,7.2653125,11.3524921875,9.16532421875,6.93296484375,6.05934765625
0.7148515625,-0.79287109375,-4.4263046875,2.4316015625,-0.0516367187499984,-1.67379296875,-7.08388671875,-4.046953125,4.18946484375,7.4569296875,-1.68101171875,-11.76496875,8.269,6.9883125,4.44649609375,-10.713984375,-7.67087109375,8.52859765625,4.76855859375,0.0457539062500008,-7.20641796875,5.83519140625,3.14030859375,1.38411328125,-2.4611171875,4.0523125,8.8054921875,6.26032421875,4.72196484375,2.06334765625
-0.0921484375000001,-2.57087109375,-7.2143046875,2.6836015625,-0.698636718749999,-3.96779296875,-9.38788671875,-5.563953125,3.55346484375,4.7059296875,-4.59201171875,-14.34996875,7.43,3.3413125,0.241496093749999,-14.840984375,-10.37387109375,5.48359765625,-0.108441406249998,-4.87724609375,-10.97441796875,4.09919140625,-1.53469140625,-3.39788671875,-7.2321171875,0.142312499999999,5.4154921875,2.51032421875,1.69396484375,-2.62865234375
-0.7031484375,-4.77587109375,-10.0963046875,2.4896015625,-2.12663671875,-6.66879296875,-11.39688671875,-6.987953125,2.61046484375,1.6369296875,-7.15801171875,-16.31296875,5.51,-0.2576875,-3.64750390625,-17.974984375,-12.82987109375,2.69459765625,-4.53144140625,-9.16224609375,-13.84241796875,2.18119140625,-5.83269140625,-7.90388671875,-11.0941171875,-3.7416875,1.7884921875,-1.42767578125,-1.55503515625,-7.25565234375
-1.3391484375,-6.86387109375,-12.3333046875,1.5856015625,-4.08663671875,-9.16679296875,-12.60988671875,-7.660953125,1.28846484375,-1.2430703125,-9.01801171875,-17.24796875,3.041,-3.2946875,-6.61450390625,-19.788984375,-14.45487109375,0.417597656250001,-8.00044140625,-12.28724609375,-15.52341796875,0.27319140625,-9.10069140625,-11.59788671875,-13.7971171875,-6.9676875,-1.5395078125,-5.02167578125,-4.58803515625,-11.21365234375
-2.2251484375,-8.35687109375,-13.3673046875,-0.0723984374999995,-6.19163671875,-10.94079296875,-12.80788671875,-7.129953125,-0.43653515625,-3.5090703125,-10.04001171875,-17.09196875,0.854,-5.5846875,-8.44750390625,-20.361984375,-14.98887109375,-1.44840234375,-10.42344140625,-14.13724609375,-16.15841796875,-1.55880859375,-11.17569140625,-14.28088671875,-15.4081171875,-9.1236875,-4.2525078125,-7.98467578125,-7.21403515625,-14.16765234375
-3.3531484375,-8.99987109375,-13.0233046875,-2.1843984375,-7.98163671875,-11.67679296875,-12.04788671875,-5.335953125,-2.43053515625,-4.8610703125,-10.26001171875,-16.09496875,-0.299,-7.2236875,-9.28450390625,-20.040984375,-14.53887109375,-3.19540234375,-11.99344140625,-14.91024609375,-16.13941796875,-3.31380859375,-12.32569140625,-16.02088671875,-16.1321171875,-10.0436875,-6.2455078125,-10.23867578125,-9.39103515625,-15.99765234375
-4.4131484375,-8.79087109375,-11.5383046875,-4.1693984375,-9.01763671875,-11.28779296875,-10.56588671875,-2.654953125,-4.35753515625,-5.1250703125,-9.78401171875,-14.65796875,-0.0799999999999996,-8.3916875,-9.40650390625,-19.211984375,-13.46187109375,-5.06040234375,-12.95744140625,-14.90524609375,-15.82941796875,-4.96780859375,-13.00269140625,-16.99688671875,-16.1311171875,-9.7676875,-7.5475078125,-11.79767578125,-11.08503515625,-16.70765234375
-4.9611484375,-7.92987109375,-9.4343046875,-5.4223984375,-9.04463671875,-9.91279296875,-8.66288671875,0.259046875,-5.79853515625,-4.3060703125,-8.73501171875,-13.14096875,1.289,-9.1936875,-9.05950390625,-18.134984375,-12.16487109375,-7.07440234375,-13.45344140625,-14.35624609375,-15.37441796875,-6.46180859375,-13.60169140625,-17.38388671875,-15.4851171875,-8.5316875,-8.2605078125,-12.71167578125,-12.23603515625,-16.40865234375
-4.7411484375,-6.73787109375,-7.3323046875,-5.6173984375,-8.13963671875,-7.92079296875,-6.65788671875,2.759046875,-6.47253515625,-2.6700703125,-7.31601171875,-11.77696875,3.145,-9.6516875,-8.42350390625,-16.949984375,-10.93787109375,-9.08040234375,-13.53044140625,-13.43624609375,-14.73841796875,-7.78380859375,-14.35669140625,-17.36388671875,-14.3121171875,-6.7936875,-8.5805078125,-13.11067578125,-12.85803515625,-15.38965234375
-3.9041484375,-5.56887109375,-5.7613046875,-4.8743984375,-6.75563671875,-5.88479296875,-4.89488671875,4.458046875,-6.40353515625,-0.7600703125,-5.86001171875,-10.70096875,4.701,-9.8066875,-7.69450390625,-15.786984375,-9.90887109375,-10.86440234375,-13.26544140625,-12.33224609375,-13.86841796875,-9.02280859375,-15.37069140625,-17.17588671875,-12.9041171875,-5.1926875,-8.8285078125,-13.25267578125,-13.14403515625,-14.17065234375
-2.9441484375,-4.71787109375,-5.0183046875,-3.6603984375,-5.56263671875,-4.42179296875,-3.71188671875,5.301046875,-5.89853515625,0.7649296875,-4.78801171875,-9.98796875,5.398,-9.7746875,-7.11650390625,-14.788984375,-9.09887109375,-12.25840234375,-12.82344140625,-11.27624609375,-12.83041796875,-10.31380859375,-16.65169140625,-17.08988671875,-11.7011171875,-4.3456875,-9.3585078125,-13.45967578125,-13.41503515625,-13.36865234375
-2.3571484375,-4.32887109375,-5.0913046875,-2.5183984375,-5.14563671875,-3.93179296875,-3.33188671875,5.502046875,-5.34453515625,1.4139296875,-4.42101171875,-9.65596875,5.091,-9.6876875,-6.88850390625,-14.041984375,-8.49387109375,-13.14640234375,-12.38944140625,-10.45924609375,-11.79841796875,-11.69780859375,-18.09169140625,-17.28288671875,-11.0921171875,-4.5636875,-10.3805078125,-13.94767578125,-13.91803515625,-13.42865234375
-2.3281484375,-4.37587109375,-5.7023046875,-1.8093984375,-5.71863671875,-4.42779296875,-3.74188671875,5.404046875,-4.99153515625,1.0749296875,-4.81501171875,-9.63296875,3.995,-9.5986875,-7.05650390625,-13.486984375,-8.05587109375,-13.43340234375,-12.07244140625,-9.95124609375,-10.95341796875,-13.02780859375,-19.46169140625,-17.74288671875,-11.2161171875,-5.7116875,-11.8265078125,-14.71167578125,-14.66503515625,-14.39765234375
-2.6611484375,-4.72087109375,-6.4413046875,-1.6163984375,-7.06263671875,-5.58479296875,-4.68488671875,5.327046875,-4.86453515625,-0.00107031249999956,-5.76001171875,-9.79296875,2.477,-9.4526875,-7.50950390625,-12.960984375,-7.73287109375,-13.03940234375,-11.87944140625,-9.69824609375,-10.40041796875,-14.02380859375,-20.48169140625,-18.31188671875,-11.9241171875,-7.3266875,-13.3995078125,-15.57567578125,-15.46303515625,-15.94365234375
-2.9831484375,-5.19287109375,-6.9373046875,-1.8313984375,-8.69263671875,-6.94379296875,-5.78988671875,5.430046875,-4.83153515625,-1.3990703125,-6.91701171875,-9.98796875,0.864,-9.1296875,-8.05250390625,-12.295984375,-7.46387109375,-11.95740234375,-11.74944140625,-9.58424609375,-10.12841796875,-14.44080859375,-20.92969140625,-18.79188671875,-12.8871171875,-8.9026875,-14.7555078125,-16.32667578125,-16.08803515625,-17.56165234375
-2.9901484375,-5.62287109375,-6.9413046875,-2.2623984375,-10.09763671875,-8.10579296875,-6.70488671875,5.709046875,-4.71953515625,-2.7180703125,-7.94801171875,-10.05096875,-0.612,-8.4836875,-8.44750390625,-11.366984375,-7.15887109375,-10.25440234375,-11.55444140625,-9.41624609375,-9.97141796875,-14.18080859375,-20.67369140625,-19.00188671875,-13.7091171875,-10.0786875,-15.6385078125,-16.78167578125,-16.39303515625,-18.77565234375
-2.5601484375,-5.82587109375,-6.3243046875,-2.6883984375,-10.88363671875,-8.79079296875,-7.13288671875,6.135046875,-4.37453515625,-3.6260703125,-8.53201171875,-9.75696875,-1.766,-7.3506875,-8.38350390625,-10.029984375,-6.66687109375,-8.02240234375,-11.04344140625,-8.88124609375,-9.59841796875,-13.28680859375,-19.62069140625,-18.73888671875,-13.9561171875,-10.6306875,-15.8805078125,-16.74467578125,-16.26903515625,-19.20365234375
-1.7191484375,-5.59787109375,-5.0613046875,-2.8893984375,-10.81763671875,-8.82779296875,-6.82788671875,6.792046875,-3.70253515625,-3.8360703125,-8.34901171875,-8.84296875,-2.406,-5.5916875,-7.48150390625,-8.088984375,-5.79087109375,-5.33540234375,-9.86744140625,-7.57224609375,-8.60441796875,-11.87880859375,-17.67569140625,-17.77188671875,-13.1951171875,-10.3936875,-15.3375078125,-15.97967578125,-15.56003515625,-18.57365234375
-0.6041484375,-4.80687109375,-3.2723046875,-2.7063984375,-9.87263671875,-8.16579296875,-5.66988671875,7.835046875,-2.70353515625,-3.1690703125,-7.16201171875,-7.15896875,-2.349,-3.1936875,-5.44950390625,-5.394984375,-4.40987109375,-2.30640234375,-7.74244140625,-5.18824609375,-6.72541796875,-10.13180859375,-14.81269140625,-15.94388671875,-11.1511171875,-9.2776875,-13.9255078125,-14.32067578125,-14.09903515625,-16.79865234375
0.5438515625,-3.52587109375,-1.2913046875,-2.1503984375,-8.29763671875,-6.94479296875,-3.81788671875,9.276046875,-1.52953515625,-1.6920703125,-5.01901171875,-4.84796875,-1.534,-0.4016875,-2.34950390625,-2.063984375,-2.63187109375,0.786597656250001,-4.70544140625,-1.82824609375,-4.07941796875,-8.32580859375,-11.23069140625,-13.37588671875,-7.9481171875,-7.4086875,-11.7545078125,-11.88767578125,-11.91203515625,-14.14965234375
1.3698515625,-2.11487109375,0.3396953125,-1.4743984375,-6.62363671875,-5.57079296875,-1.80688671875,10.813046875,-0.51153515625,0.150929687500001,-2.41301171875,-2.45496875,-0.139,2.2443125,1.20949609375,1.351015625,-0.87187109375,3.42159765625,-1.27944140625,1.84075390625,-1.27241796875,-6.86880859375,-7.48369140625,-10.60088671875,-4.2641171875,-5.2656875,-9.2585078125,-9.25267578125,-9.43403515625,-11.35465234375
1.4678515625,-1.17787109375,1.0026953125,-1.1153984375,-5.53263671875,-4.67179296875,-0.44488671875,11.863046875,-0.0935351562500002,1.5729296875,-0.248011718749998,-0.813968750000001,1.403,4.0273125,4.14849609375,3.915015625,0.24312890625,4.93059765625,1.60755859375,4.70975390625,0.74958203125,-6.20680859375,-4.42169140625,-8.47988671875,-1.2131171875,-3.6276875,-7.1535078125,-7.35467578125,-7.51203515625,-9.45665234375
0.5358515625,-1.31787109375,0.2416953125,-1.5053984375,-5.60963671875,-4.88979296875,-0.51788671875,11.824046875,-0.65453515625,1.7329296875,0.489988281250001,-0.721968750000001,2.566,4.3323125,5.32449609375,4.650015625,0.12812890625,4.77459765625,2.98955859375,5.67175390625,1.08858203125,-6.59680859375,-2.90569140625,-7.84588671875,0.0858828125000013,-3.2916875,-6.1605078125,-7.11867578125,-7.08003515625,-9.39365234375
-1.4301484375,-2.80987109375,-1.9803046875,-2.8233984375,-7.08563671875,-6.55279296875,-2.38888671875,10.412046875,-2.29353515625,0.1499296875,-0.797011718749999,-2.50996875,2.983,2.9783125,4.10849609375,3.053015625,-1.44787109375,2.86759765625,2.34955859375,4.20775390625,-0.640417968749999,-7.88480859375,-3.38169140625,-9.04388671875,-0.932117187499999,-4.6646875,-6.6115078125,-8.93867578125,-8.60403515625,-11.48065234375
-4.0251484375,-5.37887109375,-5.1573046875,-4.8183984375,-9.69763671875,-9.42179296875,-5.73088671875,7.908046875,-4.69553515625,-2.9530703125,-3.94401171875,-5.77396875,2.608,0.4003125,0.799496093749999,-0.532984375,-4.14787109375,-0.282402343749999,-0.0574414062499997,0.746753906249999,-4.01141796875,-9.48780859375,-5.58369140625,-11.63188671875,-3.9051171875,-7.4716875,-8.1735078125,-12.32567578125,-11.66603515625,-15.10465234375
-6.5611484375,-8.26887109375,-8.3873046875,-6.8713984375,-12.75763671875,-12.72879296875,-9.57588671875,5.133046875,-7.21353515625,-6.6620703125,-8.02501171875,-9.48296875,1.625,-2.4806875,-3.43650390625,-4.972984375,-7.10887109375,-3.72940234375,-3.26844140625,-3.44924609375,-7.91941796875,-10.65080859375,-8.59569140625,-14.51388671875,-7.6551171875,-10.8036875,-9.9335078125,-16.01167578125,-15.01203515625,-18.89665234375
-8.4031484375,-10.60387109375,-10.7683046875,-8.3143984375,-15.45863671875,-15.54179296875,-12.75088671875,3.072046875,-9.17853515625,-9.7970703125,-11.79201171875,-12.45896875,0.244,-4.6896875,-7.12650390625,-8.851984375,-9.32587109375,-6.51340234375,-6.09944140625,-6.89724609375,-11.10341796875,-10.87180859375,-11.27969140625,-16.50388671875,-10.7631171875,-13.5316875,-10.8705078125,-18.53167578125,-17.14603515625,-21.37865234375
-9.3351484375,-11.85887109375,-11.8383046875,-8.8413984375,-17.29163671875,-17.26679296875,-14.47988671875,2.334046875,-10.26653515625,-11.5380703125,-14.32001171875,-13.96596875,-1.452,-5.7216875,-9.25150390625,-11.178984375,-10.17087109375,-8.11240234375,-7.76444140625,-8.66624609375,-12.79041796875,-10.20680859375,-12.85269140625,-16.98288671875,-12.3151171875,-14.8736875,-10.4575078125,-18.97967578125,-17.13403515625,-21.73765234375
-9.6741484375,-12.10787109375,-11.7923046875,-8.7323984375,-18.29163671875,-17.94979296875,-14.77888671875,2.801046875,-10.67553515625,-11.8830703125,-15.45501171875,-14.04496875,-3.474,-5.7976875,-9.74750390625,-11.847984375,-9.72087109375,-8.65140234375,-8.25444140625,-8.82124609375,-13.04841796875,-9.24880859375,-13.23669140625,-16.24088671875,-12.3391171875,-14.7366875,-8.9895078125,-17.46467578125,-15.09203515625,-20.20965234375
-10.0281484375,-11.90787109375,-11.3193046875,-8.6733984375,-18.93463671875,-18.18479296875,-14.34488671875,3.769046875,-10.97353515625,-11.6050703125,-15.77901171875,-13.37596875,-5.762,-5.6926875,-9.42950390625,-11.568984375,-8.61687109375,-8.73140234375,-8.23344140625,-8.26224609375,-12.59841796875,-8.75280859375,-12.97369140625,-15.24788671875,-11.6561171875,-13.6366875,-7.3805078125,-14.93867578125,-12.00803515625,-17.80565234375
-10.8311484375,-11.88487109375,-11.1473046875,-9.2803984375,-19.75163671875,-18.67379296875,-14.04288671875,4.480046875,-11.69353515625,-11.7390703125,-16.13601171875,-12.77896875,-8.037,-6.2146875,-9.40250390625,-11.335984375,-7.55387109375,-9.02640234375,-8.54144140625,-8.08324609375,-12.24441796875,-9.15580859375,-12.79769140625,-15.01388671875,-11.2491171875,-12.2306875,-6.5575078125,-12.53767578125,-9.05803515625,-15.56865234375
-12.0251484375,-12.31187109375,-11.5803046875,-10.6823984375,-20.95363671875,-19.74579296875,-14.34488671875,4.611046875,-12.99053515625,-12.9360703125,-17.06001171875,-12.69796875,-9.82,-7.7126875,-10.36650390625,-11.806984375,-6.79887109375,-9.92040234375,-9.66344140625,-8.89824609375,-12.33741796875,-10.32280859375,-13.18569140625,-15.99988671875,-11.6221171875,-10.8486875,-6.9065078125,-10.92067578125,-6.92503515625,-13.93365234375
-13.1331484375,-12.97687109375,-12.3493046875,-12.4613984375,-22.34663671875,-21.17279296875,-15.12088671875,4.388046875,-14.58453515625,-15.1320703125,-18.50401171875,-13.02296875,-10.649,-9.9286875,-12.26850390625,-13.009984375,-6.11987109375,-11.40440234375,-11.51444140625,-10.59324609375,-12.65241796875,-11.72880859375,-14.20169140625,-17.95288671875,-12.5981171875,-9.3676875,-8.1485078125,-10.06967578125,-5.59503515625,-12.64965234375
-13.6501484375,-13.41487109375,-12.8513046875,-13.9733984375,-23.53663671875,-22.38079296875,-15.84988671875,4.296046875,-16.01353515625,-17.6760703125,-19.97601171875,-13.33196875,-10.369,-12.2656875,-14.46750390625,-14.500984375,-5.15687109375,-13.23840234375,-13.63944140625,-12.56324609375,-12.71441796875,-12.91180859375,-15.65269140625,-20.21388671875,-13.6181171875,-7.4996875,-9.6795078125,-9.60367578125,-4.68303515625,-11.22765234375
-13.4471484375,-13.28287109375,-12.5713046875,-14.7863984375,-24.23263671875,-22.88279296875,-16.05088671875,4.681046875,-16.97353515625,-19.7820703125,-20.92601171875,-13.29396875,-9.275,-14.1936875,-16.20050390625,-15.772984375,-3.89287109375,-15.17740234375,-15.57144140625,-14.19324609375,-12.27841796875,-13.82580859375,-17.33569140625,-22.16588671875,-14.2321171875,-5.2116875,-11.0435078125,-9.24667578125,-3.92403515625,-9.50365234375
-12.8541484375,-12.61387109375,-11.4003046875,-14.9123984375,-24.43163671875,-22.57179296875,-15.59388671875,5.498046875,-17.49253515625,-20.9400703125,-21.07201171875,-12.93496875,-7.973,-15.4946875,-17.00650390625,-16.572984375,-2.81887109375,-17.06340234375,-17.06444140625,-15.18424609375,-11.57141796875,-14.80180859375,-19.13469140625,-23.49188671875,-14.3931171875,-2.9276875,-12.1515078125,-9.06067578125,-3.42003515625,-7.86965234375
-12.4051484375,-11.78387109375,-9.6673046875,-14.7203984375,-24.39163671875,-21.73079296875,-14.74388671875,6.325046875,-17.83753515625,-21.0820703125,-20.49501171875,-12.58096875,-7.059,-16.2266875,-16.87050390625,-16.959984375,-2.67287109375,-18.77540234375,-18.07744140625,-15.58724609375,-11.15441796875,-16.19080859375,-20.92469140625,-24.13988671875,-14.3921171875,-1.3796875,-13.1765078125,-9.31667578125,-3.50303515625,-7.04165234375
-12.4671484375,-11.27487109375,-7.9433046875,-14.6473984375,-24.44563671875,-20.81479296875,-13.95388671875,6.619046875,-18.29053515625,-20.4900703125,-19.52301171875,-12.61396875,-6.85,-16.5316875,-16.11450390625,-17.156984375,-3.92987109375,-20.13040234375,-18.62644140625,-15.61524609375,-11.54341796875,-17.98880859375,-22.46169140625,-24.14888671875,-14.5641171875,-1.2476875,-14.2535078125,-10.18467578125,-4.41403515625,-7.61165234375
-13.0261484375,-11.40087109375,-6.7633046875,-14.9133984375,-24.79263671875,-20.18979296875,-13.57688671875,6.051046875,-18.94253515625,-19.5640703125,-18.51901171875,-13.20096875,-7.317,-16.4876875,-15.15450390625,-17.348984375,-6.39087109375,-20.87940234375,-18.67144140625,-15.43024609375,-12.85541796875,-19.76480859375,-23.38369140625,-23.52488671875,-15.0161171875,-2.8146875,-15.2795078125,-11.52667578125,-6.05203515625,-9.65265234375
-13.7291484375,-12.11887109375,-6.3823046875,-15.4083984375,-25.35763671875,-19.94779296875,-13.66288671875,4.740046875,-19.62853515625,-18.5910703125,-17.69201171875,-14.15796875,-8.169,-16.0656875,-14.26250390625,-17.520984375,-9.15787109375,-20.78840234375,-18.10144140625,-15.00324609375,-14.67641796875,-20.88180859375,-23.34369140625,-22.21388671875,-15.5121171875,-5.8016875,-15.8985078125,-12.90367578125,-7.94703515625,-12.61465234375
-14.0941484375,-13.01887109375,-6.6513046875,-15.7643984375,-25.79963671875,-19.85579296875,-13.92488671875,3.230046875,-20.00053515625,-17.6060703125,-17.00401171875,-14.97596875,-9,-15.1766875,-13.41950390625,-17.403984375,-11.01387109375,-19.76240234375,-16.80244140625,-14.10224609375,-16.20041796875,-20.83380859375,-22.16269140625,-20.16388671875,-15.5741171875,-9.4136875,-15.6735078125,-13.75467578125,-9.43903515625,-15.51265234375
-13.7391484375,-13.49087109375,-7.0803046875,-15.5653984375,-25.64363671875,-19.46879296875,-13.87788671875,2.252046875,-19.69253515625,-16.4110703125,-16.20401171875,-15.02096875,-9.424,-13.7416875,-12.35450390625,-16.571984375,-11.02487109375,-17.91640234375,-14.75344140625,-12.42024609375,-16.58641796875,-19.48780859375,-19.94769140625,-17.41188671875,-14.7221171875,-12.5916875,-14.3275078125,-13.65767578125,-9.96903515625,-17.32565234375
-12.5451484375,-13.03287109375,-7.0923046875,-14.5763984375,-24.49563671875,-18.37179296875,-13.07588671875,2.397046875,-18.50353515625,-14.7350703125,-14.98901171875,-13.82396875,-9.216,-11.7776875,-10.74450390625,-14.680984375,-8.98887109375,-15.57140234375,-12.11144140625,-9.79824609375,-15.37241796875,-17.13880859375,-17.12069140625,-14.17888671875,-12.7511171875,-14.3866875,-11.9325078125,-12.53667578125,-9.33403515625,-17.42865234375
-10.6851484375,-11.50887109375,-6.3193046875,-12.8783984375,-22.24463671875,-16.44379296875,-11.34488671875,3.881046875,-16.51853515625,-12.4760703125,-13.20501171875,-11.33696875,-8.39,-9.4626875,-8.49450390625,-11.715984375,-5.51087109375,-13.17640234375,-9.25744140625,-6.42124609375,-12.71141796875,-14.39180859375,-14.34569140625,-10.90488671875,-9.8841171875,-14.3316875,-8.9385078125,-10.73167578125,-7.80303515625,-15.85065234375
-8.5511484375,-9.24187109375,-4.7983046875,-10.8493984375,-19.19363671875,-13.98379296875,-8.91388671875,6.458046875,-14.11553515625,-9.8700703125,-11.00201171875,-7.99496875,-7.168,-7.1686875,-5.90650390625,-8.099984375,-1.67387109375,-11.19840234375,-6.74144140625,-2.86724609375,-9.32341796875,-11.95980859375,-12.35969140625,-8.18388671875,-6.7451171875,-12.6156875,-6.0355078125,-8.88967578125,-6.01603515625,-13.26665234375
-6.6011484375,-6.88087109375,-2.9453046875,-8.9923984375,-16.00463671875,-11.62479296875,-6.37088671875,9.505046875,-11.86553515625,-7.5030703125,-8.83401171875,-4.57796875,-5.871,-5.4206875,-3.63950390625,-4.592984375,1.45312890625,-10.04740234375,-5.15344140625,0.0627539062500002,-6.17041796875,-10.47380859375,-11.75569140625,-6.61188671875,-4.1341171875,-9.9946875,-3.9155078125,-7.74367578125,-4.72403515625,-10.70665234375
-5.1991484375,-5.12987109375,-1.3523046875,-7.7203984375,-13.45463671875,-10.07579296875,-4.42788671875,12.257046875,-10.34453515625,-6.0990703125,-7.29401171875,-1.91696875,-4.805,-4.7606875,-2.45150390625,-2.012984375,3.22412890625,-10.00040234375,-4.93644140625,1.65075390625,-4.05241796875,-10.35480859375,-12.80469140625,-6.58588671875,-2.7351171875,-7.4766875,-3.0335078125,-7.83867578125,-4.49403515625,-9.13365234375
-4.5171484375,-4.45987109375,-0.5023046875,-7.1903984375,-12.09963671875,-9.80979296875,-3.60788671875,14.097046875,-9.92053515625,-6.1790703125,-6.85201171875,-0.587968750000001,-4.19,-5.5196875,-2.84150390625,-0.925984374999999,3.57712890625,-11.12740234375,-6.20844140625,1.56975390625,-3.32641796875,-11.72180859375,-15.34369140625,-8.11488671875,-2.8501171875,-5.9036875,-3.4555078125,-9.33767578125,-5.48903515625,-9.04865234375
-4.4971484375,-4.90687109375,-0.5233046875,-7.2733984375,-12.01363671875,-10.81679296875,-3.99688671875,14.771046875,-10.59153515625,-7.7390703125,-7.61401171875,-0.689968750000001,-4.085,-7.6046875,-4.75350390625,-1.421984375,2.96312890625,-13.20940234375,-8.65144140625,0.0387539062499993,-3.81541796875,-14.29880859375,-18.77369140625,-10.72088671875,-4.2791171875,-5.6306875,-4.8125078125,-11.93167578125,-7.38803515625,-10.30165234375
-4.8811484375,-6.02587109375,-1.1033046875,-7.6463984375,-12.75363671875,-12.54179296875,-5.18288671875,14.452046875,-11.95653515625,-10.1520703125,-9.20501171875,-1.79596875,-4.358,-10.4396875,-7.51550390625,-3.076984375,2.14712890625,-15.72040234375,-11.54644140625,-2.24124609375,-4.93341796875,-17.40680859375,-22.17769140625,-13.52188671875,-6.3831171875,-6.4046875,-6.4045078125,-14.89767578125,-9.48803515625,-12.17065234375
-5.3071484375,-7.07787109375,-1.6353046875,-7.9563984375,-13.55163671875,-14.06979296875,-6.39988671875,13.647046875,-13.34253515625,-12.3640703125,-10.85801171875,-3.11396875,-4.762,-13.1246875,-10.07250390625,-5.104984375,1.92312890625,-17.93540234375,-13.98244140625,-4.36524609375,-5.94741796875,-20.10380859375,-24.57969140625,-15.52588671875,-8.3241171875,-7.5216875,-7.4505078125,-17.31667578125,-10.94903515625,-13.68765234375
-5.4481484375,-7.36387109375,-1.5333046875,-7.9623984375,-13.67063671875,-14.51079296875,-6.85788671875,12.977046875,-14.06453515625,-13.3340703125,-11.71601171875,-3.84296875,-5.092,-14.7836875,-11.42250390625,-6.676984375,2.79312890625,-19.15640234375,-15.18344140625,-5.59124609375,-6.30541796875,-21.51280859375,-25.28169140625,-16.04188671875,-9.4191171875,-8.2136875,-7.4135078125,-18.39867578125,-11.15203515625,-14.07765234375
-5.1301484375,-6.54487109375,-0.5473046875,-7.6093984375,-12.75463671875,-13.39879296875,-6.10788671875,12.897046875,-13.69853515625,-12.5080703125,-11.20801171875,-3.53596875,-5.306,-14.9126875,-11.05450390625,-7.237984375,4.71412890625,-18.98140234375,-14.81844140625,-5.62924609375,-5.87241796875,-21.18580859375,-24.14369140625,-15.02988671875,-9.4341171875,-8.0836875,-6.2835078125,-17.82867578125,-9.99603515625,-13.11465234375
-4.3621484375,-4.79187109375,1.1226953125,-7.0013984375,-10.99663671875,-10.90279296875,-4.24888671875,13.479046875,-12.25653515625,-10.0660703125,-9.32201171875,-2.26496875,-5.476,-13.5596875,-9.14850390625,-6.676984375,7.10012890625,-17.47140234375,-13.13644140625,-4.69924609375,-4.95341796875,-19.31780859375,-21.65669140625,-13.14288671875,-8.6781171875,-7.3346875,-4.6275078125,-15.93367578125,-7.97903515625,-11.21865234375
-3.2661484375,-2.64987109375,2.9776953125,-6.2993984375,-9.01163671875,-7.72779296875,-1.84088671875,14.429046875,-10.15953515625,-6.8180703125,-6.59001171875,-0.515968750000001,-5.628,-11.2596875,-6.44050390625,-5.286984375,9.11712890625,-15.11840234375,-10.82444140625,-3.33924609375,-4.08241796875,-16.65580859375,-18.73869140625,-11.40988671875,-7.8061171875,-6.6356875,-3.3225078125,-13.55367578125,-5.97203515625,-9.21665234375
-1.9761484375,-0.74387109375,4.5176953125,-5.5953984375,-7.46163671875,-4.76479296875,0.41811328125,15.309046875,-8.01953515625,-3.8050703125,-3.80301171875,1.11503125,-5.63,-8.7676875,-3.84250390625,-3.564984375,10.13512890625,-12.62240234375,-8.67444140625,-2.09024609375,-3.71041796875,-14.13580859375,-16.31569140625,-10.70988671875,-7.4391171875,-6.6756875,-3.0855078125,-11.61367578125,-4.76503515625,-7.88365234375
-0.5871484375,0.53812890625,5.5006953125,-4.8423984375,-6.68563671875,-2.68879296875,2.04411328125,15.805046875,-6.34053515625,-1.8020703125,-1.62501171875,2.22203125,-5.218,-6.7196875,-2.02050390625,-1.991984375,10.05812890625,-10.58240234375,-7.20444140625,-1.22624609375,-3.96541796875,-12.43180859375,-14.91369140625,-11.31688671875,-7.8201171875,-7.6896875,-4.0555078125,-10.63867578125,-4.65503515625,-7.53265234375
0.8518515625,1.18812890625,6.0186953125,-3.8683984375,-6.53963671875,-1.67579296875,2.94311328125,15.844046875,-5.29253515625,-1.0090703125,-0.328011718749998,2.73003125,-4.163,-5.3976875,-1.12650390625,-0.885984375,9.31612890625,-9.25640234375,-6.46344140625,-0.69724609375,-4.61941796875,-11.67380859375,-14.46269140625,-12.79288671875,-8.7171171875,-9.2526875,-5.7225078125,-10.49167578125,-5.30203515625,-7.89265234375
2.2978515625,1.51812890625,6.3926953125,-2.4733984375,-6.53463671875,-1.40179296875,3.36611328125,15.566046875,-4.66953515625,-1.0490703125,0.236988281250001,2.81703125,-2.458,-4.6976875,-0.834503906250001,-0.390984374999999,8.53812890625,-8.51340234375,-6.11144140625,-0.265246093749999,-5.26841796875,-11.49480859375,-14.42469140625,-14.28688671875,-9.6191171875,-10.5086875,-7.2395078125,-10.49667578125,-5.96103515625,-8.33665234375
3.6918515625,1.92512890625,6.9616953125,-0.5543984375,-6.14763671875,-1.29479296875,3.71811328125,15.220046875,-4.06053515625,-1.2800703125,0.454988281250001,2.71903125,-0.39,-4.3036875,-0.623503906250001,-0.525984374999998,8.16612890625,-7.99540234375,-5.72544140625,0.250753906250001,-5.59941796875,-11.34080859375,-14.18369140625,-15.04388671875,-10.0981171875,-10.6826875,-7.9425078125,-9.89967578125,-5.95303515625,-8.29365234375
4.9508515625,2.65112890625,7.8786953125,1.8026015625,-5.11463671875,-0.883792968750001,4.34711328125,15.041046875,-3.11053515625,-1.1940703125,0.681988281250002,2.56603125,1.573,-3.9376875,-0.150503906250002,-1.239984375,8.22512890625,-7.38840234375,-5.11344140625,0.811753906250001,-5.56241796875,-10.83180859375,-13.43369140625,-14.83188671875,-10.0831171875,-9.5646875,-7.7515078125,-8.37167578125,-5.07703515625,-7.59065234375
5.9848515625,3.65612890625,9.0176953125,4.3046015625,-3.57763671875,-0.0407929687500013,5.38211328125,15.132046875,-1.72453515625,-0.6750703125,1.05298828125,2.35603125,3.036,-3.5176875,0.537496093749999,-2.377984375,8.39412890625,-6.61640234375,-4.43144140625,1.18275390625,-5.34441796875,-9.91880859375,-12.33469140625,-14.02488671875,-9.8631171875,-7.6226875,-7.1765078125,-6.25367578125,-3.72903515625,-6.53965234375
6.7488515625,4.67412890625,10.0526953125,6.5356015625,-1.98763671875,0.987207031249999,6.69211328125,15.405046875,-0.0965351562499999,0.00692968750000045,1.47498828125,2.06003125,3.894,-3.1436875,1.06649609375,-3.620984375,8.27812890625,-5.84140234375,-4.03644140625,1.14875390625,-5.17141796875,-8.81480859375,-11.34469140625,-13.31388671875,-9.8221171875,-5.6986875,-6.9575078125,-4.36067578125,-2.65003515625,-5.73665234375
7.2768515625,5.39412890625,10.6466953125,8.1226015625,-0.828636718749999,1.77520703125,7.98911328125,15.673046875,1.43946484375,0.4369296875,1.76898828125,1.76703125,4.363,-2.9456875,1.03149609375,-4.455984375,7.72812890625,-5.27640234375,-4.18344140625,0.753753906249999,-5.07341796875,-7.78980859375,-10.87069140625,-13.22788671875,-10.0871171875,-4.4786875,-7.5565078125,-3.49267578125,-2.47503515625,-5.67565234375
7.6798515625,5.66712890625,10.6676953125,8.9056015625,-0.324636718749998,2.00320703125,9.02211328125,15.830046875,2.64846484375,0.352929687500001,1.85498828125,1.75203125,4.789,-2.9076875,0.335496093749999,-4.270984375,7.02212890625,-4.97340234375,-4.77444140625,0.42575390625,-4.76141796875,-7.02280859375,-10.96069140625,-13.77588671875,-10.3261171875,-4.0686875,-8.8225078125,-3.93867578125,-3.33803515625,-6.41865234375
8.0928515625,5.63212890625,10.2926953125,9.0096015625,-0.325636718749999,1.67320703125,9.74811328125,15.980046875,3.52846484375,-0.1740703125,1.86398828125,2.41003125,5.376,-2.8146875,-0.653503906250002,-2.557984375,6.82212890625,-4.75240234375,-5.32244140625,0.85175390625,-3.70841796875,-6.55180859375,-11.24969140625,-14.40088671875,-9.8541171875,-3.9316875,-10.0255078125,-5.30467578125,-4.78703515625,-7.50965234375
8.5828515625,5.63712890625,9.9296953125,8.7516015625,-0.449636718749998,1.10820703125,10.35011328125,16.372046875,4.26546484375,-0.8110703125,2.06298828125,4.06003125,6.026,-2.3836875,-1.27950390625,0.827015625000001,7.86712890625,-4.34540234375,-5.20044140625,2.61875390625,-1.41941796875,-6.32380859375,-11.20369140625,-14.33288671875,-8.0191171875,-3.2416875,-10.2765078125,-6.77067578125,-6.05303515625,-8.22265234375
9.0918515625,5.99812890625,9.9826953125,8.4226015625,-0.377636718749999,0.714207031249999,11.07211328125,17.176046875,5.01146484375,-1.2370703125,2.63498828125,6.68303125,6.384,-1.5266875,-1.02250390625,5.432015625,10.53812890625,-3.64840234375,-4.06744140625,5.78875390625,2.20558203125,-6.30480859375,-10.52169140625,-13.11688671875,-4.6771171875,-1.4626875,-9.0815078125,-7.62767578125,-6.53103515625,-8.02265234375
9.4488515625,6.73112890625,10.5956953125,8.1086015625,-0.087636718749998,0.674207031249999,12.00311328125,18.288046875,5.66246484375,-1.4160703125,3.47998828125,9.76403125,6.08,-0.5446875,0.101496093749999,10.203015625,14.49712890625,-2.90740234375,-2.18344140625,9.67175390625,6.61758203125,-6.56680859375,-9.43569140625,-11.00188671875,-0.464117187499999,1.2073125,-6.7155078125,-7.73467578125,-6.16103515625,-6.93765234375
9.4648515625,7.48112890625,11.5406953125,7.6646015625,0.118363281250002,0.823207031249999,12.94911328125,19.279046875,5.83846484375,-1.6490703125,4.18598828125,12.39703125,5.004,-0.0596874999999999,1.46249609375,13.761015625,18.66612890625,-2.65340234375,-0.380441406249998,13.01075390625,10.68358203125,-7.28080859375,-8.64969140625,-8.88188671875,3.3638828125,3.8273125,-4.1355078125,-7.59167578125,-5.46603515625,-5.59965234375
9.0278515625,7.71312890625,12.3326953125,6.8786015625,-0.189636718749998,0.795207031249999,13.51111328125,19.549046875,5.09446484375,-2.3550703125,4.23398828125,13.64403125,3.446,-0.6746875,2.13849609375,14.939015625,21.60412890625,-3.41640234375,0.344558593750001,14.53675390625,13.08458203125,-8.60280859375,-8.95269140625,-7.82988671875,5.4598828125,5.1653125,-2.5055078125,-8.00067578125,-5.21503515625,-4.91665234375
8.1548515625,7.04412890625,12.4916953125,5.6706015625,-1.28763671875,0.308207031249999,13.32311328125,18.642046875,3.23046484375,-3.7500703125,3.31398828125,12.97503125,1.962,-2.5946875,1.42949609375,13.289015625,22.13912890625,-5.39940234375,-0.65044140625,13.56775390625,12.88058203125,-10.53580859375,-10.75269140625,-8.52988671875,5.0018828125,4.3183125,-2.6125078125,-9.55767578125,-5.96903515625,-5.59965234375
6.9768515625,5.49712890625,11.8066953125,4.2216015625,-3.06663671875,-0.612792968750001,12.32011328125,16.553046875,0.50746484375,-5.6290703125,1.56598828125,10.54803125,1.05,-5.4476875,-0.743503906250002,9.328015625,19.93012890625,-8.31740234375,-3.30944140625,10.35475390625,9.95858203125,-12.85780859375,-13.82169140625,-10.91888671875,2.0718828125,1.1873125,-4.4955078125,-12.27767578125,-7.77703515625,-7.78765234375
5.7078515625,3.54912890625,10.4836953125,2.9236015625,-5.00363671875,-1.60479296875,10.87011328125,13.863046875,-2.36553515625,-7.3870703125,-0.402011718749998,7.19603125,0.867,-8.3946875,-3.74950390625,4.385015625,15.68612890625,-11.47740234375,-6.86444140625,5.99575390625,5.14858203125,-15.13880859375,-17.35069140625,-14.20488671875,-2.3661171875,-3.4406875,-7.4295078125,-15.52267578125,-10.13303515625,-10.97065234375
4.6148515625,1.94412890625,9.0906953125,2.2126015625,-6.36263671875,-2.11679296875,9.65811328125,11.548046875,-4.49053515625,-8.2480703125,-1.74401171875,4.11703125,1.195,-10.4676875,-6.48650390625,0.117015625000001,10.89312890625,-14.03240234375,-10.13444140625,1.99775390625,-0.0524179687499995,-16.85480859375,-20.27269140625,-17.20688671875,-6.8501171875,-8.2036875,-10.2525078125,-18.26267578125,-12.20403515625,-14.19765234375
3.9668515625,1.33912890625,8.2916953125,2.3426015625,-6.55763671875,-1.69379296875,9.35511328125,10.542046875,-5.18953515625,-7.6410703125,-1.77301171875,2.38403125,1.645,-10.9836875,-7.88150390625,-2.150984375,7.18212890625,-15.31440234375,-12.00944140625,-0.33124609375,-4.06641796875,-17.56580859375,-21.69369140625,-18.84688671875,-10.0081171875,-11.7346875,-11.8755078125,-19.54467578125,-13.20603515625,-16.48865234375
3.9568515625,1.97612890625,8.5146953125,3.2486015625,-5.46663671875,-0.247792968750001,10.27211328125,11.315046875,-4.34753515625,-5.5180703125,-0.323011718749999,2.49503125,1.923,-9.8506875,-7.38950390625,-1.948984375,5.65812890625,-15.06740234375,-11.91844140625,-0.40824609375,-5.86841796875,-17.11380859375,-21.25269140625,-18.60288671875,-11.0911171875,-13.2126875,-11.7405078125,-18.93767578125,-12.76603515625,-17.23965234375
4.6288515625,3.57512890625,9.7396953125,4.5866015625,-3.49563671875,1.87120703125,12.19011328125,13.690046875,-2.46553515625,-2.4220703125,2.15798828125,4.21303125,1.984,-7.5866875,-5.22850390625,0.200015625000001,6.54612890625,-13.49540234375,-10.03844140625,1.44775390625,-5.35741796875,-15.68480859375,-19.21969140625,-16.67688671875,-10.2011171875,-12.6266875,-10.0155078125,-16.70067578125,-11.05903515625,-16.41865234375
5.8828515625,5.53412890625,11.5636953125,5.9076015625,-1.35463671875,4.09220703125,14.49211328125,16.975046875,-0.36153515625,0.770929687500001,4.85198828125,6.76203125,2.007,-5.0266875,-2.20550390625,3.121015625,9.26712890625,-11.10340234375,-7.14244140625,4.27775390625,-3.24941796875,-13.69580859375,-16.28969140625,-13.82388671875,-8.1131171875,-10.6326875,-7.4395078125,-13.58767578125,-8.65703515625,-14.46365234375
7.5148515625,7.26112890625,13.4516953125,6.8576015625,0.311363281250001,5.96220703125,16.47711328125,20.280046875,1.23846484375,3.2719296875,6.98498828125,9.24403125,2.22,-2.9096875,0.730496093749998,5.575015625,12.80212890625,-8.49340234375,-4.20144140625,6.97675390625,-0.64441796875,-11.61280859375,-13.24469140625,-10.98288671875,-5.8511171875,-8.1546875,-4.9675078125,-10.48467578125,-6.22803515625,-12.03365234375
9.2448515625,8.40812890625,14.9926953125,7.2526015625,1.18636328125,7.34120703125,17.64811328125,22.843046875,1.96446484375,4.6829296875,8.14298828125,10.97303125,2.708,-1.6236875,2.88249609375,6.741015625,16.08212890625,-6.22840234375,-2.02544140625,8.72175390625,1.44358203125,-9.87680859375,-10.71469140625,-8.94788671875,-4.2781171875,-6.0146875,-3.4465078125,-8.12467578125,-4.31303515625,-9.79065234375
10.7288515625,8.89712890625,15.9936953125,7.0596015625,1.31936328125,8.32920703125,17.83111328125,24.230046875,1.80946484375,5.0369296875,8.33498828125,11.62103125,3.314,-1.1986875,3.97749609375,6.404015625,18.27512890625,-4.76940234375,-1.06144140625,9.16175390625,2.38158203125,-8.92080859375,-9.12169140625,-8.19988671875,-3.8631171875,-4.7326875,-3.4115078125,-6.97767578125,-3.25403515625,-8.27065234375
11.6398515625,8.84012890625,16.4566953125,6.3556015625,0.996363281250002,9.08020703125,17.16411328125,24.398046875,1.00146484375,4.6729296875,7.87198828125,11.21703125,3.732,-1.4206875,4.13749609375,4.893015625,18.98612890625,-4.39140234375,-1.34144140625,8.41075390625,2.03458203125,-9.10380859375,-8.66469140625,-8.82888671875,-4.6171171875,-4.4736875,-4.9585078125,-7.20967578125,-3.18403515625,-7.79165234375
11.7958515625,8.43312890625,16.4816953125,5.3286015625,0.596363281250001,9.65220703125,16.01211328125,23.663046875,-0.11253515625,4.0669296875,7.19898828125,10.09503125,3.668,-1.9516875,3.74549609375,2.882015625,18.37512890625,-5.05640234375,-2.50544140625,6.92375390625,0.744582031250001,-10.50780859375,-9.27469140625,-10.52188671875,-6.1491171875,-5.0696875,-7.6845078125,-8.64967578125,-4.01303515625,-8.36265234375
11.2358515625,7.85112890625,16.1536953125,4.2656015625,0.477363281250001,9.93820703125,14.85311328125,22.607046875,-1.16353515625,3.6719296875,6.71698828125,8.76503125,2.9,-2.4466875,3.24049609375,1.096015625,17.09312890625,-6.38540234375,-3.94744140625,5.27975390625,-0.844417968749999,-12.77980859375,-10.63269140625,-12.67188671875,-7.8491171875,-6.1186875,-10.7975078125,-10.84767578125,-5.48203515625,-9.68565234375
10.1738515625,7.14512890625,15.4486953125,3.4686015625,0.896363281250002,9.68420703125,14.11511328125,21.901046875,-1.87353515625,3.7709296875,6.63898828125,7.70203125,1.24,-2.6796875,2.91449609375,0.0300156250000008,15.99112890625,-7.81540234375,-5.07244140625,3.92875390625,-2.08441796875,-15.26580859375,-12.31269140625,-14.63888671875,-9.1711171875,-7.1826875,-13.4365078125,-13.27367578125,-7.29503515625,-11.33065234375
8.8608515625,6.23712890625,14.2606953125,3.1326015625,1.95036328125,8.60920703125,14.03111328125,22.065046875,-2.13653515625,4.3929296875,6.93998828125,7.15203125,-1.455,-2.6116875,2.81049609375,-0.214984374999998,15.71712890625,-8.87840234375,-5.54844140625,3.02475390625,-2.61141796875,-17.35680859375,-13.99569140625,-16.02888671875,-9.8541171875,-7.9786875,-15.0475078125,-15.55867578125,-9.26903515625,-12.94965234375
7.4718515625,5.03812890625,12.5426953125,3.2586015625,3.54136328125,6.62420703125,14.55711328125,23.222046875,-2.03253515625,5.3719296875,7.44698828125,7.07603125,-5.142,-2.3596875,2.80249609375,0.141015625000001,16.42712890625,-9.41440234375,-5.39744140625,2.45775390625,-2.44341796875,-18.80880859375,-15.57369140625,-16.81488671875,-9.9661171875,-8.4586875,-15.5935078125,-17.59967578125,-11.34603515625,-14.40765234375
6.0768515625,3.59112890625,10.4486953125,3.6516015625,5.41136328125,4.00320703125,15.42011328125,25.015046875,-1.76253515625,6.4749296875,7.98398828125,7.24503125,-9.448,-2.0706875,2.77049609375,0.748015625000001,17.77312890625,-9.60140234375,-4.90344140625,2.01675390625,-1.88541796875,-19.81980859375,-17.09169140625,-17.26088671875,-9.7831171875,-8.7596875,-15.5085078125,-19.50267578125,-13.51103515625,-15.74965234375
6.0768515625,3.59112890625,10.4486953125,3.6516015625,5.41136328125,4.00320703125,15.42011328125,25.015046875,-1.76253515625,6.4749296875,7.98398828125,7.24503125,-9.448,-2.0706875,2.77049609375,0.748015625000001,17.77312890625,-9.60140234375,-4.90344140625,2.01675390625,-1.88541796875,-19.81980859375,-17.09169140625,-17.26088671875,-9.7831171875,-8.7596875,-15.5085078125,-19.50267578125,-13.51103515625,-15.74965234375
