"Fp1","Fpz","Fp2","F7","F3","Fz","F4","F8","FC5","FC1","FC2","FC6","T7","C3","Cz","C4","T8","CP5","CP1","CP2","CP6","P7","P3","Pz","P4","P8","POz","O1","Oz","O2"
-10.32614453125,-11.312671875,-6.91548046875,-11.97425390625,-11.52401171875,-9.84166015625,-10.75065625,-11.69039453125,-10.31900390625,-17.431109375,-15.98963671875,-11.3833828125,-9.0717578125,-18.12673046875,-10.06278125,-10.00596875,-4.4249453125,-11.14573828125,-13.45809375,-12.705171875,-9.5428515625,-12.05171484375,-13.43455078125,-13.2792734375,-10.77744140625,-7.58176953125,-0.48232421875,-12.43516796875,-10.94716796875,-9.9396796875
-10.69514453125,-11.411671875,-8.09848046875,-13.40625390625,-11.92801171875,-11.46466015625,-12.78165625,-12.14439453125,-12.43000390625,-17.685109375,-15.19163671875,-11.2143828125,-10.3267578125,-18.48973046875,-9.91678125,-9.80196875,-10.0419453125,-12.97773828125,-13.92809375,-13.415171875,-9.8468515625,-11.99771484375,-14.44255078125,-14.7562734375,-12.04344140625,-8.17876953125,-2.83132421875,-15.09516796875,-12.63916796875,-12.2736796875
-11.30714453125,-12.067671875,-8.52348046875,-13.46425390625,-12.43301171875,-13.00966015625,-15.15865625,-12.75739453125,-13.43700390625,-18.057109375,-15.06063671875,-11.0103828125,-10.1437578125,-19.05673046875,-10.26578125,-9.79396875,-13.1049453125,-14.54873828125,-14.63209375,-14.312171875,-10.4648515625,-12.40171484375,-15.63455078125,-16.3922734375,-13.53544140625,-9.30976953125,-5.35232421875,-18.00616796875,-14.61716796875,-14.4776796875
-12.01914453125,-13.089671875,-8.18948046875,-12.22125390625,-13.01801171875,-14.35566015625,-17.61265625,-13.27339453125,-13.36700390625,-18.478109375,-15.62063671875,-10.7383828125,-8.3387578125,-19.70973046875,-11.08378125,-9.99596875,-13.6159453125,-15.54373828125,-15.41609375,-15.286171875,-11.4108515625,-13.10271484375,-16.83655078125,-18.0552734375,-15.13544140625,-10.90776953125,-7.87232421875,-20.90116796875,-16.71316796875,-16.3956796875
-12.50514453125,-13.997671875,-7.35448046875,-10.24025390625,-13.53801171875,-15.31966015625,-19.56265625,-13.32939453125,-12.55800390625,-18.758109375,-16.64563671875,-10.3913828125,-5.1587578125,-20.18673046875,-12.14178125,-10.35296875,-12.1869453125,-15.66473828125,-16.00409375,-16.123171875,-12.5748515625,-13.70171484375,-17.73455078125,-19.5012734375,-16.57344140625,-12.63376953125,-10.09332421875,-23.29516796875,-18.56116796875,-17.7956796875
-12.40814453125,-14.266671875,-6.45548046875,-8.31225390625,-13.74101171875,-15.71666015625,-20.32765625,-12.73839453125,-11.42200390625,-18.653109375,-17.75363671875,-10.0523828125,-1.3737578125,-20.20473046875,-13.10378125,-10.76096875,-9.6729453125,-14.85873828125,-16.17309375,-16.615171875,-13.7758515625,-13.75671484375,-18.05455078125,-20.4902734375,-17.55944140625,-14.02376953125,-11.73932421875,-24.70716796875,-19.76116796875,-18.4356796875
-11.55114453125,-13.633671875,-5.95948046875,-7.11425390625,-13.38001171875,-15.43866015625,-19.46065625,-11.69539453125,-10.25600390625,-17.982109375,-18.55463671875,-9.8923828125,1.7372421875,-19.61273046875,-13.66778125,-11.10896875,-6.9939453125,-13.43773828125,-15.89409375,-16.688171875,-14.8348515625,-13.03171484375,-17.74155078125,-20.9292734375,-17.92444140625,-14.68676953125,-12.71932421875,-24.89116796875,-20.08816796875,-18.2026796875
-10.07214453125,-12.242671875,-6.17348046875,-6.93925390625,-12.34201171875,-14.53366015625,-17.01865625,-10.71239453125,-9.19500390625,-16.707109375,-18.77763671875,-10.0893828125,2.7952421875,-18.47073046875,-13.66878125,-11.30696875,-5.0629453125,-11.97273828125,-15.34309375,-16.421171875,-15.5978515625,-11.63271484375,-17.01155078125,-20.9212734375,-17.68444140625,-14.45676953125,-13.15432421875,-23.94416796875,-19.59116796875,-17.1966796875
-8.37714453125,-10.550671875,-7.05748046875,-7.56625390625,-10.70501171875,-13.19366015625,-13.61365625,-10.30439453125,-8.25700390625,-14.944109375,-18.32763671875,-10.6803828125,1.0942421875,-16.99773046875,-13.10878125,-11.30796875,-4.5629453125,-11.00173828125,-14.77309375,-15.977171875,-15.9258515625,-9.95771484375,-16.22055078125,-20.6872734375,-16.98544140625,-13.41976953125,-13.27932421875,-22.22916796875,-18.51816796875,-15.7036796875
-6.93014453125,-9.052671875,-8.17848046875,-8.33325390625,-8.70701171875,-11.68266015625,-10.22065625,-10.59439453125,-7.42700390625,-12.925109375,-17.27963671875,-11.4653828125,-2.7297578125,-15.45673046875,-12.12878125,-11.10596875,-5.5849453125,-10.74673828125,-14.35909375,-15.504171875,-15.6888515625,-8.49171484375,-15.65955078125,-20.4222734375,-16.01644140625,-11.85376953125,-13.28332421875,-20.18316796875,-17.16716796875,-14.0766796875
-6.04714453125,-8.042671875,-8.89548046875,-8.43225390625,-6.67601171875,-10.25866015625,-7.85465625,-11.21239453125,-6.71200390625,-10.954109375,-15.84163671875,-12.0673828125,-6.7767578125,-14.07473046875,-10.96478125,-10.74296875,-7.4819453125,-11.03973828125,-14.12709375,-15.083171875,-14.8548515625,-7.57571484375,-15.40655078125,-20.2022734375,-14.95644140625,-10.16576953125,-13.22532421875,-18.13916796875,-15.75616796875,-12.6116796875
-5.81814453125,-7.540671875,-8.74348046875,-7.30925390625,-4.97401171875,-9.13466015625,-7.20965625,-11.57339453125,-6.16000390625,-9.358109375,-14.30763671875,-12.1563828125,-8.8487578125,-13.01773046875,-9.88978125,-10.29596875,-9.2119453125,-11.48873828125,-13.97209375,-14.718171875,-13.5758515625,-7.27471484375,-15.32555078125,-19.9672734375,-13.96544140625,-8.79476953125,-13.03832421875,-16.25616796875,-14.38016796875,-11.4826796875
-6.12714453125,-7.384671875,-7.75548046875,-4.96525390625,-3.91001171875,-8.44466015625,-8.36765625,-11.32739453125,-5.81200390625,-8.409109375,-12.96363671875,-11.6403828125,-7.7527578125,-12.38873046875,-9.12578125,-9.84096875,-9.9779453125,-11.74173828125,-13.73409375,-14.343171875,-12.1788515625,-7.40171484375,-15.16555078125,-19.5772734375,-13.14444140625,-8.08476953125,-12.59732421875,-14.54816796875,-13.03116796875,-10.6996796875
-6.73914453125,-7.361671875,-6.45748046875,-1.98925390625,-3.64901171875,-8.20866015625,-10.68565625,-10.57539453125,-5.66700390625,-8.235109375,-11.98363671875,-10.6813828125,-4.0617578125,-12.19473046875,-8.75378125,-9.38796875,-9.6669453125,-11.65873828125,-13.26909375,-13.839171875,-10.9998515625,-7.66471484375,-14.69255078125,-18.8722734375,-12.48044140625,-8.10576953125,-11.77932421875,-12.96116796875,-11.64116796875,-10.1096796875
-7.38014453125,-7.282671875,-5.53348046875,0.69774609375,-4.15201171875,-8.29666015625,-12.98765625,-9.72839453125,-5.68100390625,-8.765109375,-11.36263671875,-9.5263828125,0.1662421875,-12.32373046875,-8.68078125,-8.84696875,-8.7799453125,-11.30973828125,-12.51109375,-13.070171875,-10.1848515625,-7.81271484375,-13.79155078125,-17.7382734375,-11.82544140625,-8.57676953125,-10.50132421875,-11.44516796875,-10.13316796875,-9.4406796875
-7.82814453125,-7.020671875,-5.40148046875,2.22374609375,-5.19401171875,-8.49666015625,-14.05265625,-9.17739453125,-5.82200390625,-9.760109375,-10.96363671875,-8.3243828125,2.5342421875,-12.57673046875,-8.71778125,-8.09596875,-8.0449453125,-10.86473828125,-11.50209375,-11.960171875,-9.6128515625,-7.70771484375,-12.49655078125,-16.1642734375,-10.96244140625,-8.97376953125,-8.74032421875,-9.98216796875,-8.46016796875,-8.4356796875
-8.00114453125,-6.524671875,-6.00348046875,2.11274609375,-6.46901171875,-8.63766015625,-13.17865625,-9.05539453125,-6.08700390625,-10.923109375,-10.64363671875,-7.0783828125,1.6412421875,-12.76773046875,-8.72178125,-7.10596875,-8.0069453125,-10.46573828125,-10.39209375,-10.577171875,-9.0168515625,-7.32071484375,-10.97455078125,-14.2882734375,-9.74844140625,-8.80676953125,-6.55132421875,-8.57416796875,-6.64616796875,-7.0136796875
-7.98714453125,-5.845671875,-6.88848046875,0.47174609375,-7.71801171875,-8.70066015625,-10.50965625,-9.20739453125,-6.46800390625,-12.033109375,-10.38363671875,-5.7463828125,-2.1427578125,-12.82573046875,-8.69978125,-6.03696875,-8.7619453125,-10.16973828125,-9.40709375,-9.164171875,-8.2048515625,-6.70771484375,-9.46955078125,-12.3982734375,-8.25144140625,-7.89576953125,-4.09432421875,-7.22516796875,-4.81016796875,-5.3556796875
-7.99114453125,-5.145671875,-7.48648046875,-2.02125390625,-8.82401171875,-8.81766015625,-6.93665625,-9.30539453125,-6.91800390625,-13.027109375,-10.31363671875,-4.3743828125,-6.8357578125,-12.84273046875,-8.79078125,-5.20796875,-9.8519453125,-9.96973828125,-8.77509375,-8.087171875,-7.2098515625,-5.97771484375,-8.23755078125,-10.8612734375,-6.75544140625,-6.43876953125,-1.62532421875,-5.94016796875,-3.16816796875,-3.8506796875
-8.21614453125,-4.649671875,-7.41448046875,-4.38425390625,-9.80501171875,-9.18466015625,-3.66865625,-9.05139453125,-7.36300390625,-13.983109375,-10.62563671875,-3.1543828125,-9.8587578125,-13.03073046875,-9.15678125,-4.94896875,-10.4389453125,-9.85973828125,-8.64509375,-7.672171875,-6.2638515625,-5.26471484375,-7.47555078125,-9.9862734375,-5.62344140625,-4.85976953125,0.55267578125,-4.75716796875,-1.97116796875,-2.9116796875
-8.75414453125,-4.566671875,-6.68248046875,-5.74225390625,-10.74501171875,-9.95066015625,-1.70165625,-8.35739453125,-7.76700390625,-15.001109375,-11.44963671875,-2.3613828125,-9.3997578125,-13.60673046875,-9.85878125,-5.43796875,-9.7919453125,-9.89573828125,-9.02509375,-8.051171875,-5.6518515625,-4.67571484375,-7.26955078125,-9.9212734375,-5.11144140625,-3.56676953125,2.16267578125,-3.79416796875,-1.42716796875,-2.7976796875
-9.52814453125,-5.009671875,-5.67848046875,-5.70225390625,-11.69501171875,-11.14266015625,-1.46865625,-7.38739453125,-8.16700390625,-16.098109375,-12.76563671875,-2.2193828125,-5.4507578125,-14.65973046875,-10.81978125,-6.63296875,-7.8109453125,-10.19073828125,-9.79009375,-9.098171875,-5.5628515625,-4.29571484375,-7.60455078125,-10.6132734375,-5.28344140625,-2.81876953125,3.01467578125,-3.27516796875,-1.65816796875,-3.5446796875
-10.31814453125,-5.921671875,-4.94248046875,-4.48325390625,-12.60001171875,-12.61966015625,-2.74965625,-6.42939453125,-8.62100390625,-17.152109375,-14.38363671875,-2.7703828125,0.0372421875,-16.04873046875,-11.86478125,-8.30996875,-5.1379453125,-10.83573828125,-10.74609375,-10.504171875,-6.0308515625,-4.21271484375,-8.40255078125,-11.8612734375,-6.05544140625,-2.72276953125,3.01667578125,-3.48116796875,-2.70416796875,-5.0256796875
-10.82814453125,-7.058671875,-4.85648046875,-2.73925390625,-13.27401171875,-14.08666015625,-4.83565625,-5.69439453125,-9.08300390625,-17.928109375,-15.98763671875,-3.8263828125,4.0502421875,-17.39473046875,-12.79178125,-10.15996875,-2.7479453125,-11.77473828125,-11.70309375,-11.919171875,-6.9438515625,-4.54371484375,-9.54355078125,-13.3992734375,-7.29044140625,-3.30076953125,2.17567578125,-4.64416796875,-4.53016796875,-7.0366796875
-10.78814453125,-8.031671875,-5.44448046875,-1.21425390625,-13.43801171875,-15.16666015625,-6.82465625,-5.22039453125,-9.33300390625,-18.143109375,-17.21063671875,-5.0233828125,4.0922421875,-18.19173046875,-13.41278125,-11.88696875,-1.3869453125,-12.74973828125,-12.50209375,-13.064171875,-8.1208515625,-5.39871484375,-10.88055078125,-14.9742734375,-8.85944140625,-4.50676953125,0.58667578125,-6.84016796875,-7.00616796875,-9.3666796875
-10.04414453125,-8.433671875,-6.37948046875,-0.420253906249999,-12.82101171875,-15.51566015625,-7.92065625,-4.90039453125,-9.03300390625,-17.571109375,-17.74663671875,-5.9543828125,-0.3887578125,-18.00673046875,-13.58978125,-13.26496875,-1.2849453125,-13.38273828125,-13.03809375,-13.793171875,-9.3828515625,-6.82271484375,-12.26055078125,-16.4052734375,-10.65444140625,-6.20276953125,-1.59232421875,-9.93116796875,-9.90016796875,-11.8106796875
-8.63414453125,-8.009671875,-7.14248046875,-0.471253906249999,-11.32101171875,-14.95366015625,-7.66365625,-4.58239453125,-7.94000390625,-16.163109375,-17.46263671875,-6.3003828125,-7.5397578125,-16.70973046875,-13.26978125,-14.17696875,-2.2669453125,-13.37673828125,-13.29509375,-14.133171875,-10.6118515625,-8.75371484375,-13.58955078125,-17.6412734375,-12.59344140625,-8.13976953125,-4.20732421875,-13.59916796875,-12.93216796875,-14.1816796875
-6.81214453125,-6.804671875,-7.25948046875,-1.12725390625,-9.14101171875,-13.55866015625,-6.05665625,-4.13939453125,-6.13400390625,-14.141109375,-16.46863671875,-5.9413828125,-13.9447578125,-14.60873046875,-12.56178125,-14.63296875,-4.0299453125,-12.74673828125,-13.40109375,-14.280171875,-11.7638515625,-11.02071484375,-14.89455078125,-18.8062734375,-14.62244140625,-10.00176953125,-7.17032421875,-17.44516796875,-15.86716796875,-16.3466796875
-5.01214453125,-5.202671875,-6.51748046875,-1.97725390625,-6.80901171875,-11.68766015625,-3.57465625,-3.53539453125,-4.10100390625,-11.998109375,-15.11663671875,-5.0123828125,-16.4097578125,-12.40573046875,-11.76778125,-14.77496875,-6.2819453125,-11.91773828125,-13.61609375,-14.532171875,-12.8498515625,-13.36371484375,-16.32655078125,-20.1592734375,-16.70144140625,-11.48176953125,-10.46932421875,-21.08416796875,-18.56916796875,-18.2416796875
-3.72014453125,-3.805671875,-5.09348046875,-2.67525390625,-5.03001171875,-9.91066015625,-1.06465625,-2.85839453125,-2.56900390625,-10.357109375,-13.90663671875,-3.8813828125,-13.7317578125,-10.94073046875,-11.32178125,-14.82796875,-8.6749453125,-11.58873828125,-14.25609375,-15.166171875,-13.8668515625,-15.47471484375,-18.06855078125,-21.9792734375,-18.74744140625,-12.35276953125,-14.08632421875,-24.20916796875,-20.97216796875,-19.8486796875
-3.31114453125,-3.189671875,-3.49448046875,-3.09625390625,-4.41701171875,-8.82366015625,0.49934375,-2.30039453125,-2.18200390625,-9.761109375,-13.33763671875,-3.0253828125,-7.4237578125,-10.84073046875,-11.63578125,-15.01396875,-10.6849453125,-12.38073828125,-15.55209375,-16.306171875,-14.7588515625,-17.09271484375,-20.19955078125,-24.4052734375,-20.59644140625,-12.49076953125,-17.89232421875,-26.58316796875,-23.00516796875,-21.1276796875
-3.90214453125,-3.640671875,-2.34648046875,-3.38125390625,-5.24001171875,-8.81566015625,0.36334375,-2.06039453125,-3.19900390625,-10.471109375,-13.72363671875,-2.8373828125,-0.9267578125,-12.24873046875,-12.92278125,-15.44396875,-11.6719453125,-14.46273828125,-17.52809375,-17.882171875,-15.4228515625,-18.10571484375,-22.60455078125,-27.3192734375,-22.02244140625,-11.89976953125,-21.58732421875,-28.03316796875,-24.53516796875,-21.9736796875
-5.31614453125,-5.012671875,-2.09648046875,-3.87225390625,-7.30401171875,-9.91066015625,-1.67565625,-2.24439453125,-5.39200390625,-12.360109375,-15.07963671875,-3.4573828125,2.2362421875,-14.77973046875,-15.07478125,-16.07796875,-11.1779453125,-17.40373828125,-19.95809375,-19.656171875,-15.7668515625,-18.59771484375,-24.97355078125,-30.3562734375,-22.81344140625,-10.75176953125,-24.75332421875,-28.46316796875,-25.38616796875,-22.2546796875
-7.17814453125,-6.802671875,-2.79048046875,-4.94825390625,-10.01601171875,-11.75266015625,-5.13365625,-2.83439453125,-8.17400390625,-14.934109375,-17.10063671875,-4.7243828125,0.2872421875,-17.70773046875,-17.67178125,-16.76496875,-9.2469453125,-20.35573828125,-22.40709375,-21.318171875,-15.7728515625,-18.78171484375,-26.90655078125,-33.0252734375,-22.86744140625,-9.39176953125,-26.99432421875,-27.90416796875,-25.41716796875,-21.9186796875
-9.07814453125,-8.399671875,-4.03448046875,-6.80025390625,-12.60701171875,-13.75866015625,-9.01465625,-3.70739453125,-10.84600390625,-17.498109375,-19.27663671875,-6.2603828125,-5.9987578125,-20.26673046875,-20.11478125,-17.34696875,-6.5169453125,-22.48173828125,-24.38509375,-22.599171875,-15.5208515625,-18.85971484375,-28.07055078125,-34.9012734375,-22.26244140625,-8.26676953125,-28.09732421875,-26.53516796875,-24.61816796875,-21.0696796875
-10.69614453125,-9.348671875,-5.18248046875,-9.22425390625,-14.39601171875,-15.32866015625,-12.22965625,-4.67039453125,-12.82700390625,-19.385109375,-21.05763671875,-7.6333828125,-13.8197578125,-21.91673046875,-21.82878125,-17.73196875,-3.9819453125,-23.36273828125,-25.52909375,-23.333171875,-15.1298515625,-18.90471484375,-28.32355078125,-35.7592734375,-21.24044140625,-7.72676953125,-28.12232421875,-24.64616796875,-23.14816796875,-19.9516796875
-11.80314453125,-9.479671875,-5.66348046875,-11.58725390625,-14.97301171875,-16.02666015625,-13.99565625,-5.47239453125,-13.78200390625,-20.145109375,-21.98663671875,-8.4823828125,-19.7817578125,-22.44573046875,-22.42878125,-17.86696875,-2.5559453125,-23.13273828125,-25.69009375,-23.433171875,-14.6518515625,-18.78771484375,-27.71255078125,-35.5802734375,-20.06144140625,-7.80276953125,-27.31032421875,-22.49216796875,-21.23916796875,-18.7916796875
-12.19714453125,-8.865671875,-5.26548046875,-13.02625390625,-14.25001171875,-15.66766015625,-14.03465625,-5.85139453125,-13.62600390625,-19.625109375,-21.75763671875,-8.5583828125,-21.4537578125,-21.91873046875,-21.77378125,-17.64296875,-2.6759453125,-22.26673828125,-24.88909375,-22.799171875,-13.9748515625,-18.19171484375,-26.34555078125,-34.4332734375,-18.79444140625,-8.11076953125,-25.86532421875,-20.13716796875,-19.02216796875,-17.6166796875
-11.69714453125,-7.733671875,-4.22048046875,-12.82525390625,-12.42301171875,-14.34366015625,-12.54665625,-5.63839453125,-12.46600390625,-17.962109375,-20.25063671875,-7.7373828125,-18.3597578125,-20.54273046875,-19.94878125,-16.85396875,-4.0909453125,-21.20173828125,-23.22609375,-21.292171875,-12.8458515625,-16.73071484375,-24.27755078125,-32.3582734375,-17.24044140625,-8.03076953125,-23.77932421875,-17.41116796875,-16.44616796875,-16.2226796875
-10.25514453125,-6.405671875,-3.06048046875,-10.79725390625,-9.93501171875,-12.39766015625,-10.07165625,-4.88139453125,-10.57900390625,-15.562109375,-17.61663671875,-6.0893828125,-12.0637578125,-18.59073046875,-17.25378125,-15.31496875,-5.9349453125,-20.08273828125,-20.85709375,-18.850171875,-11.0588515625,-14.18371484375,-21.52555078125,-29.3822734375,-15.10644140625,-7.12176953125,-20.88332421875,-14.06816796875,-13.40016796875,-14.3576796875
-8.12214453125,-5.276671875,-2.36148046875,-7.47025390625,-7.42101171875,-10.36966015625,-7.33665625,-3.92439453125,-8.41300390625,-13.041109375,-14.34863671875,-3.9663828125,-5.3647578125,-16.39873046875,-14.20278125,-13.06896875,-7.1229453125,-18.78873828125,-18.05109375,-15.672171875,-8.7168515625,-10.72271484375,-18.21455078125,-25.6552734375,-12.31744140625,-5.48176953125,-17.08532421875,-10.07816796875,-9.93616796875,-12.0076796875
-5.89214453125,-4.760671875,-2.53048046875,-3.95925390625,-5.58701171875,-8.87066015625,-5.10365625,-3.35339453125,-6.53900390625,-11.082109375,-11.22063671875,-2.0093828125,-1.0187578125,-14.36373046875,-11.45078125,-10.51796875,-6.9599453125,-17.16373828125,-15.20809375,-12.270171875,-6.3268515625,-6.95571484375,-14.67555078125,-21.5502734375,-9.19444140625,-3.75276953125,-12.60032421875,-5.80516796875,-6.39816796875,-9.5186796875
-4.34014453125,-5.177671875,-3.65948046875,-1.54325390625,-4.98501171875,-8.38766015625,-3.99765625,-3.76739453125,-5.48300390625,-10.205109375,-9.06263671875,-0.9523828125,-0.6097578125,-12.84473046875,-9.60378125,-8.33096875,-5.6579453125,-15.21973828125,-12.76009375,-9.315171875,-4.6048515625,-3.70571484375,-11.38555078125,-17.6072734375,-6.35344140625,-2.73376953125,-7.96232421875,-1.92316796875,-3.30716796875,-7.4456796875
-4.07814453125,-6.598671875,-5.46248046875,-1.10925390625,-5.76201171875,-9.07266015625,-4.30665625,-5.43539453125,-5.46500390625,-10.530109375,-8.40263671875,-1.2633828125,-4.0197578125,-12.00473046875,-8.96778125,-7.14796875,-4.2689453125,-13.16473828125,-10.99909375,-7.338171875,-4.0798515625,-1.65071484375,-8.77655078125,-14.3352734375,-4.36844140625,-2.85176953125,-3.82532421875,0.888832031249999,-1.11116796875,-6.2146796875
-5.21214453125,-8.726671875,-7.31448046875,-2.74025390625,-7.52501171875,-10.60966015625,-5.85165625,-8.03139453125,-6.25300390625,-11.667109375,-9.18263671875,-2.8333828125,-9.5917578125,-11.69873046875,-9.38478125,-7.24396875,-3.9949453125,-11.28573828125,-9.92709375,-6.475171875,-4.7428515625,-1.00171484375,-7.03455078125,-11.9812734375,-3.44544140625,-3.87376953125,-0.66332421875,2.28583203125,0.0448320312499995,-5.8516796875
-7.20414453125,-10.907671875,-8.45948046875,-5.65125390625,-9.42301171875,-12.26966015625,-8.00265625,-10.69239453125,-7.23600390625,-12.817109375,-10.71063671875,-4.9433828125,-14.8167578125,-11.53073046875,-10.25978125,-8.35396875,-5.3179453125,-9.78573828125,-9.24009375,-6.392171875,-5.9938515625,-1.41171484375,-6.02255078125,-10.4332734375,-3.29744140625,-5.02576953125,1.42667578125,2.40183203125,0.378832031250001,-5.9466796875
-9.08414453125,-12.346671875,-8.36948046875,-8.52025390625,-10.47201171875,-13.18766015625,-9.89465625,-12.43939453125,-7.72300390625,-13.091109375,-11.94563671875,-6.5953828125,-17.3157578125,-11.07373046875,-10.81078125,-9.76596875,-7.6479453125,-8.70273828125,-8.46509375,-6.441171875,-6.9178515625,-2.17671484375,-5.36955078125,-9.2992734375,-3.30344140625,-5.43876953125,2.71567578125,1.73983203125,0.353832031250001,-5.8836796875
-9.91214453125,-12.455671875,-7.04348046875,-10.06425390625,-10.00701171875,-12.74266015625,-10.77465625,-12.68439453125,-7.29600390625,-11.937109375,-11.99963671875,-7.0343828125,-15.8527578125,-10.13473046875,-10.42778125,-10.64896875,-9.7529453125,-7.94773828125,-7.22109375,-5.997171875,-6.7588515625,-2.62771484375,-4.69955078125,-8.1362734375,-2.86544140625,-4.62576953125,3.63267578125,0.904832031249999,0.41483203125,-5.1866796875
-9.26214453125,-11.154671875,-5.04648046875,-9.60025390625,-8.01401171875,-10.87966015625,-10.31965625,-11.52639453125,-6.03300390625,-9.445109375,-10.59663671875,-6.1233828125,-10.9517578125,-8.88473046875,-8.99178125,-10.45496875,-10.6299453125,-7.41473828125,-5.45409375,-4.796171875,-5.3138515625,-2.49271484375,-3.85855078125,-6.7072734375,-1.74844140625,-2.73076953125,4.49267578125,0.31983203125,0.75483203125,-3.7966796875
-7.43314453125,-8.936671875,-3.24048046875,-7.34925390625,-5.17001171875,-8.17466015625,-8.75265625,-9.63939453125,-4.46300390625,-6.359109375,-8.20963671875,-4.3733828125,-4.7127578125,-7.80573046875,-6.94578125,-9.17996875,-10.0949453125,-7.10473828125,-3.51709375,-3.079171875,-3.0268515625,-2.00371484375,-3.00955078125,-5.1062734375,-0.20144140625,-0.419769531250001,5.30367578125,0.0718320312499987,1.21683203125,-2.1116796875
-5.28514453125,-6.641671875,-2.33848046875,-4.34125390625,-2.55401171875,-5.61866015625,-6.73565625,-7.89439453125,-3.31200390625,-3.761109375,-5.82663671875,-2.6283828125,0.1872421875,-7.44373046875,-5.10678125,-7.35596875,-8.6749453125,-7.15373828125,-2.01909375,-1.461171875,-0.760851562500001,-1.67971484375,-2.53455078125,-3.7072734375,1.20355859375,1.48923046875,5.78567578125,-0.0701679687500008,1.40983203125,-0.7796796875
-3.79914453125,-5.087671875,-2.56048046875,-1.93525390625,-1.17501171875,-4.18666015625,-5.10465625,-6.91539453125,-3.15700390625,-2.603109375,-4.47663671875,-1.6393828125,1.8102421875,-8.14173046875,-4.28178125,-5.79796875,-7.0419453125,-7.76773828125,-1.54509375,-0.634171875,0.6181484375,-1.98071484375,-2.81555078125,-2.9612734375,1.86055859375,2.41423046875,5.53067578125,-0.49716796875,0.92883203125,-0.386679687499999
-3.63314453125,-4.732671875,-3.57748046875,-1.20225390625,-1.57801171875,-4.41866015625,-4.53565625,-6.82839453125,-4.19300390625,-3.328109375,-4.78163671875,-1.7553828125,-0.1877578125,-9.87373046875,-4.92478125,-5.23996875,-5.5719453125,-9.07373828125,-2.40409375,-1.064171875,0.6061484375,-3.04771484375,-4.03455078125,-3.2002734375,1.37955859375,2.19823046875,4.20067578125,-1.56716796875,-0.464167968749999,-1.2166796875
-4.87814453125,-5.538671875,-4.75448046875,-2.50325390625,-3.67001171875,-6.21366015625,-5.27665625,-7.32439453125,-6.21300390625,-5.728109375,-6.72363671875,-2.8673828125,-4.6117578125,-12.27373046875,-6.96678125,-6.04896875,-4.3549453125,-10.99473828125,-4.51209375,-2.816171875,-0.7858515625,-4.66371484375,-6.07055078125,-4.5112734375,-0.30044140625,1.07123046875,1.68467578125,-3.42216796875,-2.73916796875,-3.1756796875
-7.08614453125,-7.061671875,-5.55048046875,-5.41625390625,-6.82001171875,-8.92466015625,-7.01365625,-7.93439453125,-8.74400390625,-9.079109375,-9.70163671875,-4.5523828125,-9.5347578125,-14.81673046875,-9.87778125,-8.11296875,-3.4579453125,-13.21373828125,-7.42409375,-5.542171875,-3.0988515625,-6.39371484375,-8.53855078125,-6.7122734375,-2.91744140625,-0.525769531250001,-1.84132421875,-5.90416796875,-5.61016796875,-5.8716796875
-9.49414453125,-8.681671875,-5.79848046875,-8.97625390625,-10.13501171875,-11.66866015625,-8.96465625,-8.32839453125,-11.22400390625,-12.458109375,-12.81363671875,-6.3023828125,-13.2717578125,-17.02573046875,-12.90778125,-10.91096875,-3.0749453125,-15.24373828125,-10.51209375,-8.610171875,-5.6448515625,-7.80171484375,-10.93555078125,-9.4322734375,-5.97344140625,-2.10776953125,-5.94132421875,-8.58116796875,-8.61916796875,-8.7606796875
-11.33314453125,-9.868671875,-5.72148046875,-12.06925390625,-12.80301171875,-13.68866015625,-10.19065625,-8.41939453125,-13.15500390625,-15.102109375,-15.21663671875,-7.7013828125,-14.9597578125,-18.63173046875,-15.38478125,-13.71496875,-3.4409453125,-16.58973828125,-13.20009375,-11.346171875,-7.7568515625,-8.63471484375,-12.84255078125,-12.2402734375,-8.89244140625,-3.25976953125,-10.04832421875,-10.90316796875,-11.27016796875,-11.2996796875
-12.11014453125,-10.364671875,-5.72648046875,-13.82025390625,-14.35601171875,-14.61966015625,-10.01665625,-8.30839453125,-14.22700390625,-16.667109375,-16.42363671875,-8.5323828125,-14.5957578125,-19.62673046875,-16.95278125,-15.86896875,-4.6309453125,-16.95573828125,-15.17709375,-13.291171875,-9.0028515625,-8.88971484375,-14.08955078125,-14.8022734375,-11.20844140625,-3.71276953125,-13.66132421875,-12.44516796875,-13.20316796875,-13.1066796875
-11.76414453125,-10.225671875,-6.11948046875,-13.90425390625,-14.78601171875,-14.58166015625,-8.39165625,-8.13639453125,-14.41200390625,-17.278109375,-16.42663671875,-8.7903828125,-12.7527578125,-20.22673046875,-17.65878125,-17.03196875,-6.4299453125,-16.41373828125,-16.48709375,-14.349171875,-9.2828515625,-8.75471484375,-14.80755078125,-16.9912734375,-12.70244140625,-3.40776953125,-16.52632421875,-13.10416796875,-14.31916796875,-14.0716796875
-10.65814453125,-9.747671875,-6.91648046875,-12.64425390625,-14.48001171875,-14.07166015625,-5.96665625,-7.96839453125,-13.97000390625,-17.381109375,-15.64363671875,-8.6103828125,-10.3077578125,-20.75473046875,-17.87178125,-17.28296875,-8.3429453125,-15.42173828125,-17.44709375,-14.773171875,-8.8008515625,-8.47271484375,-15.33355078125,-18.8892734375,-13.44044140625,-2.52176953125,-18.69632421875,-13.14516796875,-14.79716796875,-14.3826796875
-9.40814453125,-9.308671875,-7.82048046875,-10.83325390625,-14.02401171875,-13.72066015625,-3.83465625,-7.72639453125,-13.34500390625,-17.498109375,-14.72063671875,-8.1733828125,-8.2187578125,-21.48173046875,-18.08678125,-17.02896875,-9.7319453125,-14.65473828125,-18.44609375,-15.000171875,-7.9328515625,-8.23671484375,-16.02755078125,-20.6782734375,-13.68544140625,-1.39776953125,-20.43532421875,-13.03716796875,-14.97516796875,-14.4196796875
-8.61314453125,-9.207671875,-8.38048046875,-9.33325390625,-13.94301171875,-14.00466015625,-3.05665625,-7.21739453125,-12.96600390625,-17.998109375,-14.26463671875,-7.6453828125,-7.2407578125,-22.49073046875,-18.69278125,-16.77496875,-10.0399453125,-14.67373828125,-19.72309375,-15.433171875,-7.0698515625,-8.13171484375,-17.06755078125,-22.4772734375,-13.75144140625,-0.413769531250001,-22.00132421875,-13.16716796875,-15.14716796875,-14.5396796875
-8.61314453125,-9.552671875,-8.26148046875,-8.66325390625,-14.46801171875,-15.04566015625,-4.18265625,-6.28739453125,-13.04700390625,-18.936109375,-14.60563671875,-7.1823828125,-7.5917578125,-23.60873046875,-19.81278125,-16.87596875,-9.0509453125,-15.63373828125,-21.23109375,-16.249171875,-6.5178515625,-8.14271484375,-18.33255078125,-24.2132734375,-13.85644140625,0.158230468749998,-23.45932421875,-13.61016796875,-15.39016796875,-14.8986796875
-9.35314453125,-10.227671875,-7.47948046875,-8.81325390625,-15.42901171875,-16.58566015625,-7.01665625,-4.99739453125,-13.47700390625,-20.030109375,-15.67863671875,-6.9623828125,-8.7987578125,-24.44473046875,-21.25878125,-17.41696875,-7.0349453125,-17.20573828125,-22.64409375,-17.328171875,-6.4678515625,-8.21771484375,-19.43855078125,-25.6032734375,-14.05844140625,0.189230468749999,-24.62932421875,-14.12916796875,-15.53516796875,-15.4056796875
-10.43014453125,-10.948671875,-6.43148046875,-9.34325390625,-16.33901171875,-18.10466015625,-10.67265625,-3.66239453125,-13.86700390625,-20.775109375,-17.07663671875,-7.1803828125,-9.9437578125,-24.53273046875,-22.63578125,-18.21996875,-4.6729453125,-18.75473828125,-23.52209375,-18.346171875,-7.0218515625,-8.33171484375,-19.93255078125,-26.2662734375,-14.28544140625,-0.33476953125,-25.19032421875,-14.36016796875,-15.31716796875,-15.8216796875
-11.29414453125,-11.383671875,-5.69648046875,-9.70125390625,-16.64101171875,-19.04766015625,-13.92365625,-2.71839453125,-13.75500390625,-20.681109375,-18.22463671875,-7.9753828125,-10.1657578125,-23.54773046875,-23.53178125,-18.95896875,-2.7619453125,-19.67873828125,-23.53909375,-18.941171875,-8.2028515625,-8.52171484375,-19.52055078125,-25.8942734375,-14.41144140625,-1.35176953125,-24.86732421875,-14.06416796875,-14.57116796875,-15.9116796875
-11.51014453125,-11.299671875,-5.71448046875,-9.54225390625,-15.99301171875,-19.05366015625,-15.67665625,-2.49239453125,-12.85200390625,-19.501109375,-18.61363671875,-9.3223828125,-9.0777578125,-21.50873046875,-23.69678125,-19.30696875,-1.8619453125,-19.69273828125,-22.62109375,-18.877171875,-9.9128515625,-8.83771484375,-18.20655078125,-24.3982734375,-14.31344140625,-2.71476953125,-23.54732421875,-13.27016796875,-13.34816796875,-15.5516796875
-10.92914453125,-10.673671875,-6.54348046875,-8.86925390625,-14.42201171875,-18.08366015625,-15.39465625,-3.01339453125,-11.21900390625,-17.340109375,-17.98763671875,-10.9733828125,-6.8797578125,-18.82273046875,-23.12378125,-19.07096875,-2.1139453125,-18.91273828125,-20.95809375,-18.108171875,-11.8948515625,-9.26571484375,-16.25655078125,-21.9402734375,-13.90244140625,-4.18376953125,-21.31832421875,-12.23216796875,-11.87316796875,-14.7486796875
-9.71214453125,-9.698671875,-7.82048046875,-7.93525390625,-12.29601171875,-16.40466015625,-13.26065625,-3.95839453125,-9.24500390625,-14.617109375,-16.41863671875,-12.4863828125,-4.2147578125,-16.14873046875,-22.00178125,-18.25396875,-3.3189453125,-17.72473828125,-18.89009375,-16.766171875,-13.7558515625,-9.68071484375,-14.06655078125,-18.8712734375,-13.14344140625,-5.47076953125,-18.41532421875,-11.23616796875,-10.40116796875,-13.6096796875
-8.23014453125,-8.698671875,-8.91648046875,-7.03925390625,-10.15201171875,-14.43666015625,-10.05465625,-4.75839453125,-7.48500390625,-11.903109375,-14.25463671875,-13.3693828125,-1.9687578125,-14.10473046875,-20.59678125,-17.04096875,-5.1139453125,-16.53173828125,-16.76209375,-15.101171875,-15.0908515625,-9.90971484375,-12.00255078125,-15.6152734375,-12.08644140625,-6.33476953125,-15.16032421875,-10.39916796875,-9.08416796875,-12.2706796875
-6.92514453125,-7.999671875,-9.21748046875,-6.37625390625,-8.47901171875,-12.58866015625,-6.81865625,-4.87039453125,-6.43200390625,-9.723109375,-11.96063671875,-13.2823828125,-1.0567578125,-13.00173046875,-19.12978125,-15.70296875,-7.1079453125,-15.53573828125,-14.81009375,-13.383171875,-15.6338515625,-9.82371484375,-10.29255078125,-12.5432734375,-10.85044140625,-6.67876953125,-11.87632421875,-9.58716796875,-7.91516796875,-10.8396796875
-6.14414453125,-7.792671875,-8.40748046875,-6.00125390625,-7.54201171875,-11.13766015625,-4.47965625,-4.06039453125,-6.30600390625,-8.369109375,-9.93263671875,-12.1803828125,-2.1407578125,-12.72373046875,-17.70278125,-14.46096875,-8.9349453125,-14.65973828125,-13.09809375,-11.800171875,-15.3558515625,-9.41571484375,-8.96755078125,-9.8672734375,-9.56144140625,-6.55276953125,-8.79832421875,-8.51216796875,-6.75516796875,-9.3586796875
-5.99414453125,-8.038671875,-6.61448046875,-5.83425390625,-7.27001171875,-10.17466015625,-3.52965625,-2.53339453125,-6.94600390625,-7.791109375,-8.34763671875,-10.3103828125,-5.2377578125,-12.80573046875,-16.28778125,-13.37596875,-10.2769453125,-13.64273828125,-11.52909375,-10.384171875,-14.4168515625,-8.78371484375,-7.88255078125,-7.6032734375,-8.27844140625,-6.09176953125,-6.01032421875,-6.95016796875,-5.42516796875,-7.8056796875
-6.24814453125,-8.461671875,-4.36348046875,-5.65825390625,-7.29001171875,-9.59266015625,-3.88365625,-0.807394531249999,-7.83600390625,-7.615109375,-7.12563671875,-8.0723828125,-9.4117578125,-12.65473046875,-14.78478125,-12.31996875,-10.9209453125,-12.23973828125,-9.93309375,-9.033171875,-13.0558515625,-8.07371484375,-6.81355078125,-5.6322734375,-6.97944140625,-5.46476953125,-3.47832421875,-4.94816796875,-3.85416796875,-6.1646796875
-6.43114453125,-8.658671875,-2.36348046875,-5.18625390625,-7.10301171875,-9.13766015625,-4.98065625,0.558605468750002,-8.30200390625,-7.327109375,-6.01663671875,-5.8683828125,-12.8847578125,-11.83573046875,-13.10678125,-11.08396875,-10.8459453125,-10.43573828125,-8.21009375,-7.632171875,-11.4908515625,-7.41671484375,-5.61555078125,-3.8402734375,-5.63544140625,-4.83876953125,-1.18132421875,-2.87416796875,-2.18216796875,-4.5016796875
-6.05114453125,-8.290671875,-1.22248046875,-4.22625390625,-6.32701171875,-8.52066015625,-6.05065625,1.18960546875,-7.81800390625,-6.503109375,-4.75163671875,-4.0273828125,-13.7647578125,-10.27473046875,-11.25478125,-9.54696875,-10.2229453125,-8.53873828125,-6.41709375,-6.161171875,-9.8818515625,-6.87771484375,-4.32255078125,-2.2352734375,-4.28444140625,-4.33376953125,0.77567578125,-1.26516796875,-0.72616796875,-2.9846796875
-4.85914453125,-7.246671875,-1.18048046875,-2.84225390625,-4.87001171875,-7.53766015625,-6.43165625,1.04060546875,-6.27100390625,-4.984109375,-3.18063671875,-2.7673828125,-11.0897578125,-8.28273046875,-9.31178125,-7.78396875,-9.2429453125,-7.06973828125,-4.74309375,-4.718171875,-8.3168515625,-6.43471484375,-3.13255078125,-0.951273437499999,-3.03944140625,-3.92476953125,2.16567578125,-0.55216796875,0.185832031249999,-1.7836796875
-2.97814453125,-5.705671875,-1.97748046875,-1.37725390625,-2.95301171875,-6.14566015625,-5.80665625,0.433605468750002,-4.04200390625,-2.914109375,-1.33763671875,-2.1513828125,-5.5657578125,-6.38673046875,-7.39278125,-6.03696875,-7.9209453125,-6.48873828125,-3.39709375,-3.459171875,-6.8248515625,-6.01771484375,-2.27355078125,-0.1432734375,-2.03144140625,-3.38276953125,2.75067578125,-0.83416796875,0.40983203125,-0.9366796875
-0.84514453125,-4.053671875,-2.94348046875,-0.303253906249999,-0.981011718749999,-4.47666015625,-4.28365625,-0.057394531249999,-1.86400390625,-0.668109375,0.578363281250002,-2.0413828125,0.5782421875,-5.06873046875,-5.59078125,-4.58196875,-6.1459453125,-6.91573828125,-2.49409375,-2.503171875,-5.3948515625,-5.58071484375,-1.86355078125,0.1147265625,-1.34744140625,-2.36776953125,2.42067578125,-1.82916796875,0.0638320312499996,-0.3186796875
0.996855468749999,-2.728671875,-3.32548046875,0.0267460937500008,0.638988281250001,-2.78366015625,-2.30865625,0.116605468750002,-0.496003906249999,1.306890625,2.29836328125,-2.1173828125,4.6432421875,-4.55073046875,-3.95778125,-3.58696875,-3.9959453125,-8.02573828125,-2.00109375,-1.869171875,-4.0198515625,-5.13371484375,-1.83455078125,-0.115273437499999,-0.98644140625,-0.645769531250001,1.26367578125,-3.00616796875,-0.53716796875,0.2563203125
2.14085546875,-2.018671875,-2.67348046875,-0.433253906249999,1.67898828125,-1.33366015625,-0.42165625,1.16960546875,-0.355003906249999,2.676890625,3.63636328125,-1.9943828125,4.8332421875,-4.70373046875,-2.50678125,-3.02696875,-1.9339453125,-9.17473828125,-1.76009375,-1.443171875,-2.6938515625,-4.71071484375,-1.96055078125,-0.670273437499999,-0.83544140625,1.74023046875,-0.43332421875,-3.79416796875,-1.01416796875,0.9223203125
2.49985546875,-1.938671875,-1.06448046875,-1.38725390625,2.17098828125,-0.27566015625,1.02534375,2.84260546875,-1.30800390625,3.351890625,4.59636328125,-1.3963828125,1.1442421875,-5.12673046875,-1.23078125,-2.70596875,-0.597945312499999,-9.71173828125,-1.57009375,-1.020171875,-1.3928515625,-4.30071484375,-1.96355078125,-1.3582734375,-0.69844140625,4.47023046875,-2.28332421875,-3.77816796875,-1.06316796875,1.7183203125
2.30785546875,-2.257671875,0.94951953125,-2.35525390625,2.34398828125,0.406339843750001,1.97934375,4.50260546875,-2.75700390625,3.480890625,5.36036328125,-0.3233828125,-4.7107578125,-5.36073046875,-0.13778125,-2.37596875,-0.336945312499999,-9.30073828125,-1.30909375,-0.419171875,-0.103851562500001,-3.84271484375,-1.67155078125,-2.0442734375,-0.38644140625,7.09723046875,-3.94432421875,-2.82616796875,-0.55616796875,2.6093203125
1.94485546875,-2.664671875,2.58951953125,-2.94125390625,2.44398828125,0.837339843750001,2.57734375,5.40660546875,-3.97700390625,3.336890625,6.14936328125,0.9006171875,-10.2457578125,-5.13373046875,0.71921875,-1.88696875,-0.9709453125,-8.08573828125,-1.00709375,0.395828125000001,1.1031484375,-3.27571484375,-1.11855078125,-2.7052734375,0.156558593750001,9.21923046875,-5.26732421875,-1.12116796875,0.407832031250001,3.5173203125
1.70685546875,-2.967671875,3.18451953125,-3.02725390625,2.57098828125,1.12033984375,2.95934375,4.99360546875,-4.49600390625,3.160890625,7.05836328125,1.7706171875,-13.3837578125,-4.50073046875,1.26221875,-1.26096875,-2.0159453125,-6.57173828125,-0.818093750000001,1.290828125,2.0351484375,-2.57071484375,-0.516550781249999,-3.4102734375,0.816558593749999,10.59423046875,-6.31032421875,0.94183203125,1.55883203125,4.3383203125
1.67185546875,-3.171671875,2.46651953125,-2.76325390625,2.64298828125,1.26833984375,3.17334375,3.13460546875,-4.27400390625,3.063890625,7.99536328125,1.8816171875,-13.2687578125,-3.76973046875,1.45021875,-0.640968750000001,-3.1019453125,-5.32773828125,-0.89709375,2.055828125,2.4401484375,-1.71771484375,-0.11355078125,-4.2252734375,1.37855859375,11.17923046875,-7.23332421875,2.94183203125,2.61083203125,4.9763203125
1.71585546875,-3.412671875,0.72051953125,-2.38025390625,2.49298828125,1.23233984375,3.21134375,0.261605468750002,-3.61100390625,3.020890625,8.75636328125,1.1856171875,-10.3607578125,-3.28373046875,1.34621875,-0.158968750000001,-4.1839453125,-4.67573828125,-1.26209375,2.546828125,2.1581484375,-0.70671484375,-0.0235507812499982,-5.1102734375,1.67555859375,11.10723046875,-8.11632421875,4.62783203125,3.40083203125,5.3843203125
1.63485546875,-3.804671875,-1.31348046875,-2.01225390625,2.01598828125,0.976339843750001,3.07634375,-2.74339453125,-2.90200390625,2.943890625,9.16236328125,0.0416171875,-5.9817578125,-3.18473046875,1.13021875,0.172031249999998,-5.4059453125,-4.54973828125,-1.73109375,2.769828125,1.2541484375,0.46128515625,-0.124550781249999,-5.8712734375,1.71355859375,10.61923046875,-8.82832421875,5.99483203125,3.97083203125,5.6133203125
1.28785546875,-4.337671875,-2.78448046875,-1.64525390625,1.27498828125,0.537339843750001,2.80934375,-4.89439453125,-2.39900390625,2.793890625,9.17036328125,-0.9873828125,-1.6227578125,-3.30273046875,1.05521875,0.446031249999999,-6.8449453125,-4.57373828125,-1.95309375,2.893828125,0.0371484374999991,1.73728515625,-0.076550781249999,-6.1872734375,1.70655859375,9.98723046875,-9.01432421875,7.22483203125,4.53783203125,5.8303203125
0.681855468749999,-4.849671875,-3.12148046875,-1.18625390625,0.501988281250002,0.0383398437500002,2.49934375,-5.52539453125,-2.10100390625,2.651890625,8.90136328125,-1.4393828125,1.6782421875,-3.23573046875,1.37821875,0.811031249999999,-8.3419453125,-4.28373828125,-1.53209375,3.192828125,-1.0288515625,3.02828515625,0.56244921875,-5.6982734375,2.00955859375,9.47723046875,-8.18832421875,8.57083203125,5.41883203125,6.3063203125
-0.00114453125000047,-5.082671875,-2.24748046875,-0.553253906249999,0.0149882812500017,-0.318660156249999,2.30434375,-4.52139453125,-1.79900390625,2.706890625,8.60336328125,-1.1443828125,3.6622421875,-2.54673046875,2.29821875,1.41103125,-9.4629453125,-3.34473828125,-0.18209375,3.965828125,-1.4628515625,4.22028515625,2.15844921875,-4.1082734375,2.98255859375,9.33423046875,-5.91632421875,10.24083203125,6.91183203125,7.3463203125
-0.462144531250001,-4.779671875,-0.533480468750001,0.26374609375,0.0809882812500007,-0.297660156249998,2.43634375,-2.27339453125,-1.25300390625,3.162890625,8.57536328125,-0.2283828125,4.7612421875,-0.98373046875,3.90221875,2.38203125,-9.5559453125,-1.69873828125,2.15090625,5.442828125,-0.9168515625,5.21628515625,4.83144921875,-1.2812734375,4.85255859375,9.74623046875,-2.00632421875,12.31383203125,9.15983203125,9.1613203125
-0.41214453125,-3.789671875,1.42651953125,1.19374609375,0.810988281250001,0.289339843750001,3.08134375,0.546605468750002,-0.35400390625,4.130890625,9.05936328125,1.0316171875,5.6252421875,1.39726953125,6.13221875,3.83203125,-7.9759453125,0.423261718749998,5.26190625,7.709828125,0.719148437499999,5.95328515625,8.37944921875,2.6997265625,7.63455859375,10.78823046875,3.36467578125,14.69983203125,12.06683203125,11.7403203125
0.298855468749998,-2.151671875,3.06851953125,2.11074609375,2.13198828125,1.49933984375,4.25534375,3.23960546875,0.817996093750001,5.584890625,10.15736328125,2.3716171875,6.5342421875,4.27626953125,8.78421875,5.81703125,-4.4879453125,2.62026171875,8.77190625,10.682828125,3.2771484375,6.41428515625,12.33544921875,7.5267265625,11.14155859375,12.36123046875,9.65267578125,17.13583203125,15.28983203125,14.8103203125
1.61485546875,-0.102671875,4.05251953125,2.92874609375,3.85498828125,3.25533984375,5.75034375,5.28160546875,2.08399609375,7.394890625,11.80436328125,3.6546171875,7.1192421875,7.25526953125,11.57821875,8.30903125,0.3880546875,4.50126171875,12.27290625,14.122828125,6.3721484375,6.62928515625,16.11944921875,12.7227265625,15.05055859375,14.20723046875,16.09467578125,19.25483203125,18.33483203125,17.9213203125
3.30785546875,2.025328125,4.36351953125,3.68974609375,5.78798828125,5.41133984375,7.24734375,6.43160546875,3.30099609375,9.405890625,13.82236328125,4.8996171875,6.6562421875,10.03726953125,14.25821875,11.19203125,5.4180546875,5.85326171875,15.45090625,17.705828125,9.5401484375,6.66128515625,19.22144921875,17.7427265625,18.97555859375,15.97923046875,21.89667578125,20.66783203125,20.68783203125,20.5773203125
5.09285546875,3.954328125,4.26751953125,4.56774609375,7.82598828125,7.83233984375,8.52234375,6.72660546875,4.46199609375,11.503890625,16.00736328125,6.2236171875,4.7512421875,12.51626953125,16.68321875,14.26603125,9.1510546875,6.69726171875,18.15390625,21.098828125,12.3701484375,6.56528515625,21.32344921875,22.0747265625,22.52655859375,17.34323046875,26.40667578125,21.03183203125,21.93283203125,22.3543203125
6.72585546875,5.559328125,4.14851953125,5.74774609375,9.94398828125,10.39033984375,9.56534375,6.37060546875,5.67399609375,13.624890625,18.17636328125,7.7196171875,1.9232421875,14.71326953125,18.82421875,17.25603125,10.5270546875,7.22426171875,20.34690625,24.017828125,14.5681484375,6.34628515625,22.34344921875,25.3167265625,25.33655859375,18.06023046875,29.19667578125,20.11983203125,21.82083203125,22.9633203125
8.04085546875,6.839328125,4.30351953125,7.27674609375,12.09898828125,12.90233984375,10.52234375,5.61460546875,7.03599609375,15.696890625,20.14236328125,9.3256171875,-0.4237578125,16.66126953125,20.69321875,19.83203125,9.2240546875,7.66726171875,22.02790625,26.234828125,15.9661484375,5.95028515625,22.39244921875,27.2227265625,27.09655859375,18.00623046875,30.07567578125,17.89183203125,20.30583203125,22.2803203125
8.92285546875,7.826328125,4.81751953125,8.97574609375,14.11998828125,15.07433984375,11.51534375,4.69560546875,8.51099609375,17.578890625,21.67536328125,10.7806171875,-0.6797578125,18.31626953125,22.24721875,21.67403125,5.6920546875,8.18826171875,23.14690625,27.559828125,16.4891484375,5.30928515625,21.70444921875,27.7297265625,27.60055859375,17.18323046875,29.08667578125,14.58483203125,17.56183203125,20.3893203125
9.29085546875,8.512328125,5.57451953125,10.48074609375,15.71298828125,16.54733984375,12.51934375,3.81460546875,9.89899609375,19.049890625,22.51736328125,11.7066171875,2.0552421875,19.54326953125,23.35121875,22.54503125,1.0300546875,8.82826171875,23.60490625,27.840828125,16.1551484375,4.42028515625,20.55344921875,26.9637265625,26.80755859375,15.73423046875,26.49267578125,10.71883203125,13.98683203125,17.6183203125
9.11985546875,8.859328125,6.35551953125,11.37674609375,16.57998828125,17.03033984375,13.37234375,3.10960546875,10.91999609375,19.898890625,22.46836328125,11.7926171875,7.3982421875,20.17126953125,23.82721875,22.35203125,-3.2869453125,9.50526171875,23.32090625,27.008828125,15.0691484375,3.40128515625,19.18344921875,25.1877265625,24.87955859375,13.94123046875,22.72367578125,6.96683203125,10.14683203125,14.4933203125
8.48485546875,8.842328125,6.94751953125,11.37774609375,16.58198828125,16.44833984375,13.87234375,2.62460546875,11.36499609375,20.015890625,21.48836328125,10.9476171875,13.7552421875,20.07226953125,23.53821875,21.15603125,-5.8799453125,10.03926171875,22.29990625,25.115828125,13.4121484375,2.48228515625,17.73744921875,22.7067265625,22.13755859375,12.16423046875,18.27467578125,3.93083203125,6.62483203125,11.5723203125
7.55585546875,8.463328125,7.19051953125,10.47274609375,15.81598828125,14.99833984375,13.87134375,2.29960546875,11.17899609375,19.428890625,19.74836328125,9.3356171875,18.9542421875,19.21126953125,22.43921875,19.15903125,-6.0369453125,10.20226171875,20.62590625,22.337828125,11.4001484375,1.89928515625,16.20744921875,19.7637265625,18.94655859375,10.72923046875,13.56867578125,1.93783203125,3.83183203125,9.2333203125
6.54285546875,7.735328125,6.97151953125,8.93074609375,14.54998828125,13.06633984375,13.29334375,1.97260546875,10.45199609375,18.260890625,17.58036328125,7.2596171875,21.0982421875,17.65426953125,20.57821875,16.65703125,-4.0459453125,9.78826171875,18.41590625,18.946828125,9.2311484375,1.75128515625,14.44444921875,16.4917265625,15.59255859375,9.78623046875,8.88767578125,0.964832031249999,1.87783203125,7.5363203125
5.61185546875,6.662328125,6.17751953125,7.19874609375,13.07598828125,11.03833984375,12.13534375,1.41360546875,9.34299609375,16.650890625,15.35936328125,4.9936171875,19.3122421875,15.52326953125,18.07421875,13.96203125,-1.0549453125,8.69926171875,15.78890625,15.271828125,7.0451484375,1.94328515625,12.26444921875,12.9547265625,12.24155859375,9.22823046875,4.40167578125,0.71783203125,0.603832031250001,6.2383203125
4.84685546875,5.256328125,4.71251953125,5.73674609375,11.58698828125,9.13933984375,10.46234375,0.432605468750001,8.02599609375,14.706890625,13.37136328125,2.6916171875,14.0872421875,12.96926953125,15.11521875,11.32603125,1.4940546875,7.01626171875,12.87590625,11.662828125,4.9281484375,2.23728515625,9.58144921875,9.2547265625,8.97555859375,8.72223046875,0.27167578125,0.817832031249999,-0.275167968749999,4.9663203125
4.26085546875,3.600328125,2.58951953125,4.86874609375,10.14298828125,7.39633984375,8.42934375,-0.958394531249999,6.66999609375,12.509890625,11.73236328125,0.431617187500001,7.1262421875,10.18326953125,11.95321875,8.88503125,2.5040546875,5.00326171875,9.85690625,8.431828125,2.9391484375,2.39128515625,6.52544921875,5.6177265625,5.85755859375,7.85123046875,-3.27032421875,0.98683203125,-1.00016796875,3.4323203125
3.82385546875,1.885328125,0.0475195312499999,4.66174609375,8.70498828125,5.71233984375,6.23234375,-2.45039453125,5.42699609375,10.134890625,10.36036328125,-1.6883828125,0.7132421875,7.40626953125,8.87821875,6.65203125,1.6360546875,3.06126171875,6.96490625,5.774828125,1.1301484375,2.26328515625,3.43544921875,2.3887265625,2.95555859375,6.31123046875,-5.96132421875,1.10683203125,-1.69216796875,1.5673203125
3.46685546875,0.381328125,-2.42248046875,4.88474609375,7.22698828125,3.97233984375,4.02434375,-3.54439453125,4.40999609375,7.699890625,9.04036328125,-3.4863828125,-3.1537578125,4.92226953125,6.15321875,4.54603125,-0.621945312499999,1.60726171875,4.45190625,3.722828125,-0.462851562500001,1.83828515625,0.756449218750001,-0.072273437499998,0.33655859375,4.03823046875,-7.61632421875,1.16283203125,-2.37216796875,-0.4936796875
3.09285546875,-0.673671875,-4.22648046875,5.10974609375,5.72198828125,2.13333984375,1.86234375,-3.79539453125,3.67199609375,5.375890625,7.52436328125,-4.7403828125,-3.4927578125,3.00026953125,3.94921875,2.46203125,-3.2259453125,0.940261718749998,2.54490625,2.160828125,-1.8548515625,1.16928515625,-1.10955078125,-1.5242734375,-1.95244140625,1.20423046875,-8.23032421875,1.11583203125,-3.03316796875,-2.5366796875
2.61385546875,-1.197671875,-4.90048046875,4.96074609375,4.27398828125,0.26933984375,-0.237656250000001,-3.02739453125,3.20999609375,3.362890625,5.67136328125,-5.2833828125,-0.6197578125,1.82126953125,2.31621875,0.359031249999999,-5.0779453125,1.12526171875,1.38690625,0.908828125000001,-3.1038515625,0.327285156249999,-1.94355078125,-1.9302734375,-3.87744140625,-1.85776953125,-7.98432421875,0.86483203125,-3.67816796875,-4.3856796875
2.00485546875,-1.319671875,-4.33848046875,4.35274609375,2.98298828125,-1.43566015625,-2.19165625,-1.39939453125,2.97299609375,1.810890625,3.53536328125,-5.0883828125,4.1272421875,1.40626953125,1.20521875,-1.64696875,-5.5979453125,1.95326171875,1.00990625,-0.165171874999999,-4.2588515625,-0.582714843750001,-1.76555078125,-1.4282734375,-5.38944140625,-4.74076953125,-7.12832421875,0.35183203125,-4.27316796875,-5.9136796875
1.32985546875,-1.308671875,-2.87948046875,3.54074609375,1.90698828125,-2.75966015625,-3.80765625,0.679605468750001,2.87899609375,0.762890625000001,1.39136328125,-4.3023828125,9.0152421875,1.58726953125,0.525218750000001,-3.27996875,-4.9729453125,2.99626171875,1.32790625,-1.054171875,-5.2698515625,-1.35571484375,-0.790550781249999,-0.2232734375,-6.36644140625,-7.00476953125,-5.83532421875,-0.284167968750001,-4.65616796875,-6.9656796875
0.73285546875,-1.409671875,-1.19448046875,2.95574609375,1.05398828125,-3.54066015625,-4.85165625,2.70360546875,2.83499609375,0.151890625,-0.350636718749998,-3.2243828125,12.5602421875,2.04326953125,0.19921875,-4.19896875,-3.8559453125,3.76726171875,2.15290625,-1.593171875,-5.9488515625,-1.67571484375,0.670449218750001,1.5007265625,-6.60444140625,-8.22476953125,-4.12032421875,-0.65416796875,-4.51616796875,-7.3016796875
0.386855468749999,-1.698671875,-0.000480468750000185,2.93574609375,0.412988281250001,-3.75566015625,-5.19065625,4.27260546875,2.76199609375,-0.153109375,-1.31563671875,-2.2253828125,13.9142421875,2.39726953125,0.16721875,-4.17396875,-2.7689453125,3.90226171875,3.21790625,-1.563171875,-6.0478515625,-1.24971484375,2.28844921875,3.5667265625,-5.91344140625,-8.11776953125,-1.93032421875,-0.29616796875,-3.53816796875,-6.6776796875
0.41185546875,-2.072671875,0.27351953125,3.53774609375,-0.0110117187499998,-3.53566015625,-4.87565625,5.25260546875,2.60099609375,-0.299109375,-1.34563671875,-1.6143828125,12.9222421875,2.34226953125,0.351218749999999,-3.23596875,-1.7999453125,3.31326171875,4.19190625,-0.866171874999999,-5.4248515625,-0.0347148437500007,3.73744921875,5.7327265625,-4.28144140625,-6.72876953125,0.66367578125,1.01383203125,-1.65316796875,-5.0416796875
0.793855468749999,-2.362671875,-0.31248046875,4.50874609375,-0.215011718749999,-3.13666015625,-4.12065625,5.79560546875,2.31499609375,-0.414109375000001,-0.607636718749998,-1.5053828125,9.9972421875,1.74726953125,0.61321875,-1.70496875,-0.799945312499999,2.20726171875,4.73390625,0.342828125,-4.1728515625,1.64628515625,4.71844921875,7.6357265625,-2.00344140625,-4.52776953125,3.31167578125,3.02483203125,0.77183203125,-2.7006796875
1.36185546875,-2.475671875,-1.28748046875,5.39074609375,-0.257011718749999,-2.87766015625,-3.22165625,6.17260546875,1.88099609375,-0.606109374999999,0.440363281250002,-1.7453828125,5.9322421875,0.699269531250001,0.752218749999999,-0.0939687500000002,0.2260546875,0.976261718749997,4.59090625,1.668828125,-2.6328515625,3.20628515625,4.99944921875,8.8467265625,0.34955859375,-2.32176953125,5.42767578125,5.03383203125,3.00483203125,-0.303679687499999
1.83785546875,-2.466671875,-2.06148046875,5.69374609375,-0.280011718749998,-3.05766015625,-2.50265625,6.55260546875,1.28899609375,-0.965109374999999,1.22636328125,-2.0093828125,1.6902421875,-0.55373046875,0.559218749999999,1.07503125,0.960054687500001,0.0222617187499985,3.68590625,2.607828125,-1.2738515625,4.04928515625,4.47944921875,9.0157265625,2.10955859375,-0.973769531250001,6.39867578125,6.18783203125,4.23083203125,1.3943203125
1.94485546875,-2.500671875,-2.25548046875,5.06874609375,-0.496011718749999,-3.85866015625,-2.30165625,6.89160546875,0.54599609375,-1.561109375,1.30836328125,-2.0123828125,-1.8377578125,-1.71773046875,-0.0947812500000005,1.45403125,0.954054687500001,-0.412738281250002,2.13990625,2.748828125,-0.5118515625,3.82028515625,3.23544921875,8.0117265625,2.77055859375,-1.05176953125,5.87567578125,5.90383203125,3.93483203125,1.8663203125
1.52185546875,-2.738671875,-1.88848046875,3.42074609375,-1.08301171875,-5.26166015625,-2.93065625,6.99860546875,-0.334003906249999,-2.425109375,0.558363281250001,-1.7073828125,-4.0527578125,-2.58273046875,-1.18578125,0.979031249999998,-0.1039453125,-0.311738281250001,0.23090625,1.943828125,-0.545851562500001,2.52128515625,1.51344921875,6.0177265625,2.21555859375,-2.54776953125,3.97667578125,4.18583203125,2.16183203125,1.0703203125
0.596855468749999,-3.234671875,-1.34048046875,0.96374609375,-2.06401171875,-7.01566015625,-4.53165625,6.67560546875,-1.30200390625,-3.493109375,-0.799636718749998,-1.3293828125,-4.7727578125,-3.07373046875,-2.50278125,-0.12596875,-2.2119453125,0.136261718749997,-1.67609375,0.396828125000001,-1.2798515625,0.488285156249999,-0.320550781249999,3.5067265625,0.809558593749999,-4.83876953125,1.29867578125,1.66383203125,-0.455167968750001,-0.499679687499999
-0.599144531250001,-3.873671875,-1.12548046875,-1.79825390625,-3.23501171875,-8.69766015625,-6.87165625,5.83960546875,-2.26300390625,-4.575109375,-2.29463671875,-1.2233828125,-4.2297578125,-3.22373046875,-3.68678125,-1.44796875,-5.0439453125,0.618261718749999,-3.20409375,-1.389171875,-2.3578515625,-1.73371484375,-1.86455078125,1.1227265625,-0.72944140625,-6.94276953125,-1.29332421875,-0.679167968750001,-2.94516796875,-2.0156796875
-1.69814453125,-4.406671875,-1.59848046875,-4.18725390625,-4.22201171875,-9.82966015625,-9.25365625,4.60860546875,-3.08200390625,-5.387109375,-3.41263671875,-1.5793828125,-3.0057578125,-3.11073046875,-4.33578125,-2.52796875,-8.0529453125,0.800261718749999,-4.05909375,-2.793171875,-3.2978515625,-3.58271484375,-2.79955078125,-0.520273437499998,-1.62944140625,-7.94676953125,-3.00332421875,-1.94116796875,-4.40116796875,-2.6736796875
-2.32514453125,-4.540671875,-2.74248046875,-5.58925390625,-4.64801171875,-10.03766015625,-10.68065625,3.31360546875,-3.66000390625,-5.648109375,-3.77063671875,-2.2473828125,-1.9007578125,-2.80473046875,-4.14778125,-2.98996875,-10.6219453125,0.444261718749999,-4.09809375,-3.313171875,-3.6578515625,-4.63071484375,-2.98055078125,-1.0282734375,-1.38244140625,-7.39176953125,-3.39232421875,-1.65616796875,-4.32916796875,-2.0186796875
-2.23314453125,-4.066671875,-4.15248046875,-5.71525390625,-4.32501171875,-9.16966015625,-10.27365625,2.39660546875,-3.99500390625,-5.186109375,-3.22263671875,-2.7813828125,-1.6627578125,-2.35673046875,-3.02378125,-2.61896875,-12.2289453125,-0.488738281250003,-3.34309375,-2.724171875,-3.1808515625,-4.66371484375,-2.45355078125,-0.331273437499998,0.0885585937499993,-5.39976953125,-2.47132421875,0.080832031249999,-2.76616796875,-0.0766796874999986
-1.40514453125,-2.955671875,-5.23648046875,-4.75225390625,-3.34901171875,-7.35566015625,-7.70965625,2.22360546875,-4.19000390625,-4.010109375,-1.85863671875,-2.6683828125,-2.6127578125,-1.80373046875,-1.10778125,-1.38796875,-12.5849453125,-1.76373828125,-1.93609375,-1.106171875,-1.8578515625,-3.69271484375,-1.40155078125,1.3407265625,2.48255859375,-2.53076953125,-0.58932421875,2.74883203125,-0.15816796875,2.7423203125
-0.0521445312500006,-1.389671875,-5.48248046875,-3.28725390625,-2.04901171875,-4.95666015625,-3.43665625,2.91360546875,-4.37900390625,-2.310109375,0.0563632812500021,-1.6263828125,-4.4247578125,-1.15873046875,1.27521875,0.548031249999999,-11.6989453125,-2.92173828125,-0.0760937500000001,1.228828125,0.0971484374999996,-1.94471484375,-0.0595507812499996,3.5947265625,5.29855859375,0.529230468749999,1.78367578125,5.66683203125,2.88983203125,5.8723203125
1.46885546875,0.322328125,-4.68048046875,-2.02225390625,-0.821011718749999,-2.42266015625,1.48434375,4.30460546875,-4.63100390625,-0.393109375,2.19336328125,0.245617187500001,-6.3087578125,-0.39773046875,3.74221875,2.90103125,-9.8219453125,-3.43573828125,2.03690625,3.867828125,2.3581484375,0.16528515625,1.37744921875,6.0347265625,8.05455859375,3.26623046875,4.26567578125,8.26783203125,5.84783203125,8.8393203125
2.81585546875,1.889328125,-2.97048046875,-1.44025390625,0.0919882812500017,-0.117660156249999,5.82834375,6.05860546875,-4.87500390625,1.446890625,4.26036328125,2.5246171875,-7.4487578125,0.551269531250002,6.00321875,5.31503125,-7.3159453125,-2.91873828125,4.24890625,6.436828125,4.6141484375,2.15828515625,2.81544921875,8.3957265625,10.43355859375,5.48023046875,6.68567578125,10.29083203125,8.42183203125,11.4073203125
3.80285546875,3.173328125,-0.751480468750001,-1.58025390625,0.732988281250002,1.80233984375,8.67634375,7.79160546875,-4.89000390625,3.066890625,6.07636328125,4.6826171875,-7.3877578125,1.80826953125,7.96921875,7.45103125,-4.5239453125,-1.28473828125,6.48190625,8.696828125,6.6471484375,3.69928515625,4.30544921875,10.5847265625,12.32855859375,7.22623046875,9.08167578125,11.82383203125,10.58883203125,13.5863203125
4.44185546875,4.202328125,1.49251953125,-2.03725390625,1.39598828125,3.39333984375,9.70534375,9.19360546875,-4.37800390625,4.510890625,7.57836328125,6.2996171875,-6.1317578125,3.48726953125,9.73421875,9.07703125,-1.7339453125,1.21026171875,8.71090625,10.560828125,8.3231484375,4.74728515625,5.98944921875,12.6077265625,13.76855859375,8.62823046875,11.57167578125,13.17083203125,12.49083203125,15.4923203125
4.87485546875,5.069328125,3.35051953125,-2.18925390625,2.41898828125,4.82133984375,9.18534375,10.07160546875,-3.11700390625,5.913890625,8.77436328125,7.1636171875,-4.0707578125,5.60526953125,11.43421875,10.11503125,0.762054687500001,4.03926171875,10.87790625,12.024828125,9.5461484375,5.50428515625,7.95944921875,14.4557265625,14.78855859375,9.70523046875,14.16367578125,14.61283203125,14.24083203125,17.1633203125
5.23085546875,5.798328125,4.57051953125,-1.54125390625,3.93898828125,6.19333984375,7.78334375,10.33760546875,-1.13600390625,7.350890625,9.68236328125,7.2726171875,-1.8537578125,8.00426953125,13.08921875,10.63103125,2.6110546875,6.56026171875,12.82390625,13.089828125,10.2331484375,6.20428515625,10.12844921875,16.0217265625,15.34955859375,10.33223046875,16.62467578125,16.18483203125,15.77183203125,18.4623203125
5.51885546875,6.292328125,5.06651953125,-0.0272539062499995,5.76398828125,7.45133984375,6.26434375,9.96360546875,1.20399609375,8.745890625,10.30936328125,6.7586171875,-0.2617578125,10.34426953125,14.53821875,10.76303125,3.4710546875,8.24226171875,14.31190625,13.741828125,10.3481484375,6.90628515625,12.22244921875,17.1377265625,15.38355859375,10.36423046875,18.53767578125,17.62483203125,16.85383203125,19.1433203125
5.63785546875,6.390328125,4.91451953125,1.92774609375,7.46298828125,8.39433984375,5.24234375,8.98860546875,3.32199609375,9.918890625,10.68136328125,5.8286171875,0.0132421874999999,12.24226953125,15.55421875,10.65303125,3.2320546875,8.88626171875,15.17290625,13.995828125,9.9601484375,7.47128515625,13.92944921875,17.7027265625,14.89855859375,9.79623046875,19.51467578125,18.56183203125,17.25183203125,19.0523203125
5.48185546875,6.010328125,4.35351953125,3.62074609375,8.59698828125,8.83033984375,5.01534375,7.59160546875,4.67399609375,10.706890625,10.88036328125,4.7206171875,-1.3137578125,13.45126953125,16.01421875,10.41603125,2.1810546875,8.74626171875,15.44190625,13.942828125,9.2581484375,7.73028515625,15.09444921875,17.8007265625,14.04155859375,8.83123046875,19.45267578125,18.78483203125,16.92583203125,18.3033203125
5.05885546875,5.245328125,3.71851953125,4.41474609375,8.95798828125,8.72133984375,5.53534375,6.12060546875,5.01299609375,11.063890625,11.04936328125,3.6526171875,-3.8867578125,13.98026953125,16.01421875,10.12203125,0.9360546875,8.41726171875,15.37890625,13.727828125,8.4961484375,7.69328515625,15.80344921875,17.6917265625,13.06155859375,7.80123046875,18.62867578125,18.41583203125,16.10383203125,17.2883203125
4.52585546875,4.349328125,3.29351953125,4.01674609375,8.65198828125,8.20333984375,6.46634375,4.97160546875,4.48399609375,11.064890625,11.31636328125,2.7496171875,-6.7477578125,14.05526953125,15.80221875,9.79003125,0.152054687500001,8.51826171875,15.32590625,13.470828125,7.8761484375,7.60728515625,16.28644921875,17.6727265625,12.18755859375,6.98223046875,17.55767578125,17.81883203125,15.17583203125,16.4663203125
4.11385546875,3.615328125,3.14851953125,2.58574609375,8.01598828125,7.48433984375,7.32534375,4.37060546875,3.53799609375,10.837890625,11.70336328125,1.9936171875,-8.6287578125,13.96726953125,15.61121875,9.37103125,0.227054687500001,9.35626171875,15.50990625,13.186828125,7.4511484375,7.81128515625,16.72744921875,17.8917265625,11.51155859375,6.45823046875,16.70667578125,17.34583203125,14.46383203125,16.0863203125
3.99685546875,3.225328125,3.11351953125,0.65474609375,7.42198828125,6.73133984375,7.66734375,4.22460546875,2.73999609375,10.472890625,12.07936328125,1.2586171875,-8.3987578125,13.93626953125,15.50321875,8.78703125,1.1370546875,10.77926171875,15.89290625,12.782828125,7.1171484375,8.50128515625,17.12344921875,18.2537265625,10.95455859375,6.12423046875,16.25767578125,17.12383203125,14.06083203125,16.0623203125
4.17085546875,3.145328125,2.88451953125,-1.07025390625,7.07998828125,6.00033984375,7.24834375,4.13160546875,2.53699609375,9.966890625,12.19536328125,0.408617187500001,-5.5187578125,14.02226953125,15.32121875,7.99203125,2.3950546875,12.27926171875,16.18490625,12.119828125,6.7011484375,9.58828515625,17.28844921875,18.4697265625,10.33955859375,5.83223046875,16.05467578125,17.02683203125,13.82883203125,16.0763203125
4.39385546875,3.105328125,2.17651953125,-2.01125390625,6.91298828125,5.19533984375,6.05734375,3.49760546875,3.03299609375,9.205890625,11.75736328125,-0.6223828125,-0.3997578125,14.09626953125,14.75121875,7.01303125,3.1510546875,13.24426171875,15.95590625,11.103828125,6.0721484375,10.69928515625,16.95944921875,18.1787265625,9.50755859375,5.51623046875,15.72767578125,16.78283203125,13.53483203125,15.8003203125
4.23985546875,2.672328125,0.82151953125,-1.98125390625,6.57698828125,4.07933984375,4.22734375,1.74160546875,3.89299609375,7.993890625,10.51436328125,-1.8343828125,5.5552421875,13.87726953125,13.45521875,5.91903125,2.5470546875,13.20226171875,14.82290625,9.727828125,5.2051484375,11.32228515625,15.92644921875,17.0997265625,8.40855859375,5.23523046875,14.87367578125,16.12983203125,12.98383203125,15.0763203125
3.29185546875,1.426328125,-1.16848046875,-1.26425390625,5.62698828125,2.36733984375,1.89934375,-1.41339453125,4.44299609375,6.155890625,8.37136328125,-3.2253828125,10.3742421875,13.06726953125,11.24221875,4.77603125,0.2410546875,12.00226171875,12.62490625,8.072828125,4.1941484375,11.03128515625,14.13844921875,15.1347265625,7.11455859375,5.11123046875,13.24467578125,14.92783203125,12.09483203125,13.9663203125
1.39385546875,-0.811671875,-3.55548046875,-0.43825390625,3.78298828125,-0.0686601562499991,-0.819656250000001,-5.67139453125,4.00799609375,3.677890625,5.48236328125,-4.8273828125,12.2812421875,11.53526953125,8.21221875,3.61403125,-3.1799453125,9.87526171875,9.54190625,6.287828125,3.2161484375,9.70328515625,11.77444921875,12.4587265625,5.78955859375,5.24023046875,10.87067578125,13.23383203125,10.89683203125,12.7063203125
-1.18614453125,-3.815671875,-5.91048046875,-0.0592539062499995,1.15398828125,-3.03566015625,-3.79965625,-10.13239453125,2.30999609375,0.820890625000001,2.25336328125,-6.6553828125,10.4332421875,9.46926953125,4.80421875,2.44603125,-6.3129453125,7.38126171875,6.12790625,4.596828125,2.4751484375,7.66228515625,9.25244921875,9.5427265625,4.65055859375,5.64823046875,8.12067578125,11.31883203125,9.53583203125,11.6093203125
-3.81614453125,-6.982671875,-7.76048046875,-0.396253906249999,-1.73201171875,-6.01366015625,-6.80365625,-13.63039453125,-0.296003906249998,-1.888109375,-0.760636718749998,-8.6333828125,5.3122421875,7.36026953125,1.69921875,1.29703125,-7.6209453125,5.22526171875,3.18590625,3.280828125,2.1251484375,5.62828515625,7.16044921875,7.0757265625,3.93555859375,6.28523046875,5.63367578125,9.61083203125,8.26683203125,10.9793203125
-5.75714453125,-9.550671875,-8.75948046875,-1.33725390625,-4.10701171875,-8.33366015625,-9.46665625,-15.26039453125,-2.92600390625,-3.811109375,-3.03563671875,-10.5423828125,-1.3867578125,5.84426953125,-0.392781250000001,0.241031249999999,-6.3249453125,4.04626171875,1.52090625,2.627828125,2.2041484375,4.47528515625,6.08844921875,5.7727265625,3.85555859375,7.03423046875,4.12567578125,8.58883203125,7.43083203125,11.0163203125
-6.49414453125,-10.913671875,-8.81348046875,-2.48125390625,-5.30601171875,-9.45366015625,-11.38865625,-14.77439453125,-4.55400390625,-4.458109375,-4.23663671875,-12.0483828125,-7.2997578125,5.44226953125,-0.991781250000001,-0.582968750000001,-2.9569453125,4.22326171875,1.64190625,2.827828125,2.6081484375,4.87228515625,6.43444921875,6.1227265625,4.50855859375,7.72623046875,4.12667578125,8.65283203125,7.34983203125,11.7413203125
-5.95814453125,-10.878671875,-8.09948046875,-3.34025390625,-5.06401171875,-9.18766015625,-12.30065625,-12.66939453125,-4.49900390625,-3.702109375,-4.31463671875,-12.8273828125,-10.2797578125,6.32926953125,-0.0337812500000005,-1.02196875,0.8270546875,5.75726171875,3.54890625,3.868828125,3.1091484375,6.96028515625,8.24044921875,8.1807265625,5.80155859375,8.13023046875,5.75667578125,9.97683203125,8.19583203125,12.9513203125
-4.54414453125,-9.733671875,-7.00748046875,-3.53825390625,-3.64201171875,-7.80366015625,-12.21165625,-9.95039453125,-2.74800390625,-1.860109375,-3.51963671875,-12.7253828125,-9.2777578125,8.23126953125,2.09321875,-1.00196875,3.0990546875,8.24226171875,6.70790625,5.493828125,3.4401484375,10.24028515625,11.12744921875,11.5037265625,7.44355859375,7.98423046875,8.66267578125,12.39483203125,9.88383203125,14.2613203125
-2.90714453125,-8.104671875,-6.00148046875,-2.91125390625,-1.68001171875,-5.91066015625,-11.44765625,-7.68539453125,0.0559960937500001,0.433890625,-2.31363671875,-11.8363828125,-4.7927578125,10.53226953125,4.70721875,-0.58396875,2.6990546875,10.96826171875,10.25390625,7.283828125,3.4131484375,13.74028515625,14.40144921875,15.2947265625,9.05055859375,7.08723046875,12.15567578125,15.39583203125,12.07883203125,15.2533203125
-1.62614453125,-6.652671875,-5.43548046875,-1.50325390625,0.11698828125,-4.16366015625,-10.52565625,-6.55639453125,2.94399609375,2.493890625,-1.17963671875,-10.4453828125,1.4222421875,12.55726953125,7.11221875,0.0740312499999991,-0.1439453125,13.16126171875,13.31690625,8.819828125,3.0241484375,16.39828515625,17.27044921875,18.7007265625,10.30855859375,5.45123046875,15.47867578125,18.28683203125,14.32383203125,15.6823203125
-0.958144531250001,-5.804671875,-5.40148046875,0.46674609375,1.29798828125,-2.96066015625,-9.92165625,-6.63339453125,5.06899609375,3.864890625,-0.422636718749999,-8.8773828125,7.2532421875,13.85526953125,8.86421875,0.821031249999999,-4.0069453125,14.27026171875,15.32290625,9.848828125,2.4711484375,17.50628515625,19.11644921875,21.1127265625,11.12255859375,3.42023046875,18.07167578125,20.45983203125,16.22583203125,15.6363203125
-0.798144531250001,-5.638671875,-5.71048046875,2.59774609375,1.80198828125,-2.31466015625,-9.83365625,-7.49039453125,6.01499609375,4.458890625,-0.0636367187499989,-7.3583828125,11.1352421875,14.32526953125,9.88321875,1.60603125,-7.1469453125,14.13226171875,16.14090625,10.370828125,2.0661484375,16.98628515625,19.68944921875,22.3427265625,11.65055859375,1.63223046875,19.70967578125,21.62883203125,17.59683203125,15.5153203125
-0.833144531250001,-5.947671875,-5.98148046875,4.34774609375,1.87898828125,-1.94466015625,-10.04565625,-8.50639453125,5.85499609375,4.517890625,0.127363281250002,-5.9453828125,12.4932421875,14.14126953125,10.39421875,2.50403125,-8.4449453125,12.96226171875,16.02790625,10.605828125,2.1131484375,15.37528515625,19.14244921875,22.6017265625,12.20355859375,0.81923046875,20.47367578125,21.89183203125,18.47683203125,15.8243203125
-0.737144531250001,-6.369671875,-5.78848046875,5.18474609375,1.90198828125,-1.45666015625,-9.96865625,-9.11439453125,4.99799609375,4.441890625,0.514363281250002,-4.5423828125,11.6492421875,13.57726953125,10.75121875,3.67703125,-7.7969453125,11.20526171875,15.44190625,10.875828125,2.7881484375,13.52828515625,17.91344921875,22.3177265625,13.06855859375,1.49123046875,20.61367578125,21.59083203125,19.02883203125,16.8853203125
-0.294144531250002,-6.517671875,-4.81248046875,4.81574609375,2.18498828125,-0.514660156249999,-8.86665625,-8.92539453125,3.96299609375,4.605890625,1.43636328125,-2.9963828125,9.4772421875,12.87426953125,11.26121875,5.25803125,-5.8319453125,9.34426171875,14.80990625,11.429828125,4.0711484375,12.17428515625,16.50344921875,21.8877265625,14.31655859375,3.67223046875,20.36067578125,21.05883203125,19.36883203125,18.6003203125
0.557855468749999,-6.087671875,-2.98548046875,3.31074609375,2.86698828125,1.04333984375,-6.24365625,-7.80339453125,3.18399609375,5.228890625,3.06436328125,-1.2573828125,7.0232421875,12.17826953125,12.04821875,7.19603125,-3.3479453125,7.75526171875,14.36790625,12.300828125,5.6911484375,11.58128515625,15.25244921875,21.4817265625,15.69455859375,6.79423046875,19.78967578125,20.37883203125,19.44783203125,20.4173203125
1.72385546875,-4.956671875,-0.57948046875,1.05274609375,3.89398828125,3.14433984375,-2.20465625,-5.94939453125,2.90399609375,6.328890625,5.30236328125,0.5096171875,5.1582421875,11.56026953125,13.01621875,9.15103125,-0.9369453125,6.63226171875,14.11390625,13.248828125,7.1381484375,11.47628515625,14.23344921875,20.9807265625,16.67455859375,9.83923046875,18.77867578125,19.32983203125,19.04983203125,21.5153203125
2.97085546875,-3.248671875,1.85551953125,-1.41225390625,5.07598828125,5.49033984375,2.40734375,-3.87739453125,3.16999609375,7.754890625,7.77536328125,1.9266171875,4.2882421875,11.08826953125,13.90321875,10.55403125,1.0250546875,6.02126171875,13.89490625,13.845828125,7.7921484375,11.25628515625,13.29944921875,20.0887265625,16.63055859375,11.68823046875,17.10367578125,17.53783203125,17.91083203125,21.1483203125
4.00985546875,-1.290671875,3.70851953125,-3.49725390625,6.20598828125,7.67233984375,6.26434375,-2.22039453125,3.90299609375,9.269890625,9.96736328125,2.5726171875,4.2692421875,10.88626953125,14.42221875,10.84603125,2.2170546875,5.91626171875,13.55490625,13.670828125,7.1701484375,10.34728515625,12.26144921875,18.5647265625,15.11455859375,11.51223046875,14.63167578125,14.76183203125,15.87383203125,18.9633203125
4.62785546875,0.538328125,4.57551953125,-4.64925390625,7.20298828125,9.34933984375,8.14834375,-1.41839453125,4.99099609375,10.683890625,11.44036328125,2.2136171875,4.6062421875,11.14626953125,14.41921875,9.79903125,2.3290546875,6.34426171875,13.08490625,12.557828125,5.1741484375,8.53728515625,11.08444921875,16.4407265625,12.10355859375,9.06123046875,11.51067578125,11.13383203125,13.02283203125,15.1653203125
4.83285546875,2.014328125,4.45051953125,-4.44625390625,8.16698828125,10.41233984375,7.62334375,-1.47739453125,6.33799609375,11.958890625,12.05236328125,0.9876171875,4.8492421875,12.05726953125,13.99521875,7.71003125,1.2550546875,7.37126171875,12.68790625,10.758828125,2.2081484375,6.15228515625,9.99044921875,14.1067265625,8.12455859375,4.75223046875,8.24267578125,7.20283203125,9.72983203125,10.4703203125
4.88085546875,3.180328125,3.73751953125,-2.73625390625,9.32298828125,11.03633984375,5.38534375,-1.94039453125,7.86099609375,13.218890625,12.01336328125,-0.5763828125,4.9162421875,13.68826953125,13.49321875,5.35303125,-0.655945312499999,9.00126171875,12.69890625,8.894828125,-0.9228515625,3.97128515625,9.38044921875,12.2087265625,4.13255859375,-0.454769531250001,5.55867578125,3.77983203125,6.59283203125,5.8913203125
5.14185546875,4.273328125,3.07651953125,0.21574609375,10.82598828125,11.57933984375,3.00034375,-2.12639453125,9.43299609375,14.620890625,11.76036328125,-1.7483828125,5.1192421875,15.87026953125,13.33621875,3.66103125,-2.6329453125,11.06426171875,13.38290625,7.694828125,-3.3178515625,2.91228515625,9.61644921875,11.3677265625,1.17755859375,-5.34376953125,4.12367578125,1.61783203125,4.25183203125,2.4173203125
5.84985546875,5.521328125,3.04151953125,3.70774609375,12.58498828125,12.37033984375,2.09234375,-1.52439453125,10.82899609375,16.177890625,11.71936328125,-1.9293828125,5.8932421875,18.18026953125,13.79421875,3.32303125,-3.8809453125,13.20226171875,14.74790625,7.651828125,-4.3258515625,3.58528515625,10.79344921875,11.8937265625,-0.00544140625000011,-8.83376953125,4.24667578125,1.11283203125,3.16483203125,0.696320312500001
6.92485546875,6.944328125,3.86951953125,6.76874609375,14.22598828125,13.50733984375,3.43834375,-0.102394531249999,11.75099609375,17.681890625,12.12836328125,-0.9503828125,7.4802421875,20.06326953125,14.84021875,4.50903125,-4.0349453125,14.99826171875,16.49690625,8.819828125,-3.7618515625,5.97828515625,12.66544921875,13.6487265625,0.75655859375,-10.32076953125,5.75267578125,2.15283203125,3.44483203125,0.849320312500002
7.99485546875,8.342328125,5.37851953125,8.50674609375,15.25998828125,14.82733984375,6.54834375,1.68260546875,11.94399609375,18.788890625,13.00436328125,0.863617187500001,9.7842421875,21.05226953125,16.18121875,6.87003125,-3.2449453125,16.16826171875,18.15990625,10.845828125,-1.8908515625,9.42528515625,14.75544921875,16.1317265625,3.07755859375,-9.79976953125,8.09967578125,4.21583203125,4.85083203125,2.4993203125
8.62085546875,9.438328125,7.11851953125,8.46274609375,15.33198828125,16.03433984375,10.00534375,3.18560546875,11.33499609375,19.213890625,14.21536328125,2.8816171875,12.4432421875,20.96826953125,17.42321875,9.76503125,-1.8319453125,16.66626171875,19.30990625,13.171828125,0.7621484375,12.89028515625,16.57544921875,18.7027265625,6.24855859375,-7.74376953125,10.64667578125,6.64683203125,6.91783203125,4.9883203125
8.53785546875,10.056328125,8.59751953125,6.78174609375,14.39098828125,16.86333984375,12.30234375,3.94560546875,10.10099609375,18.862890625,15.54536328125,4.4746171875,14.9442421875,19.96226953125,18.23721875,12.53603125,0.0800546875000006,16.64426171875,19.73090625,15.257828125,3.6281484375,15.43528515625,17.81744921875,20.8227265625,9.50855859375,-4.84476953125,12.89567578125,8.96183203125,9.15083203125,7.6513203125
7.76185546875,10.177328125,9.43451953125,4.10974609375,12.67698828125,17.15833984375,12.60434375,3.85260546875,8.58199609375,17.839890625,16.70436328125,5.2526171875,16.6982421875,18.37926953125,18.42821875,14.67103125,2.5130546875,16.30426171875,19.45390625,16.719828125,6.2071484375,16.62028515625,18.41944921875,22.1717265625,12.26055859375,-1.78476953125,14.60667578125,11.01283203125,11.19383203125,10.0263203125
6.51985546875,9.869328125,9.38651953125,1.30174609375,10.56798828125,16.82533984375,11.01134375,3.06860546875,7.10199609375,16.327890625,17.32336328125,5.1326171875,17.1362421875,16.56226953125,17.91621875,15.83803125,5.2050546875,15.76826171875,18.66990625,17.357828125,8.1191484375,16.62628515625,18.51244921875,22.6617265625,14.16055859375,0.888230468749999,15.75167578125,12.92983203125,12.89383203125,11.9093203125
5.08685546875,9.183328125,8.34751953125,-0.89825390625,8.38898828125,15.79833984375,8.30634375,1.83860546875,5.82599609375,14.467890625,17.01836328125,4.2906171875,15.8782421875,14.70326953125,16.69121875,15.85603125,7.3260546875,15.04426171875,17.58390625,17.121828125,9.1331484375,16.04028515625,18.27344921875,22.3577265625,15.09755859375,2.81323046875,16.38367578125,14.89783203125,14.22783203125,13.2953203125
3.66985546875,8.116328125,6.41251953125,-2.05525390625,6.32398828125,14.07833984375,5.46434375,0.398605468750002,4.74599609375,12.334890625,15.55936328125,3.0466171875,12.9422421875,12.83426953125,14.82021875,14.71703125,7.7690546875,14.09426171875,16.31190625,16.073828125,9.2271484375,15.46228515625,17.80544921875,21.4127265625,15.14055859375,3.84223046875,16.52267578125,16.90683203125,15.18683203125,14.2643203125
2.40885546875,6.713328125,3.96851953125,-2.10625390625,4.48298828125,11.86433984375,3.27834375,-1.00239453125,3.80699609375,10.061890625,13.07536328125,1.7606171875,8.8592421875,10.94826953125,12.53221875,12.65303125,5.9250546875,12.95026171875,14.91890625,14.432828125,8.6381484375,15.19528515625,17.12544921875,20.0477265625,14.51255859375,4.06923046875,16.15667578125,18.65483203125,15.70783203125,14.9023203125
1.47085546875,5.190328125,1.69551953125,-1.27625390625,3.06498828125,9.65233984375,2.22234375,-2.05039453125,3.07499609375,8.003890625,10.14836328125,0.776617187499999,4.5972421875,9.18026953125,10.31521875,10.20003125,2.3560546875,11.80226171875,13.55090625,12.631828125,7.8451484375,15.18328515625,16.26044921875,18.5717265625,13.59155859375,3.83023046875,15.33767578125,19.66783203125,15.74083203125,15.3033203125
1.10185546875,3.983328125,0.40451953125,0.0937460937500001,2.44098828125,8.19233984375,2.46934375,-2.36939453125,2.81299609375,6.772890625,7.69936328125,0.376617187500001,1.2872421875,7.91126953125,8.89821875,8.15803125,-1.2359453125,10.98626171875,12.54390625,11.304828125,7.4441484375,15.16128515625,15.35044921875,17.3837265625,12.88055859375,3.61923046875,14.28067578125,19.57183203125,15.35083203125,15.5963203125
1.55985546875,3.605328125,0.740519531249999,1.69774609375,3.03998828125,8.23333984375,3.93234375,-1.64839453125,3.38299609375,7.036890625,6.65536328125,0.738617187500001,-0.1567578125,7.68526953125,9.01721875,7.36603125,-2.8409453125,10.84826171875,12.34690625,11.110828125,7.9281484375,14.86828515625,14.64644921875,16.8827265625,12.87155859375,3.92423046875,13.34367578125,18.31583203125,14.74683203125,15.9303203125
2.95185546875,4.390328125,2.84651953125,3.29974609375,5.06798828125,10.13833984375,6.25934375,0.173605468750003,4.98999609375,9.136890625,7.53236328125,1.8566171875,0.6272421875,8.91426953125,11.03721875,8.34903125,-1.2769453125,11.54726171875,13.27390625,12.416828125,9.4501484375,14.15528515625,14.36244921875,17.2867265625,13.82355859375,5.01223046875,12.84667578125,16.18683203125,14.15183203125,16.3803203125
5.09885546875,6.273328125,6.19251953125,4.69074609375,8.27098828125,13.59433984375,8.87834375,2.76760546875,7.45199609375,12.781890625,10.13036328125,3.5006171875,3.3352421875,11.54526953125,14.63221875,10.99803125,3.1190546875,12.88726171875,15.23390625,15.033828125,11.6961484375,12.97928515625,14.48344921875,18.4477265625,15.55955859375,6.76723046875,12.83967578125,13.58083203125,13.60683203125,16.8083203125
7.55885546875,8.766328125,9.72351953125,5.70674609375,11.91398828125,17.64433984375,11.16034375,5.46560546875,10.16799609375,17.027890625,13.55236328125,5.2586171875,7.1562421875,14.91726953125,18.78021875,14.50403125,8.6910546875,14.30826171875,17.61790625,18.166828125,13.9571484375,11.34428515625,14.66544921875,19.7997265625,17.42055859375,8.66623046875,12.98167578125,10.73983203125,12.87183203125,16.8283203125
9.77485546875,11.139328125,12.29251953125,6.33774609375,15.04198828125,21.06533984375,12.65434375,7.51960546875,12.34899609375,20.602890625,16.55236328125,6.6996171875,11.0352421875,17.95326953125,22.10621875,17.64303125,13.3850546875,15.07226171875,19.47990625,20.654828125,15.4051484375,9.27528515625,14.33944921875,20.5247265625,18.47055859375,9.96023046875,12.64267578125,7.65783203125,11.51783203125,15.9263203125
11.27685546875,12.723328125,13.17451953125,6.81574609375,16.85898828125,22.89333984375,13.25134375,8.42460546875,13.37399609375,22.441890625,18.05736328125,7.5496171875,13.8962421875,19.60026953125,23.44321875,19.26503125,15.7850546875,14.58126171875,19.92790625,21.429828125,15.4351484375,6.87128515625,12.99744921875,19.8877265625,17.86255859375,9.96823046875,11.21967578125,4.24483203125,9.19383203125,13.7103203125
11.81885546875,13.153328125,12.36251953125,7.54374609375,17.05198828125,22.78533984375,13.14934375,8.12560546875,13.07699609375,22.129890625,17.59836328125,7.7916171875,14.8272421875,19.30126953125,22.30721875,18.76003125,15.6740546875,12.68026171875,18.54090625,19.961828125,13.9051484375,4.36628515625,10.50144921875,17.5817265625,15.23055859375,8.36023046875,8.47867578125,0.59183203125,5.89283203125,10.1393203125
11.44785546875,12.483328125,10.51451953125,8.87674609375,15.89098828125,21.09133984375,12.66634375,7.01760546875,11.79899609375,20.048890625,15.45736328125,7.6386171875,13.3112421875,17.25526953125,19.08221875,16.26203125,13.9060546875,9.79026171875,15.58790625,16.491828125,11.1731484375,2.13228515625,7.23644921875,13.8977265625,10.88855859375,5.30423046875,4.74267578125,-2.87316796875,2.06183203125,5.6243203125
10.47585546875,11.125328125,8.58951953125,10.89474609375,14.08098828125,18.63933984375,12.06234375,5.77060546875,10.22499609375,17.159890625,12.48636328125,7.4096171875,9.4862421875,14.33026953125,14.83721875,12.54803125,11.7860546875,6.80426171875,11.92790625,11.925828125,7.9341484375,0.581285156249999,4.00444921875,9.6367265625,5.73155859375,1.40823046875,0.81167578125,-5.45616796875,-1.53816796875,0.927320312500001
9.35785546875,9.662328125,7.40851953125,13.31874609375,12.42698828125,16.38033984375,11.47234375,5.04360546875,9.07899609375,14.556890625,9.72936328125,7.3626171875,4.2612421875,11.67126953125,10.88121875,8.69403125,10.3750546875,4.74926171875,8.63990625,7.467828125,4.9511484375,0.0062851562499997,1.70344921875,5.8067265625,0.890558593750001,-2.49576953125,-2.35532421875,-6.49616796875,-4.13016796875,-3.0936796875
8.51785546875,8.616328125,7.31951953125,15.59474609375,11.49698828125,15.02733984375,10.94034375,5.19960546875,8.85299609375,13.026890625,8.02336328125,7.5676171875,-0.8247578125,10.19326953125,8.26021875,5.67403125,10.0670546875,4.35026171875,6.58390625,4.176828125,2.8001484375,0.46428515625,0.961449218750001,3.2547265625,-2.66944140625,-5.63176953125,-4.03632421875,-5.69916796875,-5.24716796875,-5.7796796875
8.18385546875,8.248328125,8.16251953125,17.10574609375,11.44098828125,14.84233984375,10.48534375,6.15560546875,9.66299609375,12.811890625,7.71936328125,7.8826171875,-4.0207578125,10.22326953125,7.42021875,4.06403125,10.6020546875,5.70426171875,6.09790625,2.636828125,1.7351484375,1.76828515625,1.90044921875,2.3777265625,-4.44144140625,-7.50376953125,-4.03132421875,-3.31516796875,-4.89216796875,-6.8866796875
8.32285546875,8.487328125,9.49151953125,17.41874609375,12.02798828125,15.63433984375,10.13534375,7.47660546875,11.26599609375,13.636890625,8.63036328125,8.0586171875,-3.9907578125,11.45626953125,8.13321875,3.94303125,11.3920546875,8.24526171875,6.92090625,2.832828125,1.7021484375,3.58028515625,4.10644921875,3.0237265625,-4.44844140625,-7.96276953125,-2.71332421875,-0.0511679687500006,-3.51316796875,-6.6036796875
8.71685546875,9.025328125,10.88651953125,16.46174609375,12.85198828125,16.94733984375,9.91634375,8.65260546875,13.16099609375,14.938890625,10.18236328125,7.9326171875,-0.4787578125,13.17226953125,9.68521875,4.98203125,11.9480546875,11.00126171875,8.36190625,4.242828125,2.4561484375,5.52728515625,6.79744921875,4.5837265625,-3.14144140625,-7.15576953125,-0.85232421875,3.19883203125,-1.78416796875,-5.4106796875
9.11385546875,9.507328125,12.11851953125,14.54574609375,13.54198828125,18.30233984375,9.82334375,9.35760546875,14.74499609375,16.146890625,11.70036328125,7.5566171875,5.3402421875,14.60626953125,11.21421875,6.63603125,12.1590546875,13.01526171875,9.60590625,6.079828125,3.7031484375,7.27828515625,9.10744921875,6.2267265625,-1.17144140625,-5.42676953125,0.72067578125,5.65383203125,-0.33516796875,-3.8726796875
9.37985546875,9.724328125,13.10151953125,12.20774609375,13.89598828125,19.36733984375,9.81134375,9.55160546875,15.49299609375,16.890890625,12.68836328125,7.1766171875,11.1762421875,15.25726953125,12.04321875,8.34803125,12.2620546875,13.72026171875,10.04290625,7.600828125,5.1741484375,8.56028515625,10.37644921875,7.2187265625,0.842558593750001,-3.22276953125,1.44267578125,6.83883203125,0.46083203125,-2.4566796875
9.52785546875,9.682328125,13.73051953125,9.98874609375,13.86398828125,19.99033984375,9.84734375,9.40460546875,15.14199609375,17.036890625,12.97636328125,7.0816171875,14.5802421875,15.02226953125,11.88921875,9.71003125,12.5220546875,13.09326171875,9.46990625,8.338828125,6.6491484375,9.16128515625,10.34444921875,7.1757265625,2.48255859375,-1.01176953125,1.21467578125,6.65483203125,0.560832031249999,-1.4486796875
9.64185546875,9.534328125,13.80651953125,8.23474609375,13.44598828125,20.12833984375,9.96634375,9.14460546875,13.77299609375,16.581890625,12.66536328125,7.4116171875,14.0192421875,14.11726953125,10.86121875,10.52903125,12.9090546875,11.54026171875,8.08290625,8.180828125,7.9381484375,8.92928515625,9.15344921875,6.1667265625,3.56455859375,0.807230468749999,0.35867578125,5.32483203125,0.16283203125,-0.9396796875
9.73585546875,9.429328125,13.09551953125,7.00374609375,12.59198828125,19.73633984375,10.26934375,8.90660546875,11.75299609375,15.518890625,11.94636328125,8.0766171875,9.4812421875,12.86126953125,9.29721875,10.79703125,13.0770546875,9.61826171875,6.30290625,7.288828125,8.8821484375,7.79728515625,7.20344921875,4.6157265625,4.08755859375,1.98723046875,-0.60032421875,3.26783203125,-0.45216796875,-0.874679687499999
9.69185546875,9.407328125,11.51051953125,6.09974609375,11.21398828125,18.73033984375,10.82234375,8.66960546875,9.57299609375,13.830890625,10.94336328125,8.8176171875,2.4042421875,11.50326953125,7.58621875,10.62603125,12.6640546875,7.77226171875,4.56690625,5.974828125,9.3671484375,5.81728515625,4.96044921875,3.0777265625,4.16855859375,2.46723046875,-1.18832421875,0.943832031249999,-1.04516796875,-1.1116796875
9.33985546875,9.413328125,9.29151953125,5.24674609375,9.30998828125,17.07933984375,11.57234375,8.33460546875,7.70099609375,11.599890625,9.70836328125,9.3956171875,-4.8737578125,10.20226953125,6.05021875,10.19003125,11.6740546875,6.24726171875,3.19290625,4.599828125,9.3721484375,3.20428515625,2.82144921875,2.0167265625,3.99355859375,2.33623046875,-1.14932421875,-1.25816796875,-1.47716796875,-1.4736796875
8.61485546875,9.386328125,7.06351953125,4.30574609375,7.09898828125,14.95333984375,12.36034375,7.90860546875,6.50299609375,9.132890625,8.34436328125,9.7616171875,-9.9097578125,9.10126953125,4.91921875,9.69203125,10.6020546875,5.14126171875,2.34390625,3.518828125,9.0031484375,0.331285156249999,1.06744921875,1.6767265625,3.76955859375,1.74723046875,-0.48332421875,-3.07916796875,-1.71216796875,-1.8016796875
7.66485546875,9.344328125,5.64151953125,3.39674609375,5.03298828125,12.77933984375,12.99734375,7.60160546875,6.19099609375,6.945890625,7.11136328125,10.0776171875,-11.0027578125,8.38126953125,4.33921875,9.34403125,10.1900546875,4.51126171875,2.05990625,3.033828125,8.4761484375,-2.32971484375,-0.130550781249999,2.0737265625,3.66755859375,0.84823046875,0.62467578125,-4.38616796875,-1.77716796875,-1.9926796875
6.80385546875,9.387328125,5.64351953125,2.82574609375,3.63898828125,11.10033984375,13.34434375,7.73560546875,6.77099609375,5.589890625,6.38536328125,10.5846171875,-7.8517578125,8.20426953125,4.37321875,9.31303125,10.9640546875,4.41926171875,2.30290625,3.327828125,8.0441484375,-4.32571484375,-0.67155078125,3.0687265625,3.79155859375,-0.237769531250001,1.91667578125,-5.14316796875,-1.70616796875,-2.0016796875
6.35785546875,9.631328125,7.12351953125,2.88174609375,3.26198828125,10.33033984375,13.32834375,8.53160546875,8.01199609375,5.391890625,6.47836328125,11.4096171875,-1.7257578125,8.58726953125,4.97821875,9.66403125,12.8550546875,4.89326171875,2.98490625,4.399828125,7.8971484375,-5.31671484375,-0.524550781249999,4.4617265625,4.16155859375,-1.37776953125,3.16367578125,-5.35716796875,-1.50116796875,-1.8416796875
6.48385546875,10.124328125,9.49951953125,3.66674609375,3.86998828125,10.54333984375,12.95534375,9.96960546875,9.48299609375,6.252890625,7.41336328125,12.4476171875,5.0372421875,9.32926953125,5.96421875,10.30203125,15.2130546875,5.87526171875,3.95390625,6.003828125,8.0751484375,-5.15571484375,0.263449218750001,6.0257265625,4.69055859375,-2.43176953125,4.20367578125,-5.03016796875,-1.12816796875,-1.5746796875
7.08285546875,10.803328125,11.81151953125,5.03774609375,5.01998828125,11.42233984375,12.30634375,11.79660546875,10.68399609375,7.619890625,8.82836328125,13.3896171875,10.0332421875,10.04226953125,6.97921875,10.94803125,17.2150546875,7.17726171875,4.95190625,7.638828125,8.4181484375,-3.89671484375,1.52144921875,7.4787265625,5.17255859375,-3.29376953125,4.91467578125,-4.16616796875,-0.58816796875,-1.3436796875
7.83685546875,11.492328125,13.13251953125,6.64774609375,6.02798828125,12.36233984375,11.50334375,13.60360546875,11.20799609375,8.671890625,10.06436328125,13.8386171875,11.8322421875,10.28226953125,7.54421875,11.18003125,18.3120546875,8.50326171875,5.62190625,8.653828125,8.5921484375,-1.79171484375,2.93244921875,8.4377265625,5.28555859375,-3.94776953125,5.15167578125,-2.83916796875,0.00383203125000087,-1.3726796875
8.33485546875,11.934328125,12.89151953125,8.04374609375,6.24898828125,12.67233984375,10.64034375,14.89460546875,10.86699609375,8.638890625,10.39636328125,13.4496171875,10.5192421875,9.69926953125,7.16421875,10.55703125,18.3850546875,9.50526171875,5.57690625,8.434828125,8.1951484375,0.732285156249999,4.04944921875,8.4377265625,4.67555859375,-4.46376953125,4.71067578125,-1.29516796875,0.39283203125,-1.9246796875
8.23385546875,11.850328125,10.99851953125,8.79474609375,5.32998828125,11.81133984375,9.72334375,15.17260546875,9.73399609375,7.111890625,9.32936328125,12.0556171875,7.4902421875,8.16626953125,5.50621875,8.80703125,17.5090546875,9.87226171875,4.52290625,6.637828125,6.9261484375,3.11528515625,4.39344921875,7.0717265625,3.09155859375,-4.93076953125,3.37467578125,0.0258320312499993,0.24983203125,-3.1886796875
7.40085546875,11.029328125,7.82251953125,8.65074609375,3.35198828125,9.61133984375,8.71434375,14.11760546875,8.09399609375,4.228890625,6.83736328125,9.7556171875,4.6382421875,5.84926953125,2.59821875,6.01703125,15.6450546875,9.44326171875,2.41990625,3.371828125,4.7751484375,4.79128515625,3.64444921875,4.2267265625,0.547558593750001,-5.37076953125,1.05567578125,0.635832031249999,-0.666167968749999,-5.1456796875
5.98785546875,9.462328125,4.05551953125,7.66874609375,0.829988281250001,6.40233984375,7.63934375,11.77660546875,6.34599609375,0.668890625,3.44236328125,6.9416171875,3.3832421875,3.23026953125,-1.05178125,2.72503125,12.6360546875,8.33226171875,-0.38109375,-0.731171874999999,2.1441484375,5.39728515625,1.88044921875,0.307726562500001,-2.54644140625,-5.66276953125,-1.99032421875,0.292832031249999,-2.28616796875,-7.4556796875
4.41485546875,7.419328125,0.53251953125,6.23074609375,-1.45501171875,2.93433984375,6.66434375,8.66660546875,4.91199609375,-2.565109375,0.0813632812500025,4.2566171875,4.0452421875,1.01726953125,-4.51578125,-0.172968750000001,8.5730546875,6.97026171875,-3.12909375,-4.643171875,-0.1918515625,4.99828515625,-0.308550781249998,-3.7282734375,-5.39744140625,-5.53176953125,-5.05432421875,-0.759167968750001,-4.11516796875,-9.4596796875
3.21985546875,5.408328125,-1.97448046875,4.91474609375,-2.74401171875,0.11233984375,6.02134375,5.66360546875,4.15799609375,-4.518109375,-2.24563671875,2.4366171875,5.8342421875,-0.0617304687499995,-6.75078125,-1.73896875,4.2080546875,5.99326171875,-4.88109375,-7.254171875,-1.3348515625,4.09728515625,-1.97455078125,-6.6292734375,-7.05644140625,-4.61676953125,-7.11832421875,-1.79216796875,-5.33916796875,-10.3536796875
2.81785546875,3.981328125,-2.93848046875,4.24974609375,-2.63001171875,-1.36266015625,5.82134375,3.69860546875,4.29399609375,-4.678109375,-2.89463671875,2.0546171875,7.4122421875,0.43326953125,-7.03978125,-1.38796875,0.932054687500001,5.97326171875,-4.90409375,-7.808171875,-0.6658515625,3.40228515625,-2.23255078125,-7.3512734375,-6.82444140625,-2.65176953125,-7.28132421875,-1.94716796875,-5.18616796875,-9.5146796875
3.29885546875,3.510328125,-2.23248046875,4.46074609375,-1.25701171875,-1.27566015625,5.89734375,3.38660546875,5.27999609375,-3.193109375,-1.84963671875,3.2746171875,7.7072421875,2.40726953125,-5.34078125,0.805031249999999,0.1860546875,7.10926171875,-3.05109375,-6.237171875,1.8251484375,3.42928515625,-0.73855078125,-5.5562734375,-4.63044140625,0.323230468749999,-5.22632421875,-0.730167968750001,-3.35516796875,-6.8326796875
4.39285546875,4.044328125,-0.18648046875,5.33374609375,0.751988281250002,0.0423398437500015,5.84834375,4.75160546875,6.78399609375,-0.786109375000001,0.299363281250002,5.7396171875,6.5332421875,5.19226953125,-2.33878125,4.10103125,2.6350546875,9.07926171875,0.104906249999999,-3.202171875,5.4571484375,4.23828515625,2.08444921875,-1.8092734375,-1.12244140625,3.84523046875,-1.46332421875,1.65783203125,-0.233167968749999,-2.8576796875
5.62085546875,5.324328125,2.51751953125,6.30474609375,2.59598828125,1.90633984375,5.29934375,7.22660546875,8.26799609375,1.588890625,2.63936328125,8.6846171875,4.6862421875,7.78526953125,0.86321875,7.39103125,7.6920546875,11.14326171875,3.48290625,0.185828125,9.1151484375,5.42028515625,5.19644921875,2.6267265625,2.58055859375,7.11123046875,2.84967578125,4.36783203125,3.22983203125,1.3583203125
6.52785546875,6.893328125,5.10851953125,6.75674609375,3.66298828125,3.60433984375,4.19434375,9.92160546875,9.21199609375,3.139890625,4.33236328125,11.2266171875,3.4362421875,9.25026953125,3.20021875,9.65203125,13.7140546875,12.45026171875,5.90190625,2.802828125,11.7101484375,6.31028515625,7.36344921875,6.2797265625,5.34555859375,9.24923046875,6.37367578125,6.29483203125,5.90583203125,4.6583203125
6.85085546875,8.270328125,7.02451953125,6.31474609375,3.74198828125,4.67033984375,2.91034375,12.00760546875,9.31999609375,3.503890625,4.89736328125,12.7206171875,3.7152421875,9.07526953125,4.05421875,10.32903125,18.6910546875,12.38326171875,6.52590625,3.900828125,12.5861484375,6.29528515625,7.65044921875,8.0117265625,6.44155859375,9.66923046875,8.11967578125,6.57783203125,6.95383203125,6.2323203125
6.58085546875,9.096328125,8.05451953125,4.99974609375,3.02798828125,4.98933984375,2.06434375,13.00160546875,8.61199609375,2.809890625,4.31836328125,12.9786171875,5.5152421875,7.33626953125,3.41921875,9.48503125,21.0120546875,10.80326171875,5.15190625,3.320828125,11.7281484375,5.06828515625,5.78644921875,7.3847265625,5.75455859375,8.31923046875,7.77867578125,4.95183203125,6.14783203125,5.9103203125
5.90885546875,9.249328125,8.29851953125,3.19274609375,1.97498828125,4.74133984375,2.17134375,12.84260546875,7.36699609375,1.568890625,2.99436328125,12.2816171875,7.9002421875,4.65126953125,1.82521875,7.69603125,20.0050546875,8.13226171875,2.27690625,1.477828125,9.6881484375,2.77828515625,2.27844921875,4.7437265625,3.74455859375,5.73723046875,5.74467578125,1.84683203125,3.94283203125,4.1713203125
5.13585546875,8.871328125,8.01551953125,1.48074609375,1.09798828125,4.27833984375,3.36434375,11.79360546875,5.98399609375,0.445890625000001,1.56136328125,11.1816171875,9.6042421875,1.93826953125,0.0822187499999991,5.79203125,16.1300546875,5.21826171875,-1.09809375,-0.848171875,7.3111484375,-0.01671484375,-1.76255078125,1.0277265625,1.18455859375,2.84323046875,2.86567578125,-1.79416796875,1.23683203125,1.8803203125
4.55685546875,8.307328125,7.49051953125,0.433746093750001,0.795988281250001,3.99533984375,5.35834375,10.28160546875,4.82199609375,-0.00110937500000041,0.650363281250002,10.2196171875,9.7602421875,0.0652695312499993,-1.05978125,4.52603125,10.8010546875,2.99226171875,-3.87209375,-2.845171875,5.3821484375,-2.56271484375,-5.06855078125,-2.6222734375,-1.17944140625,0.546230468749998,0.0336757812500004,-4.88816796875,-1.04516796875,-0.127679687499999
4.36785546875,7.955328125,6.92751953125,0.361746093750001,1.23198828125,4.19233984375,7.59134375,8.74660546875,4.09399609375,0.480890625000001,0.638363281250001,9.6926171875,8.2592421875,-0.49973046875,-1.20378125,4.28503125,5.8180546875,2.04226171875,-5.27709375,-3.987171875,4.3291484375,-4.21471484375,-6.73855078125,-5.2782734375,-2.91044140625,-0.645769531250001,-2.15532421875,-6.62516796875,-2.34316796875,-1.3996796875
4.62585546875,8.099328125,6.42051953125,1.16974609375,2.31398828125,4.97333984375,9.44534375,7.54560546875,3.84299609375,1.790890625,1.49036328125,9.5936171875,5.6332421875,0.150269531249998,-0.414781250000001,4.93903125,2.6540546875,2.35526171875,-5.15009375,-4.182171875,4.1111484375,-4.67171484375,-6.56955078125,-6.5162734375,-3.95644140625,-0.820769531250001,-3.55832421875,-6.75016796875,-2.62516796875,-1.9836796875
5.26885546875,8.798328125,5.99451953125,2.43074609375,3.76898828125,6.24033984375,10.43134375,6.92260546875,3.99499609375,3.578890625,2.80336328125,9.7176171875,2.6752421875,1.47126953125,0.880218749999999,5.92703125,1.9570546875,3.38226171875,-3.89909375,-3.715171875,4.3151484375,-4.04671484375,-5.05555078125,-6.4542734375,-4.54044140625,-0.565769531250001,-4.39332421875,-5.57916796875,-2.27816796875,-2.2736796875
6.17385546875,9.882328125,5.69051953125,3.63674609375,5.25798828125,7.76433984375,10.33634375,7.01760546875,4.41199609375,5.417890625,4.01536328125,9.8636171875,0.1052421875,2.78026953125,2.14521875,6.55103125,3.5020546875,4.40326171875,-2.23509375,-3.024171875,4.4241484375,-2.76871484375,-3.07155078125,-5.5632734375,-4.93644140625,-0.620769531250001,-4.99732421875,-3.80916796875,-1.85116796875,-2.7146796875
7.18085546875,11.029328125,5.59951953125,4.45474609375,6.47698828125,9.27833984375,9.30934375,7.81560546875,4.91099609375,6.946890625,4.68036328125,9.9686171875,-1.6007578125,3.58126953125,2.99321875,6.34203125,6.4640546875,4.94026171875,-0.80609375,-2.442171875,4.0981484375,-1.38471484375,-1.43255078125,-4.3702734375,-5.26544140625,-1.46776953125,-5.59132421875,-2.20016796875,-1.77416796875,-3.5336796875
8.10385546875,11.886328125,5.78151953125,4.81674609375,7.21498828125,10.53833984375,7.83434375,9.05860546875,5.29399609375,7.942890625,4.67536328125,10.1066171875,-2.2897578125,3.74626953125,3.32421875,5.30403125,9.7210546875,4.98026171875,0.0749062499999997,-2.028171875,3.3531484375,-0.32471484375,-0.558550781249998,-3.2042734375,-5.40544140625,-3.06576953125,-6.14932421875,-1.28016796875,-2.18416796875,-4.6346796875
8.74585546875,12.182328125,6.16751953125,4.85574609375,7.38498828125,11.34233984375,6.58834375,10.25560546875,5.39499609375,8.340890625,4.22236328125,10.3836171875,-2.1827578125,3.49426953125,3.31021875,3.93403125,12.1140546875,4.90426171875,0.482906249999999,-1.574171875,2.5431484375,0.245285156249999,-0.37355078125,-2.1032734375,-5.06044140625,-4.86676953125,-6.45332421875,-1.17616796875,-2.91216796875,-5.6676796875
8.95185546875,11.837328125,6.55851953125,4.76474609375,7.01398828125,11.56533984375,6.20534375,10.87760546875,5.15599609375,8.217890625,3.76336328125,10.8566171875,-1.8357578125,3.22826953125,3.24521875,2.98103125,12.6820546875,5.18326171875,0.735906249999999,-0.763171874999999,2.1831484375,0.42328515625,-0.47555078125,-0.898273437499999,-3.95844140625,-6.09276953125,-6.26032421875,-1.63716796875,-3.62516796875,-6.2246796875
8.64885546875,10.998328125,6.73951953125,4.67874609375,6.21398828125,11.19233984375,7.01034375,10.63960546875,4.65399609375,7.753890625,3.72736328125,11.4896171875,-1.9067578125,3.30026953125,3.36821875,3.08203125,10.9790546875,6.06626171875,1.14990625,0.606828125,2.6921484375,0.434285156249999,-0.42155078125,0.6007265625,-2.03344140625,-6.12176953125,-5.47132421875,-2.21916796875,-4.00316796875,-6.0316796875
7.87885546875,9.994328125,6.60551953125,4.60874609375,5.13698828125,10.33433984375,8.82234375,9.64960546875,4.04999609375,7.155890625,4.30436328125,12.1716171875,-2.7827578125,3.82426953125,3.72621875,4.42103125,7.3580546875,7.41126171875,1.84190625,2.465828125,4.1861484375,0.47928515625,0.0224492187500012,2.4367265625,0.499558593750001,-4.74976953125,-4.18732421875,-2.50716796875,-3.86516796875,-5.0456796875
6.77285546875,9.195328125,6.21351953125,4.48474609375,3.91998828125,9.17733984375,10.96534375,8.32960546875,3.48099609375,6.565890625,5.31836328125,12.7366171875,-4.3007578125,4.61126953125,4.13921875,6.59903125,3.0660546875,8.77326171875,2.66890625,4.453828125,6.4041484375,0.66228515625,0.808449218750001,4.4497265625,3.20655859375,-2.24576953125,-2.63332421875,-2.26816796875,-3.19016796875,-3.4306796875
5.48885546875,8.818328125,5.72051953125,4.23474609375,2.62398828125,7.89233984375,12.51634375,7.16160546875,2.96499609375,5.952890625,6.25536328125,12.9986171875,-5.7467578125,5.24826953125,4.26221875,8.75503125,-0.0959453124999996,9.64826171875,3.29290625,6.022828125,8.7751484375,0.98628515625,1.67444921875,6.3207265625,5.55755859375,0.775230468749999,-1.06232421875,-1.48516796875,-2.10016796875,-1.4806796875
4.13285546875,8.785328125,5.22851953125,3.82174609375,1.18298828125,6.51033984375,12.67434375,6.38060546875,2.34999609375,5.064890625,6.43436328125,12.7546171875,-6.2107578125,5.26426953125,3.71021875,9.89403125,-0.549945312499999,9.73526171875,3.31890625,6.600828125,10.5891484375,1.39128515625,2.28944921875,7.6547265625,7.04355859375,3.56223046875,0.29767578125,-0.332167968750001,-0.836167968749999,0.440320312500001
2.70485546875,8.727328125,4.62751953125,3.18474609375,-0.58201171875,4.86033984375,11.05534375,5.81060546875,1.35999609375,3.505890625,5.26836328125,11.7996171875,-5.1247578125,4.31626953125,2.18921875,9.27303125,2.1930546875,9.04026171875,2.45190625,5.789828125,11.2161484375,1.78828515625,2.38044921875,8.0827265625,7.29155859375,5.45023046875,1.24467578125,0.888832031249999,0.291832031249999,1.9493203125
1.13485546875,8.170328125,3.57751953125,2.18274609375,-2.85901171875,2.64133984375,7.80034375,4.96060546875,-0.26500390625,0.937890625,2.52236328125,9.9836171875,-2.6757578125,2.32926953125,-0.38678125,6.70103125,7.1490546875,7.81526171875,0.633906250000001,3.516828125,10.3341484375,2.10428515625,1.83044921875,7.3677265625,6.17455859375,6.05623046875,1.61167578125,1.85383203125,0.99883203125,2.7443203125
-0.61414453125,6.827328125,1.70651953125,0.65474609375,-5.68201171875,-0.34666015625,3.48134375,3.37460546875,-2.57000390625,-2.685109375,-1.53763671875,7.3256171875,0.1842421875,-0.44273046875,-3.82278125,2.64303125,12.2490546875,6.39726171875,-1.90709375,0.0948281250000012,8.0621484375,2.30328515625,0.702449218750001,5.5127265625,3.87555859375,5.37823046875,1.31367578125,2.33383203125,1.14483203125,2.7083203125
-2.46114453125,4.792328125,-1.07848046875,-1.42425390625,-8.80601171875,-3.97066015625,-1.14465625,0.986605468750001,-5.27000390625,-6.979109375,-6.18163671875,4.1106171875,2.1842421875,-3.46273046875,-7.65678125,-1.94396875,15.2770546875,5.07726171875,-4.71609375,-3.854171875,4.9411484375,2.37628515625,-0.790550781249999,2.8007265625,0.851558593749999,3.76023046875,0.38067578125,2.26983203125,0.78683203125,1.9423203125
-4.20514453125,2.525328125,-4.39048046875,-3.80825390625,-11.71001171875,-7.68166015625,-5.38465625,-1.77639453125,-7.80500390625,-11.178109375,-10.42263671875,0.876617187500001,2.3582421875,-6.06673046875,-11.24578125,-5.95896875,14.8370546875,4.02026171875,-7.24809375,-7.578171875,1.7521484375,2.30128515625,-2.38155078125,-0.263273437499999,-2.29944140625,1.72223046875,-1.04732421875,1.72583203125,0.12483203125,0.687320312500001
-5.58814453125,0.635328125000001,-7.43548046875,-5.99825390625,-13.75401171875,-10.68266015625,-8.73565625,-4.21839453125,-9.55100390625,-14.351109375,-13.33763671875,-1.7563828125,0.5102421875,-7.67973046875,-13.92778125,-8.55796875,10.9650546875,3.26226171875,-9.05309375,-10.404171875,-0.7618515625,2.01528515625,-3.85255078125,-3.1242734375,-5.02244140625,-0.243769531250001,-2.78832421875,0.767832031249998,-0.63316796875,-0.822679687499999
-6.37314453125,-0.384671875,-9.32948046875,-7.40825390625,-14.40201171875,-12.22266015625,-10.84965625,-5.72839453125,-10.07300390625,-15.736109375,-14.35563671875,-3.3213828125,-2.6957578125,-7.98473046875,-15.22378125,-9.40496875,5.1530546875,2.73326171875,-9.92809375,-11.930171875,-2.1318515625,1.41628515625,-5.10955078125,-5.3762734375,-6.96044140625,-1.80476953125,-4.69032421875,-0.61916796875,-1.39316796875,-2.4346796875
-6.40614453125,-0.333671875,-9.47548046875,-7.59425390625,-13.44001171875,-11.88566015625,-11.46265625,-6.01939453125,-9.28800390625,-15.029109375,-13.43263671875,-3.6803828125,-6.0117578125,-7.01073046875,-15.00578125,-8.69996875,-0.2559453125,2.32426171875,-9.96809375,-12.129171875,-2.2938515625,0.42828515625,-6.18555078125,-6.8832734375,-8.03844140625,-2.80776953125,-6.65232421875,-2.48216796875,-2.19116796875,-4.0456796875
-5.66414453125,0.668328125,-7.79448046875,-6.46925390625,-11.05901171875,-9.73766015625,-10.43565625,-5.16239453125,-7.44800390625,-12.503109375,-11.02263671875,-3.0373828125,-8.0857578125,-5.08773046875,-13.54278125,-7.00796875,-3.1609453125,1.97326171875,-9.48209375,-11.316171875,-1.5408515625,-0.917714843750001,-7.15355078125,-7.7472734375,-8.41044140625,-3.22476953125,-8.57832421875,-4.72316796875,-3.08816796875,-5.4946796875
-4.26914453125,2.295328125,-4.73748046875,-4.35525390625,-7.77501171875,-6.28666015625,-7.90765625,-3.46439453125,-5.00900390625,-8.875109375,-7.89563671875,-1.7943828125,-7.9647578125,-2.71273046875,-11.38378125,-5.00196875,-2.7369453125,1.71926171875,-8.81309375,-9.986171875,-0.3358515625,-2.42171484375,-8.01355078125,-8.1532734375,-8.32344140625,-3.06976953125,-10.29732421875,-6.97316796875,-4.01216796875,-6.5056796875
-2.46114453125,4.163328125,-1.09948046875,-1.85025390625,-4.23101171875,-2.30766015625,-4.39965625,-1.31839453125,-2.44100390625,-5.022109375,-4.86063671875,-0.344382812499999,-5.4507578125,-0.37573046875,-9.13978125,-3.23596875,0.2660546875,1.69626171875,-8.17109375,-8.615171875,0.9131484375,-3.74871484375,-8.62955078125,-8.2162734375,-7.98044140625,-2.35876953125,-11.56332421875,-8.64516796875,-4.71116796875,-6.7526796875
-0.535144531250001,5.934328125,2.26551953125,0.440746093750001,-1.00801171875,1.39333984375,-0.72865625,0.895605468750002,-0.115003906249999,-1.690109375,-2.54763671875,1.0436171875,-1.1857578125,1.55626953125,-7.29478125,-2.04796875,4.1920546875,2.03126171875,-7.60809375,-7.533171875,1.9681484375,-4.55471484375,-8.80255078125,-7.9492734375,-7.51144140625,-1.15076953125,-12.15732421875,-9.21716796875,-4.88616796875,-6.0636796875
1.20185546875,7.337328125,4.68351953125,2.12574609375,1.48698828125,4.15533984375,2.20934375,2.78760546875,1.72399609375,0.662890624999999,-1.30363671875,2.1886171875,3.6162421875,2.86026953125,-6.13778125,-1.59096875,7.5550546875,2.69826171875,-7.10409375,-6.906171875,2.7021484375,-4.66171484375,-8.42455078125,-7.3532734375,-7.05344140625,0.31323046875,-12.05032421875,-8.58016796875,-4.42416796875,-4.6416796875
2.46385546875,8.141328125,5.76551953125,3.06374609375,3.04898828125,5.53433984375,3.68334375,3.89860546875,2.91699609375,1.908890625,-1.21263671875,2.8786171875,7.7002421875,3.41826953125,-5.78078125,-1.93596875,9.7400546875,3.44026171875,-6.68209375,-6.766171875,2.9411484375,-4.14271484375,-7.59255078125,-6.5272734375,-6.81644140625,1.52223046875,-11.47832421875,-7.20716796875,-3.53816796875,-3.1436796875
3.01585546875,8.146328125,5.40751953125,3.27174609375,3.65298828125,5.31233984375,3.29234375,3.71460546875,3.36899609375,2.178890625,-2.17563671875,2.8406171875,10.3262421875,3.17726953125,-6.21878125,-3.12696875,10.9630546875,3.83026171875,-6.43109375,-7.053171875,2.4011484375,-3.27871484375,-6.59055078125,-5.6762734375,-7.06244140625,1.78123046875,-10.85032421875,-5.98316796875,-2.69316796875,-2.4716796875
2.74885546875,7.249328125,3.75051953125,2.83074609375,3.42098828125,3.52133984375,1.03634375,1.87860546875,3.06099609375,1.750890625,-3.99763671875,1.8566171875,11.4862421875,2.15126953125,-7.35078125,-5.15696875,11.7840546875,3.47926171875,-6.45609375,-7.654171875,0.8141484375,-2.39471484375,-5.73455078125,-5.0132734375,-7.99144140625,0.51823046875,-10.54732421875,-5.74316796875,-2.34916796875,-3.3576796875
1.75085546875,5.546328125,1.13251953125,1.88274609375,2.57998828125,0.46733984375,-2.69365625,-1.54139453125,2.10199609375,0.925890625000001,-6.41963671875,-0.0473828125000004,11.6822421875,0.47426953125,-8.99678125,-7.89696875,12.6680546875,2.28026171875,-6.78109375,-8.439171875,-1.8348515625,-1.68471484375,-5.18755078125,-4.6312734375,-9.60144140625,-2.34576953125,-10.72032421875,-6.80016796875,-2.69016796875,-5.9426796875
0.330855468749998,3.372328125,-1.95648046875,0.67474609375,1.43898828125,-3.26366015625,-7.20865625,-5.92439453125,0.772996093750001,-0.0391093750000007,-9.13663671875,-2.5113828125,11.5072421875,-1.57073046875,-10.89778125,-11.04396875,13.8020546875,0.516261718749998,-7.30209375,-9.290171875,-5.1498515625,-1.14371484375,-4.88055078125,-4.4392734375,-11.62844140625,-6.23076953125,-11.22832421875,-8.76316796875,-3.51416796875,-9.6276796875
0.330855468749998,3.372328125,-1.95648046875,0.67474609375,1.43898828125,-3.26366015625,-7.20865625,-5.92439453125,0.772996093750001,-0.0391093750000007,-9.13663671875,-2.5113828125,11.5072421875,-1.57073046875,-10.89778125,-11.04396875,13.8020546875,0.516261718749998,-7.30209375,-9.290171875,-5.1498515625,-1.14371484375,-4.88055078125,-4.4392734375,-11.62844140625,-6.23076953125,-11.22832421875,-8.76316796875,-3.51416796875,-9.6276796875
