"Fp1","Fpz","Fp2","F7","F3","Fz","F4","F8","FC5","FC1","FC2","FC6","T7","C3","Cz","C4","T8","CP5","CP1","CP2","CP6","P7","P3","Pz","P4","P8","POz","O1","Oz","O2"
-8.620796875,-10.47616796875,-9.3873984375,-22.6163203125,-1.66769921875,-4.2371484375,-15.50053515625,-24.74673828125,-3.508015625,-0.60864453125,-1.59009375,-13.707796875,-1.6085,-12.2331484375,7.734671875,-16.056328125,-9.3535,-4.120140625,-2.93875,-8.73787109375,-13.1414921875,-2.1918203125,-2.9486171875,-1.3617265625,-15.48515234375,-12.07415625,-2.7198984375,6.3377265625,-14.62173046875,-15.874890625
-8.136796875,-11.02516796875,-11.7723984375,-13.6573203125,-0.39069921875,-4.1291484375,-20.27453515625,-25.71673828125,-4.062015625,-0.0346445312500006,-3.72309375,-15.865796875,-4.1175,-12.5701484375,7.330671875,-19.440328125,-10.8815,-3.131140625,-3.11775,-10.56087109375,-14.8404921875,-0.285820312499999,-2.6426171875,-2.3927265625,-16.42615234375,-12.12815625,-3.9688984375,5.2757265625,-16.75073046875,-17.548890625
-7.418796875,-11.47816796875,-13.1343984375,-8.5473203125,-0.0646992187500004,-4.3411484375,-22.65853515625,-27.93173828125,-4.441015625,-0.73864453125,-5.31209375,-16.861796875,-5.5105,-13.1621484375,6.854671875,-21.933328125,-11.7925,-3.010140625,-3.84275,-12.17487109375,-16.0404921875,0.2881796875,-3.1326171875,-3.8357265625,-17.06315234375,-11.28815625,-5.7388984375,3.4217265625,-18.83273046875,-18.498890625
-6.695796875,-11.94516796875,-13.5483984375,-7.5613203125,-0.727699218750001,-4.9711484375,-22.93353515625,-30.62073828125,-4.461015625,-2.70464453125,-6.44909375,-16.861796875,-5.7435,-13.9811484375,6.248671875,-23.492328125,-12.1635,-3.699140625,-5.13875,-13.56287109375,-16.7154921875,-0.308820312499999,-4.3536171875,-5.6207265625,-17.43615234375,-9.71115625,-7.9028984375,1.1227265625,-20.63573046875,-18.634890625
-6.213796875,-12.46516796875,-13.3153984375,-9.7433203125,-1.95169921875,-5.8661484375,-22.03153515625,-32.38873828125,-3.881015625,-5.30964453125,-7.26709375,-16.340796875,-5.0305,-14.7831484375,5.609671875,-24.197328125,-12.2445,-4.744140625,-6.72075,-14.61987109375,-16.8904921875,-1.3878203125,-5.8366171875,-7.3727265625,-17.58415234375,-7.85315625,-9.9718984375,-0.8442734375,-21.79173046875,-17.991890625
-5.965796875,-12.86016796875,-12.6733984375,-13.3693203125,-2.94369921875,-6.5491484375,-20.84053515625,-32.03873828125,-2.470015625,-7.49864453125,-7.70909375,-15.726796875,-3.6485,-15.1351484375,5.274671875,-24.066328125,-12.2785,-5.476140625,-8.02775,-15.07987109375,-16.5384921875,-2.0638203125,-6.8616171875,-8.4797265625,-17.42415234375,-6.20715625,-11.2288984375,-1.6412734375,-21.91173046875,-16.639890625
-5.595796875,-12.74816796875,-11.6203984375,-16.5823203125,-2.84869921875,-6.3441484375,-19.69753515625,-29.33173828125,-0.164015625,-8.15964453125,-7.43109375,-15.152796875,-1.8415,-14.5691484375,5.765671875,-22.990328125,-12.3365,-5.294140625,-8.38875,-14.56587109375,-15.5724921875,-1.6518203125,-6.7206171875,-8.3037265625,-16.74015234375,-5.05615625,-10.9878984375,-0.7602734375,-20.72273046875,-14.632890625
-4.585796875,-11.72716796875,-9.9783984375,-17.9783203125,-1.14469921875,-4.6841484375,-18.34053515625,-25.22073828125,2.760984375,-6.56764453125,-5.96409375,-14.504796875,0.150500000000001,-12.8131484375,7.548671875,-20.839328125,-12.2885,-3.932140625,-7.29275,-12.76787109375,-13.9344921875,0.0771796875000001,-5.0106171875,-6.4527265625,-15.29615234375,-4.39115625,-8.9058984375,1.7597265625,-18.18773046875,-12.033890625
-2.611796875,-9.62316796875,-7.6263984375,-16.9993203125,2.08630078125,-1.4411484375,-16.28253515625,-21.39073828125,5.646984375,-2.71164453125,-3.02609375,-13.641796875,2.0125,-9.9581484375,10.739671875,-17.644328125,-11.8925,-1.562140625,-4.62875,-9.63387109375,-11.7084921875,2.8521796875,-1.8036171875,-2.9897265625,-12.99815234375,-3.97215625,-5.1528984375,5.3807265625,-14.55573046875,-8.970890625
0.223203125,-6.66516796875,-4.7133984375,-14.0183203125,6.14130078125,2.9258515625,-13.28653515625,-19.36773828125,7.650984375,2.64735546875,1.18690625,-12.552796875,3.3325,-6.4501484375,14.955671875,-13.723328125,-10.9655,1.323859375,-0.77375,-5.46287109375,-9.1524921875,6.0871796875,2.3723828125,1.5472734375,-9.98715234375,-3.50015625,-0.3808984375,9.3237265625,-10.30273046875,-5.671890625
3.385203125,-3.46516796875,-1.7133984375,-10.1183203125,9.94930078125,7.4738515625,-9.63453515625,-19.71373828125,8.128984375,8.19335546875,5.93490625,-11.333796875,3.7105,-2.9381484375,19.394671875,-9.654328125,-9.5425,4.162859375,3.51125,-0.85487109375,-6.6514921875,9.1691796875,6.7473828125,6.3352734375,-6.62415234375,-2.76815625,4.5291015625,12.9107265625,-5.99273046875,-2.436890625
6.061203125,-0.822167968750001,0.705601562499999,-6.6863203125,12.45130078125,11.0838515625,-6.09453515625,-21.79773828125,6.962984375,12.49135546875,10.13490625,-10.087796875,2.9515,-0.0751484375000002,23.087671875,-6.124328125,-7.9295,6.518859375,7.32825,3.43612890625,-4.6114921875,11.6631796875,10.5683828125,10.5392734375,-3.37815234375,-1.76715625,8.7631015625,15.7727265625,-2.11073046875,0.424109375
7.429203125,0.570832031249999,1.9376015625,-4.9283203125,12.99030078125,12.8598515625,-3.59253515625,-24.20173828125,4.656984375,14.46335546875,12.75390625,-8.919796875,1.2255,1.6438515625,25.225671875,-3.708328125,-6.5985,8.145859375,9.92625,6.68612890625,-3.3374921875,13.3681796875,13.3053828125,13.5732734375,-0.69015234375,-0.67915625,11.8011015625,17.8537265625,1.01726953125,2.664109375
7.009203125,0.418832031249999,1.7126015625,-5.4343203125,11.56030078125,12.4718515625,-2.78853515625,-25.50273828125,2.126984375,13.76835546875,13.22690625,-8.000796875,-0.9455,2.0218515625,25.434671875,-2.666328125,-5.9435,8.965859375,10.93325,8.41712890625,-2.9124921875,14.2441796875,14.7563828125,15.2362734375,1.14284765625,0.23584375,13.4961015625,19.2517265625,3.23126953125,4.161109375
4.957203125,-1.03516796875,0.2576015625,-7.9053203125,8.83730078125,10.3338515625,-3.72853515625,-25.00973828125,0.309984375,10.93635546875,11.71490625,-7.562796875,-2.9105,1.2278515625,23.913671875,-2.833328125,-6.0385,9.031859375,10.46225,8.56812890625,-3.1084921875,14.3271796875,15.0573828125,15.7262734375,2.06484765625,0.80584375,14.0471015625,20.0737265625,4.51326953125,4.968109375
2.043203125,-3.07816796875,-1.7873984375,-11.2213203125,5.91930078125,7.4728515625,-5.80253515625,-23.08373828125,-0.235015625,7.15935546875,9.05690625,-7.746796875,-4.2165,-0.2581484375,21.361671875,-3.650328125,-6.5625,8.506859375,9.05525,7.55712890625,-3.4204921875,13.7051796875,14.6013828125,15.5322734375,2.29484765625,1.07384375,13.8771015625,20.3927265625,4.97926953125,5.301109375
-0.701796875,-4.81716796875,-3.6613984375,-13.8733203125,3.86830078125,5.1078515625,-8.01853515625,-20.81173828125,0.473984375,3.83135546875,6.42390625,-8.393796875,-4.8365,-1.8241484375,18.713671875,-4.368328125,-6.9385,7.647859375,7.46025,6.14212890625,-3.2454921875,12.5331796875,13.9033828125,15.2282734375,2.26884765625,1.29584375,13.4731015625,20.2937265625,4.86526953125,5.471109375
-2.432796875,-5.54116796875,-4.8033984375,-14.5733203125,3.30130078125,4.1528515625,-9.45053515625,-19.20773828125,1.939984375,2.02735546875,4.84090625,-9.002796875,-5.1425,-2.9381484375,16.824671875,-4.354328125,-6.6185,6.768859375,6.35225,5.13712890625,-2.1384921875,11.0851796875,13.4093828125,15.2532734375,2.47584765625,1.79384375,13.2101015625,19.9247265625,4.48426953125,5.765109375
-2.732796875,-4.97716796875,-5.0053984375,-12.7913203125,4.21930078125,4.8928515625,-9.57353515625,-18.50373828125,3.513984375,2.16735546875,4.82890625,-8.901796875,-5.6055,-3.2891484375,16.224671875,-3.327328125,-5.3425,6.175859375,6.10225,5.10612890625,-0.0164921874999999,9.7511796875,13.3653828125,15.7522734375,3.25784765625,2.76784375,13.2401015625,19.4797265625,4.14626953125,6.336109375
-1.632796875,-3.31916796875,-4.3623984375,-9.0203203125,6.14530078125,6.9748515625,-8.34353515625,-18.10373828125,4.768984375,3.98835546875,6.30590625,-7.553796875,-6.4305,-2.8301484375,17.009671875,-1.429328125,-3.2585,6.078859375,6.69325,6.17312890625,2.8075078125,8.9621796875,13.7553828125,16.5702734375,4.66584765625,4.18984375,13.4931015625,19.1247265625,4.06426953125,7.159109375
0.479203125,-1.05716796875,-3.0903984375,-4.6333203125,8.40330078125,9.6678515625,-6.04753515625,-17.19173828125,5.660984375,6.77435546875,8.75790625,-4.808796875,-7.3555,-1.7411484375,18.870671875,0.926671874999998,-0.8165,6.517859375,7.81025,8.03512890625,5.7795078125,9.0351796875,14.3403828125,17.3782734375,6.45484765625,5.84484375,13.7761015625,18.9267265625,4.29726953125,8.077109375
3.020203125,1.26583203125,-1.3953984375,-1.3033203125,10.39430078125,12.2108515625,-3.10153515625,-15.41673828125,6.406984375,9.68335546875,11.51490625,-0.988796874999999,-7.8035,-0.3471484375,21.243671875,3.262671875,1.4445,7.357859375,9.01925,10.12512890625,8.3435078125,10.0321796875,14.7673828125,17.8442734375,8.20684765625,7.45184375,13.8771015625,18.8047265625,4.73826953125,8.883109375
5.395203125,3.22383203125,0.543601562499999,-0.263320312499999,11.73630078125,14.0618515625,0.054464843749999,-13.10273828125,7.179984375,12.02235546875,13.96190625,3.172203125,-7.2835,0.9868515625,23.495671875,5.194671875,3.0945,8.356859375,9.94225,11.83312890625,10.1375078125,11.7031796875,14.6933828125,17.7482734375,9.48584765625,8.76984375,13.6231015625,18.5477265625,5.14726953125,9.375109375
7.146203125,4.55783203125,2.4936015625,-1.7413203125,12.28030078125,14.9688515625,2.94346484375,-10.93973828125,7.898984375,13.38735546875,15.63190625,6.734203125,-5.7545,1.9458515625,25.093671875,6.447671875,3.9135,9.254859375,10.35425,12.69312890625,11.0445078125,13.5411796875,13.9013828125,17.0242734375,9.97484765625,9.62084375,12.8821015625,17.8887265625,5.21226953125,9.384109375
7.990203125,5.17683203125,4.1106015625,-4.8523203125,12.09030078125,14.9328515625,5.04646484375,-9.53273828125,8.285984375,13.70235546875,16.23290625,8.875203125,-3.7135,2.3358515625,25.700671875,6.848671875,3.9155,9.833859375,10.21325,12.50512890625,11.1605078125,14.9321796875,12.3723828125,15.7432734375,9.55684765625,9.89384375,11.5771015625,16.6337265625,4.66326953125,8.793109375
7.834203125,5.16183203125,5.0306015625,-7.9563203125,11.42430078125,14.1538515625,5.92146484375,-9.12873828125,8.149984375,13.19835546875,15.69590625,9.235203125,-1.9435,2.1388515625,25.235671875,6.343671875,3.3335,9.944859375,9.63825,11.38112890625,10.7065078125,15.3731796875,10.3213828125,14.1052734375,8.34784765625,9.56684375,9.7461015625,14.8137265625,3.41126953125,7.589109375
6.833203125,4.76983203125,5.0736015625,-9.3403203125,10.69730078125,13.0098515625,5.42146484375,-9.58273828125,7.665984375,12.34035546875,14.21990625,8.076203125,-1.1045,1.5398515625,23.898671875,5.064671875,2.5545,9.557859375,8.85925,9.70012890625,9.9655078125,14.6911796875,8.1733828125,12.4172734375,6.66984765625,8.74684375,7.5931015625,12.7667265625,1.65526953125,5.914109375
5.409203125,4.37183203125,4.4076015625,-7.9573203125,10.38630078125,12.0048515625,3.87146484375,-10.51073828125,7.392984375,11.68435546875,12.26590625,6.152203125,-1.4165,0.891851562499999,22.114671875,3.353671875,1.9815,8.784859375,8.14125,7.97412890625,9.2115078125,13.1571796875,6.4543828125,11.0312734375,4.95684765625,7.68784375,5.4541015625,11.0537265625,-0.14473046875,4.050109375
4.115203125,4.32683203125,3.5166015625,-3.9143203125,10.85830078125,11.6298515625,2.03146484375,-11.53973828125,7.950984375,11.67335546875,10.43090625,4.355203125,-2.6125,0.5768515625,20.388671875,1.694671875,1.8475,7.848859375,7.68825,6.66312890625,8.6385078125,11.4031796875,5.6203828125,10.2332734375,3.60484765625,6.72084375,3.6831015625,10.2057265625,-1.45873046875,2.317109375
3.347203125,4.80983203125,2.9576015625,1.5346796875,12.18830078125,12.1388515625,0.773464843749998,-12.55073828125,9.580984375,12.44735546875,9.20190625,3.315203125,-4.1235,0.822851562499999,19.091671875,0.529671874999998,2.0855,6.985859375,7.56825,5.99512890625,8.2985078125,10.1291796875,5.8683828125,10.1192734375,2.83984765625,6.12384375,2.4881015625,10.4137265625,-1.96873046875,0.933109375
3.153203125,5.68983203125,3.0416015625,6.5246796875,14.04430078125,13.3588515625,0.631464843749999,-13.71873828125,11.901984375,13.73335546875,8.72390625,3.163203125,-5.3725,1.5618515625,18.288671875,0.0636718749999989,2.3555,6.324859375,7.66625,5.89312890625,8.0995078125,9.7671796875,7.0343828125,10.5192734375,2.64484765625,6.01184375,1.8351015625,11.3777265625,-1.74373046875,-0.0718906249999995
3.238203125,6.54883203125,3.6656015625,9.3636796875,15.74230078125,14.6988515625,1.48046484375,-15.28973828125,14.029984375,14.92135546875,8.71190625,3.552203125,-5.9995,2.4388515625,17.714671875,0.162671874999997,2.2545,5.849859375,7.70925,6.02512890625,7.8845078125,10.2661796875,8.6353828125,11.0432734375,2.80284765625,6.31084375,1.4731015625,12.4267265625,-1.21073046875,-0.824890625
3.135203125,6.85983203125,4.3796015625,9.2156796875,16.48430078125,15.3788515625,2.59846484375,-17.20673828125,15.006984375,15.30435546875,8.60690625,3.877203125,-5.9625,2.9678515625,16.941671875,0.452671874999998,1.5785,5.438859375,7.38125,5.98012890625,7.5305078125,11.1421796875,10.0683828125,11.2502734375,3.01384765625,6.83284375,1.0641015625,12.8597265625,-0.90673046875,-1.495890625
2.431203125,6.24983203125,4.6596015625,6.4106796875,15.68030078125,14.7968515625,3.07646484375,-18.90173828125,14.261984375,14.39135546875,7.89890625,3.572203125,-5.4835,2.7418515625,15.624671875,0.529671874999998,0.450500000000001,4.960859375,6.46825,5.46112890625,7.0095078125,11.7271796875,10.8223828125,10.8352734375,3.02684765625,7.35484375,0.3261015625,12.2767265625,-1.21873046875,-2.189890625
0.988203125,4.70083203125,4.2016015625,2.3046796875,13.23230078125,12.8388515625,2.33246484375,-19.47473828125,11.886984375,12.13135546875,6.41590625,2.363203125,-4.9055,1.6068515625,13.709671875,0.177671874999998,-0.7725,4.325859375,4.94525,4.40012890625,6.3535078125,11.4931796875,10.6203828125,9.7282734375,2.69084765625,7.65684375,-0.8748984375,10.7097265625,-2.22873046875,-2.925890625
-0.919796875,2.58083203125,3.0746015625,-1.2703203125,9.61730078125,9.9638515625,0.435464843749999,-18.23573828125,8.602984375,8.95235546875,4.41890625,0.403203125000001,-4.5325,-0.2731484375,11.478671875,-0.558328125000002,-1.7195,3.497859375,2.98625,2.94412890625,5.5915078125,10.2651796875,9.4563828125,8.0732734375,1.95284765625,7.54384375,-2.5168984375,8.5307265625,-3.74773046875,-3.673890625
-2.695796875,0.495832031249999,1.6616015625,-2.7643203125,5.74130078125,7.0288515625,-1.92153515625,-15.26273828125,5.435984375,5.60035546875,2.46890625,-1.755796875,-4.5315,-2.4841484375,9.401671875,-1.429328125,-2.1835,2.501859375,0.91125,1.36112890625,4.7185078125,8.2561796875,7.5653828125,6.1502734375,0.84984765625,6.90284375,-4.4208984375,6.2557265625,-5.42573046875,-4.383890625
-3.747796875,-0.962167968750001,0.4306015625,-1.5573203125,2.58730078125,4.9118515625,-3.78453515625,-11.55473828125,3.260984375,2.85935546875,1.11590625,-3.400796875,-4.9225,-4.5221484375,7.868671875,-2.141328125,-2.1925,1.442859375,-0.89575,-0.0798710937500001,3.7335078125,5.9441796875,5.3713828125,4.2972734375,-0.49115234375,5.79084375,-6.2798984375,4.3677265625,-6.88273046875,-4.980890625
-3.850796875,-1.48116796875,-0.3293984375,1.8326796875,0.812300781249999,4.1158515625,-4.46253515625,-8.62073828125,2.443984375,1.24635546875,0.590906249999999,-4.021796875,-5.6275,-5.9851484375,6.960671875,-2.522328125,-1.9725,0.502859375,-2.11175,-1.22187109375,2.6805078125,3.8621796875,3.3683828125,2.8132734375,-1.88315234375,4.47284375,-7.7358984375,3.1877265625,-7.81773046875,-5.378890625
-3.278796875,-1.18316796875,-0.667398437500001,6.0326796875,0.46730078125,4.5508515625,-3.91853515625,-7.79973828125,2.707984375,0.801355468749999,0.636906249999999,-3.614796875,-6.5445,-6.7411484375,6.381671875,-2.651328125,-1.8715,-0.126140625,-2.62875,-2.09887109375,1.6355078125,2.3911796875,1.9393828125,1.8372734375,-3.17915234375,3.33184375,-8.5398984375,2.7967265625,-8.09873046875,-5.545890625
-2.671796875,-0.592167968750001,-0.9523984375,9.3936796875,0.99430078125,5.5788515625,-2.82653515625,-9.69873828125,3.295984375,1.07435546875,0.601906249999999,-2.724796875,-7.5955,-6.9761484375,5.594671875,-2.845328125,-2.2295,-0.352140625,-2.64175,-2.94787109375,0.6445078125,1.6361796875,1.2133828125,1.2602734375,-4.36515234375,2.70784375,-8.7028984375,3.0237265625,-7.81273046875,-5.579890625
-2.762796875,-0.39916796875,-1.6963984375,10.5816796875,1.52030078125,6.3198515625,-2.24253515625,-13.97873828125,3.335984375,1.35435546875,-0.237093750000001,-2.177796875,-8.7515,-7.0981484375,4.095671875,-3.505328125,-3.2225,-0.265140624999999,-2.58375,-4.10287109375,-0.3104921875,1.4071796875,1.0273828125,0.762273437499999,-5.56815234375,2.75284375,-8.5138984375,3.5067265625,-7.23873046875,-5.705890625
-4.061796875,-1.12316796875,-3.2663984375,9.0296796875,1.30330078125,6.0648515625,-3.04753515625,-19.48673828125,2.266984375,1.03735546875,-2.27009375,-2.637796875,-10.0475,-7.5221484375,1.695671875,-4.872328125,-4.7445,-0.111140625,-2.90275,-5.79987109375,-1.2704921875,1.3111796875,1.0373828125,-0.0227265625000008,-6.93915234375,3.38984375,-8.3918984375,3.8187265625,-6.73473046875,-6.163890625
-6.577796875,-2.83016796875,-5.6273984375,5.1726796875,0.0923007812499996,4.6288515625,-5.44953515625,-24.62673828125,0.138984375,-0.0476445312500005,-5.28309375,-4.233796875,-11.5335,-8.4371484375,-1.328328125,-6.860328125,-6.4235,-0.181140624999999,-3.82875,-8.01387109375,-2.2304921875,0.9151796875,0.8963828125,-1.3067265625,-8.52015234375,4.36084375,-8.6778984375,3.6127265625,-6.59573046875,-7.060890625
-9.728796875,-5.08116796875,-8.2683984375,0.3436796875,-1.78469921875,2.4438515625,-8.81653515625,-27.87473828125,-2.375015625,-1.56764453125,-8.49909375,-6.494796875,-13.1915,-9.7241484375,-4.333328125,-9.063328125,-7.7895,-0.668140624999999,-5.27175,-10.43587109375,-3.1154921875,-0.0598203124999994,0.3873828125,-3.0527265625,-10.20015234375,5.31084375,-9.4808984375,2.7377265625,-6.94973046875,-8.278890625
-12.583796875,-7.15316796875,-10.4103984375,-3.7303203125,-3.66069921875,0.316851562500001,-11.96053515625,-28.28773828125,-4.337015625,-2.91364453125,-10.93209375,-8.609796875,-14.8645,-11.0651484375,-6.621328125,-10.949328125,-8.4995,-1.599140625,-6.90675,-12.62187109375,-3.8514921875,-1.6228203125,-0.5386171875,-5.0057265625,-11.79515234375,5.87484375,-10.6668984375,1.2927265625,-7.72573046875,-9.524890625
-14.342796875,-8.40916796875,-11.3963984375,-5.6763203125,-4.92869921875,-1.0181484375,-13.74753515625,-25.82973828125,-5.078015625,-3.58264453125,-11.87509375,-9.868796875,-16.2675,-12.1721484375,-7.801328125,-12.123328125,-8.5095,-2.825140625,-8.36575,-14.21687109375,-4.4504921875,-3.5138203125,-1.8016171875,-6.8457265625,-13.18215234375,5.76984375,-11.9698984375,-0.3992734375,-8.70073046875,-10.489890625
-14.715796875,-8.61216796875,-11.0403984375,-5.0663203125,-5.34769921875,-1.2761484375,-13.65753515625,-21.34373828125,-4.567015625,-3.46664453125,-11.23009375,-9.973796875,-17.1205,-12.9431484375,-7.964328125,-12.500328125,-8.0725,-4.090140625,-9.41975,-15.11787109375,-5.0394921875,-5.3248203125,-3.2666171875,-8.3447265625,-14.36815234375,4.86684375,-13.1588984375,-1.9242734375,-9.61873046875,-11.019890625
-13.962796875,-7.98516796875,-9.7133984375,-2.5333203125,-5.09469921875,-0.704148437499999,-11.97553515625,-16.16773828125,-3.347015625,-2.87864453125,-9.51209375,-9.083796875,-17.2965,-13.4591484375,-7.573328125,-12.280328125,-7.5865,-5.115140625,-10.05275,-15.46987109375,-5.7814921875,-6.6978203125,-4.7896171875,-9.4597265625,-15.46615234375,3.23984375,-14.1828984375,-2.9552734375,-10.31473046875,-11.225890625
-12.660796875,-7.02016796875,-8.1313984375,0.643679687500001,-4.56169921875,0.152851562500001,-9.54153515625,-11.60473828125,-2.136015625,-2.32264453125,-7.53709375,-7.635796875,-16.9025,-13.8831484375,-7.158328125,-11.778328125,-7.3735,-5.716140625,-10.40475,-15.55087109375,-6.7524921875,-7.4948203125,-6.2586171875,-10.3127265625,-16.56915234375,1.17884375,-15.1898984375,-3.4242734375,-10.81073046875,-11.443890625
-11.415796875,-6.18416796875,-7.0043984375,3.1676796875,-4.09769921875,0.795851562500001,-7.27653515625,-8.52173828125,-1.388015625,-2.17664453125,-6.02409375,-6.134796875,-16.2305,-14.3511484375,-7.039328125,-11.227328125,-7.5165,-5.903140625,-10.66175,-15.59887109375,-7.8494921875,-7.8488203125,-7.6016171875,-11.0897265625,-17.64515234375,-0.86215625,-16.4398984375,-3.5812734375,-11.32273046875,-12.074890625
-10.622796875,-5.71516796875,-6.7403984375,4.2436796875,-3.84869921875,1.0188515625,-5.78453515625,-7.25373828125,-1.105015625,-2.49264453125,-5.31509375,-5.014796875,-15.6365,-14.9201484375,-7.197328125,-10.692328125,-7.8295,-5.898140625,-10.96275,-15.70987109375,-8.8004921875,-8.0858203125,-8.7906171875,-11.9157265625,-18.51615234375,-2.37715625,-18.1248984375,-3.8972734375,-12.15773046875,-13.374890625
-10.346796875,-5.59416796875,-7.3523984375,3.8006796875,-3.76169921875,0.937851562500001,-5.21053515625,-7.73873828125,-0.979015625,-3.01064453125,-5.32909375,-4.578796875,-15.4285,-15.5511484375,-7.358328125,-10.113328125,-7.9815,-6.039140625,-11.35475,-15.82987109375,-9.2854921875,-8.5708203125,-9.8176171875,-12.7847265625,-18.95815234375,-2.96015625,-20.2238984375,-4.8482734375,-13.55773046875,-15.282890625
-10.366796875,-5.65616796875,-8.5403984375,2.4116796875,-3.70169921875,0.828851562500001,-5.34053515625,-9.70073828125,-0.722015625,-3.35964453125,-5.71109375,-4.946796875,-15.7885,-16.1241484375,-7.192328125,-9.425328125,-7.7155,-6.613140625,-11.79375,-15.82887109375,-9.0984921875,-9.5548203125,-10.6516171875,-13.5587265625,-18.81515234375,-2.44515625,-22.4568984375,-6.6622734375,-15.53373046875,-17.395890625
-10.394796875,-5.74416796875,-9.9023984375,0.960679687500001,-3.60569921875,0.893851562500001,-5.84153515625,-12.74073828125,-0.347015625,-3.28964453125,-6.07009375,-6.012796875,-16.7155,-16.4751484375,-6.536328125,-8.645328125,-7.0435,-7.707140625,-12.16775,-15.58987109375,-8.2674921875,-11.0888203125,-11.2106171875,-14.0307265625,-18.09015234375,-0.98415625,-24.3508984375,-9.1702734375,-17.79873046875,-19.085890625
-10.318796875,-5.82416796875,-11.1293984375,0.2146796875,-3.56169921875,1.0848515625,-6.50253515625,-16.31173828125,-0.197015625,-2.83564453125,-6.20709375,-7.452796875,-17.9735,-16.4701484375,-5.513328125,-7.911328125,-6.2965,-9.155140625,-12.35775,-15.08987109375,-7.0714921875,-12.9878203125,-11.3816171875,-14.0287265625,-16.94815234375,0.97784375,-25.3968984375,-11.8122734375,-19.82173046875,-19.752890625
-10.270796875,-6.02016796875,-12.1063984375,0.5076796875,-3.81169921875,1.1028515625,-7.35553515625,-19.69073828125,-0.730015625,-2.32864453125,-6.20909375,-8.866796875,-19.1475,-16.0871484375,-4.502328125,-7.453328125,-5.9945,-10.620140625,-12.31675,-14.43387109375,-5.9504921875,-14.8788203125,-11.0766171875,-13.5337265625,-15.68115234375,2.81084375,-25.2598984375,-13.8512734375,-21.02173046875,-19.095890625
-10.524796875,-6.54616796875,-12.9003984375,1.6786796875,-4.65369921875,0.547851562500001,-8.59653515625,-22.09773828125,-2.216015625,-2.25064453125,-6.37709375,-9.982796875,-19.8325,-15.4831484375,-3.995328125,-7.523328125,-6.6035,-11.761140625,-12.14675,-13.85787109375,-5.3544921875,-16.3298203125,-10.3226171875,-12.7477265625,-14.64315234375,3.88184375,-23.9468984375,-14.6942734375,-21.02473046875,-17.284890625
-11.344796875,-7.58016796875,-13.6643984375,3.2186796875,-6.28069921875,-0.853148437499999,-10.35453515625,-22.98273828125,-4.557015625,-3.01764453125,-7.03109375,-10.785796875,-19.8575,-15.0011484375,-4.406328125,-8.294328125,-8.3235,-12.395140625,-12.09575,-13.65987109375,-5.6004921875,-17.0208203125,-9.3106171875,-12.0547265625,-14.16715234375,3.74584375,-21.8508984375,-14.1612734375,-19.83673046875,-14.929890625
-12.873796875,-9.13716796875,-14.5283984375,4.4946796875,-8.64669921875,-3.0831484375,-12.49353515625,-22.29573828125,-7.294015625,-4.76964453125,-8.32209375,-11.434796875,-19.3875,-15.0561484375,-5.916328125,-9.765328125,-10.9745,-12.576140625,-12.45675,-14.09987109375,-6.7914921875,-16.8658203125,-8.3686171875,-11.8637265625,-14.47815234375,2.29684375,-19.6158984375,-12.5472734375,-17.84973046875,-12.829890625
-15.052796875,-11.03816796875,-15.5303984375,4.9206796875,-11.42269921875,-5.8221484375,-14.60853515625,-20.53673828125,-9.769015625,-7.30364453125,-10.16009375,-12.072796875,-18.8065,-15.9571484375,-8.373328125,-11.745328125,-14.0145,-12.537140625,-13.42575,-15.28187109375,-8.7904921875,-16.0288203125,-7.8456171875,-12.4257265625,-15.60715234375,-0.18715625,-17.8658984375,-10.4512734375,-15.64273046875,-11.617890625
-17.603796875,-12.97316796875,-16.5963984375,4.0776796875,-14.08969921875,-8.5761484375,-16.22853515625,-18.49173828125,-11.345015625,-10.15664453125,-12.26609375,-12.684796875,-18.4675,-17.7251484375,-11.305328125,-13.919328125,-16.6655,-12.540140625,-14.98875,-17.08387109375,-11.2634921875,-14.8268203125,-7.9516171875,-13.6947265625,-17.35015234375,-3.12015625,-16.9218984375,-8.4692734375,-13.71973046875,-11.490890625
-20.135796875,-14.61716796875,-17.5923984375,1.8166796875,-16.13769921875,-10.8701484375,-17.04253515625,-16.84073828125,-11.651015625,-12.78664453125,-14.29209375,-13.117796875,-18.4595,-20.0471484375,-14.054328125,-15.954328125,-18.1805,-12.744140625,-16.88275,-19.16687109375,-13.7764921875,-13.5998203125,-8.6446171875,-15.3267265625,-19.29315234375,-5.81415625,-16.6708984375,-6.9542734375,-12.31573046875,-12.155890625
-22.311796875,-15.73516796875,-18.3893984375,-1.6033203125,-17.25269921875,-12.4111484375,-17.02153515625,-15.85673828125,-10.760015625,-14.75464453125,-15.93309375,-13.207796875,-18.5725,-22.3741484375,-15.985328125,-17.606328125,-18.1555,-13.152140625,-18.67575,-21.08487109375,-15.9184921875,-12.6198203125,-9.6276171875,-16.8057265625,-20.94915234375,-7.73015625,-16.6708984375,-5.9532734375,-11.39573046875,-13.017890625
-23.924796875,-16.22916796875,-18.9063984375,-5.4283203125,-17.40169921875,-13.1371484375,-16.37253515625,-15.38573828125,-9.206015625,-15.82164453125,-16.97909375,-12.934796875,-18.4885,-24.1131484375,-16.692328125,-18.746328125,-16.7335,-13.647140625,-19.91275,-22.43087109375,-17.4164921875,-12.0758203125,-10.4986171875,-17.6407265625,-21.93215234375,-8.67615625,-16.4258984375,-5.3422734375,-10.78273046875,-13.489890625
-24.835796875,-16.12016796875,-19.0923984375,-8.5053203125,-16.78469921875,-13.1571484375,-15.39653515625,-15.06473828125,-7.771015625,-15.96164453125,-17.33909375,-12.465796875,-18.0385,-24.8201484375,-16.096328125,-19.339328125,-14.5415,-14.065140625,-20.27575,-22.97387109375,-18.1764921875,-12.1018203125,-10.9446171875,-17.5597265625,-22.09415234375,-8.82715625,-15.6708984375,-5.0402734375,-10.31873046875,-13.257890625
-24.902796875,-15.49716796875,-18.8853984375,-9.6813203125,-15.69469921875,-12.6211484375,-14.32753515625,-14.57073828125,-7.127015625,-15.28664453125,-17.00909375,-12.060796875,-17.3525,-24.3231484375,-14.412328125,-19.368328125,-12.3765,-14.256140625,-19.67075,-22.69787109375,-18.2574921875,-12.7878203125,-10.8566171875,-16.5797265625,-21.53515234375,-8.57415625,-14.4918984375,-5.1152734375,-9.95173046875,-12.380890625
-23.996796875,-14.43716796875,-18.1803984375,-8.3163203125,-14.36369921875,-11.6111484375,-13.19853515625,-13.74873828125,-7.493015625,-13.94464453125,-16.02409375,-11.862796875,-16.7655,-22.7331484375,-12.024328125,-18.772328125,-10.8405,-14.102140625,-18.20075,-21.73387109375,-17.7804921875,-14.1078203125,-10.3046171875,-14.9407265625,-20.49815234375,-8.29315625,-13.1998984375,-5.7022734375,-9.70173046875,-11.211890625
-22.049796875,-12.95816796875,-16.8243984375,-4.5943203125,-12.86569921875,-10.0901484375,-11.81353515625,-12.61873828125,-8.499015625,-12.03964453125,-14.40409375,-11.709796875,-16.5285,-20.3361484375,-9.311328125,-17.437328125,-10.1165,-13.506140625,-16.07675,-20.24187109375,-16.8304921875,-15.8098203125,-9.3966171875,-12.9467265625,-19.19815234375,-8.15315625,-12.0758984375,-6.7952734375,-9.54973046875,-10.177890625
-19.066796875,-11.02516796875,-14.6663984375,0.5546796875,-11.11769921875,-7.9461484375,-9.83853515625,-11.33173828125,-9.348015625,-9.64264453125,-12.15909375,-11.157796875,-16.5395,-17.4501484375,-6.532328125,-15.273328125,-9.9885,-12.403140625,-13.52975,-18.31687109375,-15.4134921875,-17.3868203125,-8.1736171875,-10.8287265625,-17.71915234375,-8.05915625,-11.1728984375,-8.0982734375,-9.33573046875,-9.547890625
-15.177796875,-8.65416796875,-11.7063984375,5.8086796875,-9.01469921875,-5.1491484375,-7.06053515625,-10.13173828125,-9.231015625,-6.88964453125,-9.37609375,-9.761796875,-16.3095,-14.3441484375,-3.842328125,-12.349328125,-10.0675,-10.790140625,-10.79675,-16.02287109375,-13.5274921875,-18.2138203125,-6.6186171875,-8.7127265625,-16.02515234375,-7.75815625,-10.2988984375,-9.0662734375,-8.76273046875,-9.305890625
-10.758796875,-6.03016796875,-8.2403984375,9.8406796875,-6.58769921875,-1.9201484375,-3.64653515625,-9.25173828125,-7.724015625,-4.08964453125,-6.32809375,-7.453796875,-15.2145,-11.2521484375,-1.384328125,-8.996328125,-10.0605,-8.766140625,-8.12875,-13.48987109375,-11.2854921875,-17.7878203125,-4.7556171875,-6.6757265625,-14.06915234375,-7.04815625,-9.1838984375,-9.1352734375,-7.52073046875,-9.201890625
-6.460796875,-3.53616796875,-4.8733984375,11.6606796875,-4.05869921875,1.2458515625,-0.234535156250001,-8.74073828125,-4.930015625,-1.68664453125,-3.48009375,-4.707796875,-12.8845,-8.3771484375,0.641671874999998,-5.785328125,-9.9145,-6.505140625,-5.78275,-10.98487109375,-8.9744921875,-15.9448203125,-2.7146171875,-4.8107265625,-11.90115234375,-5.95015625,-7.6748984375,-7.9782734375,-5.44373046875,-8.913890625
-2.994796875,-1.60616796875,-2.2973984375,10.9416796875,-1.72469921875,3.7668515625,2.28646484375,-8.34673828125,-1.326015625,-0.062644531250001,-1.33309375,-2.326796875,-9.4785,-5.8401484375,2.069671875,-3.335328125,-9.7635,-4.158140625,-3.93875,-8.85387109375,-6.9654921875,-12.9048203125,-0.6826171875,-3.2267265625,-9.67215234375,-4.70615625,-5.8308984375,-5.6262734375,-2.61273046875,-8.197890625
-0.778796875,-0.49416796875,-0.930398437500001,8.2386796875,0.20930078125,5.2808515625,3.23446484375,-7.67073828125,2.482984375,0.693355468749999,-0.185093750000001,-0.977796874999999,-5.6715,-3.6011484375,2.910671875,-2.040328125,-9.7435,-1.758140625,-2.60675,-7.35587109375,-5.5034921875,-9.1548203125,1.2273828125,-1.9717265625,-7.53915234375,-3.60015625,-3.8468984375,-2.4102734375,0.69126953125,-6.930890625
0.264203125,-0.0911679687500007,-0.667398437500001,4.9356796875,1.72330078125,5.8458515625,2.54846484375,-6.53673828125,5.921984375,0.868355468749999,0.0239062499999996,-0.803796874999999,-2.3655,-1.4811484375,3.426671875,-1.868328125,-9.8245,0.770859375000001,-1.59375,-6.49887109375,-4.5424921875,-5.2438203125,3.0673828125,-0.966726562500002,-5.54615234375,-2.72615625,-1.8848984375,1.2357265625,4.12926953125,-5.079890625
0.608203125,0.0368320312499995,-0.9353984375,2.7746796875,2.90930078125,5.8878515625,0.885464843749999,-5.22173828125,8.502984375,0.974355468749999,-0.318093750000001,-1.368796875,-0.2705,0.6988515625,4.024671875,-2.368328125,-9.7935,3.491859375,-0.59675,-6.02187109375,-3.7564921875,-1.6078203125,5.0123828125,-0.012726562500001,-3.60115234375,-1.89315625,0.0401015625000003,4.9467265625,7.43326953125,-2.679890625
0.843203125,0.395832031249999,-1.0063984375,3.0946796875,3.83330078125,5.9388515625,-0.695535156250001,-4.26573828125,9.898984375,1.45235546875,-0.708093750000001,-1.943796875,0.383500000000001,2.9478515625,5.053671875,-2.895328125,-9.3715,6.308859375,0.63225,-5.52987109375,-2.7184921875,1.4811796875,7.2043828125,1.0962734375,-1.58115234375,-0.75515625,2.0331015625,8.4717265625,10.42126953125,0.124109375
1.419203125,1.27983203125,-0.3883984375,6.1756796875,4.46630078125,6.3638515625,-1.25553515625,-3.96973828125,10.063984375,2.43135546875,-0.753093750000001,-1.928796875,-0.124499999999999,5.0318515625,6.618671875,-2.907328125,-8.3655,8.906859375,2.14525,-4.68887109375,-1.1394921875,3.8691796875,9.5933828125,2.4412734375,0.54084765625,0.93584375,4.1781015625,11.5897265625,12.92326953125,3.031109375
2.493203125,2.64283203125,0.9596015625,11.0796796875,4.74430078125,7.2378515625,-0.355535156250001,-4.07773828125,9.302984375,3.69635546875,-0.264093750000001,-1.090796875,-1.2335,6.5658515625,8.538671875,-2.149328125,-6.7285,10.839859375,3.78525,-3.36187109375,1.0035078125,5.4261796875,11.9073828125,3.9422734375,2.65584765625,3.15684375,6.4061015625,14.0257265625,14.71026953125,5.610109375
3.928203125,4.19883203125,2.6956015625,16.1146796875,4.69430078125,8.4138515625,1.87946484375,-3.92473828125,8.155984375,4.87335546875,0.780906249999999,0.455203125000001,-2.4015,7.2198515625,10.425671875,-0.641328125000002,-4.5105,11.724859375,5.30225,-1.61687109375,3.4995078125,6.0001796875,13.7573828125,5.4152734375,4.59684765625,5.61284375,8.4751015625,15.4577265625,15.53826953125,7.434109375
5.417203125,5.63483203125,4.3456015625,19.6596796875,4.49830078125,9.6778515625,4.95846484375,-2.92373828125,7.153984375,5.65935546875,2.31190625,2.455203125,-3.3285,6.8978515625,11.845671875,1.429671875,-1.8035,11.414859375,6.46125,0.34112890625,6.0395078125,5.4541796875,14.8073828125,6.6702734375,6.24884765625,7.87384375,10.0521015625,15.6177265625,15.25726953125,8.238109375
6.664203125,6.77483203125,5.5856015625,20.8636796875,4.43830078125,10.8728515625,8.28446484375,-0.986738281250002,6.570984375,5.97135546875,4.20790625,4.699203125,-3.9935,5.8078515625,12.482671875,3.825671875,1.2545,10.069859375,7.11625,2.24512890625,8.3525078125,3.7711796875,14.9043828125,7.5732734375,7.59384765625,9.55284375,10.8461015625,14.4177265625,13.92126953125,8.004109375
7.490203125,7.61983203125,6.3726015625,19.8566796875,4.76030078125,11.9368515625,11.36346484375,1.44726171875,6.364984375,5.94435546875,6.28690625,7.049203125,-4.5585,4.3888515625,12.259671875,6.305671875,4.4385,8.107859375,7.23125,3.85412890625,10.2805078125,1.1491796875,14.1273828125,8.0682734375,8.70384765625,10.43084375,10.7441015625,12.0237265625,11.83026953125,6.943109375
7.845203125,8.29283203125,6.8986015625,17.5096796875,5.56430078125,12.8798515625,13.88846484375,3.80426171875,6.311984375,5.83335546875,8.32190625,9.340203125,-5.1925,3.1688515625,11.381671875,8.637671875,7.4435,6.087859375,6.90425,5.01112890625,11.7805078125,-1.9728203125,12.7603828125,8.1942734375,9.68084765625,10.51184375,9.8711015625,8.8647265625,9.46426953125,5.410109375
7.779203125,8.94883203125,7.4426015625,15.0006796875,6.78330078125,13.7358515625,15.72246484375,5.88126171875,6.230984375,5.86735546875,10.07190625,11.274203125,-5.9265,2.6068515625,10.268671875,10.588671875,9.9605,4.548859375,6.35425,5.68112890625,12.8775078125,-5.0248203125,11.1953828125,8.0592734375,10.59884765625,9.99584375,8.5501015625,5.5397265625,7.33626953125,3.778109375
7.467203125,9.68283203125,8.2006015625,13.4156796875,8.23830078125,14.5168515625,16.82246484375,8.01326171875,6.150984375,6.13535546875,11.33890625,12.474203125,-6.5805,2.9638515625,9.402671875,11.950671875,11.7405,3.848859375,5.84725,5.94412890625,13.6115078125,-7.5188203125,9.7993828125,7.8002734375,11.44984765625,9.16284375,7.1701015625,2.6397265625,5.82726953125,2.325109375
7.197203125,10.49583203125,9.1956015625,13.4526796875,9.71230078125,15.2108515625,17.20746484375,10.70526171875,6.312984375,6.55435546875,12.03690625,12.692203125,-6.8115,4.2118515625,9.146671875,12.609671875,12.6275,4.054859375,5.58525,5.95912890625,14.0145078125,-9.2348203125,8.8053828125,7.5282734375,12.16584765625,8.27184375,6.0531015625,0.583726562500001,5.07926953125,1.206109375
7.275203125,11.32983203125,10.3056015625,15.2526796875,11.03530078125,15.7978515625,17.01446484375,14.00726171875,7.021984375,6.95435546875,12.25190625,12.044203125,-6.2465,6.0398515625,9.626671875,12.648671875,12.5855,4.949859375,5.64225,5.94712890625,14.1375078125,-10.2848203125,8.3023828125,7.3282734375,12.71184765625,7.51884375,5.4071015625,-0.4662734375,5.01826953125,0.487109375
7.884203125,12.14483203125,11.3766015625,18.3956796875,12.13430078125,16.2948515625,16.54146484375,17.24126171875,8.441984375,7.23135546875,12.26090625,11.058203125,-4.6535,7.9708515625,10.722671875,12.385671875,11.7565,6.152859375,5.96925,6.15812890625,14.1035078125,-10.9998203125,8.2793828125,7.2812734375,13.18384765625,7.05984375,5.3481015625,-0.5682734375,5.45326953125,0.211109375
9.012203125,12.95483203125,12.3286015625,22.0726796875,13.02130078125,16.7808515625,16.19246484375,19.37626171875,10.458984375,7.42935546875,12.44690625,10.476203125,-2.0925,9.5468515625,12.159671875,12.277671875,10.4775,7.291859375,6.43125,6.79412890625,14.1035078125,-11.7418203125,8.6733828125,7.4482734375,13.78784765625,7.01984375,5.8841015625,0.0667265624999995,6.17126953125,0.414109375
10.456203125,13.78783203125,13.2036015625,25.3866796875,13.73130078125,17.3688515625,16.34346484375,19.79726171875,12.675984375,7.70635546875,13.13990625,10.923203125,1.0155,10.4848515625,13.614671875,12.707671875,9.2095,8.118859375,6.85325,7.90812890625,14.3045078125,-12.7368203125,9.3623828125,7.8112734375,14.69384765625,7.43784375,6.8631015625,1.1367265625,6.97226953125,1.082109375
11.893203125,14.65183203125,14.1246015625,27.6336796875,14.28030078125,18.1588515625,17.22246484375,18.80826171875,14.553984375,8.22235546875,14.50190625,12.651203125,3.9615,10.7408515625,14.821671875,13.818671875,8.3935,8.536859375,7.07025,9.36012890625,14.7575078125,-14.0028203125,10.1433828125,8.2332734375,15.88184765625,8.18484375,7.9211015625,2.2877265625,7.65126953125,2.074109375
12.996203125,15.54283203125,15.2476015625,28.4976796875,14.67930078125,19.2058515625,18.87946484375,17.51826171875,15.656984375,9.05235546875,16.49490625,15.468203125,5.9915,10.4968515625,15.669671875,15.495671875,8.3335,8.593859375,7.00925,10.90712890625,15.3705078125,-15.3628203125,10.7573828125,8.5052734375,17.12884765625,8.96484375,8.5591015625,3.1727265625,8.00326953125,3.103109375
13.634203125,16.49083203125,16.7106015625,28.1186796875,14.99930078125,20.5118515625,21.20546484375,17.19826171875,15.871984375,10.20535546875,18.95990625,18.853203125,6.6435,10.1108515625,16.267671875,17.489671875,9.1745,8.470859375,6.76625,12.36312890625,16.0115078125,-16.5358203125,10.9873828125,8.4772734375,18.15184765625,9.44584375,8.3381015625,3.5377265625,7.87526953125,3.829109375
14.000203125,17.58783203125,18.5886015625,27.0046796875,15.39730078125,22.0438515625,23.96046484375,18.56826171875,15.497984375,11.66535546875,21.68390625,22.158203125,5.9975,10.0048515625,16.914671875,19.569671875,10.9255,8.442859375,6.61125,13.72012890625,16.6425078125,-17.2428203125,10.7723828125,8.1792734375,18.81284765625,9.45784375,7.1031015625,3.3277265625,7.24326953125,4.016109375
14.489203125,18.91583203125,20.8126015625,25.8036796875,16.03530078125,23.7078515625,26.76746484375,21.46426171875,15.076984375,13.39035546875,24.40690625,24.827203125,4.6805,10.4908515625,17.922671875,21.569671875,13.4545,8.755859375,6.86625,15.10712890625,17.3515078125,-17.3438203125,10.2263828125,7.8172734375,19.18084765625,9.10984375,5.0781015625,2.6997265625,6.22326953125,3.627109375
15.363203125,20.42283203125,23.0996015625,24.9926796875,16.94430078125,25.3038515625,29.12646484375,25.03926171875,15.087984375,15.23435546875,26.77790625,26.539203125,3.5825,11.5868515625,19.371671875,23.324671875,16.4435,9.461859375,7.70925,16.60912890625,18.2435078125,-16.9448203125,9.5373828125,7.6292734375,19.42184765625,8.70784375,2.7461015625,1.9197265625,4.99226953125,2.784109375
16.510203125,21.85483203125,24.9896015625,24.6596796875,17.95630078125,26.5448515625,30.50446484375,28.31226171875,15.686984375,16.91135546875,28.36490625,27.252203125,3.4585,12.9678515625,20.997671875,24.576671875,19.3705,10.343859375,9.02125,18.09512890625,19.2835078125,-16.3868203125,8.8243828125,7.7022734375,19.59684765625,8.53784375,0.6111015625,1.1887265625,3.68226953125,1.632109375
17.544203125,22.84783203125,26.0266015625,24.5376796875,18.80930078125,27.1928515625,30.55346484375,30.63926171875,16.689984375,18.07935546875,28.80690625,27.132203125,4.6295,14.1378515625,22.326671875,24.999671875,21.6335,11.039859375,10.42425,19.20612890625,20.2365078125,-16.1008203125,8.0933828125,7.9142734375,19.57184765625,8.67484375,-0.9978984375,0.554726562499999,2.34726953125,0.269109375
18.120203125,23.15383203125,26.0076015625,24.2886796875,19.33330078125,27.2448515625,29.34446484375,31.86326171875,17.755984375,18.54035546875,28.03590625,26.431203125,6.8845,14.7338515625,22.970671875,24.358671875,22.7825,11.274859375,11.50725,19.54312890625,20.7665078125,-16.3818203125,7.3113828125,8.0462734375,19.11984765625,8.95584375,-1.9648984375,-0.0502734374999996,1.03026953125,-1.220890625
18.135203125,22.80683203125,25.0926015625,23.8046796875,19.55030078125,26.9948515625,27.44846484375,32.14926171875,18.580984375,18.36635546875,26.40490625,25.370203125,9.5605,14.7398515625,22.857671875,22.682671875,22.7125,11.020859375,12.06125,18.91112890625,20.6165078125,-17.2658203125,6.5113828125,7.9592734375,18.10884765625,9.11784375,-2.3188984375,-0.7102734375,-0.16673046875,-2.673890625
17.689203125,22.09283203125,23.7096015625,23.2706796875,19.57930078125,26.8698515625,25.68946484375,31.72626171875,18.964984375,17.83535546875,24.56990625,24.079203125,11.7385,14.4508515625,22.241671875,20.306671875,21.6845,10.459859375,12.14825,17.44512890625,19.7325078125,-18.5678203125,5.8063828125,7.6832734375,16.61584765625,8.96784375,-2.1478984375,-1.4372734375,-1.09673046875,-3.817890625
16.902203125,21.31483203125,22.2906015625,22.9176796875,19.43030078125,27.1208515625,24.68046484375,30.73826171875,18.766984375,17.21635546875,23.15690625,22.568203125,12.5645,14.2288515625,21.497671875,17.719671875,20.1575,9.825859375,11.97025,15.53312890625,18.2815078125,-20.0148203125,5.3103828125,7.3462734375,14.89284765625,8.47584375,-1.5758984375,-2.1402734375,-1.62573046875,-4.355890625
15.756203125,20.54783203125,21.0246015625,22.6876796875,18.88430078125,27.5778515625,24.41946484375,29.22026171875,17.855984375,16.55035546875,22.42390625,20.753203125,11.5945,14.2248515625,20.853671875,15.353671875,18.5375,9.230859375,11.65025,13.61512890625,16.5585078125,-21.3658203125,5.0313828125,7.0282734375,13.23384765625,7.76984375,-0.7628984375,-2.6362734375,-1.69773046875,-4.096890625
14.068203125,19.56983203125,19.7816015625,22.1216796875,17.57130078125,27.6278515625,24.23546484375,27.17726171875,16.146984375,15.60335546875,22.11990625,18.531203125,9.0125,14.2398515625,20.218671875,13.442671875,17.0085,8.598859375,11.10325,11.98212890625,14.8575078125,-22.4858203125,4.8153828125,6.6502734375,11.85084765625,7.05384375,0.0891015624999998,-2.7382734375,-1.36473046875,-3.079890625
11.630203125,18.01783203125,18.2536015625,20.6376796875,15.20930078125,26.4818515625,23.13646484375,24.69526171875,13.703984375,14.00435546875,21.61990625,15.890203125,5.5815,13.8258515625,19.220671875,12.016671875,15.5095,7.729859375,10.07025,10.68812890625,13.3685078125,-23.3558203125,4.3703828125,5.9832734375,10.81284765625,6.51084375,0.7611015625,-2.3772734375,-0.78873046875,-1.600890625
8.470203125,15.66583203125,16.2076015625,17.9946796875,11.84630078125,23.6018515625,20.37346484375,21.99326171875,10.837984375,11.50235546875,20.26090625,12.990203125,2.3305,12.5618515625,17.450671875,10.983671875,13.8855,6.454859375,8.28525,9.59512890625,12.1475078125,-24.0248203125,3.4043828125,4.7662734375,10.03284765625,6.21884375,1.0611015625,-1.6812734375,-0.20773046875,-0.120890624999999
5.044203125,12.63983203125,13.7006015625,14.5806796875,7.94130078125,19.0608515625,15.92146484375,19.33026171875,8.064984375,8.16635546875,17.70690625,10.167203125,0.157500000000001,10.3408515625,14.759671875,10.243671875,12.0965,4.794859375,5.68725,8.50212890625,11.1505078125,-24.4988203125,1.7953828125,2.8702734375,9.31784765625,6.10884375,0.8851015625,-0.926273437500001,0.14326953125,0.891109375000001
2.147203125,9.44583203125,11.0996015625,11.2896796875,4.22030078125,13.6218515625,10.60846484375,16.84626171875,5.917984375,4.42235546875,14.16290625,7.830203125,-0.4515,7.4748515625,11.413671875,9.754671875,10.3745,3.009859375,2.53625,7.28312890625,10.3085078125,-24.6558203125,-0.2886171875,0.416273437499999,8.45984765625,5.99684375,0.2641015625,-0.397273437500001,0.13126953125,1.132109375
0.554203125,6.78283203125,8.9126015625,9.0796796875,1.37730078125,8.4548515625,5.78746484375,14.52626171875,4.692984375,0.896355468749999,10.31490625,6.300203125,0.4865,4.5668515625,8.004671875,9.528671875,9.1825,1.503859375,-0.61175,5.96012890625,9.5705078125,-24.2648203125,-2.4206171875,-2.2267265625,7.33484765625,5.68484375,-0.6398984375,-0.250273437500001,-0.22873046875,0.554109375
0.629203125,5.22183203125,7.5326015625,8.5266796875,-0.21369921875,4.6428515625,2.71246484375,12.37826171875,4.296984375,-1.85064453125,7.02790625,5.649203125,2.5225,2.2638515625,5.187671875,9.555671875,8.9635,0.669859375000001,-3.10975,4.66612890625,8.9115078125,-23.1118203125,-4.0756171875,-4.5877265625,5.96184765625,5.06684375,-1.5908984375,-0.4732734375,-0.77773046875,-0.644890625
2.135203125,4.92283203125,7.0416015625,9.5816796875,-0.63369921875,2.7448515625,1.93546484375,10.64126171875,4.292984375,-3.55664453125,4.96390625,5.657203125,4.9535,0.9998515625,3.403671875,9.708671875,9.7975,0.732859375,-4.46575,3.55512890625,8.2935078125,-21.1608203125,-4.8446171875,-6.2777265625,4.50184765625,4.18684375,-2.3438984375,-0.9302734375,-1.27673046875,-2.096890625
4.294203125,5.56083203125,7.1776015625,11.5946796875,-0.33769921875,2.6188515625,3.07646484375,9.77926171875,4.148984375,-4.32364453125,4.32090625,5.903203125,7.0585,0.8578515625,2.730671875,9.737671875,11.2185,1.675859375,-4.52375,2.71312890625,7.6385078125,-18.6418203125,-4.5706171875,-7.1137265625,3.20784765625,3.22384375,-2.6868984375,-1.4202734375,-1.46873046875,-3.357890625
6.079203125,6.49683203125,7.4926015625,13.5726796875,0.0983007812499999,3.5948515625,5.06946484375,10.16726171875,3.536984375,-4.49164453125,4.81490625,5.965203125,8.3415,1.5808515625,2.917671875,9.365671875,12.3605,3.269859375,-3.46975,2.15212890625,6.8595078125,-15.9968203125,-3.3696171875,-7.1057265625,2.34984765625,2.42284375,-2.4508984375,-1.7372734375,-1.14173046875,-4.005890625
6.655203125,7.11483203125,7.6066015625,14.6136796875,0.256300781249999,4.8408515625,6.72946484375,11.73426171875,2.506984375,-4.40464453125,5.89290625,5.553203125,8.6805,2.7288515625,3.542671875,8.450671875,12.3735,5.191859375,-1.71475,1.86012890625,5.9295078125,-13.7108203125,-1.5356171875,-6.3777265625,2.13984765625,2.00384375,-1.5148984375,-1.7012734375,-0.19773046875,-3.734890625
5.766203125,7.08783203125,7.3806015625,14.2946796875,0.0353007812499992,5.7198515625,7.29046484375,13.80926171875,1.409984375,-4.24964453125,6.98790625,4.547203125,8.3095,3.8528515625,4.182671875,7.067671875,10.8555,7.141859375,0.25425,1.84312890625,4.9435078125,-12.1248203125,0.5613828125,-5.1027265625,2.65584765625,2.08584375,0.1641015625,-1.2222734375,1.29426953125,-2.464890625
3.794203125,6.43983203125,6.8996015625,12.7946796875,-0.41769921875,5.9368515625,6.62446484375,15.32626171875,0.606984375,-4.05964453125,7.68590625,2.966203125,7.6235,4.5968515625,4.489671875,5.482671875,8.0475,8.863859375,1.95825,2.09712890625,4.0935078125,-11.3818203125,2.5433828125,-3.5047265625,3.79484765625,2.65184375,2.4871015625,-0.365273437500001,3.09226953125,-0.393890625
1.438203125,5.40083203125,6.2976015625,10.6616796875,-0.90669921875,5.4738515625,5.10146484375,15.29126171875,0.198984375,-3.84664453125,7.75890625,0.959203125,6.9425,4.7108515625,4.190671875,4.020671875,4.6965,10.087859375,2.97925,2.54012890625,3.5745078125,-11.4658203125,4.0393828125,-1.8677265625,5.28184765625,3.55384375,5.1641015625,0.624726562499999,4.84426953125,2.031109375
-0.699796875,4.21483203125,5.6236015625,8.4586796875,-1.35169921875,4.4448515625,3.24646484375,13.33126171875,0.000984374999999815,-3.70864453125,7.12990625,-1.186796875,6.3535,4.0618515625,3.133671875,2.931671875,1.7175,10.530859375,3.04125,2.99512890625,3.4795078125,-12.2748203125,4.7383828125,-0.505726562500001,6.74984765625,4.56484375,7.7271015625,1.3977265625,6.21326953125,4.261109375
-2.289796875,3.03883203125,4.8526015625,6.5596796875,-1.80169921875,3.0208515625,1.48646484375,10.01026171875,-0.243015625,-3.79964453125,5.86590625,-3.080796875,5.7115,2.7138515625,1.385671875,2.310671875,-0.1865,10.014859375,2.10825,3.24612890625,3.7455078125,-13.6068203125,4.4843828125,0.315273437499999,7.84384765625,5.44884375,9.6261015625,1.6627265625,7.01926953125,5.857109375
-3.231796875,1.95983203125,3.9966015625,5.1356796875,-2.33169921875,1.4338515625,0.0884648437499997,6.69926171875,-0.590015625,-4.19164453125,4.18090625,-4.334796875,4.7985,0.9758515625,-0.681328125,2.083671875,-0.786499999999999,8.633859375,0.44425,3.12812890625,4.1705078125,-15.1198203125,3.3713828125,0.450273437499999,8.31384765625,6.03284375,10.3911015625,1.3467265625,7.30326953125,6.660109375
-3.584796875,1.04983203125,3.1626015625,4.2056796875,-2.95069921875,-0.0211484374999991,-0.774535156250002,4.94026171875,-0.828015625,-4.78964453125,2.41190625,-4.705796875,3.5205,-0.6791484375,-2.488328125,2.043671875,-0.3805,6.788859375,-1.45275,2.57712890625,4.4615078125,-16.3618203125,1.7483828125,-0.0967265625000007,8.04584765625,6.23084375,9.7941015625,0.6367265625,7.28826953125,6.818109375
-3.565796875,0.367832031249999,2.4786015625,3.6396796875,-3.61569921875,-1.0911484375,-0.988535156250002,5.59726171875,-0.668015625,-5.38564453125,0.901906249999999,-4.230796875,2.0195,-1.8361484375,-3.503328125,1.896671875,0.357500000000001,5.007859375,-3.06775,1.59712890625,4.2975078125,-16.9318203125,0.0753828125,-1.2277265625,7.03084765625,6.02784375,7.9191015625,-0.128273437500001,7.23926953125,6.663109375
-3.517796875,-0.113167968750001,1.9526015625,3.1836796875,-4.32969921875,-1.7071484375,-0.569535156250002,8.29326171875,-0.0580156249999999,-5.84264453125,-0.166093750000001,-3.277796875,0.6035,-2.3571484375,-3.517328125,1.320671875,0.655500000000001,3.651859375,-4.12175,0.18212890625,3.3995078125,-16.6848203125,-1.2976171875,-2.8477265625,5.30784765625,5.42784375,5.1151015625,-0.6772734375,7.29626953125,6.482109375
-3.795796875,-0.564167968750001,1.3836015625,2.5466796875,-5.21369921875,-2.0751484375,0.222464843749998,11.53626171875,0.631984375,-6.24364453125,-0.87209375,-2.452796875,-0.4575,-2.4711484375,-2.769328125,0.0546718749999986,-0.0334999999999992,2.721859375,-4.71975,-1.70087109375,1.6335078125,-15.8468203125,-2.3006171875,-4.9087265625,2.95584765625,4.44584375,1.8711015625,-0.9782734375,7.39526953125,6.350109375
-4.636796875,-1.24816796875,0.4386015625,1.5436796875,-6.46269921875,-2.6031484375,0.894464843749999,13.49126171875,0.718984375,-6.86064453125,-1.52009375,-2.362796875,-1.1045,-2.6531484375,-1.841328125,-1.957328125,-1.7805,1.904859375,-5.24475,-4.02687109375,-0.8834921875,-14.9138203125,-3.1336171875,-7.3317265625,0.15784765625,3.18284375,-1.3078984375,-1.2282734375,7.33226953125,6.123109375
-6.062796875,-2.35216796875,-1.1343984375,0.2146796875,-8.17969921875,-3.6791484375,0.910464843749999,12.92226171875,-0.399015625,-7.94664453125,-2.42909375,-3.318796875,-1.4905,-3.3591484375,-1.372328125,-4.427328125,-4.0975,0.841859375,-6.07175,-6.55987109375,-3.7094921875,-14.3688203125,-4.0706171875,-9.8577265625,-2.70715234375,1.91384375,-3.9638984375,-1.6552734375,6.94426953125,5.611109375
-7.821796875,-3.82216796875,-3.2803984375,-1.1303203125,-10.21169921875,-5.4251484375,-0.0535351562500015,9.80326171875,-2.816015625,-9.49064453125,-3.70509375,-5.163796875,-1.8345,-4.7541484375,-1.742328125,-6.736328125,-6.1125,-0.573140625,-7.27975,-8.78087109375,-6.1494921875,-14.3918203125,-5.2356171875,-11.9697265625,-5.05815234375,1.08084375,-5.7108984375,-2.2902734375,6.27226953125,4.790109375
-9.402796875,-5.35016796875,-5.5973984375,-2.0223203125,-12.14269921875,-7.5801484375,-1.94953515625,5.27926171875,-5.972015625,-11.13964453125,-5.14409375,-7.335796875,-2.2825,-6.6001484375,-2.892328125,-8.135328125,-6.9845,-2.084140625,-8.56575,-10.01987109375,-7.4894921875,-14.7618203125,-6.4966171875,-13.0127265625,-6.26615234375,1.12384375,-6.2548984375,-2.8882734375,5.58726953125,3.875109375
-10.232796875,-6.53716796875,-7.5213984375,-2.0963203125,-13.47769921875,-9.6041484375,-4.38153515625,1.05426171875,-8.904015625,-12.33264453125,-6.33309375,-9.129796875,-2.8875,-8.3711484375,-4.383328125,-8.081328125,-6.3575,-3.230140625,-9.42175,-9.74887109375,-7.3244921875,-15.0068203125,-7.5666171875,-12.4767265625,-5.92515234375,2.24684375,-5.4558984375,-3.0712734375,5.23926953125,3.208109375
-9.975796875,-7.09616796875,-8.5933984375,-1.3653203125,-13.87769921875,-10.9191484375,-6.72653515625,-1.41973828125,-10.743015625,-12.55264453125,-6.86009375,-9.989796875,-3.6775,-9.5061484375,-5.635328125,-6.486328125,-4.5655,-3.651140625,-9.42075,-7.87787109375,-5.7844921875,-14.6948203125,-8.1916171875,-10.2707265625,-4.07115234375,4.26684375,-3.3888984375,-2.5802734375,5.47026953125,3.039109375
-8.696796875,-6.95816796875,-8.6213984375,-0.276320312499999,-13.30269921875,-11.1431484375,-8.30553515625,-1.51173828125,-11.104015625,-11.54964453125,-6.47909375,-9.708796875,-4.6795,-9.6421484375,-6.160328125,-3.754328125,-2.4405,-3.296140625,-8.43175,-4.84087109375,-3.4874921875,-13.6558203125,-8.2866171875,-6.8217265625,-1.20715234375,6.66184375,-0.3648984375,-1.4592734375,6.28226953125,3.385109375
-6.775796875,-6.23216796875,-7.6673984375,0.5236796875,-11.97469921875,-10.2041484375,-8.57153515625,0.509261718749997,-10.165015625,-9.41764453125,-5.16609375,-8.455796875,-5.8595,-8.7081484375,-5.692328125,-0.578328125000001,-0.839499999999999,-2.416140625,-6.63275,-1.41187109375,-1.2394921875,-12.0038203125,-7.9216171875,-2.9097265625,1.89884765625,8.79284375,3.1181015625,-0.0402734374999998,7.46526953125,4.034109375
-4.680796875,-5.10316796875,-5.9483984375,0.5766796875,-10.23769921875,-8.3271484375,-7.32053515625,3.74926171875,-8.435015625,-6.55064453125,-3.08309375,-6.656796875,-7.0315,-6.8911484375,-4.201328125,2.360671875,-0.182499999999999,-1.379140625,-4.37475,1.63212890625,0.346507812500001,-9.9808203125,-7.1936171875,0.657273437499999,4.53784765625,10.15184375,6.4951015625,1.2527265625,8.72726953125,4.672109375
-2.799796875,-3.74716796875,-3.7793984375,-0.151320312499999,-8.41569921875,-5.9611484375,-4.81853515625,7.09726171875,-6.436015625,-3.50364453125,-0.54009375,-4.801796875,-7.8475,-4.5571484375,-1.888328125,4.633671875,-0.2905,-0.471140624999999,-2.00175,3.80312890625,1.0695078125,-7.7598203125,-6.1156171875,3.3432734375,6.32784765625,10.52184375,9.2821015625,2.1547265625,9.83826953125,5.045109375
-1.382796875,-2.31016796875,-1.5453984375,-1.2843203125,-6.73169921875,-3.6441484375,-1.74853515625,9.59626171875,-4.504015625,-0.843644531250001,2.03790625,-3.262796875,-7.8915,-2.1311484375,0.828671874999998,6.137671875,-0.5805,0.221859375000001,0.22525,5.00112890625,1.1105078125,-5.3278203125,-4.6136171875,5.0082734375,7.28684765625,9.97784375,11.1881015625,2.7107265625,10.72026953125,5.059109375
-0.510796875,-0.92816796875,0.3486015625,-2.2603203125,-5.29069921875,-1.8601484375,1.04746484375,10.73126171875,-2.787015625,1.00235546875,4.16490625,-2.206796875,-6.8415,0.00285156250000007,3.384671875,6.998671875,-0.4825,0.801859375,2.11225,5.42212890625,0.8275078125,-2.5238203125,-2.6266171875,5.8212734375,7.69984765625,8.78584375,12.1711015625,3.2287265625,11.43026953125,4.789109375
-0.0787968750000001,0.26883203125,1.5906015625,-2.5773203125,-4.10969921875,-0.876148437499999,2.92446484375,10.57226171875,-1.376015625,1.84935546875,5.40790625,-1.587796875,-4.6325,1.6028515625,5.220671875,7.424671875,0.210500000000001,1.469859375,3.49525,5.36512890625,0.5155078125,0.807179687500001,-0.2436171875,6.0692734375,7.87984765625,7.28384375,12.4021015625,4.0457265625,12.05926953125,4.398109375
0.131203125,1.21183203125,2.0906015625,-1.9513203125,-3.15169921875,-0.657148437499999,3.70746484375,9.65426171875,-0.389015625,1.82335546875,5.55590625,-1.211796875,-1.5275,2.6148515625,6.005671875,7.589671875,1.2605,2.428859375,4.26725,5.09012890625,0.2945078125,4.6361796875,2.2503828125,6.0102734375,7.99684765625,5.78384375,12.1731015625,5.2807265625,12.63326953125,4.018109375
0.349203125,1.95583203125,2.0556015625,-0.370320312500001,-2.33469921875,-0.856148437499999,3.74546484375,8.66326171875,0.108984375,1.35935546875,4.76790625,-0.796796874999999,1.9695,3.2038515625,5.812671875,7.606671875,2.1855,3.805859375,4.49325,4.77312890625,0.1235078125,8.6771796875,4.4463828125,5.8402734375,8.03384765625,4.52984375,11.7771015625,6.7257265625,13.08626953125,3.690109375
0.761203125,2.69483203125,1.9456015625,1.9176796875,-1.52569921875,-0.934148437499999,3.68546484375,8.07326171875,0.302984375,1.09335546875,3.57590625,-0.0767968749999994,5.3325,3.7348515625,5.154671875,7.552671875,2.5495,5.639859375,4.48725,4.54112890625,-0.1094921875,12.4831796875,6.0073828125,5.7352734375,7.87484765625,3.65284375,11.4221015625,7.9637265625,13.32926953125,3.395109375
1.515203125,3.67383203125,2.2836015625,4.4516796875,-0.538699218750001,-0.359148437499999,4.12246484375,7.95826171875,0.685984375,1.65835546875,2.70590625,1.098203125,8.2195,4.6658515625,4.808671875,7.490671875,2.1745,7.876859375,4.75625,4.50712890625,-0.5004921875,15.6251796875,6.8393828125,5.8742734375,7.41384765625,3.13784375,11.2031015625,8.6057265625,13.34026953125,3.136109375
2.693203125,5.05483203125,3.4276015625,6.6506796875,0.81930078125,1.1838515625,5.31846484375,8.05826171875,1.849984375,3.43935546875,2.78990625,2.679203125,10.5535,6.3568515625,5.472671875,7.482671875,1.1915,10.367859375,5.80225,4.77612890625,-1.0924921875,17.8721796875,7.1423828125,6.4072734375,6.64584765625,2.83684375,11.1141015625,8.4997265625,13.20426953125,2.995109375
4.263203125,6.82883203125,5.4116015625,8.0096796875,2.67830078125,3.6728515625,7.15846484375,8.02026171875,4.117984375,6.42735546875,4.13790625,4.420203125,12.4335,8.8898515625,7.445671875,7.601671875,-0.0364999999999993,12.863859375,7.90225,5.42412890625,-1.8444921875,19.2641796875,7.2963828125,7.3992734375,5.68784765625,2.54584375,11.1011015625,7.7987265625,13.06526953125,3.098109375
6.106203125,8.84283203125,7.9616015625,8.3626796875,5.06330078125,6.8018515625,9.31546484375,7.68626171875,7.321984375,10.22635546875,6.65090625,5.953203125,13.9675,12.0188515625,10.512671875,7.935671875,-1.0635,15.076859375,10.98225,6.49312890625,-2.6344921875,20.0821796875,7.6703828125,8.7992734375,4.75984765625,2.12484375,11.0991015625,6.8867265625,13.04826953125,3.516109375
8.117203125,10.88683203125,10.6406015625,8.0316796875,7.89230078125,10.1368515625,11.45246484375,7.26326171875,10.894984375,14.23735546875,9.91890625,6.910203125,15.1505,15.3008515625,14.082671875,8.584671875,-1.5255,16.786859375,14.63825,7.99512890625,-3.2704921875,20.7381796875,8.4623828125,10.4642734375,4.11484765625,1.58884375,11.0841015625,6.2297265625,13.20126953125,4.186109375
10.258203125,12.78883203125,13.0416015625,7.7116796875,11.00830078125,13.2878515625,13.33646484375,7.27026171875,14.163984375,17.88335546875,13.39190625,7.064203125,15.8645,18.2998515625,17.481671875,9.632671875,-1.2615,17.953859375,18.31025,9.90412890625,-3.5294921875,21.6311796875,9.6543828125,12.2322734375,3.98284765625,1.11684375,11.1101015625,6.2087265625,13.50126953125,4.932109375
12.488203125,14.47083203125,14.9286015625,8.1266796875,14.19130078125,16.0038515625,14.86646484375,8.25426171875,16.632984375,20.79635546875,16.57590625,6.465203125,16.0195,20.7598515625,20.233671875,11.130671875,-0.3325,18.743859375,21.49525,12.15012890625,-3.2104921875,23.0031796875,11.0653828125,14.0052734375,4.52184765625,0.97084375,11.3211015625,6.9847265625,13.88426953125,5.583109375
14.689203125,15.95283203125,16.3056015625,9.6656796875,17.17530078125,18.1908515625,16.06446484375,10.45226171875,18.116984375,22.87835546875,19.15190625,5.504203125,15.6955,22.6528515625,22.192671875,13.060671875,1.0585,19.434859375,23.90325,14.60012890625,-2.1954921875,24.8451796875,12.4513828125,15.7722734375,5.78384765625,1.36084375,11.8901015625,8.4377265625,14.27526953125,6.104109375
16.679203125,17.28683203125,17.3626015625,12.1636796875,19.65130078125,19.8608515625,17.03846484375,13.58426171875,18.709984375,24.21135546875,21.00290625,4.777203125,15.1815,24.0938515625,23.479671875,15.285671875,2.6705,20.243859375,25.46625,17.02812890625,-0.512492187499999,26.8821796875,13.5683828125,17.5382734375,7.67884765625,2.31684375,12.9011015625,10.1737265625,14.60326953125,6.638109375
18.237203125,18.44283203125,18.3086015625,14.9056796875,21.28230078125,21.0208515625,17.89546484375,16.87826171875,18.633984375,24.89535546875,22.10590625,4.762203125,14.8085,25.1528515625,24.253671875,17.502671875,4.2615,21.138859375,26.20825,19.09312890625,1.6025078125,28.6471796875,14.1893828125,19.1922734375,9.94284765625,3.62084375,14.2021015625,11.6307265625,14.77926953125,7.393109375
19.080203125,19.22283203125,19.1536015625,16.8826796875,21.74530078125,21.5658515625,18.61646484375,19.29726171875,18.047984375,24.89935546875,22.39490625,5.502203125,14.7035,25.6958515625,24.470671875,19.231671875,5.5515,21.779859375,26.11025,20.35812890625,3.7025078125,29.6391796875,14.1013828125,20.4272734375,12.14284765625,4.85284375,15.3741015625,12.2687265625,14.68826953125,8.458109375
18.890203125,19.28983203125,19.6166015625,17.2436796875,20.82730078125,21.2608515625,18.97446484375,19.92526171875,16.963984375,24.06535546875,21.71090625,6.525203125,14.6605,25.4028515625,23.825671875,19.923671875,6.2165,21.648859375,25.06925,20.40112890625,5.2435078125,29.5361796875,13.1373828125,20.8152734375,13.76684765625,5.55384375,15.8451015625,11.7857265625,14.20826953125,9.686109375
17.489203125,18.34883203125,19.2576015625,15.7426796875,18.56630078125,19.8688515625,18.60846484375,18.37826171875,15.333984375,22.25835546875,19.91090625,7.105203125,14.2545,23.9928515625,21.956671875,19.171671875,5.9945,20.341859375,23.01425,19.00412890625,5.8025078125,28.3751796875,11.2623828125,20.0212734375,14.39284765625,5.44584375,15.1461015625,10.2587265625,13.28626953125,10.732109375
15.052203125,16.35283203125,17.7726015625,12.8406796875,15.35030078125,17.3638515625,17.22146484375,15.04326171875,13.213984375,19.57635546875,17.06890625,6.690203125,13.1315,21.4948515625,18.775671875,16.942671875,4.8555,17.816859375,20.08425,16.32612890625,5.3025078125,26.5841796875,8.6453828125,18.0412734375,13.86684765625,4.59184375,13.1471015625,8.1167265625,11.99526953125,11.240109375
12.113203125,13.60583203125,15.2306015625,9.3856796875,11.85130078125,14.0648515625,14.80746484375,10.97726171875,10.851984375,16.43435546875,13.60590625,5.222203125,11.2805,18.3468515625,14.669671875,13.682671875,3.1195,14.451859375,16.70625,12.94012890625,4.0655078125,24.8001796875,5.6393828125,15.2892734375,12.39884765625,3.39284375,10.1591015625,5.9327265625,10.52626953125,11.024109375
9.345203125,10.67683203125,12.1156015625,6.0956796875,8.81930078125,10.5718515625,11.75246484375,7.45926171875,8.638984375,13.45435546875,10.21890625,3.175203125,9.0885,15.2338515625,10.417671875,10.222671875,1.3655,10.871859375,13.50325,9.67912890625,2.6705078125,23.5781796875,2.6753828125,12.4652734375,10.48984765625,2.40784375,6.8171015625,4.1607265625,9.11026953125,10.150109375
7.295203125,8.18283203125,9.1406015625,3.2446796875,6.80930078125,7.5588515625,8.74446484375,5.43126171875,6.976984375,11.21535546875,7.63690625,1.316203125,7.1765,12.7888515625,6.882671875,7.478671875,0.176500000000001,7.673859375,11.06125,7.34812890625,1.6925078125,23.1471796875,0.1103828125,10.2702734375,8.72384765625,2.07684375,3.8211015625,2.9737265625,7.92226953125,8.872109375
6.240203125,6.55283203125,6.9516015625,0.719679687499999,5.98730078125,5.5108515625,6.50446484375,5.13126171875,6.129984375,10.00235546875,6.32190625,0.335203125000001,6.0925,11.3468515625,4.661671875,6.105671875,-0.1335,5.227859375,9.69825,6.43912890625,1.4725078125,23.3621796875,-1.8576171875,9.1282734375,7.53584765625,2.50984375,1.6771015625,2.2677265625,7.02626953125,7.492109375
6.137203125,5.87383203125,5.8526015625,-1.6653203125,6.08730078125,4.5468515625,5.46246484375,6.10526171875,6.079984375,9.68435546875,6.26690625,0.533203125,6.0245,10.8748515625,3.859671875,6.253671875,0.3645,3.616859375,9.37225,6.95612890625,2.0165078125,23.8371796875,-3.1886171875,9.0592734375,7.06284765625,3.44984375,0.5411015625,1.7987265625,6.38226953125,6.231109375
6.644203125,5.89083203125,5.6956015625,-3.8763203125,6.52830078125,4.3808515625,5.52646484375,7.54826171875,6.476984375,9.77235546875,6.99090625,1.704203125,6.6825,11.0638515625,4.075671875,7.530671875,1.3295,2.716859375,9.75425,8.42912890625,3.0375078125,24.1301796875,-3.9396171875,9.7342734375,7.14584765625,4.43784375,0.2381015625,1.3677265625,5.90626953125,5.182109375
7.259203125,6.14183203125,5.9826015625,-5.5843203125,6.65130078125,4.4578515625,6.13146484375,8.75026171875,6.730984375,9.63035546875,7.73590625,3.237203125,7.4315,11.5208515625,4.594671875,9.177671875,2.3505,2.335859375,10.39225,10.08112890625,4.0935078125,23.9031796875,-4.1926171875,10.6452734375,7.42684765625,5.06384375,0.3961015625,0.9307265625,5.53226953125,4.341109375
7.538203125,6.16283203125,6.1406015625,-6.3813203125,5.98930078125,4.2058515625,6.52446484375,9.35626171875,6.277984375,8.74735546875,7.77690625,4.393203125,7.6185,11.9308515625,4.683671875,10.352671875,3.1115,2.326859375,10.87025,11.09312890625,4.7625078125,22.9981796875,-4.0236171875,11.2792734375,7.50184765625,5.17084375,0.6321015625,0.6017265625,5.26426953125,3.679109375
7.251203125,5.65083203125,5.7756015625,-6.1403203125,4.43430078125,3.2768515625,6.13446484375,9.36326171875,4.874984375,6.95735546875,6.70190625,4.600203125,6.8985,12.1178515625,3.844671875,10.422671875,3.4405,2.593859375,10.89225,10.85012890625,4.7775078125,21.4491796875,-3.5226171875,11.2382734375,7.05184765625,4.89384375,0.6731015625,0.5367265625,5.16326953125,3.186109375
6.361203125,4.53483203125,4.7826015625,-5.2463203125,2.24330078125,1.6398515625,4.77046484375,8.89926171875,2.733984375,4.48035546875,4.52690625,3.625203125,5.3915,11.9908515625,1.904671875,9.134671875,3.2905,3.011859375,10.28825,9.09212890625,4.0975078125,19.4481796875,-2.8316171875,10.2952734375,5.92784765625,4.54384375,0.3871015625,0.7997265625,5.28326953125,2.860109375
4.928203125,2.92583203125,3.2796015625,-4.4703203125,-0.12169921875,-0.493148437499999,2.58246484375,8.03326171875,0.390984375,1.76435546875,1.60390625,1.602203125,3.5755,11.4568515625,-1.038328125,6.620671875,2.7155,3.331859375,8.97025,5.93212890625,2.8825078125,17.2641796875,-2.1796171875,8.3962734375,4.16384765625,4.42184375,-0.2708984375,1.2657265625,5.58926953125,2.662109375
3.070203125,1.00183203125,1.4646015625,-4.5543203125,-2.21869921875,-2.8511484375,-0.155535156250002,6.73326171875,-1.602015625,-0.764644531250001,-1.62309375,-1.089796875,2.0175,10.4008515625,-4.743328125,3.258671875,1.8635,3.189859375,6.89925,1.77112890625,1.4205078125,15.1541796875,-1.8546171875,5.6442734375,1.93184765625,4.65584375,-1.3258984375,1.6277265625,5.89626953125,2.464109375
0.973203125,-1.07716796875,-0.488398437500001,-5.7843203125,-3.79769921875,-5.2421484375,-3.20653515625,5.00326171875,-2.966015625,-2.89664453125,-4.83609375,-3.971796875,1.1305,8.7488515625,-8.932328125,-0.505328125000002,0.945500000000001,2.243859375,4.10925,-2.82987109375,0.0125078125,13.2681796875,-2.1076171875,2.2932734375,-0.53715234375,5.12984375,-2.7798984375,1.5247265625,5.91426953125,2.060109375
-1.108796875,-3.15416796875,-2.4403984375,-7.8253203125,-4.80169921875,-7.5611484375,-6.36453515625,3.03226171875,-3.764015625,-4.62664453125,-7.90109375,-6.567796875,1.0705,6.6008515625,-13.302328125,-4.256328125,0.173500000000001,0.377859375,0.81025,-7.24887109375,-1.1254921875,11.6301796875,-3.0176171875,-1.2377265625,-2.98115234375,5.55184375,-4.5478984375,0.7257265625,5.39226953125,1.256109375
-2.863796875,-4.99516796875,-4.2063984375,-9.8713203125,-5.22669921875,-9.6581484375,-9.30153515625,1.23526171875,-4.211015625,-5.97764453125,-10.72109375,-8.459796875,1.7735,4.3468515625,-17.446328125,-7.608328125,-0.320499999999999,-2.137140625,-2.51375,-10.85487109375,-1.9034921875,10.1891796875,-4.3876171875,-4.3807265625,-5.10815234375,5.59884375,-6.3698984375,-0.730273437499999,4.28026953125,0.00410937500000053
-3.902796875,-6.23216796875,-5.4943984375,-10.9953203125,-4.95669921875,-11.1921484375,-11.46453515625,0.139261718749996,-4.405015625,-6.79764453125,-13.03809375,-9.309796875,3.0585,2.6638515625,-20.777328125,-10.168328125,-0.531499999999999,-4.648140625,-5.14275,-13.07287109375,-2.3454921875,8.9081796875,-5.7566171875,-6.5187265625,-6.60715234375,5.06284375,-7.8278984375,-2.5402734375,2.77126953125,-1.521890625
-3.791796875,-6.44516796875,-5.9573984375,-10.5483203125,-3.74369921875,-11.6521484375,-12.20253515625,0.151261718749996,-4.180015625,-6.71264453125,-14.37509375,-8.911796875,4.7175,2.3258515625,-22.575328125,-11.556328125,-0.555499999999999,-6.336140625,-6.31975,-13.49287109375,-2.5384921875,7.8211796875,-6.5626171875,-7.1667265625,-7.21515234375,3.90284375,-8.4998984375,-4.3012734375,1.20026953125,-2.980890625
-2.255796875,-5.34416796875,-5.3523984375,-8.4693203125,-1.36869921875,-10.5601484375,-11.07253515625,1.35226171875,-3.217015625,-5.28464453125,-14.18109375,-7.237796875,6.5605,3.8638515625,-22.212328125,-11.505328125,-0.520499999999999,-6.569140625,-5.56475,-12.01487109375,-2.6004921875,7.0111796875,-6.3936171875,-6.1587265625,-6.81915234375,2.21784375,-8.1658984375,-5.6942734375,-0.13173046875,-4.011890625
0.589203125,-2.96516796875,-3.7003984375,-5.3593203125,2.11330078125,-7.7621484375,-8.10553515625,3.41726171875,-1.319015625,-2.28664453125,-12.12009375,-4.463796875,8.4425,7.2558515625,-19.464328125,-9.974328125,-0.5295,-5.220140625,-2.92075,-8.93387109375,-2.6514921875,6.5401796875,-5.1816171875,-3.7447265625,-5.53615234375,0.17484375,-6.9478984375,-6.6022734375,-1.08373046875,-4.377890625
4.168203125,0.275832031249999,-1.3213984375,-2.2543203125,6.25130078125,-3.6021484375,-3.84953515625,5.71926171875,1.363984375,2.08135546875,-8.30909375,-0.950796874999999,10.2475,11.8478515625,-14.707328125,-7.199328125,-0.6495,-2.757140625,1.00225,-4.90287109375,-2.7924921875,6.3871796875,-3.2496171875,-0.539726562500001,-3.69215234375,-2.05415625,-5.2858984375,-7.0912734375,-1.68273046875,-4.040890625
7.680203125,3.69483203125,1.2826015625,-0.1493203125,10.29930078125,1.1468515625,0.829464843749999,7.55926171875,4.301984375,7.15335546875,-3.38509375,2.808203125,11.8425,16.5578515625,-8.887328125,-3.642328125,-0.906499999999999,-0.0561406249999994,5.21625,-0.74387109375,-3.0704921875,6.4541796875,-1.1576171875,2.6772734375,-1.71915234375,-4.28915625,-3.7538984375,-7.3102734375,-2.02673046875,-3.131890625
10.404203125,6.58783203125,3.6076015625,0.482679687499999,13.46730078125,5.5328515625,5.05546484375,8.38626171875,6.753984375,11.98335546875,1.66990625,6.266203125,13.0425,20.2688515625,-3.263328125,0.152671874999998,-1.2725,1.994859375,8.71625,2.80912890625,-3.4164921875,6.6381796875,0.5673828125,5.2252734375,0.0168476562499995,-6.29415625,-2.7888984375,-7.3532734375,-2.16173046875,-1.846890625
11.915203125,8.47383203125,5.2886015625,-0.0883203125000005,15.18330078125,8.7238515625,8.20446484375,7.97226171875,8.049984375,15.62635546875,5.82990625,8.910203125,13.6405,22.2078515625,0.948671874999999,3.709671875,-1.6315,2.881859375,10.83125,5.32212890625,-3.6194921875,6.9181796875,1.6433828125,6.7452734375,1.33484765625,-7.75015625,-2.4868984375,-7.1722734375,-2.02173046875,-0.358890624999999
12.123203125,9.21183203125,6.1476015625,-1.0473203125,15.22530078125,10.2058515625,9.99246484375,6.50826171875,7.847984375,17.41535546875,8.32190625,10.344203125,13.4965,22.1488515625,2.887671875,6.687671875,-1.8085,2.657859375,11.37625,6.69912890625,-3.3984921875,7.3831796875,2.0963828125,7.2352734375,2.23784765625,-8.32115625,-2.5778984375,-6.5972734375,-1.47873046875,1.209109375
11.216203125,8.92283203125,6.1606015625,-1.5243203125,13.68230078125,9.8478515625,10.40746484375,4.56626171875,6.243984375,17.09535546875,8.76490625,10.365203125,12.6105,20.3868515625,2.214671875,8.824671875,-1.6505,1.822859375,10.57525,7.05612890625,-2.5774921875,8.1701796875,2.1293828125,6.9172734375,2.77984765625,-7.82115625,-2.6218984375,-5.4832734375,-0.49573046875,2.713109375
9.505203125,7.81383203125,5.3716015625,-1.1323203125,10.83030078125,7.8268515625,9.55446484375,2.89826171875,3.683984375,14.81435546875,7.14890625,9.012203125,11.1315,17.4958515625,-0.899328125,9.850671875,-1.1295,0.994859375,8.83825,6.51612890625,-1.2584921875,9.3461796875,1.9413828125,6.0332734375,2.92884765625,-6.36715625,-2.2858984375,-3.8812734375,0.75326953125,3.925109375
7.246203125,6.03283203125,3.8376015625,-0.238320312499999,7.00330078125,4.4988515625,7.52246484375,2.11226171875,0.758984375,11.02835546875,3.72290625,6.566203125,9.3255,14.0718515625,-5.897328125,9.478671875,-0.384499999999999,0.578859375,6.57725,5.10712890625,0.1495078125,10.8451796875,1.6293828125,4.7372734375,2.54584765625,-4.38115625,-1.5258984375,-2.0852734375,1.90326953125,4.581109375
4.563203125,3.63583203125,1.6356015625,0.229679687500001,2.54430078125,0.283851562500001,4.35846484375,2.41326171875,-2.004015625,6.37635546875,-1.08309375,3.468203125,7.5095,10.5818515625,-11.959328125,7.521671875,0.3235,0.625859375000001,4.15525,2.83512890625,1.1065078125,12.4931796875,1.2423828125,3.1372734375,1.50484765625,-2.42915625,-0.562898437499999,-0.5112734375,2.59326953125,4.524109375
1.565203125,0.697832031249999,-1.0703984375,-0.652320312500001,-2.17669921875,-4.3811484375,0.182464843749999,3.55726171875,-4.264015625,1.56835546875,-6.66509375,0.205203125000001,5.9585,7.3758515625,-18.113328125,4.086671875,0.737500000000001,0.941859375,1.92525,-0.13087109375,1.2385078125,14.0951796875,0.9203828125,1.4192734375,-0.12315234375,-0.96615625,0.3061015625,0.544726562499999,2.69426953125,3.864109375
-1.496796875,-2.56416796875,-3.9663984375,-3.2173203125,-6.74769921875,-9.0361484375,-4.63053515625,5.01426171875,-5.911015625,-2.71964453125,-12.23309375,-2.780796875,4.8235,4.7288515625,-23.352328125,-0.285328125000001,0.7225,1.297859375,0.25825,-3.32587109375,0.5645078125,15.4921796875,0.9583828125,-0.0697265625000014,-1.97415234375,-0.16615625,0.9311015625,1.0917265625,2.42926953125,2.992109375
-4.235796875,-5.73416796875,-6.5963984375,-6.9943203125,-10.75069921875,-13.1941484375,-9.35953515625,6.22726171875,-7.037015625,-5.96464453125,-16.88309375,-5.103796875,4.0995,2.8368515625,-26.835328125,-4.642328125,0.3405,1.573859375,-0.49875,-6.02887109375,-0.4854921875,16.5531796875,1.7013828125,-0.852726562500001,-3.44915234375,0.10584375,1.4161015625,1.4487265625,2.28226953125,2.441109375
-6.280796875,-8.26416796875,-8.4533984375,-10.9563203125,-13.82869921875,-16.3721484375,-13.03753515625,6.86426171875,-7.830015625,-7.87264453125,-19.77509375,-6.422796875,3.6965,1.7568515625,-28.090328125,-7.849328125,-0.145499999999999,1.765859375,-0.14075,-7.49387109375,-1.2654921875,17.1371796875,3.3073828125,-0.497726562500001,-3.92315234375,0.16584375,2.0541015625,2.0307265625,2.74926953125,2.656109375
-7.389796875,-9.64316796875,-9.1103984375,-14.0263203125,-15.73669921875,-18.1651484375,-14.76253515625,6.93126171875,-8.444015625,-8.40164453125,-20.37109375,-6.444796875,3.5295,1.3908515625,-27.129328125,-8.962328125,-0.328499999999999,1.908859375,1.28225,-7.23387109375,-1.2214921875,17.0721796875,5.5683828125,1.1632734375,-3.01815234375,0.31084375,3.1321015625,3.0447265625,4.05926953125,3.789109375
-7.463796875,-9.57116796875,-8.3493984375,-15.4763203125,-16.36669921875,-18.3361484375,-14.02853515625,6.69726171875,-8.929015625,-7.74064453125,-18.61009375,-5.000796875,3.5505,1.5228515625,-24.406328125,-7.584328125,0.221500000000001,2.001859375,3.41825,-5.23487109375,-0.1364921875,16.1911796875,7.9013828125,3.8622734375,-0.80315234375,0.65684375,4.7131015625,4.2887265625,6.00726953125,5.598109375
-6.551796875,-8.08716796875,-6.2743984375,-15.0963203125,-15.78269921875,-16.9201484375,-10.93153515625,6.46526171875,-9.302015625,-6.25064453125,-14.94809375,-2.153796875,3.6935,1.8798515625,-20.690328125,-4.045328125,1.7875,1.962859375,5.66525,-2.00187109375,1.7855078125,14.4071796875,9.5503828125,6.9112734375,2.18384765625,1.08584375,6.5151015625,5.1987265625,7.98226953125,7.498109375
-4.904796875,-5.58916796875,-3.3543984375,-13.1643203125,-14.26069921875,-14.2851484375,-6.15253515625,6.40426171875,-9.636015625,-4.41564453125,-10.26009375,1.728203125,3.8295,2.1728515625,-16.904328125,0.695671874999999,4.3095,1.657859375,7.32025,1.58912890625,4.0065078125,11.7951796875,9.8943828125,9.3992734375,5.09984765625,1.32084375,7.9761015625,5.1347265625,9.20226953125,8.763109375
-2.987796875,-2.74916796875,-0.333398437500001,-10.3713203125,-12.28669921875,-11.0831484375,-0.767535156250002,6.57826171875,-10.051015625,-2.77164453125,-5.60709375,6.013203125,3.8155,2.1528515625,-13.933328125,5.380671875,7.2985,0.967859375000001,7.79925,4.58312890625,5.8755078125,8.6331796875,8.6963828125,10.5272734375,7.10484765625,1.07384375,8.4891015625,3.7227265625,9.05526953125,8.829109375
-1.382796875,-0.336167968750001,1.9726015625,-7.7103203125,-10.46069921875,-8.0851484375,4.04746484375,7.09926171875,-10.623015625,-1.78964453125,-1.95409375,9.956203125,3.5785,1.6728515625,-12.405328125,8.880671875,9.9735,-0.135140625,6.83725,6.27112890625,6.8685078125,5.3691796875,6.2033828125,9.9132734375,7.69284765625,0.21984375,7.7081015625,1.0607265625,7.39026953125,7.585109375
-0.610796875,1.01283203125,2.9486015625,-6.2613203125,-9.34069921875,-5.9541484375,7.32746484375,8.14426171875,-11.331015625,-1.73964453125,0.0989062499999989,12.943203125,3.1455,0.7168515625,-12.505328125,10.567671875,11.6035,-1.567140625,4.60925,6.42912890625,6.7875078125,2.4871796875,3.0423828125,7.7542734375,6.88584765625,-1.09815625,5.7441015625,-2.3122734375,4.60226953125,5.466109375
-0.994796875,1.00683203125,2.4026015625,-6.8463203125,-9.25769921875,-5.0541484375,8.59346484375,9.75726171875,-12.107015625,-2.59264453125,0.474906249999999,14.662203125,2.5935,-0.6061484375,-13.906328125,10.462671875,11.8705,-3.164140625,1.69325,5.37312890625,5.8145078125,0.368179687500001,-0.0166171875000005,4.7372734375,5.21884765625,-2.49415625,3.1461015625,-5.6302734375,1.46726953125,3.294109375
-2.539796875,-0.20416796875,0.6386015625,-9.6613203125,-10.21169921875,-5.3711484375,7.96846484375,11.63626171875,-12.894015625,-4.03864453125,-0.402093750000001,15.128203125,1.9905,-2.1111484375,-15.869328125,9.118671875,10.9975,-4.714140625,-1.13275,3.78512890625,4.4185078125,-0.8058203125,-2.3336171875,1.7632734375,3.47084765625,-3.50115625,0.6651015625,-8.1692734375,-1.17173046875,1.922109375
-4.874796875,-2.11216796875,-1.6593984375,-14.1013203125,-11.88069921875,-6.5731484375,6.07446484375,13.19226171875,-13.657015625,-5.62664453125,-1.83509375,14.536203125,1.4035,-3.5891484375,-17.516328125,7.292671875,9.5675,-5.990140625,-3.18675,2.39312890625,3.1405078125,-1.0538203125,-3.5996171875,-0.427726562500001,2.30584765625,-3.80115625,-1.0748984375,-9.4722734375,-2.70973046875,1.887109375
-7.374796875,-4.10816796875,-3.7553984375,-18.9373203125,-13.77669921875,-8.2161484375,3.68146484375,13.83526171875,-14.358015625,-6.99164453125,-3.20209375,13.082203125,0.9585,-4.8981484375,-18.192328125,5.562671875,8.1725,-6.816140625,-4.16075,1.61512890625,2.3445078125,-0.543820312499999,-3.9006171875,-1.5407265625,1.96384765625,-3.38815625,-1.8218984375,-9.4602734375,-2.94973046875,3.214109375
-9.455796875,-5.77116796875,-5.2203984375,-22.8153203125,-15.49669921875,-9.9841484375,1.30846484375,13.27026171875,-14.959015625,-8.03764453125,-4.25909375,10.877203125,0.8525,-6.0441484375,-17.793328125,4.083671875,7.1075,-7.148140625,-4.24075,1.36612890625,2.0545078125,0.4551796875,-3.6426171875,-1.8207265625,2.18484765625,-2.57715625,-1.7568984375,-8.4112734375,-2.11373046875,5.431109375
-10.877796875,-7.05216796875,-6.1343984375,-24.8223203125,-16.91469921875,-11.8451484375,-1.00553515625,11.57626171875,-15.440015625,-8.99464453125,-5.23809375,7.994203125,1.2505,-7.2161484375,-16.846328125,2.578671875,6.2625,-7.137140625,-4.02475,1.11312890625,1.9505078125,1.6161796875,-3.3906171875,-1.9017265625,2.35184765625,-1.89015625,-1.3658984375,-6.8282734375,-0.70773046875,7.758109375
-11.799796875,-8.24416796875,-6.9883984375,-24.7963203125,-18.20869921875,-14.0241484375,-3.59553515625,9.09626171875,-15.843015625,-10.31664453125,-6.68209375,4.535203125,2.1095,-8.7071484375,-16.293328125,0.556671874999997,5.2235,-7.093140625,-4.27075,0.16612890625,1.5385078125,2.6031796875,-3.6776171875,-2.5187265625,1.79284765625,-1.86415625,-1.2128984375,-5.2622734375,0.67026953125,9.390109375
-12.593796875,-9.76316796875,-8.3403984375,-23.2543203125,-19.69469921875,-16.8061484375,-6.82653515625,6.25526171875,-16.265015625,-12.45664453125,-9.09809375,0.671203125,3.0835,-10.7441484375,-17.061328125,-2.355328125,3.5285,-7.353140625,-5.59075,-1.96287109375,0.4075078125,3.1531796875,-4.8386171875,-4.1947265625,0.0778476562500003,-2.85715625,-1.7238984375,-4.1562734375,1.50826953125,9.762109375
-13.580796875,-11.85916796875,-10.4503984375,-21.0803203125,-21.56069921875,-20.2841484375,-10.73053515625,3.40626171875,-16.820015625,-15.59964453125,-12.63109375,-3.335796875,3.6565,-13.3391484375,-19.648328125,-6.131328125,0.944500000000001,-8.127140625,-8.19275,-5.29787109375,-1.5454921875,3.1641796875,-6.8996171875,-7.0397265625,-2.79415234375,-4.92215625,-3.0558984375,-3.7582734375,1.49626953125,8.706109375
-14.835796875,-14.40716796875,-13.0913984375,-19.1733203125,-23.66669921875,-24.1891484375,-14.83353515625,0.779261718749996,-17.556015625,-19.48164453125,-16.90709375,-7.078796875,3.4325,-16.2111484375,-23.876328125,-10.252328125,-2.3345,-9.389140625,-11.77175,-9.33987109375,-4.0244921875,2.7381796875,-9.5586171875,-10.7067265625,-6.37615234375,-7.77215625,-5.0598984375,-4.1052734375,0.56926953125,6.448109375
-16.119796875,-16.90916796875,-15.6183984375,-18.1643203125,-25.52969921875,-27.8911484375,-18.29953515625,-1.46973828125,-18.368015625,-23.38864453125,-21.11809375,-10.010796875,2.3905,-18.8321484375,-28.896328125,-13.855328125,-5.6775,-10.862140625,-15.59475,-13.23887109375,-6.4274921875,2.1341796875,-12.2756171875,-14.5277265625,-9.93815234375,-10.86615625,-7.3608984375,-5.0772734375,-1.12173046875,3.488109375
-16.939796875,-18.70016796875,-17.2733984375,-18.2633203125,-26.53469921875,-30.6001484375,-20.30753515625,-3.20073828125,-18.992015625,-26.38764453125,-24.31609375,-11.565796875,0.9225,-20.5901484375,-33.441328125,-16.076328125,-8.2085,-12.124140625,-18.76775,-16.11387109375,-8.1034921875,1.6081796875,-14.4646171875,-17.7587265625,-12.74815234375,-13.60515625,-9.4958984375,-6.4802734375,-3.26973046875,0.403109375000001
-16.777796875,-19.25116796875,-17.5483984375,-19.2473203125,-26.22769921875,-31.6661484375,-20.43653515625,-4.31573828125,-19.118015625,-27.70064453125,-25.77009375,-11.403796875,-0.3395,-21.0261484375,-36.270328125,-16.420328125,-9.1565,-12.806140625,-20.57275,-17.37787109375,-8.6574921875,1.2621796875,-15.7246171875,-19.8577265625,-14.34515234375,-15.55415625,-11.0828984375,-8.1222734375,-5.50173046875,-2.322890625
-15.370796875,-18.39716796875,-16.3993984375,-20.5543203125,-24.54769921875,-30.8631484375,-18.84453515625,-4.84573828125,-18.552015625,-27.03864453125,-25.21709375,-9.622796875,-0.789499999999999,-20.0331484375,-36.603328125,-14.963328125,-8.2105,-12.759140625,-20.71975,-16.92787109375,-8.1434921875,0.988179687500001,-15.9796171875,-20.6547265625,-14.69715234375,-16.60315625,-11.9308984375,-9.8322734375,-7.46073046875,-4.413890625
-12.821796875,-16.38416796875,-14.1873984375,-21.4593203125,-21.85269921875,-28.4781484375,-16.13553515625,-4.97873828125,-17.320015625,-24.70964453125,-22.92409375,-6.775796875,-0.108499999999999,-17.8791484375,-34.369328125,-12.308328125,-5.7135,-12.078140625,-19.39575,-15.11787109375,-7.0314921875,0.5911796875,-15.4636171875,-20.3517265625,-14.13415234375,-16.94915625,-12.0388984375,-11.4472734375,-8.87373046875,-5.812890625
-9.515796875,-13.74616796875,-11.4533984375,-21.2973203125,-18.76269921875,-25.1901484375,-13.06453515625,-4.95273828125,-15.668015625,-21.47264453125,-19.55409375,-3.672796875,1.6085,-15.0861484375,-30.174328125,-9.319328125,-2.5565,-11.005140625,-17.12575,-12.54887109375,-5.9554921875,-0.00682031249999948,-14.5606171875,-19.3517265625,-13.13715234375,-16.92215625,-11.4988984375,-12.7772734375,-9.56473046875,-6.593890625
-5.983796875,-11.11016796875,-8.7133984375,-19.7473203125,-15.93169921875,-21.8311484375,-10.27553515625,-4.88673828125,-13.978015625,-18.22364453125,-15.96509375,-1.077796875,3.8865,-12.2351484375,-25.061328125,-6.805328125,0.1885,-9.796140625,-14.53875,-9.81787109375,-5.3984921875,-0.643820312499999,-13.6106171875,-18.0387265625,-12.08515234375,-16.76315625,-10.3798984375,-13.6322734375,-9.45673046875,-6.843890625
-2.835796875,-9.02816796875,-6.3983984375,-17.0483203125,-13.84469921875,-19.1551484375,-8.21853515625,-4.69873828125,-12.657015625,-15.68664453125,-12.99809375,0.499203125000001,6.0695,-9.8331484375,-20.201328125,-5.289328125,1.7075,-8.681140625,-12.16775,-7.35187109375,-5.4934921875,-0.995820312499999,-12.7976171875,-16.6317265625,-11.11215234375,-16.49615625,-8.6868984375,-13.8832734375,-8.58773046875,-6.608890625
-0.663796875,-7.86416796875,-4.8493984375,-13.9823203125,-12.69969921875,-17.6691484375,-7.15253515625,-4.16373828125,-12.001015625,-14.22864453125,-11.29509375,0.863203125,7.5775,-8.2081484375,-16.569328125,-4.913328125,1.7335,-7.856140625,-10.33375,-5.35487109375,-6.0294921875,-0.793820312499999,-12.1296171875,-15.1727265625,-10.12715234375,-15.95615625,-6.4108984375,-13.5102734375,-7.12373046875,-5.904890625
0.159203125,-7.71316796875,-4.2733984375,-11.5623203125,-12.38769921875,-17.5201484375,-7.14253515625,-3.07573828125,-12.082015625,-13.80064453125,-11.11309375,0.100203125,8.0905,-7.4321484375,-14.655328125,-5.466328125,0.580500000000001,-7.447140625,-9.10975,-3.83287109375,-6.5974921875,-0.00782031249999982,-11.4836171875,-13.5937265625,-8.93415234375,-14.92815625,-3.6158984375,-12.5872734375,-5.32773046875,-4.764890625
-0.317796875,-8.38616796875,-4.6453984375,-10.5563203125,-12.58269921875,-18.4631484375,-8.00853515625,-1.42373828125,-12.721015625,-14.01864453125,-12.21109375,-1.466796875,7.5985,-7.2901484375,-14.316328125,-6.483328125,-1.0555,-7.449140625,-8.34075,-2.64087109375,-6.7894921875,1.1211796875,-10.6616171875,-11.8007265625,-7.37715234375,-13.29115625,-0.4768984375,-11.2312734375,-3.47273046875,-3.254890625
-1.623796875,-9.45416796875,-5.6553984375,-11.1233203125,-12.92069921875,-19.9301484375,-9.29453515625,0.528261718749999,-13.580015625,-14.33064453125,-13.89609375,-3.326796875,6.3425,-7.3581484375,-14.862328125,-7.391328125,-2.4295,-7.706140625,-7.71775,-1.54887109375,-6.3564921875,2.2041796875,-9.4826171875,-9.7437265625,-5.41915234375,-11.11215625,2.7371015625,-9.5592734375,-1.75173046875,-1.466890625
-3.064796875,-10.39616796875,-6.7823984375,-12.7663203125,-13.15269921875,-21.2291484375,-10.37153515625,2.26526171875,-14.314015625,-14.22964453125,-15.26709375,-4.882796875,4.6935,-7.1921484375,-15.373328125,-7.706328125,-3.0495,-7.983140625,-6.90375,-0.33787109375,-5.2844921875,2.8861796875,-7.8896171875,-7.4637265625,-3.17615234375,-8.66315625,5.7191015625,-7.7092734375,-0.25073046875,0.472109375
-3.997796875,-10.79316796875,-7.4963984375,-14.6363203125,-13.21069921875,-21.7911484375,-10.65453515625,3.16826171875,-14.710015625,-13.45464453125,-15.58909375,-5.654796875,3.0405,-6.5261484375,-15.108328125,-7.217328125,-2.8405,-8.101140625,-5.70575,1.08812890625,-3.7964921875,2.9841796875,-6.0366171875,-5.1257265625,-0.89515234375,-6.36015625,8.1611015625,-5.8762734375,1.00126953125,2.375109375
-4.048796875,-10.50016796875,-7.4993984375,-15.9753203125,-13.14869921875,-21.3891484375,-9.87253515625,2.74126171875,-14.733015625,-12.09964453125,-14.60409375,-5.515796875,1.6995,-5.3921484375,-13.817328125,-6.071328125,-2.0915,-8.052140625,-4.18775,2.63612890625,-2.2624921875,2.5141796875,-4.2696171875,-2.9957265625,1.11084765625,-4.63415625,9.8181015625,-4.3282734375,1.98026953125,4.006109375
-3.236796875,-9.67816796875,-6.8603984375,-16.4243203125,-13.04769921875,-20.2051484375,-8.20553515625,0.891261718749998,-14.458015625,-10.57164453125,-12.62209375,-4.778796875,0.8585,-4.0771484375,-11.818328125,-4.676328125,-1.2245,-8.020140625,-2.65675,4.06812890625,-1.0484921875,1.6401796875,-2.9796171875,-1.3487265625,2.58584765625,-3.76315625,10.5861015625,-3.3512734375,2.65526953125,5.161109375
-1.929796875,-8.68116796875,-5.9503984375,-16.0183203125,-12.93069921875,-18.7101484375,-6.21653515625,-1.84373828125,-13.944015625,-9.40764453125,-10.32909375,-4.030796875,0.5475,-2.9481484375,-9.791328125,-3.473328125,-0.539499999999999,-8.268140625,-1.49275,5.14712890625,-0.3554921875,0.5691796875,-2.4196171875,-0.338726562500001,3.44484765625,-3.74915625,10.5871015625,-3.1282734375,3.04026953125,5.779109375
-0.611796875,-7.84816796875,-5.1973984375,-14.9603203125,-12.73569921875,-17.4071484375,-4.56753515625,-4.30273828125,-13.147015625,-9.02064453125,-8.43209375,-3.753796875,0.6355,-2.2201484375,-8.411328125,-2.699328125,-0.0844999999999994,-8.956140625,-0.95075,5.78712890625,-0.145492187499999,-0.514820312499999,-2.5856171875,0.0812734374999993,3.83484765625,-4.31515625,10.1611015625,-3.6322734375,3.22926953125,6.004109375
0.383203125,-7.35416796875,-4.8243984375,-13.4603203125,-12.34169921875,-16.5811484375,-3.70853515625,-5.15073828125,-11.960015625,-9.52664453125,-7.33409375,-4.018796875,0.8725,-1.8521484375,-8.010328125,-2.303328125,0.2835,-10.010140625,-1.04275,6.10612890625,-0.1994921875,-1.4968203125,-3.2476171875,0.133273437499999,4.05484765625,-5.03915625,9.7531015625,-4.5842734375,3.37726953125,6.140109375
0.966203125,-7.17016796875,-4.7583984375,-11.7613203125,-11.63369921875,-16.2031484375,-3.67553515625,-3.61373828125,-10.357015625,-10.72164453125,-7.02009375,-4.451796875,0.9865,-1.6161484375,-8.451328125,-2.032328125,0.7205,-11.155140625,-1.57975,6.33212890625,-0.2744921875,-2.3498203125,-4.0966171875,0.0842734374999994,4.39784765625,-5.55915625,9.7021015625,-5.5432734375,3.61126953125,6.510109375
1.177203125,-7.14616796875,-4.7433984375,-10.2213203125,-10.57769921875,-16.0241484375,-4.13053515625,-0.0567382812500021,-8.547015625,-12.20364453125,-7.15009375,-4.515796875,0.8025,-1.3101484375,-9.253328125,-1.629328125,1.2445,-12.087140625,-2.30275,6.63812890625,-0.2664921875,-3.1218203125,-4.9086171875,0.0842734374999994,4.98884765625,-5.71715625,10.0621015625,-6.0862734375,3.94026953125,7.295109375
1.045203125,-7.11216796875,-4.5453984375,-9.2433203125,-9.26169921875,-15.7431484375,-4.57353515625,4.11526171875,-6.954015625,-13.52164453125,-7.29309375,-3.873796875,0.319500000000001,-0.9151484375,-9.835328125,-0.999328125000002,1.6965,-12.666140625,-3.02975,7.02112890625,-0.2614921875,-3.9158203125,-5.6326171875,0.075273437499999,5.71984765625,-5.55715625,10.5671015625,-6.0062734375,4.21426953125,8.440109375
0.562203125,-6.97316796875,-4.1083984375,-9.0263203125,-7.86669921875,-15.1691484375,-4.63053515625,7.21426171875,-6.020015625,-14.30864453125,-7.14509375,-2.604796875,-0.3185,-0.5911484375,-9.763328125,-0.258328125000002,1.8215,-12.982140625,-3.70375,7.29912890625,-0.4614921875,-4.8368203125,-6.3446171875,-0.164726562500001,6.31584765625,-5.21315625,10.7621015625,-5.4112734375,4.19126953125,9.666109375
-0.259796875,-6.74316796875,-3.5893984375,-9.3833203125,-6.61069921875,-14.3041484375,-4.26353515625,8.16326171875,-5.970015625,-14.36064453125,-6.67409375,-1.179796875,-0.9335,-0.5561484375,-8.905328125,0.321671874999998,1.4115,-13.270140625,-4.35375,7.20912890625,-1.0484921875,-5.9418203125,-7.1296171875,-0.874726562500001,6.49484765625,-4.78015625,10.2591015625,-4.6652734375,3.65526953125,10.589109375
-1.375796875,-6.53016796875,-3.2743984375,-9.8173203125,-5.69469921875,-13.3651484375,-3.77853515625,6.97926171875,-6.724015625,-13.69964453125,-6.14009375,-0.255796875,-1.4195,-0.9371484375,-7.487328125,0.442671874999998,0.4355,-13.741140625,-5.02275,6.55312890625,-2.0774921875,-7.1648203125,-7.9646171875,-2.1477265625,6.10984765625,-4.26815625,8.9581015625,-4.1822734375,2.56026953125,10.867109375
-2.700796875,-6.49216796875,-3.4343984375,-9.8523203125,-5.27369921875,-12.7181484375,-3.64553515625,4.61926171875,-7.984015625,-12.59364453125,-5.98809375,-0.414796874999999,-1.7595,-1.7101484375,-6.030328125,-0.105328125000002,-0.911499999999999,-14.425140625,-5.72375,5.28812890625,-3.4394921875,-8.2878203125,-8.6906171875,-3.8607265625,5.20284765625,-3.64915625,7.1051015625,-4.2112734375,1.07426953125,10.337109375
-4.079796875,-6.77816796875,-4.1823984375,-9.3553203125,-5.42769921875,-12.7371484375,-4.22353515625,2.38426171875,-9.410015625,-11.51164453125,-6.65909375,-1.928796875,-1.9905,-2.7281484375,-5.176328125,-1.369328125,-2.2815,-15.142140625,-6.47375,3.52312890625,-4.8914921875,-8.9768203125,-9.0936171875,-5.7607265625,3.93084765625,-2.93715625,5.1321015625,-4.7472734375,-0.48573046875,9.068109375
-5.275796875,-7.45716796875,-5.3913984375,-8.5953203125,-6.14469921875,-13.6461484375,-5.55853515625,1.21226171875,-10.745015625,-10.98464453125,-8.38909375,-4.596796875,-2.1525,-3.8101484375,-5.468328125,-3.215328125,-3.3035,-15.603140625,-7.33875,1.42312890625,-6.1444921875,-8.9138203125,-9.0526171875,-7.6257265625,2.44984765625,-2.25115625,3.4141015625,-5.6112734375,-1.81873046875,7.309109375
-6.041796875,-8.45516796875,-6.7243984375,-8.0073203125,-7.29269921875,-15.3971484375,-7.33853515625,1.22526171875,-11.837015625,-11.39464453125,-11.08309375,-7.724796875,-2.2445,-4.8321484375,-7.154328125,-5.349328125,-3.7295,-15.584140625,-8.42375,-0.88487109375,-6.9804921875,-7.9358203125,-8.6386171875,-9.3887265625,0.82484765625,-1.80715625,2.0761015625,-6.5742734375,-2.78873046875,5.365109375
-6.229796875,-9.53716796875,-7.7433984375,-7.8723203125,-8.59969921875,-17.6471484375,-9.02453515625,1.75726171875,-12.592015625,-12.79864453125,-14.30709375,-10.307796875,-2.1935,-5.7521484375,-10.064328125,-7.388328125,-3.4965,-15.038140625,-9.80275,-3.33587109375,-7.3194921875,-6.0998203125,-8.1106171875,-11.1257265625,-0.96815234375,-1.85715625,0.9761015625,-7.4602734375,-3.46173046875,3.475109375
-5.814796875,-10.36516796875,-8.0643984375,-8.1133203125,-9.68269921875,-19.8281484375,-10.07153515625,1.84826171875,-12.919015625,-14.85664453125,-17.40009375,-11.382796875,-1.8665,-6.5381484375,-13.599328125,-8.975328125,-2.7235,-14.081140625,-11.42575,-5.85687109375,-7.2454921875,-3.6528203125,-7.7786171875,-12.9417265625,-2.96515234375,-2.58715625,-0.1598984375,-8.1822734375,-4.03673046875,1.749109375
-4.818796875,-10.59616796875,-7.4883984375,-8.3353203125,-10.11269921875,-21.3021484375,-10.12053515625,0.864261718749997,-12.699015625,-16.91064453125,-19.64209375,-10.423796875,-1.1305,-7.0871484375,-16.856328125,-9.858328125,-1.6425,-12.879140625,-13.06075,-8.25587109375,-6.9394921875,-0.9538203125,-7.8296171875,-14.8257265625,-5.11115234375,-4.03115625,-1.5398984375,-8.7342734375,-4.71773046875,0.197109375000001
-3.259796875,-9.99916796875,-6.0663984375,-8.0243203125,-9.54169921875,-21.5561484375,-9.08753515625,-1.15473828125,-11.796015625,-18.19064453125,-20.44709375,-7.575796875,0.0695000000000006,-7.2041484375,-18.884328125,-9.921328125,-0.4985,-11.547140625,-14.32175,-10.18087109375,-6.5844921875,1.6121796875,-8.2106171875,-16.5697265625,-7.18815234375,-6.03315625,-3.1598984375,-9.1662734375,-5.61073046875,-1.200890625
-1.168796875,-8.51316796875,-4.0663984375,-6.8043203125,-7.82969921875,-20.3601484375,-7.12653515625,-3.57773828125,-10.112015625,-18.07364453125,-19.52009375,-3.616796875,1.6565,-6.6731484375,-18.985328125,-9.145328125,0.5505,-10.125140625,-14.76975,-11.17787109375,-6.2824921875,3.6891796875,-8.6436171875,-17.8077265625,-8.83815234375,-8.29815625,-4.7938984375,-9.5492734375,-6.68973046875,-2.434890625
1.369203125,-6.26816796875,-1.8583984375,-4.6233203125,-5.11969921875,-17.8361484375,-4.52753515625,-5.51473828125,-7.676015625,-16.30164453125,-16.94209375,0.349203125000001,3.4185,-5.3671484375,-16.970328125,-7.571328125,1.4765,-8.636140625,-14.08275,-10.87287109375,-6.0104921875,5.0021796875,-8.7706171875,-18.1747265625,-9.68615234375,-10.48415625,-6.0978984375,-9.9352734375,-7.82673046875,-3.448890625
4.172203125,-3.57416796875,0.1996015625,-1.8223203125,-1.82069921875,-14.4301484375,-1.63353515625,-6.17173828125,-4.722015625,-13.09064453125,-13.17709375,3.302203125,5.0535,-3.3481484375,-13.244328125,-5.317328125,2.3425,-7.166140625,-12.22075,-9.18187109375,-5.6574921875,5.4141796875,-8.3486171875,-17.4997265625,-9.52215234375,-12.30815625,-6.7888984375,-10.3222734375,-8.83673046875,-4.153890625
6.884203125,-0.880167968750001,1.8246015625,0.9436796875,1.47530078125,-10.7951484375,1.18346484375,-5.11473828125,-1.703015625,-9.07764453125,-8.98209375,4.671203125,6.2235,-0.903148437500001,-8.727328125,-2.634328125,3.1745,-5.910140625,-9.50575,-6.43387109375,-5.1314921875,4.9491796875,-7.3946171875,-15.9247265625,-8.43515234375,-13.61415625,-6.7868984375,-10.6302734375,-9.54073046875,-4.480890625
8.955203125,1.31983203125,2.8206015625,2.9716796875,4.15630078125,-7.6221484375,3.51946484375,-2.41473828125,0.803984375,-5.12164453125,-5.22109375,4.522203125,6.6425,1.4968515625,-4.596328125,0.0826718749999991,3.8705,-5.154140625,-6.55375,-3.30487109375,-4.4424921875,3.7611796875,-6.2136171875,-13.8667265625,-6.79015234375,-14.36015625,-6.2648984375,-10.7492734375,-9.82573046875,-4.411890625
9.843203125,2.66283203125,3.1316015625,3.8686796875,5.80130078125,-5.4191484375,5.02746484375,1.34726171875,2.313984375,-1.98664453125,-2.61209375,3.485203125,6.2145,3.3548515625,-1.899328125,2.377671875,4.2395,-5.144140625,-4.04175,-0.54487109375,-3.7034921875,2.0731796875,-5.2526171875,-11.8307265625,-5.05315234375,-14.56415625,-5.5538984375,-10.6172734375,-9.67173046875,-3.979890625
9.395203125,3.08583203125,2.9106015625,3.7696796875,6.38730078125,-4.3071484375,5.59046484375,5.24226171875,2.681984375,-0.038644531250001,-1.47109375,2.441203125,5.1575,4.3758515625,-1.161328125,3.900671875,4.1515,-5.922140625,-2.43675,1.34812890625,-3.0344921875,0.1201796875,-4.8756171875,-10.1847265625,-3.55515234375,-14.24615625,-4.9638984375,-10.3012734375,-9.15573046875,-3.225890625
8.081203125,2.87583203125,2.5106015625,3.2096796875,6.34030078125,-3.9621484375,5.43746484375,8.29626171875,2.203984375,0.878355468749999,-1.59209375,2.085203125,3.9965,4.6008515625,-2.177328125,4.547671875,3.6675,-7.211140625,-1.80275,2.31812890625,-2.4654921875,-1.8768203125,-5.1656171875,-9.0127265625,-2.36315234375,-13.42315625,-4.6378984375,-10.0052734375,-8.41773046875,-2.190890625
6.819203125,2.53983203125,2.3456015625,2.7266796875,6.35830078125,-3.7811484375,5.07646484375,9.79826171875,1.501984375,1.32235546875,-2.34909375,2.593203125,3.3735,4.3818515625,-4.136328125,4.480671875,3.0245,-8.469140625,-1.80775,2.68912890625,-1.9274921875,-3.7108203125,-5.8956171875,-8.1377265625,-1.31715234375,-12.16415625,-4.5128984375,-9.9712734375,-7.61573046875,-0.936890625
6.514203125,2.54883203125,2.6826015625,2.5306796875,7.07530078125,-3.1911484375,5.03246484375,9.52626171875,1.238984375,1.93335546875,-2.99609375,3.589203125,3.7455,4.1928515625,-6.009328125,4.014671875,2.4885,-9.092140625,-1.92375,2.92212890625,-1.3334921875,-5.1708203125,-6.6566171875,-7.2857265625,-0.20315234375,-10.64215625,-4.4078984375,-10.3292734375,-6.87773046875,0.390109375
7.590203125,3.11483203125,3.5006015625,2.5076796875,8.72830078125,-1.9571484375,5.55646484375,7.79726171875,1.793984375,3.10335546875,-3.00409375,4.415203125,5.1445,4.4178515625,-7.031328125,3.448671875,2.1855,-8.674140625,-1.70775,3.33512890625,-0.6714921875,-6.0818203125,-7.0716171875,-6.2817265625,1.06484765625,-9.11915625,-4.1668984375,-10.9852734375,-6.26673046875,1.571109375
9.737203125,4.10483203125,4.4636015625,2.5056796875,11.00530078125,-0.317148437499999,6.47246484375,5.30926171875,3.050984375,4.77535546875,-2.26909375,4.553203125,7.1195,5.1808515625,-7.023328125,2.946671875,2.0345,-7.222140625,-1.01575,3.94612890625,-0.0454921874999998,-6.3978203125,-6.9686171875,-5.1667265625,2.38284765625,-7.88315625,-3.7428984375,-11.6562734375,-5.77473046875,2.388109375
11.938203125,5.13883203125,5.0166015625,2.6056796875,13.15830078125,1.1158515625,7.27546484375,2.83326171875,4.406984375,6.49635546875,-1.08009375,3.950203125,8.8865,6.2968515625,-6.435328125,2.538671875,1.8025,-5.194140625,-0.03775,4.50912890625,0.3555078125,-6.2968203125,-6.4366171875,-4.1457265625,3.52684765625,-7.14615625,-3.2058984375,-12.0272734375,-5.34473046875,2.731109375
12.814203125,5.79983203125,4.5936015625,3.1556796875,14.34130078125,1.6318515625,7.40646484375,0.901261718749996,5.030984375,7.66735546875,0.106906249999999,3.045203125,9.6425,7.3758515625,-6.070328125,2.206671875,1.2385,-3.319140625,0.85825,4.69012890625,0.346507812500001,-6.1498203125,-5.7386171875,-3.4427265625,4.30184765625,-6.97515625,-2.6618984375,-11.9252734375,-4.90673046875,2.650109375
11.255203125,5.84483203125,2.8626015625,4.5246796875,14.00630078125,0.769851562500001,6.55546484375,-0.321738281250003,4.295984375,7.86235546875,0.941906249999999,2.483203125,8.9055,8.0398515625,-6.640328125,1.949671875,0.2045,-2.244140625,1.35425,4.27812890625,-0.1604921875,-6.3428203125,-5.1486171875,-3.1607265625,4.64184765625,-7.28615625,-2.1808984375,-11.3762734375,-4.40373046875,2.313109375
7.043203125,5.28883203125,-0.100398437500001,6.8096796875,12.16530078125,-1.4511484375,4.78146484375,-0.988738281250001,2.114984375,7.04135546875,1.32390625,2.669203125,6.7305,8.1368515625,-8.380328125,1.775671875,-1.2745,-2.195140625,1.35025,3.28112890625,-1.1104921875,-7.0508203125,-4.8066171875,-3.2517265625,4.61984765625,-7.90515625,-1.7718984375,-10.5352734375,-3.81573046875,1.898109375
1.089203125,4.36283203125,-3.8053984375,9.6976796875,9.38430078125,-4.5241484375,2.44946484375,-1.40373828125,-1.000015625,5.55835546875,1.38290625,3.481203125,3.6875,7.8198515625,-10.946328125,1.641671875,-3.0305,-2.858140625,0.98725,1.90412890625,-2.3234921875,-8.1238203125,-4.6736171875,-3.5697265625,4.38484765625,-8.65615625,-1.4158984375,-9.5672734375,-3.16773046875,1.488109375
1.089203125,4.36283203125,-3.8053984375,9.6976796875,9.38430078125,-4.5241484375,2.44946484375,-1.40373828125,-1.000015625,5.55835546875,1.38290625,3.481203125,3.6875,7.8198515625,-10.946328125,1.641671875,-3.0305,-2.858140625,0.98725,1.90412890625,-2.3234921875,-8.1238203125,-4.6736171875,-3.5697265625,4.38484765625,-8.65615625,-1.4158984375,-9.5672734375,-3.16773046875,1.488109375
