"Fp1","Fpz","Fp2","F7","F3","Fz","F4","F8","FC5","FC1","FC2","FC6","T7","C3","Cz","C4","T8","CP5","CP1","CP2","CP6","P7","P3","Pz","P4","P8","POz","O1","Oz","O2"
-9.778984375,-17.71933203125,-2.7819921875,-14.5237265625,-17.1032265625,-14.81365234375,-10.82755078125,-16.37331640625,-21.39779296875,-11.9917890625,-17.50546484375,-6.48070703125,-19.0517421875,-18.971484375,-21.24842578125,-16.5721640625,-3.3960234375,-18.27068359375,-16.87552734375,-16.16790625,-9.12908984375,-12.25305078125,-18.18291796875,-22.22327734375,-19.09557421875,-12.69426953125,-35.87507421875,-21.9895625,-22.39059765625,-18.87476171875
-15.480984375,-20.76033203125,-9.1359921875,-16.7377265625,-23.0312265625,-20.44965234375,-15.48555078125,-18.66731640625,-25.26879296875,-17.9537890625,-20.53146484375,-8.54570703125,-20.3857421875,-20.868484375,-25.01442578125,-20.0791640625,-9.4330234375,-19.70668359375,-19.33152734375,-19.38190625,-13.54508984375,-14.95805078125,-20.52591796875,-24.26627734375,-21.96457421875,-19.09226953125,-38.78407421875,-24.5885625,-24.68459765625,-21.81576171875
-22.017984375,-23.28633203125,-16.5989921875,-19.5637265625,-26.7142265625,-24.38065234375,-17.46055078125,-20.54031640625,-28.25579296875,-22.7287890625,-23.69246484375,-10.86770703125,-21.4637421875,-23.089484375,-28.49842578125,-23.0151640625,-11.5630234375,-21.34568359375,-21.94252734375,-22.18590625,-17.18708984375,-17.26205078125,-22.66991796875,-26.40427734375,-24.44557421875,-22.21626953125,-41.05707421875,-26.2185625,-25.69559765625,-22.78576171875
-28.223984375,-24.89233203125,-24.2219921875,-22.2247265625,-27.5632265625,-26.03165234375,-16.39755078125,-21.86231640625,-29.63379296875,-25.5477890625,-26.42346484375,-13.08170703125,-21.7757421875,-24.902484375,-31.00142578125,-24.8661640625,-9.4300234375,-22.53668359375,-24.05452734375,-24.15290625,-19.44208984375,-18.74105078125,-24.07691796875,-28.13627734375,-26.17757421875,-22.77626953125,-42.32207421875,-26.7975625,-25.65459765625,-22.35976171875
-32.166984375,-25.22933203125,-30.1839921875,-23.5597265625,-25.7262265625,-25.30065234375,-12.88855078125,-22.64431640625,-28.84079296875,-25.8407890625,-27.99746484375,-14.59370703125,-20.8647421875,-25.308484375,-31.74442578125,-25.1761640625,-4.1660234375,-22.42568359375,-24.80252734375,-24.81990625,-19.82508984375,-18.99105078125,-24.12991796875,-28.76627734375,-26.78457421875,-22.52226953125,-42.26207421875,-26.4715625,-25.15859765625,-21.75676171875
-32.140984375,-24.24233203125,-32.6809921875,-22.6777265625,-22.1792265625,-22.68365234375,-8.33655078125,-23.07931640625,-25.90279296875,-23.6157890625,-27.99946484375,-14.95170703125,-18.7427421875,-23.702484375,-30.35642578125,-23.8761640625,1.8549765625,-20.53068359375,-23.63652734375,-23.94190625,-18.40508984375,-17.89705078125,-22.52291796875,-27.79027734375,-26.08557421875,-23.07826953125,-40.76207421875,-25.4975625,-24.75859765625,-22.03176171875
-27.732984375,-22.28333203125,-30.9729921875,-19.4867265625,-18.3832265625,-19.12165234375,-4.43255078125,-23.45731640625,-21.58979296875,-19.5987890625,-26.60646484375,-14.18070703125,-16.0867421875,-20.324484375,-27.14842578125,-21.4421640625,5.8679765625,-17.16368359375,-20.71852734375,-21.67390625,-15.98508984375,-15.83305078125,-19.54791796875,-25.21527734375,-24.23857421875,-24.99626953125,-38.00607421875,-24.1315625,-24.62159765625,-23.41376171875
-20.343984375,-19.98533203125,-25.9539921875,-14.8257265625,-15.6732265625,-15.73165234375,-2.44355078125,-24.03331640625,-17.15179296875,-15.0617890625,-24.46946484375,-12.85770703125,-13.9917421875,-16.215484375,-23.00442578125,-18.7271640625,5.8709765625,-13.38268359375,-16.92752734375,-18.54590625,-13.78308984375,-13.61605078125,-16.05091796875,-21.59727734375,-21.68557421875,-27.52726953125,-34.42007421875,-22.5895625,-24.47659765625,-25.21476171875
-12.684984375,-17.91133203125,-19.7229921875,-10.0617265625,-14.6382265625,-13.38965234375,-2.61755078125,-24.84731640625,-13.70479296875,-11.2637890625,-22.25446484375,-11.77370703125,-13.3137421875,-12.625484375,-18.91342578125,-16.4931640625,1.6139765625,-10.42868359375,-13.41652734375,-15.19990625,-12.71508984375,-12.12405078125,-12.99491796875,-17.74827734375,-18.87757421875,-29.12926953125,-30.46207421875,-20.9895625,-23.76359765625,-26.22876171875
-7.449984375,-16.17433203125,-14.3629921875,-6.3077265625,-14.7692265625,-12.20365234375,-3.99755078125,-25.54531640625,-11.63579296875,-8.7477890625,-20.15846484375,-11.34770703125,-14.0127421875,-10.262484375,-15.38742578125,-14.9401640625,-5.1160234375,-8.96168359375,-10.90152734375,-12.02790625,-12.76608984375,-11.74005078125,-10.88291796875,-14.25927734375,-15.98857421875,-28.33726953125,-26.36007421875,-19.2265625,-21.83259765625,-25.32576171875
-5.962984375,-14.33833203125,-10.8159921875,-3.8347265625,-14.6702265625,-11.32465234375,-4.83655078125,-25.40931640625,-10.43679296875,-7.0297890625,-17.79246484375,-11.25970703125,-15.0047421875,-8.895484375,-12.23042578125,-13.6071640625,-11.2860234375,-8.63168359375,-9.21252734375,-9.00790625,-12.98708984375,-12.01405078125,-9.45291796875,-11.20727734375,-12.89357421875,-24.59326953125,-22.04807421875,-16.9385625,-18.19259765625,-21.99476171875
-7.695984375,-11.77033203125,-8.6849921875,-2.1467265625,-12.8682265625,-9.48965234375,-3.52955078125,-23.73231640625,-9.11479296875,-5.0467890625,-14.56646484375,-10.66070703125,-14.7567421875,-7.613484375,-8.87742578125,-11.7681640625,-14.2000234375,-8.34068359375,-7.52852734375,-5.92790625,-12.21908984375,-11.90405078125,-7.92491796875,-8.29127734375,-9.49257421875,-18.64126953125,-17.42307421875,-13.7665625,-12.86659765625,-16.71776171875
-10.817984375,-8.19633203125,-7.0059921875,-0.612726562499999,-8.7402265625,-5.96465234375,0.494449218749999,-20.33631640625,-6.90579296875,-2.0487890625,-10.26646484375,-8.80870703125,-12.2847421875,-5.550484375,-5.04342578125,-9.0381640625,-12.9320234375,-7.02768359375,-5.12152734375,-2.80290625,-10.01208984375,-10.50505078125,-5.66091796875,-5.31427734375,-6.11257421875,-12.29726953125,-12.75407421875,-9.8165625,-6.70259765625,-10.99476171875
-13.264984375,-4.03933203125,-5.2179921875,0.942273437500001,-2.8972265625,-1.05065234375,6.51444921875,-15.79531640625,-3.79079296875,1.8592109375,-5.34946484375,-5.60770703125,-7.8627421875,-2.515484375,-1.08442578125,-5.6961640625,-8.6740234375,-4.41868359375,-1.97352734375,-0.0649062499999999,-6.98508984375,-7.73305078125,-2.72891796875,-2.54027734375,-3.57257421875,-7.64826953125,-8.83007421875,-5.9195625,-1.30859765625,-6.85776171875
-13.614984375,-0.239332031249999,-3.5339921875,2.1672734375,3.2217734375,4.21534765625,12.99844921875,-11.17131640625,-0.463792968750001,5.8702109375,-0.720464843749999,-1.64970703125,-2.9477421875,0.890515625000001,2.23457421875,-2.5061640625,-3.8360234375,-1.20568359375,1.21847265625,1.67009375,-4.36608984375,-4.44405078125,0.0600820312499994,-0.629277343749999,-2.76057421875,-6.07026953125,-6.64807421875,-3.3765625,1.55040234375,-5.96976171875
-11.449984375,2.26566796875,-2.5659921875,2.5892734375,8.1347734375,8.67934765625,18.39344921875,-7.47831640625,2.14220703125,9.0472109375,2.76753515625,2.16929296875,0.6372578125,3.691515625,4.27757421875,-0.215164062500001,-0.5990234375,1.39131640625,3.52247265625,2.04109375,-3.13008984375,-1.88905078125,1.63508203125,-0.20427734375,-4.01757421875,-7.60726953125,-6.83507421875,-3.2775625,0.792402343750002,-8.76276171875
-7.285984375,3.01366796875,-2.7229921875,2.1062734375,10.9157734375,11.46834765625,21.68844921875,-5.28031640625,3.40620703125,10.8102109375,4.66453515625,5.08629296875,1.7282578125,5.096515625,4.88957421875,0.831835937499999,0.2369765625,2.33131640625,4.28547265625,1.18609375,-3.42608984375,-0.962050781250001,1.29208203125,-1.43727734375,-6.83857421875,-11.02726953125,-9.25907421875,-5.8835625,-3.42459765625,-14.16576171875
-2.274984375,2.14066796875,-3.9479921875,1.1612734375,11.4057734375,12.15934765625,22.60444921875,-4.62031640625,3.28120703125,11.1222109375,4.93653515625,6.67029296875,0.4192578125,4.835515625,4.35557421875,0.726835937499999,-0.4330234375,1.24031640625,3.37747265625,-0.37890625,-4.63608984375,-1.75605078125,-0.98491796875,-3.96927734375,-10.10457421875,-14.48526953125,-13.08707421875,-10.4775625,-9.79159765625,-20.12076171875
2.153015625,0.180667968750001,-5.8879921875,0.477273437500001,10.1017734375,10.86634765625,21.49844921875,-5.20631640625,2.21020703125,10.4032109375,3.77053515625,6.78029296875,-2.0737421875,3.156515625,3.11857421875,-0.219164062500001,-0.6080234375,-1.52368359375,1.15347265625,-2.07990625,-5.86008984375,-3.66105078125,-4.60891796875,-7.13927734375,-12.65957421875,-16.37426953125,-17.19507421875,-15.7395625,-16.43759765625,-24.53176171875
4.671015625,-2.24133203125,-8.1789921875,0.549273437500001,7.8617734375,8.16834765625,19.11344921875,-6.70031640625,0.839207031249998,9.2412109375,1.41553515625,5.45229296875,-4.1427421875,0.631515625,1.51757421875,-1.6941640625,1.5639765625,-5.12568359375,-1.75052734375,-3.55590625,-6.41508984375,-5.80405078125,-8.71491796875,-10.31327734375,-13.81757421875,-15.93426953125,-20.63107421875,-20.3365625,-21.65859765625,-26.09576171875
4.453015625,-4.61733203125,-10.5399921875,1.2912734375,5.5137734375,4.79834765625,16.25944921875,-8.85631640625,-0.277792968750001,8.0522109375,-1.82446484375,2.92129296875,-4.6407421875,-2.068484375,-0.30742578125,-3.4201640625,6.5379765625,-8.61068359375,-4.66452734375,-4.70590625,-6.05508984375,-7.50205078125,-12.45291796875,-13.06127734375,-13.50657421875,-13.42026953125,-22.86207421875,-23.3965625,-24.42559765625,-24.63076171875
1.530015625,-6.61233203125,-12.6719921875,2.1662734375,3.5727734375,1.35934765625,13.58544921875,-11.42031640625,-0.840792968750002,6.9472109375,-5.52646484375,-0.240707031249999,-3.4287421875,-4.345484375,-2.31242578125,-5.0891640625,12.9219765625,-11.19868359375,-7.05352734375,-5.56490625,-4.89908984375,-8.47905078125,-15.16991796875,-15.15727734375,-12.10557421875,-9.85326953125,-23.77407421875,-24.6585625,-24.51759765625,-20.86776171875
-3.116984375,-8.02433203125,-14.2129921875,2.6522734375,2.1877734375,-1.69765234375,11.51544921875,-13.93831640625,-0.845792968750002,5.8842109375,-9.12146484375,-3.10570703125,-1.3977421875,-5.805484375,-4.36442578125,-6.3361640625,18.2269765625,-12.47468359375,-8.55752734375,-6.13290625,-3.25308984375,-8.83205078125,-16.49791796875,-16.47927734375,-10.16857421875,-6.51826953125,-23.52307421875,-24.3445625,-22.34859765625,-15.97176171875
-7.882984375,-8.74733203125,-14.8729921875,2.6272734375,1.2647734375,-3.98665234375,10.27944921875,-15.78431640625,-0.495792968750001,4.8722109375,-12.00746484375,-4.70270703125,0.0162578124999992,-6.311484375,-6.14042578125,-6.8421640625,20.3259765625,-12.41968359375,-8.97952734375,-6.31390625,-1.48308984375,-8.82505078125,-16.36791796875,-16.94627734375,-8.20357421875,-4.42326953125,-22.36407421875,-22.8745625,-18.64859765625,-11.03576171875
-11.156984375,-8.74033203125,-14.5479921875,2.3982734375,0.6467734375,-5.23965234375,9.94944921875,-16.50231640625,-0.041792968750002,4.0512109375,-13.69146484375,-4.55970703125,-0.383742187500001,-5.920484375,-7.21242578125,-6.4601640625,18.6749765625,-11.28068359375,-8.27452734375,-5.96790625,0.0639101562499995,-8.60705078125,-14.93791796875,-16.49627734375,-6.52457421875,-3.89826953125,-20.51507421875,-20.5665625,-14.12359765625,-6.73176171875
-11.868984375,-7.95833203125,-13.2579921875,2.5032734375,0.2907734375,-5.40065234375,10.48444921875,-16.12131640625,0.422207031249998,3.6822109375,-13.87746484375,-3.01770703125,-2.7917421875,-4.709484375,-7.19542578125,-5.2371640625,14.5509765625,-9.30768359375,-6.50252734375,-4.96490625,1.14791015625,-8.00405078125,-12.43191796875,-15.08027734375,-5.15757421875,-4.46926953125,-18.06407421875,-17.4605625,-9.20959765625,-3.18376171875
-9.723984375,-6.32533203125,-10.9749921875,3.4812734375,0.3937734375,-4.51965234375,11.82044921875,-15.13231640625,1.04820703125,4.1332109375,-12.48946484375,-1.05870703125,-6.1017421875,-2.673484375,-5.87242578125,-3.3561640625,10.2539765625,-6.58968359375,-3.76152734375,-3.23490625,1.73191015625,-6.55505078125,-9.02791796875,-12.69527734375,-3.84957421875,-5.11726953125,-14.99107421875,-13.4045625,-4.06859765625,-0.11476171875
-5.179984375,-3.87033203125,-7.6829921875,5.6162734375,1.2427734375,-2.66765234375,13.82344921875,-14.19531640625,2.05720703125,5.7002109375,-9.75446484375,0.252292968750001,-8.4487421875,0.144515625,-3.32742578125,-1.1311640625,7.7939765625,-3.18268359375,-0.244527343750001,-0.87290625,1.96191015625,-3.91505078125,-4.96591796875,-9.52727734375,-2.29457421875,-4.88226953125,-11.39407421875,-8.4325625,1.11040234375,2.71623828125
0.617015624999999,-1.02433203125,-3.6979921875,8.5792734375,2.7557734375,-0.174652343750001,16.05144921875,-13.90031640625,3.31820703125,8.1652109375,-6.36846484375,0.262292968750002,-8.4467421875,3.311515625,-0.14742578125,0.911835937499998,7.7939765625,0.500316406250001,3.51147265625,1.65809375,1.99791015625,-0.414050781250001,-0.836917968749999,-6.17327734375,-0.481574218750001,-3.54026953125,-7.80507421875,-3.2255625,5.67540234375,5.04023828125
5.982015625,1.24366796875,0.0770078124999998,11.2592734375,4.1207734375,2.07234765625,17.59244921875,-14.65531640625,4.09220703125,10.5092109375,-3.50946484375,-1.07170703125,-6.3087421875,5.827515625,2.53957421875,2.0248359375,9.2769765625,3.45031640625,6.46147265625,3.49209375,1.81191015625,2.72994921875,2.29908203125,-3.65427734375,1.11842578125,-1.86026953125,-5.24607421875,0.858437499999997,8.43940234375,5.99823828125
9.135015625,1.81966796875,2.4280078125,12.1892734375,4.1577734375,2.93334765625,17.43244921875,-16.53431640625,3.35320703125,11.3432109375,-2.37246484375,-3.24570703125,-3.8647421875,6.512515625,3.52457421875,1.5738359375,10.4239765625,4.40531640625,7.44047265625,3.76109375,1.21191015625,3.96394921875,3.32008203125,-2.92927734375,1.84342578125,-1.10126953125,-4.71107421875,2.4734375,8.29440234375,4.75523828125
9.010015625,0.318667968750001,2.5730078125,10.5382734375,2.3667734375,1.98334765625,15.33544921875,-19.02831640625,0.718207031249998,10.0072109375,-3.31946484375,-5.35670703125,-3.2067421875,4.905515625,2.40157421875,-0.353164062500001,9.7819765625,2.77031640625,6.07547265625,2.35509375,0.144910156250001,2.51694921875,1.90208203125,-4.06527734375,1.49942578125,-1.99426953125,-6.26207421875,1.3764375,5.26040234375,1.46523828125
6.011015625,-2.23833203125,0.841007812499999,6.9672734375,-0.2052265625,0.240347656249999,12.52944921875,-20.98831640625,-2.73379296875,7.4362109375,-5.26346484375,-6.31770703125,-4.9267421875,2.035515625,0.23457421875,-2.5471640625,7.0609765625,-0.544683593749999,3.50447265625,0.463093750000001,-0.97208984375,-0.747050781250001,-0.800917968749999,-5.70927734375,0.901425781249998,-3.99426953125,-8.45507421875,-0.966562500000002,1.06640234375,-2.24776171875
2.116015625,-3.65533203125,-1.3359921875,3.5582734375,-1.2372265625,-0.218652343750001,11.36644921875,-21.00631640625,-4.61179296875,5.9092109375,-5.97146484375,-5.22170703125,-7.3877421875,0.248515625000001,-0.738425781250001,-3.0321640625,3.0609765625,-3.21868359375,2.10647265625,0.229093750000001,-1.26308984375,-3.51205078125,-2.40291796875,-5.52027734375,1.65542578125,-5.48826953125,-8.79107421875,-1.9545625,-1.46859765625,-3.93776171875
0.0070156249999993,-1.82833203125,-2.2499921875,2.6792734375,1.4027734375,2.38834765625,13.91044921875,-18.12331640625,-2.58079296875,7.6792109375,-3.37146484375,-1.80470703125,-7.7247421875,1.893515625,1.59457421875,-0.216164062500001,-0.9890234375,-2.74068359375,4.14547265625,3.50709375,0.0829101562499996,-3.31605078125,-0.58791796875,-1.56327734375,5.13042578125,-4.92126953125,-5.17007421875,0.530437499999998,-0.0935976562499974,-1.89776171875
1.617015625,3.74066796875,-1.0249921875,5.4832734375,7.9707734375,8.20634765625,20.35444921875,-12.46031640625,3.86920703125,13.3872109375,2.94753515625,3.22129296875,-3.8877421875,7.644515625,7.71357421875,5.8728359375,-4.0560234375,1.91631640625,10.17247265625,10.45109375,3.12391015625,0.857949218749999,5.29108203125,6.20372265625,11.26942578125,-2.00826953125,2.55292578125,6.5544375,5.28040234375,3.47223828125
6.966015625,11.30766796875,1.8130078125,11.0772734375,16.2417734375,15.33934765625,28.46044921875,-5.39631640625,12.63620703125,21.3502109375,11.14853515625,8.28729296875,3.7882578125,15.716515625,15.83857421875,13.2058359375,-5.4910234375,9.41931640625,18.34847265625,19.00909375,6.86091015625,7.81294921875,13.49808203125,15.44372265625,18.18642578125,1.89773046875,12.07292578125,13.7884375,12.25640234375,9.60723828125
14.045015625,17.68466796875,4.7520078125,16.9602734375,22.5487734375,20.69734765625,34.61244921875,0.856683593749999,19.96720703125,28.2852109375,18.02353515625,11.64229296875,12.6232578125,22.690515625,22.71357421875,18.6978359375,-4.9530234375,16.69731640625,25.25947265625,25.81409375,9.67391015625,14.76694921875,20.71208203125,22.46672265625,23.01942578125,4.57573046875,19.68692578125,18.7224375,17.23440234375,13.18923828125
19.828015625,20.00866796875,6.3340078125,20.4412734375,23.9157734375,21.69134765625,35.92044921875,4.14068359375,22.62020703125,31.1282109375,20.81053515625,12.25029296875,19.1292578125,25.468515625,25.38057421875,19.9318359375,-2.3790234375,20.70631640625,27.79047265625,28.01109375,10.25191015625,18.93794921875,23.86908203125,24.18772265625,23.53242578125,4.25973046875,22.25392578125,18.6874375,17.46840234375,12.09923828125
21.800015625,17.30166796875,5.9880078125,20.0792734375,19.8627734375,17.78734765625,31.99644921875,3.29368359375,19.73820703125,28.7892109375,18.72353515625,10.36329296875,20.8922578125,23.004515625,22.82157421875,16.5528359375,1.9439765625,20.09831640625,24.85847265625,24.83909375,8.40291015625,18.99794921875,21.81408203125,19.76672265625,19.41542578125,0.664730468750001,18.83592578125,13.3224375,12.52140234375,6.57123828125
19.143015625,10.88366796875,4.1470078125,16.2492734375,12.6557734375,10.81634765625,25.16044921875,-1.32331640625,13.18420703125,22.6932109375,13.25253515625,7.38829296875,17.5922578125,16.735515625,16.43357421875,10.4428359375,7.4099765625,15.76031640625,17.92647265625,17.99409375,5.21791015625,15.55194921875,15.77408203125,10.98372265625,12.47242578125,-4.85826953125,11.06392578125,4.6624375,4.34440234375,-1.06176171875
13.008015625,3.55566796875,1.8350078125,10.7022734375,5.9157734375,3.83934765625,19.00944921875,-7.96231640625,6.34120703125,15.8362109375,7.16953515625,5.15229296875,10.8192578125,9.626515625,9.17057421875,4.6778359375,13.2839765625,10.09431640625,10.08547265625,10.65809375,2.53991015625,10.56294921875,8.54408203125,1.26772265625,5.69242578125,-9.98626953125,2.22192578125,-3.9865625,-3.86559765625,-7.64276171875
5.890015625,-1.78233203125,0.1790078125,5.6332734375,2.6427734375,-0.55365234375,16.38844921875,-14.12731640625,2.30920703125,11.1632109375,3.05153515625,5.03729296875,3.1652578125,4.625515625,4.02757421875,1.9758359375,18.8549765625,5.70431640625,4.46047265625,5.91509375,2.06091015625,6.32994921875,3.08808203125,-5.88327734375,1.85342578125,-12.49626953125,-4.26607421875,-9.5695625,-9.13859765625,-10.60276171875
0.522015625,-3.31133203125,0.0350078125,2.8592734375,3.9057734375,-1.28665234375,18.07044921875,-17.42231640625,2.56620703125,10.2972109375,2.16953515625,7.43229296875,-2.7387421875,3.406515625,2.76657421875,3.5068359375,23.4369765625,4.27231640625,2.90147265625,5.43409375,4.52491015625,4.56994921875,1.31308203125,-8.27627734375,2.36242578125,-11.17726953125,-6.15807421875,-10.3905625,-9.82759765625,-8.83976171875
-1.234984375,-0.81533203125,1.6660078125,3.2952734375,8.7207734375,1.14434765625,22.72744921875,-16.37231640625,6.58620703125,13.1062109375,4.19353515625,11.69329296875,-4.9497421875,5.904515625,5.39857421875,8.5298359375,26.3389765625,6.06431640625,5.47447265625,8.97209375,9.38091015625,5.88894921875,3.47808203125,-5.67927734375,6.81942578125,-6.23226953125,-3.07507421875,-6.5435625,-6.01959765625,-2.88976171875
0.912015624999999,4.46466796875,4.5080078125,6.6962734375,14.8117734375,5.19734765625,27.90644921875,-11.05131640625,12.36420703125,17.9992109375,7.63953515625,16.50529296875,-2.7357421875,10.622515625,10.40957421875,14.9008359375,27.0089765625,10.05931640625,10.69147265625,14.71509375,15.03491015625,9.65994921875,8.32408203125,0.32972265625,13.34042578125,0.932730468750002,3.55592578125,0.294437499999997,0.670402343750002,5.42423828125
5.643015625,10.44866796875,7.2580078125,11.7092734375,19.6797734375,8.95234765625,31.30444921875,-3.20131640625,17.44920703125,22.6992109375,10.68253515625,20.40829296875,3.1512578125,15.434515625,15.49557421875,20.0978359375,25.3519765625,14.51331640625,16.21347265625,20.18009375,19.55591015625,14.29294921875,13.71208203125,7.11972265625,19.43442578125,8.33673046875,11.13492578125,7.5234375,7.72540234375,13.62723828125
10.669015625,15.01966796875,8.3700078125,16.3732734375,21.5587734375,10.82834765625,31.73844921875,4.37268359375,19.94820703125,25.2222109375,11.93953515625,22.28829296875,10.6122578125,18.458515625,18.51057421875,22.2628359375,21.9399765625,17.66231640625,19.76647265625,23.22709375,21.46891015625,17.83894921875,17.49308203125,12.05772265625,22.98142578125,14.14573046875,16.86492578125,12.5394375,12.61940234375,19.34623828125
13.809015625,16.72466796875,6.7830078125,18.9252734375,19.9347734375,10.15534765625,29.40144921875,8.96168359375,19.11120703125,24.6632109375,10.89153515625,21.64429296875,16.9102578125,18.656515625,18.25557421875,20.8078359375,17.8689765625,18.30131640625,19.97147265625,22.79809375,20.25291015625,18.73594921875,18.24308203125,13.41272265625,22.92442578125,17.22473046875,18.68492578125,13.6444375,13.65740234375,21.00123828125
13.930015625,15.14066796875,2.4620078125,18.5002734375,15.4577734375,7.23534765625,25.38844921875,9.05668359375,15.34620703125,21.3592109375,7.84853515625,18.61129296875,19.6942578125,15.998515625,14.77557421875,16.4008359375,14.2849765625,16.07031640625,16.72847265625,19.10609375,16.40291015625,16.37294921875,15.63608203125,10.80672265625,19.45042578125,17.35273046875,15.85492578125,10.5874375,10.46640234375,18.22923828125
11.286015625,10.84866796875,-3.5319921875,15.3302734375,9.4167734375,2.88534765625,20.91744921875,4.84768359375,9.81320703125,16.4392109375,3.60953515625,13.81129296875,17.8972578125,11.272515625,9.12257421875,10.5128359375,11.9029765625,11.43631640625,11.05447265625,13.34409375,11.14891015625,11.26694921875,10.38908203125,5.11372265625,13.73242578125,15.11373046875,9.04492578125,4.5164375,3.95440234375,11.90123828125
7.185015625,5.16666796875,-9.4319921875,10.4972734375,3.2427734375,-1.98165234375,16.91044921875,-1.97631640625,3.93820703125,11.2832109375,-0.845464843749999,8.24529296875,12.1492578125,5.769515625,2.87157421875,4.8578359375,10.8439765625,5.54131640625,4.61947265625,7.21509375,6.08391015625,4.85994921875,3.97308203125,-1.94527734375,7.48342578125,11.63073046875,0.0649257812500004,-2.5155625,-4.07759765625,3.83123828125
3.297015625,-0.15433203125,-13.3309921875,5.5532734375,-1.6412265625,-6.32665234375,14.16244921875,-8.86731640625,-0.854792968750001,7.2622109375,-4.41946484375,3.28529296875,4.5942578125,1.030515625,-2.25442578125,1.0578359375,10.8559765625,0.0313164062499993,-0.66552734375,2.54909375,2.83991015625,-0.858050781250002,-1.71691796875,-8.23227734375,2.57642578125,8.31973046875,-8.54607421875,-8.1675625,-11.38659765625,-3.63476171875
0.990015625,-3.27533203125,-13.7219921875,2.1802734375,-3.8222265625,-8.87465234375,13.63944921875,-13.24731640625,-3.24079296875,5.6232109375,-5.91546484375,0.551292968750001,-1.8097421875,-1.371484375,-4.65142578125,0.438835937499999,11.6449765625,-3.19068359375,-2.99652734375,0.995093750000001,2.78791015625,-3.81905078125,-4.70391796875,-11.59727734375,0.712425781249998,6.63173046875,-14.04307421875,-10.3555625,-15.71159765625,-8.07376171875
0.881015625,-2.80033203125,-9.9879921875,1.7302734375,-2.2192265625,-8.48065234375,16.24544921875,-13.43631640625,-2.21079296875,7.1372109375,-4.36746484375,1.38629296875,-4.4227421875,-0.238484374999999,-3.26142578125,3.7128359375,12.9889765625,-2.51568359375,-1.19052734375,3.54609375,6.58491015625,-2.52205078125,-3.47591796875,-10.44227734375,2.96242578125,7.62873046875,-14.26807421875,-7.8265625,-15.37459765625,-7.66176171875
2.667015625,1.49666796875,-2.8609921875,4.5952734375,3.1997734375,-4.92765234375,22.01144921875,-9.44231640625,2.36420703125,11.5332109375,0.286535156250002,6.02829296875,-2.1457421875,4.578515625,1.80857421875,10.4628359375,14.5929765625,2.52031640625,4.63547265625,9.92309375,13.63991015625,3.21894921875,2.24908203125,-4.49027734375,9.15642578125,11.36673046875,-8.62707421875,-0.780562500000002,-10.05859765625,-2.04876171875
5.351015625,8.23166796875,5.4930078125,9.7832734375,10.8967734375,0.632347656249999,29.48244921875,-3.12631640625,9.20220703125,17.2532109375,6.70553515625,13.08429296875,3.9422578125,11.707515625,8.94757421875,18.8538359375,15.9619765625,10.62931640625,12.73447265625,18.26909375,21.91791015625,11.87694921875,11.01008203125,4.73672265625,17.54642578125,16.54773046875,1.32692578125,8.8584375,-1.26859765625,7.08723828125
7.868015625,14.83266796875,12.1770078125,15.2272734375,18.1187734375,6.08234765625,36.01244921875,2.59968359375,15.82420703125,21.9722109375,12.48853515625,19.91429296875,11.0972578125,18.595515625,15.52557421875,26.0918359375,16.5859765625,19.09431640625,20.27447265625,25.69709375,28.55991015625,20.69494921875,19.98508203125,14.32572265625,25.29842578125,20.96373046875,12.35892578125,18.0334375,8.14440234375,16.50023828125
9.772015625,18.80666796875,14.9600078125,18.8492734375,22.1457734375,9.36634765625,38.95544921875,5.24668359375,19.74720703125,23.7452109375,15.34653515625,23.85929296875,16.4432578125,22.742515625,19.12557421875,29.6368359375,16.3239765625,25.07831640625,24.65847265625,29.60209375,31.19291015625,26.99994921875,26.29508203125,21.27772265625,29.78042578125,22.70273046875,21.04192578125,23.9314375,15.34140234375,22.87623828125
11.475015625,19.07866796875,13.5070078125,19.7382734375,21.6967734375,9.47034765625,36.99444921875,4.01668359375,19.92820703125,22.0812109375,14.36053515625,23.56429296875,18.5412578125,23.076515625,18.79357421875,28.4348359375,15.6179765625,27.10731640625,24.82047265625,28.95709375,29.11691015625,29.52094921875,28.44908203125,23.94672265625,29.85842578125,21.28573046875,25.36792578125,25.3304375,18.86540234375,24.45223828125
13.770015625,16.45566796875,9.5170078125,18.6042734375,17.5877734375,6.86734765625,30.82644921875,0.065683593750002,17.36420703125,18.2392109375,10.41953515625,19.56629296875,17.9822578125,20.448515625,15.45257421875,23.3688359375,15.2749765625,25.69831640625,21.65947265625,24.71609375,23.56991015625,28.83994921875,26.93208203125,22.65672265625,26.31742578125,17.84873046875,25.45592578125,23.0394375,19.10940234375,21.69223828125
16.984015625,12.92466796875,5.6440078125,17.1632734375,12.1977734375,3.18534765625,22.83044921875,-4.38131640625,14.36820703125,14.4882109375,5.60853515625,13.86529296875,16.7232578125,16.952515625,11.23257421875,16.6618359375,15.9069765625,22.77631640625,17.36747265625,19.11609375,16.91191015625,26.74694921875,23.61508203125,19.19572265625,21.18442578125,14.23973046875,23.01892578125,19.2174375,17.68540234375,16.69923828125
20.408015625,10.33266796875,3.9250078125,16.8582734375,8.0857734375,0.209347656249999,15.92644921875,-7.50231640625,13.04920703125,12.7262109375,1.98953515625,8.78729296875,16.7172578125,14.561515625,8.15857421875,10.6838359375,17.4159765625,20.36931640625,14.08747265625,14.37109375,11.34991015625,25.02494921875,20.48608203125,15.59472265625,16.50542578125,11.74073046875,20.10492578125,16.0894375,16.25040234375,11.89423828125
22.461015625,9.35066796875,4.7240078125,17.8082734375,6.6337734375,-1.16465234375,12.23244921875,-8.92131640625,14.07020703125,13.3762109375,0.567535156250001,5.82429296875,18.7382578125,14.030515625,7.03457421875,6.9018359375,18.9139765625,19.48331640625,12.76947265625,11.59609375,7.97491015625,24.46594921875,18.58208203125,13.03772265625,13.37342578125,10.35173046875,17.96092578125,14.8474375,15.59840234375,8.84623828125
21.563015625,9.35366796875,6.7720078125,18.7772734375,7.5867734375,-1.22465234375,12.28444921875,-9.63231640625,16.47120703125,15.3272109375,1.01653515625,5.11529296875,22.0562578125,14.731515625,7.25357421875,5.4958359375,19.1389765625,19.81731640625,12.93847265625,10.57409375,6.60691015625,24.68494921875,17.72508203125,11.50472265625,11.71242578125,9.05173046875,16.65492578125,15.3224375,15.50040234375,7.83923828125
17.171015625,9.16266796875,8.1680078125,18.2052734375,9.6307734375,-0.849652343750001,15.12144921875,-10.92931640625,18.53320703125,16.8872109375,2.17953515625,5.74929296875,25.0562578125,15.365515625,7.52857421875,5.6918359375,17.1249765625,20.32731640625,13.38047265625,10.32409375,6.29591015625,24.66294921875,17.06308203125,10.22072265625,10.74042578125,6.70773046875,15.49892578125,16.4204375,15.21840234375,8.19323828125
10.354015625,8.00766796875,7.6190078125,15.4862734375,11.3927734375,-0.730652343750001,18.96044921875,-13.25431640625,18.98920703125,16.9052109375,2.89553515625,6.55329296875,26.2872578125,14.967515625,6.90857421875,6.4098359375,12.7409765625,20.09831640625,13.11947265625,9.93109375,6.04191015625,23.56194921875,15.88208203125,8.43472265625,9.68642578125,2.94073046875,13.80092578125,16.9244375,14.17240234375,8.94323828125
3.529015625,6.07166796875,5.2170078125,11.5762734375,12.1237734375,-1.02265234375,22.01744921875,-15.80931640625,17.74220703125,15.3292109375,2.62353515625,6.80029296875,25.2572578125,13.526515625,5.37157421875,6.8368359375,6.9019765625,18.92331640625,11.98247265625,9.09309375,5.32291015625,21.26694921875,14.13408203125,5.99072265625,8.28042578125,-1.53026953125,11.44892578125,16.1724375,12.34740234375,9.47323828125
-0.525984375,4.37966796875,2.3880078125,8.5392734375,11.8737734375,-1.39765234375,23.22544921875,-17.07931640625,15.77720703125,13.0852109375,1.64853515625,6.50829296875,22.6102578125,11.933515625,3.75657421875,6.7338359375,1.3749765625,17.35431640625,10.57947265625,8.19509375,4.28691015625,18.43394921875,12.46508203125,3.46472265625,6.89642578125,-5.17426953125,9.06392578125,14.3894375,10.35340234375,9.86423828125
0.0810156249999991,4.22566796875,1.1220078125,8.4012734375,11.3407734375,-1.15565234375,22.64544921875,-15.74931640625,14.48820703125,11.6002109375,0.899535156250002,6.28829296875,19.6662578125,11.426515625,3.27957421875,6.4788359375,-1.7990234375,16.31531640625,9.91547265625,8.04509375,3.64891015625,16.14694921875,11.84708203125,1.91572265625,6.36142578125,-6.34926953125,7.75892578125,12.6074375,9.23240234375,10.88623828125
5.451015625,6.49066796875,2.8930078125,12.0092734375,11.5337734375,0.540347656249999,21.35744921875,-11.45931640625,14.92520703125,12.1712109375,1.49853515625,6.89629296875,17.6702578125,12.908515625,4.92057421875,6.8398359375,-1.1210234375,16.57731640625,10.88147265625,9.45209375,4.33291015625,15.37894921875,13.07208203125,2.40872265625,7.56442578125,-4.11626953125,8.62792578125,12.2084375,10.05740234375,13.57223828125
13.800015625,11.17666796875,7.8590078125,18.4932734375,13.2927734375,4.18434765625,20.76444921875,-5.05031640625,17.31720703125,15.3482109375,4.17253515625,8.71929296875,17.1192578125,16.492515625,8.92657421875,8.5298359375,3.6159765625,18.34631640625,13.79647265625,12.76209375,6.95791015625,16.51594921875,16.32708203125,5.48472265625,10.96042578125,1.20773046875,12.16792578125,14.1964375,13.39640234375,18.53123828125
22.271015625,17.34066796875,14.7480078125,25.6122734375,16.8277734375,9.47834765625,21.75044921875,1.73768359375,21.03320703125,20.6212109375,8.81853515625,11.47729296875,17.5692578125,21.428515625,14.63457421875,11.7358359375,11.0769765625,21.13531640625,18.19147265625,17.60209375,11.38191015625,19.12894921875,21.03208203125,10.80872265625,16.22342578125,8.07873046875,17.90392578125,18.5804375,18.89140234375,25.37723828125
28.286015625,23.49066796875,21.5280078125,30.8372734375,21.5747734375,15.41934765625,24.30244921875,7.00168359375,24.91320703125,26.6542109375,14.48853515625,14.37329296875,18.0322578125,26.451515625,20.76857421875,15.9468359375,18.8389765625,24.01531640625,23.01847265625,22.98609375,16.63091015625,22.18594921875,26.04808203125,17.24472265625,22.27542578125,14.44073046875,24.52392578125,24.2924375,25.28940234375,32.72823828125
30.680015625,28.23166796875,26.4650078125,32.5632734375,26.4517734375,20.85034765625,27.75044921875,9.47968359375,27.82220703125,31.9322109375,19.83253515625,16.60129296875,17.6972578125,30.347515625,26.03357421875,20.2058359375,24.3809765625,26.09031640625,27.17747265625,27.78009375,21.31891015625,24.58394921875,30.17508203125,23.34472265625,27.73542578125,18.73373046875,30.47192578125,29.7114375,30.99440234375,38.83123828125
29.964015625,30.80966796875,28.9300078125,30.7782734375,30.3277734375,24.94334765625,31.27444921875,9.00668359375,29.14020703125,35.3462109375,23.71553515625,17.83429296875,16.4472578125,32.441515625,29.61457421875,23.5868359375,26.1229765625,26.92131640625,29.96347265625,31.18209375,24.31291015625,25.66894921875,32.66208203125,27.93872265625,31.53542578125,20.57773046875,34.63392578125,33.4364375,34.77440234375,42.41223828125
27.655015625,31.24566796875,29.5000078125,26.8692734375,32.4287734375,27.30134765625,34.23744921875,6.41168359375,28.94320703125,36.4672109375,25.62553515625,18.32729296875,14.8052578125,32.743515625,31.31957421875,25.5498359375,24.0179765625,26.61531640625,31.18447265625,32.91309375,25.18991015625,25.42194921875,33.39808203125,30.46372265625,33.26842578125,20.70773046875,36.66892578125,34.7784375,36.16940234375,43.15523828125
25.219015625,30.08766796875,29.3610078125,22.7712734375,32.5707734375,27.87834765625,36.24044921875,3.02168359375,27.81820703125,35.5372109375,25.70553515625,18.57929296875,13.4372578125,31.711515625,31.40057421875,25.9978359375,19.4299765625,25.58231640625,31.00147265625,33.09409375,24.23891015625,24.24294921875,32.72508203125,30.92772265625,33.11842578125,20.26873046875,36.86092578125,33.8004375,35.42140234375,41.57423828125
23.312015625,27.99466796875,29.4290078125,19.9742734375,31.1487734375,26.91434765625,37.01144921875,0.0776835937499989,26.46120703125,33.2612109375,24.48253515625,18.82229296875,12.6632578125,29.889515625,30.26957421875,25.1108359375,14.3629765625,24.20431640625,29.71347265625,31.98509375,22.10391015625,22.61394921875,31.10108203125,29.64972265625,31.52142578125,20.02973046875,35.73092578125,31.0694375,33.16040234375,38.53623828125
21.727015625,25.49266796875,29.8100078125,18.8952734375,28.8957734375,24.80734765625,36.32344921875,-1.66331640625,25.31420703125,30.4772109375,22.53753515625,18.77729296875,12.3812578125,27.662515625,28.32457421875,23.1758359375,10.4749765625,22.67431640625,27.63347265625,29.85409375,19.44691015625,20.90994921875,28.88608203125,27.05572265625,28.89942578125,20.05173046875,33.75492578125,27.4274375,30.13240234375,34.85623828125
19.961015625,22.96966796875,29.9170078125,18.9392734375,26.5627734375,21.98434765625,34.08344921875,-1.98131640625,24.45720703125,27.8512109375,20.34553515625,17.90229296875,12.3662578125,25.276515625,25.91457421875,20.5518359375,8.4239765625,21.09731640625,25.08847265625,27.02709375,16.82091015625,19.43194921875,26.36808203125,23.62172265625,25.64542578125,19.93173046875,31.31292578125,23.8394375,27.09240234375,31.18223828125
17.946015625,20.79366796875,29.0710078125,19.1402734375,24.7197734375,18.92234765625,30.56544921875,-0.980316406249999,23.72820703125,25.7962109375,18.29453515625,15.95029296875,12.5792578125,22.974515625,23.42257421875,17.7208359375,7.9159765625,19.62731640625,22.45947265625,24.00509375,14.70791015625,18.45294921875,23.86008203125,19.91472265625,22.23842578125,19.31573046875,28.75792578125,21.1924375,24.70840234375,28.03923828125
16.328015625,19.30566796875,27.0980078125,18.8922734375,23.6747734375,16.25634765625,26.51444921875,1.07468359375,22.90320703125,24.5302109375,16.72053515625,13.30329296875,13.1742578125,21.033515625,21.27957421875,15.2438359375,8.2799765625,18.46431640625,20.16647265625,21.44909375,13.49191015625,18.11294921875,21.68108203125,16.54172265625,19.25342578125,18.21773046875,26.40492578125,19.9704375,23.38640234375,25.82623828125
16.031015625,18.65466796875,24.5270078125,18.2402734375,23.3827734375,14.63034765625,22.84544921875,3.67668359375,21.77920703125,24.0632109375,15.79553515625,10.73829296875,14.2162578125,19.655515625,19.82657421875,13.5578359375,9.0539765625,17.71231640625,18.51747265625,19.95609375,13.31891015625,18.25294921875,20.01108203125,14.00472265625,17.20142578125,16.99073046875,24.44692578125,19.9924375,23.12140234375,24.73723828125
17.460015625,18.67166796875,22.3570078125,17.6522734375,23.4047734375,14.27334765625,20.12844921875,5.94168359375,20.25120703125,24.1262109375,15.38553515625,8.85129296875,15.4782578125,18.880515625,19.14057421875,12.7918359375,10.1609765625,17.32831640625,17.55447265625,19.81609375,13.99991015625,18.47894921875,18.85708203125,12.57772265625,16.35242578125,16.04573046875,22.94092578125,20.5834375,23.60540234375,24.75123828125
20.110015625,18.97766796875,21.5680078125,17.6482734375,23.1357734375,14.81034765625,18.35744921875,6.81968359375,18.46520703125,24.2852109375,15.11653515625,7.70829296875,16.5622578125,18.651515625,19.05757421875,12.8048359375,11.6739765625,17.26831640625,17.12047265625,20.94009375,15.09791015625,18.52294921875,18.20108203125,12.33472265625,16.71242578125,15.61673046875,21.96192578125,21.1644375,24.59340234375,25.74723828125
22.924015625,19.28866796875,22.6070078125,18.5972734375,22.3037734375,15.63534765625,17.24744921875,5.64468359375,16.95720703125,24.2872109375,14.66553515625,7.00329296875,17.2392578125,18.968515625,19.38757421875,13.3928359375,13.5179765625,17.66831640625,17.10247265625,23.00309375,16.17191015625,18.60194921875,18.18908203125,13.26572265625,18.12542578125,15.72573046875,21.73692578125,21.7914375,26.19440234375,27.59023828125
25.050015625,19.60066796875,25.1160078125,20.6442734375,21.3097734375,16.42334765625,16.68644921875,2.58468359375,16.53720703125,24.2662109375,14.00453515625,6.48429296875,17.6792578125,19.916515625,20.08257421875,14.4358359375,15.3509765625,18.80631640625,17.58647265625,25.59209375,16.97491015625,19.33194921875,19.09208203125,15.30372265625,20.34042578125,16.34273046875,22.57892578125,23.0904375,28.72840234375,30.06423828125
26.323015625,20.13466796875,28.0740078125,23.6342734375,21.0307734375,17.21034765625,16.85844921875,-1.37731640625,17.88820703125,24.5632109375,13.38553515625,6.20929296875,18.3602578125,21.536515625,21.16457421875,15.8648359375,16.7059765625,20.82131640625,18.71747265625,28.27009375,17.49991015625,21.20894921875,21.03708203125,18.20972265625,23.02942578125,17.53073046875,24.59892578125,25.5834375,32.23540234375,32.72923828125
27.183015625,21.10766796875,30.3610078125,27.0742734375,22.2387734375,18.11134765625,17.97144921875,-4.81831640625,21.13320703125,25.3712109375,13.11853515625,6.51029296875,19.7422578125,23.669515625,22.55757421875,17.5658359375,17.2489765625,23.46831640625,20.46347265625,30.61809375,17.90191015625,24.07094921875,23.77308203125,21.50772265625,25.80042578125,19.43373046875,27.50492578125,29.0124375,36.11540234375,34.91723828125
28.210015625,22.54866796875,31.3690078125,30.2762734375,25.1037734375,19.13934765625,19.94944921875,-6.36231640625,25.68620703125,26.5982109375,13.37853515625,7.77029296875,21.9502578125,25.944515625,24.05957421875,19.3588359375,16.9539765625,26.14931640625,22.55547265625,32.34409375,18.38191015625,27.02694921875,26.67908203125,24.57972265625,28.28242578125,22.07573046875,30.66192578125,32.2584375,39.26340234375,35.94723828125
29.662015625,24.25266796875,31.2460078125,32.6132734375,29.0587734375,20.26934765625,22.39144921875,-5.15331640625,30.44520703125,27.9812109375,14.17053515625,10.14529296875,24.6442578125,27.921515625,25.46457421875,21.0828359375,16.1149765625,28.19231640625,24.63747265625,33.39409375,19.10491015625,28.90894921875,29.03808203125,26.88072265625,30.22742578125,25.19473046875,33.37392578125,33.9234375,40.62840234375,35.42423828125
31.290015625,25.91066796875,30.6720078125,33.7982734375,33.0557734375,21.51634765625,24.84244921875,-1.18831640625,34.26420703125,29.2772109375,15.44553515625,13.40729296875,27.1962578125,29.315515625,26.72857421875,22.7008359375,15.2299765625,29.21231640625,26.46947265625,33.98309375,20.18891015625,28.95694921875,30.39908203125,28.15172265625,31.59542578125,28.30073046875,35.19092578125,33.1634375,39.81340234375,33.46123828125
32.557015625,27.33366796875,30.4610078125,34.0282734375,36.0517734375,22.92434765625,27.13344921875,4.71768359375,36.46620703125,30.4172109375,17.27053515625,17.02829296875,29.1002578125,30.177515625,28.03557421875,24.3488359375,14.8439765625,29.35731640625,28.03447265625,34.52509375,21.72391015625,27.32094921875,30.82208203125,28.52272265625,32.56742578125,30.96173046875,36.08692578125,30.2474375,37.35240234375,30.73023828125
32.998015625,28.59866796875,31.2370078125,33.8882734375,37.4807734375,24.57534765625,29.47044921875,11.39368359375,37.07420703125,31.5862109375,19.82053515625,20.42929296875,30.2662578125,30.879515625,29.72757421875,26.2318359375,15.3759765625,29.21531640625,29.52047265625,35.44909375,23.72691015625,25.00694921875,30.82408203125,28.43872265625,33.43942578125,33.02373046875,36.38392578125,26.4604375,34.47240234375,28.23623828125
32.422015625,29.93266796875,33.1890078125,33.8802734375,37.3877734375,26.53634765625,32.09844921875,17.84168359375,36.52020703125,33.0632109375,23.13153515625,23.18929296875,30.8952578125,31.787515625,32.04257421875,28.3918359375,16.9279765625,29.36831640625,31.10247265625,36.92809375,26.02291015625,23.24394921875,30.97108203125,28.36972265625,34.37542578125,34.58373046875,36.43592578125,23.3794375,32.43040234375,26.85323828125
30.811015625,31.39166796875,35.9470078125,33.8192734375,36.1307734375,28.62534765625,34.80844921875,23.41468359375,35.06220703125,34.8262109375,26.76753515625,25.04829296875,31.0662578125,32.846515625,34.79657421875,30.5198359375,19.1749765625,29.87331640625,32.63447265625,38.65109375,28.17191015625,22.67494921875,31.39308203125,28.43072265625,35.20142578125,35.75773046875,36.26092578125,21.9514375,31.79240234375,26.83723828125
28.157015625,32.64166796875,38.6930078125,32.6682734375,33.9657734375,30.19334765625,36.78844921875,27.68968359375,32.50020703125,36.2462109375,29.77253515625,25.84129296875,30.4742578125,33.437515625,37.25257421875,32.0038359375,21.4489765625,30.10731640625,33.50247265625,39.84709375,29.59591015625,22.96294921875,31.61508203125,28.22872265625,35.43842578125,36.48873046875,35.45192578125,22.0284375,32.16440234375,27.69223828125
24.527015625,33.05066796875,40.5410078125,29.1652734375,30.9777734375,30.35734765625,37.09244921875,30.38268359375,28.53820703125,36.3272109375,31.05053515625,25.56029296875,28.6372578125,32.718515625,38.40957421875,32.2478359375,23.0349765625,29.15731640625,32.89547265625,39.66709375,29.88791015625,23.14294921875,30.87408203125,27.11872265625,34.61842578125,36.55973046875,33.47392578125,22.6554375,32.56040234375,28.53023828125
20.338015625,32.08166796875,40.9980078125,22.9142734375,27.3837734375,28.67634765625,35.38944921875,31.53068359375,23.49120703125,34.4172109375,29.98053515625,24.50329296875,25.4262578125,30.227515625,37.57657421875,31.0588359375,23.5799765625,26.51231640625,30.38347265625,37.71609375,29.11691015625,22.39794921875,28.70608203125,24.71972265625,32.66242578125,35.75273046875,30.16492578125,22.8324375,32.13840234375,28.65623828125
16.502015625,29.67866796875,40.1890078125,15.0892734375,23.7977734375,25.60934765625,32.28744921875,31.60568359375,18.60620703125,30.7682109375,26.80953515625,23.29529296875,21.4492578125,26.310515625,34.82157421875,28.8498359375,23.3299765625,22.55131640625,26.34847265625,34.36809375,27.89091015625,20.68194921875,25.36308203125,21.31172265625,30.03342578125,33.97973046875,26.04292578125,22.1814375,30.74440234375,27.93823828125
14.115015625,26.34266796875,38.6700078125,8.1412734375,21.0267734375,22.20834765625,28.93844921875,31.23968359375,15.53620703125,26.4352109375,22.53953515625,22.62129296875,17.9542578125,22.025515625,30.94457421875,26.4748359375,22.9819765625,18.43331640625,21.87347265625,30.59209375,27.05791015625,18.73094921875,21.75008203125,17.78472265625,27.51642578125,31.27473046875,22.16292578125,21.0534375,28.90540234375,26.73723828125
13.769015625,22.80766796875,36.9620078125,4.6512734375,19.5227734375,19.36034765625,26.26544921875,30.66668359375,15.21920703125,22.5942109375,18.36653515625,22.80029296875,16.1962578125,18.502515625,26.97057421875,24.7498359375,23.1779765625,15.41831640625,18.12347265625,27.37609375,27.15791015625,17.47394921875,18.86808203125,15.12172265625,25.73042578125,27.70373046875,19.57492578125,20.1144375,27.35940234375,25.49923828125
14.987015625,19.56166796875,35.1410078125,5.9592734375,18.9767734375,17.26734765625,24.44544921875,29.39568359375,17.01920703125,19.8412109375,15.04953515625,23.51829296875,16.6542578125,16.206515625,23.54657421875,23.9118359375,23.9449765625,14.03831640625,15.66147265625,25.11209375,27.96891015625,17.30094921875,17.13808203125,13.76872265625,24.67942578125,23.36373046875,18.72792578125,19.7554375,26.48340234375,24.35023828125
16.243015625,16.57766796875,32.7890078125,11.3252734375,18.4637734375,15.51034765625,22.95844921875,26.46568359375,18.87920703125,17.9252109375,12.61553515625,23.93429296875,18.6232578125,14.625515625,20.63557421875,23.4068359375,24.5419765625,13.70431640625,14.14247265625,23.38709375,28.49491015625,17.70394921875,16.07708203125,13.32072265625,23.69142578125,18.55573046875,19.19192578125,19.7604375,26.04240234375,22.99723828125
15.685015625,13.50166796875,29.3710078125,18.0502734375,17.0577734375,13.47434765625,21.09444921875,21.11868359375,18.49820703125,16.0292109375,10.56253515625,23.14829296875,20.5702578125,12.689515625,17.71457421875,22.2098359375,23.8809765625,13.08031640625,12.59147265625,21.32609375,27.52491015625,17.58994921875,14.63508203125,12.80172265625,21.87342578125,13.97273046875,19.93192578125,19.4794375,25.42040234375,21.03723828125
12.204015625,10.16866796875,24.7650078125,22.6922734375,14.5417734375,10.90134765625,18.59144921875,13.46968359375,14.82320703125,13.4822109375,8.41053515625,20.77429296875,21.0572578125,9.637515625,14.34757421875,19.5708359375,21.3129765625,11.01931640625,10.12547265625,18.32409375,24.44291015625,16.05294921875,12.00508203125,11.39372265625,18.82442578125,10.68073046875,19.98992578125,18.3654375,24.17640234375,18.46623828125
6.261015625,7.03366796875,19.5820078125,22.8802734375,11.7767734375,8.34034765625,16.06844921875,4.75768359375,8.92620703125,10.4732109375,6.23453515625,17.28029296875,19.6342578125,5.777515625,10.78457421875,15.6958359375,17.2869765625,7.45331640625,6.73447265625,14.68709375,19.80191015625,13.09994921875,8.37808203125,9.15072265625,15.14742578125,9.78273046875,19.17192578125,16.5124375,22.53140234375,16.00623828125
-0.0059843750000006,5.17466796875,15.0430078125,18.7212734375,10.4607734375,7.14634765625,14.96744921875,-3.03831640625,3.72520703125,8.2682109375,4.80253515625,13.83729296875,17.0712578125,2.582515625,8.15357421875,11.8978359375,13.3619765625,3.63931640625,3.58347265625,11.74309375,15.25191015625,9.80894921875,5.10908203125,7.19872265625,12.37242578125,11.91573046875,18.29792578125,14.8104375,21.41040234375,14.93823828125
-3.574984375,5.76466796875,12.4730078125,12.8002734375,12.3027734375,8.77534765625,16.91644921875,-8.11931640625,2.62820703125,8.5892109375,5.21253515625,11.68229296875,14.7842578125,2.026515625,7.99857421875,10.0268359375,11.4659765625,1.56631640625,2.53347265625,11.24509375,12.81091015625,7.80994921875,4.12308203125,7.21072265625,12.25342578125,16.83873046875,18.80992578125,14.5614375,21.95540234375,16.45023828125
-1.954984375,9.33166796875,12.7420078125,8.7162734375,18.0127734375,13.73934765625,22.78144921875,-9.86331640625,7.77920703125,12.5272109375,8.19453515625,11.33729296875,13.8712578125,5.486515625,11.39357421875,11.4568359375,12.7589765625,2.86131640625,5.06547265625,14.36409375,13.84991015625,8.40194921875,6.87408203125,10.43572265625,15.79242578125,23.32573046875,21.91992578125,16.7644375,24.79440234375,20.86523828125
5.464015625,15.27566796875,15.9470078125,9.0832734375,26.7237734375,21.05734765625,31.93344921875,-9.18431640625,18.76820703125,19.7192109375,13.51053515625,12.20329296875,14.4712578125,12.849515625,18.16857421875,16.1948359375,16.8219765625,7.83831640625,11.31147265625,20.86109375,18.32591015625,11.84494921875,13.43508203125,16.85972265625,22.53642578125,29.48873046875,27.78292578125,21.5194375,29.52840234375,27.24023828125
16.888015625,21.99166796875,21.4030078125,14.1882734375,36.2017734375,28.61534765625,42.12444921875,-7.94131640625,32.51020703125,28.3152109375,19.80953515625,12.86329296875,15.8442578125,22.331515625,26.75357421875,22.6778359375,21.6709765625,15.23731640625,19.78747265625,28.96809375,24.69091015625,17.22494921875,22.27708203125,25.01972265625,30.58542578125,33.45973046875,35.20092578125,27.8714375,34.78540234375,33.65023828125
28.848015625,27.55866796875,27.7920078125,21.9952734375,43.7127734375,34.10334765625,50.10444921875,-7.78431640625,44.45620703125,35.7102109375,25.09053515625,11.92929296875,17.0532578125,31.162515625,34.72357421875,28.4218359375,24.6639765625,22.79731640625,27.98847265625,36.08009375,30.55591015625,22.92994921875,30.87208203125,32.57072265625,37.35242578125,34.13673046875,42.06092578125,34.1944375,38.80740234375,38.02223828125
37.848015625,30.62066796875,33.4480078125,29.3282734375,47.1567734375,35.95134765625,52.86244921875,-9.22231640625,50.65020703125,39.6532109375,27.58553515625,8.94729296875,17.6872578125,36.824515625,39.80757421875,31.2388359375,23.8119765625,28.32831640625,33.49347265625,39.91909375,33.79691015625,27.43294921875,36.81708203125,37.32372265625,40.72942578125,31.63673046875,46.26892578125,38.8764375,40.21140234375,39.07423828125
41.993015625,30.93166796875,36.8360078125,33.5632734375,45.9467734375,33.93134765625,49.05444921875,-11.53231640625,49.54820703125,39.2342109375,26.61553515625,4.79729296875,18.1012578125,38.147515625,40.84457421875,30.3158359375,18.8349765625,30.66731640625,35.00747265625,39.55609375,33.48791015625,29.93094921875,38.84308203125,38.15172265625,39.99142578125,27.15273046875,46.64892578125,40.9184375,38.52840234375,36.79923828125
41.601015625,29.22366796875,37.1240078125,33.9092734375,41.1717734375,29.19334765625,39.81844921875,-13.45331640625,42.49520703125,35.2252109375,22.87653515625,1.26929296875,18.9952578125,35.620515625,38.18257421875,26.5018359375,11.3449765625,29.95231640625,32.77347265625,35.70809375,30.16991015625,30.47294921875,37.13508203125,35.29372265625,35.94842578125,22.27873046875,43.29392578125,40.1424375,34.19940234375,32.23423828125
38.563015625,26.53766796875,34.5090078125,31.5772734375,34.8687734375,23.57734765625,28.28944921875,-14.11931640625,32.63720703125,29.4762109375,17.95453515625,-0.0357070312499985,20.6892578125,30.797515625,33.26357421875,21.6608359375,4.0509765625,27.17931640625,28.15347265625,30.16009375,25.34591015625,29.61294921875,32.90308203125,29.96972265625,30.30842578125,18.19173046875,37.26792578125,37.0124375,28.17240234375,26.71623828125
35.046015625,23.56366796875,30.0470078125,28.7882734375,28.8527734375,18.52734765625,17.99644921875,-13.56731640625,23.15220703125,23.7932109375,13.39853515625,1.25029296875,22.7572578125,25.338515625,27.73857421875,17.5628359375,-0.5430234375,23.49931640625,22.76447265625,24.76309375,20.60991015625,28.00294921875,27.63608203125,23.67672265625,24.75242578125,15.22073046875,30.01392578125,32.3534375,21.44540234375,21.19523828125
32.452015625,20.47866796875,25.1100078125,27.2732734375,23.9737734375,14.45734765625,11.26844921875,-12.50431640625,16.04520703125,19.1712109375,10.03153515625,4.04329296875,24.3192578125,20.377515625,22.75857421875,15.0738359375,-1.2300234375,19.80131640625,17.79447265625,20.66609375,16.98691015625,26.22294921875,22.57508203125,17.68572265625,20.32442578125,13.04573046875,22.91692578125,27.2004375,14.91340234375,16.07623828125
31.082015625,17.28666796875,20.8270078125,27.2762734375,20.2437734375,11.06134765625,8.62544921875,-11.57231640625,12.00520703125,15.8362109375,7.87653515625,6.61029296875,24.7082578125,16.474515625,18.82957421875,14.0488359375,1.5559765625,16.69831640625,13.87847265625,18.15709375,14.78291015625,24.81294921875,18.56808203125,12.89472265625,17.36542578125,11.27573046875,17.14292578125,22.7094375,9.44240234375,11.54823828125
30.404015625,14.21266796875,17.7620078125,27.5812734375,17.4487734375,8.05334765625,9.17144921875,-10.73431640625,10.92920703125,13.7092109375,6.55153515625,7.67529296875,23.8892578125,13.871515625,16.07157421875,13.8088359375,6.1749765625,14.63831640625,11.30147265625,16.96009375,13.83191015625,24.26294921875,16.10108203125,9.86272265625,15.78142578125,9.90373046875,13.57392578125,19.9234375,5.88040234375,7.95723828125
29.569015625,11.74366796875,15.9170078125,26.4362734375,15.5407734375,5.51234765625,11.33344921875,-9.32831640625,12.34320703125,12.6682109375,5.68553515625,6.94329296875,22.3452578125,12.640515625,14.45157421875,13.7278359375,10.6299765625,13.87431640625,10.13447265625,16.60209375,13.81591015625,24.81894921875,15.29208203125,8.79172265625,15.33742578125,9.30873046875,12.63992578125,19.3574375,4.80740234375,5.84523828125
27.866015625,10.29266796875,14.9340078125,22.7422734375,14.5237734375,3.64134765625,13.45944921875,-6.76531640625,15.41420703125,12.4442109375,5.07153515625,4.84329296875,20.6492578125,12.610515625,13.79457421875,13.5668359375,13.3789765625,14.30531640625,10.17747265625,16.62209375,14.41791015625,26.25194921875,15.82508203125,9.41472265625,15.75942578125,9.91173046875,14.09792578125,20.6724375,6.16440234375,5.62123828125
24.926015625,9.82466796875,14.3560078125,16.8312734375,14.1427734375,2.47934765625,14.26244921875,-3.23731640625,18.79120703125,12.4952109375,4.57753515625,1.99229296875,19.1222578125,13.210515625,13.70457421875,13.3888359375,13.7629765625,15.37331640625,10.89047265625,16.62309375,15.30791015625,27.83494921875,16.94908203125,10.96572265625,16.69342578125,11.78573046875,16.98192578125,22.7054375,9.11340234375,7.19623828125
20.678015625,9.75266796875,13.7920078125,10.3342734375,13.7707734375,1.87234765625,13.08844921875,0.22368359375,20.73320703125,12.0852109375,3.98653515625,-1.09770703125,17.7952578125,13.505515625,13.56157421875,13.2118359375,11.9809765625,16.18531640625,11.48947265625,16.23909375,16.05691015625,28.59194921875,17.67108203125,12.34172265625,17.63442578125,14.49273046875,19.85692578125,23.9374375,12.28040234375,9.86423828125
15.240015625,9.20266796875,12.9250078125,5.1412734375,12.5907734375,1.54534765625,9.94544921875,2.38268359375,19.70220703125,10.5112109375,2.92353515625,-4.04470703125,16.5672578125,12.493515625,12.63457421875,12.7258359375,8.8179765625,15.85131640625,11.15447265625,15.10509375,16.15991015625,27.69894921875,17.10008203125,12.42772265625,17.94742578125,17.21673046875,21.29692578125,23.1494375,14.26040234375,12.52423828125
8.968015625,7.48566796875,11.4670078125,2.2182734375,9.9937734375,1.14134765625,5.31444921875,2.57668359375,15.15820703125,7.3812109375,0.971535156250001,-6.58770703125,15.3522578125,9.578515625,10.31857421875,11.3738359375,5.3969765625,13.88831640625,9.29947265625,12.92109375,15.21291015625,24.82494921875,14.82608203125,10.49572265625,17.05542578125,19.11173046875,20.39892578125,19.9434375,14.13840234375,14.12223828125
2.622015625,4.50766796875,9.2260078125,1.1832734375,5.9747734375,0.40434765625,-0.0135507812500006,1.00168359375,8.02720703125,2.9282109375,-2.03346484375,-8.60770703125,14.0772578125,4.959515625,6.45157421875,8.7538359375,3.0289765625,10.48131640625,5.85247265625,9.63609375,13.15791015625,20.29794921875,11.13508203125,6.53672265625,14.71842578125,19.69673046875,17.12692578125,14.9294375,11.83340234375,14.10823828125
-2.588984375,0.90266796875,6.2770078125,0.911273437500001,1.3147734375,-0.503652343750001,-5.01055078125,-1.53531640625,0.427207031249999,-1.8617890625,-5.73746484375,-10.06470703125,12.6262578125,-0.310484375,1.56257421875,5.0178359375,2.9909765625,6.47931640625,1.43647265625,5.63209375,10.40091015625,15.05694921875,6.96808203125,1.37272265625,11.23142578125,19.09673046875,12.35092578125,9.5264375,8.14040234375,12.69123828125
-5.315984375,-2.18233203125,3.1240078125,0.533273437500001,-2.6592265625,-0.90465234375,-8.57955078125,-4.06731640625,-5.20679296875,-5.5207890625,-9.26046484375,-10.82170703125,10.9072578125,-4.669484375,-3.19842578125,0.911835937499998,6.0859765625,3.09431640625,-2.75452734375,1.70309375,7.68891015625,10.39494921875,3.57908203125,-3.57127734375,7.38042578125,17.94173046875,7.52692578125,5.4224375,4.40140234375,10.73923828125
-4.636984375,-3.57533203125,0.6280078125,0.0382734375000009,-4.6502265625,0.0263476562499996,-9.90855078125,-5.79831640625,-7.10779296875,-6.7637890625,-11.51046484375,-10.55270703125,9.0952578125,-6.657484375,-6.50542578125,-2.5521640625,12.0699765625,1.42331640625,-5.43452734375,-1.24090625,5.79591015625,7.52094921875,2.03408203125,-6.81427734375,4.12842578125,16.97473046875,4.10292578125,3.8684375,1.87940234375,9.30023828125
-0.570984375,-2.62233203125,-0.3649921875,0.169273437500001,-3.9902265625,2.74134765625,-8.81555078125,-6.22331640625,-4.80579296875,-5.0937890625,-11.65446484375,-8.91670703125,7.7842578125,-5.553484375,-7.45542578125,-4.5511640625,19.3229765625,1.98931640625,-5.81752734375,-2.57990625,5.19491015625,7.07394921875,2.74908203125,-7.45227734375,2.18042578125,16.58773046875,2.89392578125,5.0814375,1.14540234375,9.02023828125
5.781015625,0.478667968750001,0.5480078125,1.8432734375,-0.8932265625,7.08334765625,-5.83455078125,-5.09931640625,0.782207031249998,-1.0037890625,-9.48246484375,-5.93270703125,7.8302578125,-1.712484375,-5.94442578125,-4.7631640625,25.1639765625,4.51631640625,-3.94452734375,-2.24290625,5.88091015625,8.85794921875,5.28408203125,-5.52927734375,1.69642578125,16.60273046875,3.76892578125,8.1354375,1.86040234375,9.82923828125
12.501015625,4.73166796875,3.1270078125,5.4162734375,3.6867734375,12.35234765625,-2.01455078125,-2.45331640625,7.74720703125,4.2742109375,-5.49746484375,-2.24170703125,9.8602578125,3.549515625,-2.65042578125,-3.4201640625,26.8169765625,8.05231640625,-0.61352734375,-0.687906249999999,7.38091015625,11.96994921875,8.53908203125,-1.96327734375,2.29542578125,16.41573046875,5.79392578125,11.4524375,3.11140234375,11.12023828125
17.418015625,8.72266796875,6.6010078125,10.1282734375,8.3997734375,17.40934765625,1.37944921875,1.24668359375,13.84320703125,9.1702109375,-0.754464843749998,0.975292968750001,13.7482578125,8.448515625,1.24057421875,-1.1941640625,22.6359765625,11.33831640625,2.91847265625,1.29009375,8.89891015625,15.24794921875,11.18608203125,1.85972265625,3.27842578125,15.37573046875,7.67792578125,13.5744375,3.97840234375,12.16523828125
18.804015625,11.08566796875,9.8740078125,14.0852734375,11.8517734375,20.86234765625,3.18144921875,4.92768359375,17.11620703125,12.1862109375,3.41253515625,2.44229296875,18.3722578125,11.327515625,4.36357421875,0.945835937499998,12.9959765625,13.21031640625,5.27847265625,2.77009375,9.51191015625,17.67594921875,12.09608203125,4.53672265625,3.84542578125,13.13773046875,8.19792578125,13.6894375,3.85340234375,12.39823828125
16.068015625,10.92666796875,11.7080078125,15.0442734375,12.9667734375,21.54634765625,2.69644921875,7.13068359375,16.40020703125,12.3272109375,5.76453515625,1.38729296875,21.9562578125,11.143515625,5.56057421875,1.9608359375,0.4499765625,12.90731640625,5.35847265625,2.91809375,8.47191015625,18.60894921875,10.62408203125,5.03872265625,3.28742578125,9.82373046875,6.51192578125,11.6974375,2.42940234375,11.41823828125
10.161015625,8.15066796875,11.0630078125,11.7842734375,11.3647734375,19.19634765625,0.10544921875,6.69968359375,11.74820703125,9.5252109375,5.65053515625,-1.93970703125,22.9532578125,7.831515625,4.31457421875,1.1688359375,-11.0330234375,10.35331640625,2.78047265625,1.32309375,5.62591015625,17.89694921875,6.83608203125,3.09372265625,1.25242578125,6.02773046875,2.43892578125,8.0694375,-0.335597656249998,9.01923828125
3.385015625,3.62966796875,7.6560078125,5.1922734375,7.6207734375,14.79234765625,-3.40255078125,3.52568359375,4.70720703125,4.8002109375,3.44853515625,-6.19070703125,21.0142578125,2.494515625,1.11157421875,-1.2571640625,-17.5880234375,6.36131640625,-1.76652734375,-1.66590625,1.72191015625,16.01794921875,1.68208203125,-0.53527734375,-1.92957421875,2.69073046875,-3.27907421875,3.7714375,-4.04159765625,5.41823828125
-1.514984375,-1.00033203125,2.4060078125,-1.7947265625,3.1477734375,10.23534765625,-6.06255078125,-1.17731640625,-1.94479296875,-0.0347890624999998,0.562535156250002,-9.46370703125,17.3312578125,-2.832484375,-2.62442578125,-4.1471640625,-17.1280234375,2.53431640625,-6.62552734375,-4.88790625,-1.72608984375,14.04094921875,-3.14391796875,-4.14827734375,-5.16857421875,0.833730468750002,-9.00707421875,0.172437499999997,-7.69659765625,1.47023828125
-2.572984375,-3.93433203125,-2.7659921875,-5.5137265625,-0.2952265625,7.58034765625,-6.38455078125,-5.29131640625,-5.22479296875,-3.0567890625,-1.18746484375,-10.21070703125,14.0652578125,-5.933484375,-5.08842578125,-5.8061640625,-10.2590234375,0.68331640625,-9.79052734375,-6.80690625,-3.11908984375,13.22694921875,-5.78091796875,-5.76327734375,-6.99357421875,1.16673046875,-12.74707421875,-1.2885625,-9.91859765625,-1.49776171875
0.527015624999999,-3.94433203125,-5.8469921875,-3.3967265625,-1.2862265625,8.23534765625,-3.89755078125,-6.72231640625,-3.31679296875,-3.0007890625,-0.465464843749999,-7.93970703125,13.2132578125,-5.369484375,-4.89842578125,-4.8711640625,0.0939765625000003,1.99031640625,-9.77452734375,-6.22390625,-1.59008984375,14.38694921875,-5.01491796875,-4.01127734375,-6.25157421875,3.76373046875,-12.97007421875,0.317437499999997,-9.54559765625,-2.26276171875
6.389015625,-0.857332031249999,-5.7959921875,4.6922734375,0.6987734375,12.38234765625,0.63744921875,-4.34031640625,3.48220703125,0.203210937500001,2.91953515625,-3.31370703125,15.6112578125,-1.122484375,-1.73542578125,-1.0121640625,10.0949765625,6.42031640625,-6.26052734375,-2.85390625,2.53991015625,17.40394921875,-0.84391796875,1.21072265625,-2.68957421875,8.02573046875,-9.30307421875,4.9044375,-6.26059765625,-0.349761718749999
12.619015625,4.43166796875,-3.0389921875,16.2502734375,5.0747734375,18.81234765625,5.59244921875,1.55468359375,12.82720703125,5.3872109375,7.92553515625,2.26229296875,20.5692578125,5.431515625,3.50257421875,4.8868359375,16.6099765625,12.70231640625,-0.25852734375,2.53109375,7.91791015625,21.23794921875,5.51808203125,8.67072265625,2.91042578125,12.95773046875,-2.69207421875,11.2554375,-0.855597656249998,3.68923828125
16.847015625,10.33966796875,0.866007812499999,27.1372734375,10.4027734375,25.39434765625,9.20844921875,9.46068359375,21.33220703125,10.6592109375,12.76253515625,7.20829296875,26.1872578125,12.122515625,9.09057421875,11.1108359375,18.3229765625,18.86331640625,6.32447265625,8.43109375,12.80591015625,24.37894921875,12.12808203125,16.32072265625,9.06742578125,17.60373046875,4.98092578125,17.4174375,5.06240234375,8.51023828125
17.600015625,15.15466796875,4.0990078125,33.3512734375,14.9837734375,30.02134765625,10.35344921875,17.29168359375,26.00420703125,14.2212109375,15.67053515625,10.25029296875,30.1392578125,16.820515625,13.21457421875,15.8388359375,16.0219765625,22.98131640625,11.46547265625,13.23309375,15.87891015625,25.47594921875,17.03608203125,22.09672265625,14.22042578125,21.38473046875,11.63392578125,21.4324375,9.73240234375,12.60923828125
14.681015625,17.52466796875,5.4320078125,32.7182734375,17.4417734375,31.39334765625,8.91344921875,23.02068359375,25.42120703125,14.9852109375,15.60053515625,10.72329296875,30.5682578125,18.151515625,14.67257421875,17.8498359375,12.0289765625,23.82631640625,13.76047265625,15.80309375,16.76691015625,23.81694921875,18.91408203125,24.65272265625,17.33742578125,24.16273046875,15.72792578125,22.0774375,11.94540234375,15.00723828125
9.063015625,16.81366796875,4.6650078125,25.6782734375,17.0627734375,29.23034765625,5.61244921875,25.18768359375,20.15220703125,12.7432109375,12.51753515625,8.67929296875,26.8112578125,15.857515625,13.20757421875,16.9048359375,9.0229765625,21.16731640625,12.79147265625,15.81009375,16.10591015625,19.51294921875,17.42208203125,23.74572265625,18.24342578125,26.06773046875,16.73992578125,19.3184375,11.45140234375,15.64923828125
2.504015625,13.30566796875,2.5660078125,14.9292734375,13.9337734375,24.12534765625,1.48744921875,23.36968359375,12.30220703125,8.0672109375,7.31753515625,4.84329296875,19.7322578125,10.784515625,9.49057421875,13.7248359375,8.7959765625,15.76831640625,9.13847265625,13.74809375,15.08591015625,13.42994921875,13.25008203125,20.22372265625,17.59542578125,27.25773046875,15.25492578125,14.3064375,8.97340234375,15.36423828125
-2.890984375,8.24466796875,0.4540078125,4.2892734375,9.0407734375,17.46934765625,-2.49555078125,18.49468359375,4.58820703125,2.2372109375,1.56253515625,0.478292968750001,11.5572578125,4.619515625,4.91857421875,9.6988359375,11.6059765625,9.19031640625,4.21447265625,10.77409375,14.85691015625,7.00794921875,7.93808203125,15.73072265625,16.58842578125,27.86173046875,12.73892578125,9.0224375,5.93440234375,15.48023828125
-5.149984375,3.62866796875,-0.325992187500001,-2.6847265625,4.2057734375,11.37534765625,-5.47355078125,12.70968359375,-0.539792968750001,-2.8787890625,-2.83946484375,-2.84570703125,5.2092578125,-0.514484374999999,1.33157421875,6.5108359375,16.3729765625,3.48131640625,-0.0255273437499994,8.43409375,16.10091015625,2.02294921875,3.51408203125,12.26872265625,16.55042578125,28.11773046875,11.09692578125,5.6894375,4.03840234375,17.29823828125
-3.029984375,1.60666796875,1.1430078125,-3.8837265625,1.5857734375,8.13034765625,-6.62255078125,8.60868359375,-1.49179296875,-5.2847890625,-4.10646484375,-3.66770703125,3.2702578125,-2.622484375,0.50057421875,5.6628359375,21.4179765625,0.67031640625,-1.63352734375,8.20009375,18.87791015625,0.185949218749998,1.91108203125,11.59772265625,18.45642578125,28.48673046875,12.02992578125,6.0734375,4.72840234375,21.55123828125
3.343015625,3.53466796875,4.9690078125,0.707273437500001,2.7207734375,9.20034765625,-5.37255078125,8.08668359375,2.03420703125,-3.7017890625,-1.28546484375,-1.24370703125,6.8722578125,-0.610484374999999,3.37657421875,7.8748359375,25.2339765625,1.99131640625,0.49447265625,10.80509375,22.60391015625,2.48394921875,4.16308203125,14.48772265625,22.39842578125,29.44773046875,16.23992578125,10.7234375,8.52340234375,27.89823828125
12.156015625,9.08766796875,10.1670078125,9.1032734375,7.5867734375,14.37134765625,-1.84955078125,11.43768359375,8.77720703125,1.6232109375,5.06253515625,3.94129296875,14.9522578125,4.989515625,9.42057421875,12.5538359375,26.9379765625,7.07431640625,5.88647265625,15.63709375,26.11591015625,8.47694921875,9.66808203125,20.09672265625,27.22742578125,31.00373046875,22.79192578125,18.4484375,14.48140234375,34.65423828125
20.292015625,16.07966796875,14.6900078125,18.1302734375,14.3127734375,21.62034765625,2.82944921875,17.19168359375,16.09020703125,8.7092109375,12.74853515625,10.13429296875,24.3472578125,11.886515625,16.51557421875,17.7678359375,26.3539765625,13.72031640625,12.38947265625,20.69409375,27.95991015625,16.06094921875,16.09008203125,25.98172265625,30.73542578125,32.33173046875,29.15792578125,26.4474375,20.25540234375,39.11323828125
24.537015625,21.32466796875,16.1100078125,24.6562734375,19.8987734375,27.88334765625,6.85444921875,22.81968359375,20.85520703125,14.5332109375,18.77553515625,14.97629296875,30.9622578125,16.905515625,21.75557421875,21.0288359375,23.8249765625,18.71131640625,17.02147265625,23.38009375,26.98391015625,22.16694921875,20.27808203125,29.05772265625,30.57942578125,32.06073046875,32.23892578125,31.3444375,23.01140234375,38.62823828125
23.117015625,22.26466796875,12.9080078125,26.8382734375,21.7147734375,30.46634765625,8.64444921875,25.96968359375,20.93920703125,16.4692109375,20.82753515625,16.62529296875,31.6952578125,17.584515625,22.86857421875,20.6118359375,19.9499765625,19.45031640625,17.47947265625,21.88309375,23.03091015625,24.20694921875,19.89208203125,27.18472265625,25.59942578125,29.14973046875,30.00392578125,30.7744375,20.90640234375,32.07023828125
16.770015625,18.43466796875,5.6770078125,24.8942734375,19.0367734375,28.53234765625,7.89944921875,25.66468359375,16.44820703125,13.7982109375,18.59753515625,14.78029296875,26.1922578125,13.620515625,19.53557421875,16.6598359375,15.4119765625,15.49531640625,13.52047265625,16.36209375,17.27291015625,21.48394921875,14.81808203125,20.52172265625,16.75042578125,23.78973046875,22.84392578125,24.6854375,14.29240234375,20.80623828125
8.625015625,11.89066796875,-2.6569921875,21.0092734375,13.6897734375,23.78434765625,6.04644921875,22.86168359375,9.94320703125,8.3322109375,14.11553515625,10.99929296875,17.3362578125,7.224515625,13.79057421875,11.3278359375,10.9739765625,9.01131640625,7.34747265625,9.17409375,11.89191015625,15.71294921875,7.46908203125,11.76672265625,7.01342578125,17.63273046875,13.74392578125,15.5774375,5.87040234375,8.51723828125
2.827015625,6.24466796875,-8.0169921875,18.2682734375,9.2137734375,19.64334765625,5.58444921875,19.99668359375,5.31020703125,3.5622109375,10.77353515625,8.05529296875,9.9982578125,2.080515625,9.11157421875,7.7978359375,7.4879765625,3.76631640625,2.60847265625,3.86109375,9.18791015625,10.27794921875,1.68808203125,5.00272265625,0.181425781249999,13.14073046875,7.02992578125,7.4694375,-0.411597656249999,-0.206761718749998
2.500015625,4.78166796875,-7.2439921875,19.0292734375,8.8797734375,19.20234765625,8.55644921875,19.65268359375,5.75420703125,2.6762109375,11.48853515625,8.50729296875,8.5632578125,1.401515625,8.55957421875,8.6018359375,5.7089765625,3.13731640625,2.45347265625,3.34509375,10.47491015625,8.54194921875,0.779082031250001,3.65872265625,-0.907574218750002,12.37873046875,6.22792578125,4.0434375,-1.24059765625,-1.90276171875
8.135015625,8.68566796875,0.104007812499999,23.6022734375,13.7547734375,23.32534765625,15.10844921875,23.03068359375,12.01020703125,6.7192109375,17.04153515625,13.23729296875,14.5332578125,6.164515625,13.04957421875,14.1768359375,5.8959765625,8.22931640625,7.75447265625,8.32309375,15.33191015625,12.05294921875,5.73108203125,8.68572265625,4.18942578125,15.94873046875,12.19692578125,6.8544375,4.34340234375,4.09823828125
17.341015625,16.44166796875,11.3830078125,30.0792734375,22.0977734375,30.23634765625,23.18544921875,29.18568359375,21.93720703125,14.0972109375,25.61553515625,20.86729296875,25.6752578125,14.608515625,20.84257421875,22.5338359375,7.5059765625,17.25431640625,16.65847265625,16.85809375,21.69591015625,19.68194921875,14.68408203125,18.05872265625,13.29342578125,22.70073046875,22.64092578125,14.5994375,14.38840234375,15.28823828125
26.189015625,24.79466796875,22.2460078125,35.4832734375,30.4727734375,36.75234765625,29.62844921875,35.54568359375,31.77120703125,21.6742109375,33.87853515625,28.51129296875,37.3052578125,23.331515625,28.62257421875,30.3278359375,9.3299765625,26.60231640625,25.71447265625,25.48909375,26.86691015625,28.29494921875,24.02908203125,27.94772265625,22.76942578125,30.33673046875,33.38292578125,23.9024375,25.03340234375,27.17923828125
31.363015625,30.59266796875,28.9430078125,37.5152734375,35.7307734375,40.13734765625,31.88844921875,39.39268359375,38.20220703125,26.5892109375,38.85453515625,33.35729296875,44.9132578125,29.235515625,33.37557421875,34.6508359375,10.0889765625,32.88831640625,31.79347265625,31.11909375,28.85691015625,34.54094921875,30.41808203125,34.78872265625,29.38942578125,36.48473046875,40.57892578125,31.1204375,32.46740234375,35.42523828125
31.752015625,32.30466796875,30.0680078125,35.7732734375,36.5307734375,39.40734765625,29.24344921875,39.38868359375,39.84220703125,27.6302109375,39.35053515625,34.05529296875,46.4202578125,30.984515625,33.84257421875,34.4108359375,9.1249765625,34.58531640625,33.54247265625,32.46809375,27.25091015625,36.53294921875,32.35108203125,36.91972265625,31.71842578125,39.57173046875,42.49492578125,34.0264375,34.64540234375,37.65523828125
28.599015625,30.36966796875,26.7440078125,31.7212734375,33.5977734375,35.49434765625,22.88244921875,36.22368359375,37.32620703125,25.4372109375,36.14953515625,31.15029296875,42.7362578125,29.181515625,30.75757421875,30.5308359375,6.7169765625,32.31531640625,31.61147265625,30.29809375,23.13791015625,34.40494921875,30.45608203125,34.91872265625,30.30242578125,39.14173046875,39.87592578125,32.4384375,31.86540234375,34.12423828125
24.316015625,26.45766796875,21.3800078125,27.6042734375,28.8617734375,30.41334765625,15.09244921875,32.05368359375,32.39220703125,21.6972109375,31.17153515625,26.52129296875,36.5852578125,25.490515625,26.00657421875,25.1248359375,3.8429765625,27.92431640625,27.83547265625,26.55209375,18.36891015625,29.68994921875,26.57708203125,30.75872265625,26.84442578125,35.70373046875,35.02192578125,27.7334375,26.14040234375,27.09123828125
20.970015625,22.36366796875,16.0570078125,25.1212734375,24.2397734375,26.04234765625,8.21644921875,29.13368359375,26.84320703125,18.0202109375,26.38553515625,22.35729296875,30.6832578125,21.562515625,21.46857421875,20.3398359375,1.6489765625,23.25931640625,24.06847265625,23.15009375,14.68991015625,24.22694921875,22.56008203125,26.57972265625,23.13842578125,30.34473046875,30.38792578125,21.8774375,20.00040234375,19.50923828125
19.405015625,19.26866796875,11.6800078125,24.7572734375,20.9007734375,23.35134765625,3.98644921875,28.56768359375,22.03320703125,15.3082109375,23.14353515625,20.26829296875,26.5372578125,18.455515625,18.27357421875,17.5408359375,0.9839765625,19.44631640625,21.43947265625,21.19309375,13.17691015625,19.38994921875,19.51208203125,23.82572265625,20.36842578125,24.34973046875,27.57192578125,16.6234375,15.45140234375,13.79923828125
19.357015625,17.64966796875,8.2770078125,26.0282734375,19.3027734375,22.50834765625,3.36344921875,29.97568359375,18.84920703125,13.8962109375,22.08853515625,20.88629296875,24.3782578125,16.667515625,16.76557421875,17.0998359375,2.1789765625,16.89831640625,20.31347265625,20.86709375,14.04091015625,15.91494921875,17.78208203125,23.04672265625,18.97642578125,18.96273046875,27.05892578125,13.1964375,13.54640234375,11.23723828125
20.203015625,17.63866796875,5.9510078125,28.2082734375,19.6357734375,23.47434765625,6.56544921875,32.15668359375,17.84520703125,14.0202109375,23.35953515625,23.92829296875,23.8572578125,16.462515625,16.90757421875,18.6388359375,5.0129765625,15.73731640625,20.71447265625,21.82809375,16.75691015625,14.14894921875,17.38608203125,24.18672265625,18.92642578125,15.29873046875,28.57392578125,12.3244375,14.51940234375,12.01123828125
21.628015625,19.32866796875,5.5080078125,30.8592734375,22.0677734375,26.26734765625,12.98744921875,34.04468359375,19.24820703125,15.9812109375,26.70353515625,28.44729296875,24.6942578125,18.058515625,18.58857421875,21.4158359375,8.8089765625,16.12731640625,22.63347265625,23.63809375,20.34991015625,14.29494921875,18.36708203125,26.93572265625,20.01542578125,14.26273046875,31.57092578125,14.3024375,18.10940234375,15.61623828125
23.761015625,22.71466796875,8.1730078125,33.8092734375,26.5197734375,30.64634765625,21.07044921875,35.22668359375,22.80720703125,19.8252109375,31.40253515625,33.09329296875,26.7692578125,21.494515625,21.57357421875,24.5578359375,12.6579765625,18.22131640625,25.94847265625,25.89909375,23.69691015625,16.39094921875,20.77308203125,30.82672265625,21.96342578125,16.31073046875,35.46692578125,18.8914375,23.70940234375,21.15723828125
26.759015625,27.34666796875,14.5060078125,36.7882734375,32.2757734375,35.70734765625,28.45444921875,35.80268359375,27.62620703125,24.9222109375,36.17353515625,36.37829296875,29.7792578125,26.270515625,25.23257421875,27.1368359375,15.6989765625,21.77031640625,30.10047265625,28.11209375,25.77891015625,20.04294921875,24.29908203125,35.11172265625,24.29142578125,21.04973046875,39.53392578125,25.1434375,30.30740234375,27.42123828125
30.265015625,32.06766796875,23.3500078125,39.1202734375,37.8567734375,39.92334765625,32.63144921875,35.88468359375,32.19220703125,29.8712109375,39.33553515625,37.06229296875,32.8842578125,31.117515625,28.40957421875,28.2138359375,17.3199765625,25.79031640625,33.92147265625,29.51509375,25.86191015625,24.19494921875,27.96808203125,38.64172265625,26.18442578125,27.02773046875,42.73492578125,31.4004375,36.43140234375,32.90023828125
33.179015625,35.17266796875,31.6970078125,39.7402734375,41.3277734375,41.57734765625,31.84744921875,35.18068359375,34.73220703125,32.8272109375,39.31053515625,34.59229296875,34.7442578125,34.208515625,29.65757421875,27.0068359375,17.1699765625,28.64031640625,35.85747265625,29.15309375,23.63591015625,27.21594921875,30.22708203125,40.04472265625,26.60242578125,32.03373046875,43.80692578125,35.6304375,40.34540234375,36.01123828125
34.011015625,35.01866796875,35.8160078125,37.5762734375,40.9517734375,39.36334765625,25.81144921875,33.02068359375,33.82020703125,32.1272109375,35.27553515625,29.37629296875,33.9692578125,33.815515625,27.77457421875,23.1908359375,15.1169765625,28.59131640625,34.51647265625,26.21509375,19.30791015625,27.37594921875,29.49808203125,38.18472265625,24.65742578125,33.91173046875,41.67492578125,36.0224375,40.51040234375,35.54923828125
31.657015625,30.80466796875,33.0900078125,32.2012734375,35.9657734375,33.00334765625,15.89044921875,28.90868359375,29.02220703125,27.0452109375,27.64853515625,22.71329296875,29.7782578125,29.131515625,22.42357421875,17.1868359375,11.3039765625,24.63631640625,29.33947265625,20.51809375,13.61591015625,23.55994921875,24.95008203125,32.73872265625,20.07642578125,31.50073046875,36.00992578125,31.6574375,36.16340234375,31.17223828125
26.152015625,23.12166796875,23.4990078125,24.4022734375,27.1617734375,23.72234765625,4.72544921875,23.20668359375,21.24820703125,18.3682109375,18.13553515625,16.36429296875,22.5302578125,20.826515625,14.53857421875,10.2568359375,6.3629765625,17.14631640625,21.08347265625,12.85809375,7.72891015625,15.92594921875,17.07608203125,24.57172265625,13.49842578125,25.18373046875,27.62892578125,23.0144375,27.78140234375,23.64923828125
18.856015625,13.91266796875,9.8560078125,16.1922734375,16.8437734375,14.08334765625,-4.63655078125,17.27268359375,12.58320703125,8.3572109375,9.23653515625,11.93729296875,13.8422578125,11.004515625,6.19357421875,4.2328359375,1.4849765625,7.96631640625,11.76547265625,4.95309375,2.99491015625,6.15094921875,7.73708203125,15.63272265625,6.38842578125,16.74373046875,18.43792578125,12.0644375,17.16040234375,14.70823828125
11.916015625,5.76566796875,-3.3519921875,10.0652734375,7.9737734375,6.95534765625,-9.81155078125,12.76668359375,5.53520703125,-0.1037890625,3.33453515625,10.29029296875,6.1442578125,2.465515625,-0.171425781250001,0.847835937499998,-1.9150234375,-0.19668359375,3.91747265625,-1.14290625,0.509910156250001,-3.03105078125,-0.45691796875,8.28272265625,0.535425781249998,8.56873046875,10.80592578125,1.7154375,6.92340234375,6.46723828125
7.271015625,0.823667968750001,-11.9449921875,7.8292734375,2.8657734375,4.16634765625,-9.92155078125,10.61268359375,2.00120703125,-4.7617890625,1.72253515625,11.20529296875,1.7322578125,-2.437484375,-2.82542578125,0.926835937499998,-2.8590234375,-4.92468359375,-0.50552734375,-3.94990625,0.631910156250001,-8.97105078125,-5.24691796875,4.30672265625,-2.71857421875,2.60573046875,6.58992578125,-5.3235625,-0.467597656249996,0.63823828125
5.757015625,-0.127332031249999,-13.8579921875,9.7092734375,2.1847734375,5.74134765625,-5.81455078125,10.45468359375,2.42920703125,-4.9437890625,4.05253515625,13.50629296875,1.7042578125,-2.813484375,-1.53242578125,3.8748359375,-1.3300234375,-5.20068359375,-0.96752734375,-3.28890625,2.70491015625,-10.36705078125,-5.75191796875,4.11372265625,-3.11657421875,-0.40326953125,6.29692578125,-7.7265625,-3.71259765625,-2.08776171875
6.795015625,2.11166796875,-9.8739921875,14.2232734375,4.8057734375,10.09834765625,0.37944921875,10.98968359375,5.65820703125,-1.7177890625,8.54253515625,15.59429296875,5.3472578125,0.460515625000001,2.41757421875,7.8758359375,1.7309765625,-1.84468359375,1.54047265625,-0.373906250000001,5.24691015625,-7.88905078125,-2.83791796875,6.61072265625,-1.59357421875,-0.995269531249999,8.89692578125,-6.0755625,-3.10759765625,-2.14176171875
8.840015625,5.70866796875,-2.9689921875,18.9012734375,8.4977734375,14.84934765625,6.10344921875,10.88968359375,9.53720703125,2.7062109375,12.83153515625,16.13129296875,10.4432578125,5.274515625,6.88657421875,10.7608359375,4.8729765625,2.99931640625,5.10747265625,2.81609375,6.60291015625,-3.72505078125,1.41208203125,9.79972265625,0.247425781249998,-0.396269531249999,12.41092578125,-2.3815625,-0.175597656249998,-0.628761718749999
10.312015625,8.76866796875,3.3250078125,21.4622734375,11.0297734375,17.76434765625,9.22244921875,9.65968359375,11.95720703125,5.9872109375,15.01353515625,14.55029296875,14.3732578125,9.326515625,9.86557421875,11.0418359375,6.7059765625,6.97631640625,7.81247265625,4.47609375,5.72191015625,-0.357050781250001,4.78508203125,11.75672265625,0.983425781249998,0.305730468750001,14.88892578125,1.0704375,3.22640234375,1.32523828125
10.436015625,10.14166796875,6.5510078125,20.8322734375,11.1507734375,17.61534765625,8.67144921875,7.91368359375,11.75820703125,6.6312109375,14.31653515625,11.22529296875,15.3452578125,11.072515625,10.24357421875,8.5098359375,6.3119765625,8.57331640625,8.51247265625,3.73909375,2.63391015625,0.664949218749999,5.92208203125,11.42172265625,0.0344257812499986,0.72173046875,15.22292578125,2.8634375,5.78640234375,3.04023828125
9.460015625,9.72366796875,6.1460078125,17.4642734375,9.0187734375,14.61334765625,4.74544921875,6.89368359375,9.11020703125,4.5082109375,11.20953515625,7.26129296875,13.0802578125,10.186515625,8.11057421875,4.1538359375,3.4809765625,7.61231640625,7.18747265625,0.908093749999999,-1.61708984375,-0.685050781250002,4.76108203125,8.90072265625,-2.18357421875,1.18073046875,13.45092578125,2.9804375,7.15540234375,4.37423828125
8.251015625,8.22766796875,3.1850078125,12.8602734375,5.9397734375,10.18134765625,-1.03355078125,7.59068359375,5.33220703125,0.7102109375,7.03453515625,4.00929296875,8.7062578125,7.475515625,4.54657421875,-0.414164062500001,-1.2150234375,5.08431640625,4.77247265625,-2.82390625,-5.51608984375,-3.14105078125,2.34008203125,5.23772265625,-4.58257421875,2.28873046875,10.52992578125,2.5354375,7.79340234375,5.52023828125
7.612015625,6.69566796875,-0.5609921875,8.7272734375,3.6037734375,6.18934765625,-6.49755078125,10.11768359375,2.29120703125,-3.0807890625,3.42153515625,2.47629296875,4.0792578125,4.416515625,1.08457421875,-3.6361640625,-6.5320234375,2.53531640625,2.62847265625,-5.95290625,-7.78008984375,-4.94805078125,0.19008203125,1.87072265625,-5.97857421875,4.34573046875,7.79292578125,2.9424375,8.44240234375,6.68223828125
7.808015625,5.98466796875,-3.6009921875,6.2942734375,3.2967734375,4.15034765625,-9.65055078125,13.74068359375,1.61420703125,-5.2937890625,1.69053515625,2.91529296875,0.9282578125,2.495515625,-0.898425781250001,-4.5131640625,-10.8860234375,1.31931640625,1.92347265625,-7.27190625,-7.86608984375,-4.81205078125,-0.40491796875,0.0117226562500008,-5.62157421875,6.98473046875,6.36892578125,4.9914375,9.56740234375,7.84023828125
8.481015625,6.42566796875,-5.2629921875,6.0052734375,5.4087734375,4.74734765625,-9.42255078125,17.36868359375,3.97120703125,-5.0027890625,2.39853515625,4.78829296875,0.1782578125,2.584515625,-0.66342578125,-2.8471640625,-12.8630234375,2.00031640625,3.17647265625,-6.28390625,-6.08908984375,-2.56505078125,1.02808203125,0.200722656250001,-3.48957421875,9.23373046875,6.76392578125,8.3014375,11.06040234375,8.69523828125
8.909015625,7.70366796875,-5.6919921875,7.4632734375,9.2787734375,7.60734765625,-6.09655078125,19.98668359375,8.66720703125,-2.2827890625,5.12153515625,7.04429296875,1.6442578125,4.564515625,1.61857421875,0.750835937499998,-11.8050234375,4.14331640625,6.04447265625,-3.36090625,-3.36708984375,0.777949218749999,3.94908203125,2.14372265625,-0.265574218750002,9.97473046875,8.70092578125,11.4584375,12.30040234375,8.81223828125
8.459015625,9.02366796875,-5.4449921875,9.5782734375,13.3987734375,11.32134765625,-1.24855078125,20.83068359375,13.79820703125,1.7382109375,8.59753515625,8.55029296875,4.2272578125,7.399515625,4.90457421875,5.0498359375,-8.1730234375,6.57831640625,9.43747265625,0.41009375,-0.759089843749999,3.60794921875,7.08908203125,4.89272265625,2.96642578125,8.54473046875,11.28792578125,12.7914375,12.55240234375,7.85723828125
7.061015625,9.55466796875,-5.0059921875,11.0362734375,15.9977734375,13.97734765625,2.91044921875,19.54668359375,17.00520703125,5.3492109375,11.27253515625,8.55229296875,6.5332578125,9.661515625,7.72657421875,8.6098359375,-3.3880234375,8.06331640625,12.02047265625,3.66709375,0.964910156249999,4.66694921875,9.13308203125,7.34172265625,5.19542578125,5.14673046875,13.46592578125,11.4344375,11.52440234375,5.88923828125
5.401015625,8.93666796875,-4.4839921875,11.0192734375,15.8847734375,14.17934765625,4.57144921875,16.43268359375,16.62620703125,7.1442109375,12.04453515625,7.00929296875,7.6122578125,10.303515625,8.92057421875,10.3128359375,0.8629765625,8.00531640625,12.92647265625,5.37509375,1.56991015625,3.80694921875,9.45208203125,8.81672265625,5.93642578125,0.885730468750001,14.56792578125,8.0004375,9.76340234375,3.57123828125
4.555015625,7.52966796875,-3.6679921875,9.7212734375,13.0467734375,11.83234765625,3.15944921875,12.48468359375,12.60820703125,6.7322109375,10.78353515625,4.60929296875,7.3402578125,9.206515625,8.19457421875,9.7878359375,3.4439765625,6.78331640625,12.22247265625,5.25309375,1.32391015625,2.04094921875,8.43808203125,9.38972265625,5.40942578125,-2.63426953125,14.63492578125,4.3504375,8.54040234375,2.06223828125
5.214015625,6.15066796875,-2.3519921875,8.1512734375,8.5577734375,8.02334765625,-0.553550781250001,8.95268359375,6.57720703125,4.7302109375,8.27053515625,2.36629296875,6.2372578125,7.133515625,6.14457421875,7.4788359375,4.1829765625,5.44931640625,10.73947265625,3.75709375,0.72391015625,0.849949218749998,7.18208203125,9.68672265625,4.31942578125,-3.94226953125,14.25592578125,2.5124375,9.12940234375,2.48223828125
7.142015625,5.51066796875,-0.6769921875,7.2972734375,3.9147734375,4.20234765625,-5.01555078125,6.65668359375,0.907207031249998,2.1722109375,5.64053515625,1.03229296875,4.9172578125,5.156515625,3.74557421875,4.3448359375,3.7469765625,4.98531640625,9.42947265625,1.68709375,0.186910156250001,1.20194921875,6.72108203125,10.33672265625,3.39042578125,-2.33026953125,14.05792578125,3.4334375,11.92040234375,5.16923828125
9.334015625,5.75266796875,0.825007812499999,7.3352734375,0.2947734375,1.43534765625,-8.70255078125,5.66668359375,-2.58179296875,-0.0977890624999995,3.75253515625,0.734292968750001,3.6592578125,3.975515625,1.79057421875,1.4088359375,3.1179765625,5.67231640625,8.78447265625,-0.25390625,-0.12908984375,2.93594921875,7.38908203125,11.49272265625,2.97342578125,1.80573046875,14.25992578125,6.4044375,15.98940234375,9.25123828125
10.728015625,6.41966796875,1.5450078125,7.4892734375,-1.8532265625,0.109347656249999,-10.74855078125,5.59868359375,-3.45879296875,-1.7027890625,2.87053515625,1.08329296875,2.3612578125,3.601515625,0.60357421875,-0.585164062500002,3.0159765625,6.95431640625,8.70247265625,-1.67390625,-0.29008984375,4.89894921875,8.69508203125,12.76772265625,2.99042578125,7.05173046875,14.59292578125,9.5004375,19.47040234375,12.91723828125
10.812015625,6.79966796875,1.2050078125,6.6002734375,-2.8092265625,-0.0556523437500012,-11.23555078125,6.13868359375,-2.59579296875,-2.7087890625,2.72553515625,1.55929296875,0.785257812499999,3.523515625,0.0835742187499999,-1.3201640625,3.4919765625,7.85531640625,8.72247265625,-2.46890625,-0.442089843750001,5.67894921875,9.73008203125,13.54372265625,3.16042578125,11.51673046875,14.56692578125,10.7184375,20.52940234375,14.32523828125
9.738015625,6.38266796875,0.0200078124999994,3.9662734375,-3.2502265625,0.203347656249999,-11.03355078125,7.28768359375,-1.39279296875,-3.4107890625,2.82353515625,1.83329296875,-1.1597421875,3.157515625,-0.0734257812500001,-0.863164062500001,3.9389765625,7.57431640625,8.37247265625,-2.68890625,-0.672089843749999,4.44194921875,9.75208203125,13.40472265625,3.29842578125,13.61173046875,13.84292578125,9.0634375,18.32640234375,12.61023828125
8.021015625,5.12866796875,-1.5339921875,-0.104726562499999,-3.7642265625,0.142347656249999,-11.21855078125,9.16368359375,-0.948792968750002,-4.0117890625,2.78453515625,1.86329296875,-3.3277421875,2.199515625,-0.136425781250001,0.447835937499999,3.5249765625,5.87331640625,7.43647265625,-2.43790625,-0.95308984375,1.33494921875,8.54408203125,12.37572265625,3.43342578125,12.69473046875,12.42092578125,4.9714375,13.42340234375,8.34423828125
6.137015625,3.40866796875,-3.0939921875,-4.4037265625,-4.5062265625,-0.51065234375,-12.37555078125,11.66268359375,-1.63779296875,-4.4407890625,2.51253515625,1.80929296875,-5.4767421875,0.708515625,-0.215425781250001,2.1208359375,1.8169765625,3.06431640625,6.01547265625,-1.86590625,-1.18808984375,-2.71805078125,6.37708203125,10.85272265625,3.68142578125,9.22773046875,10.54992578125,-0.0975625000000022,7.39540234375,3.14323828125
4.280015625,1.68966796875,-4.5689921875,-7.5607265625,-5.2592265625,-1.52565234375,-14.32455078125,14.32868359375,-3.20779296875,-4.4937890625,2.13953515625,1.86529296875,-7.4607421875,-1.047484375,-0.341425781250001,3.5968359375,-0.8690234375,-0.26768359375,4.38047265625,-1.23890625,-1.29708984375,-6.58705078125,3.71608203125,9.29772265625,4.01942578125,4.41573046875,8.47392578125,-4.5405625,1.96740234375,-1.27976171875
2.410015625,0.25566796875,-5.9119921875,-8.8777265625,-5.7852265625,-2.55965234375,-16.43655078125,16.54368359375,-5.11679296875,-4.1397890625,1.81953515625,2.09729296875,-9.2647421875,-2.787484375,-0.61442578125,4.3478359375,-3.6540234375,-3.54468359375,2.74247265625,-0.95190625,-1.26808984375,-9.44605078125,0.955082031250001,7.96072265625,4.17542578125,-0.41726953125,6.25092578125,-7.3585625,-1.76659765625,-3.96376171875
0.536015624999999,-0.86633203125,-6.7449921875,-8.6277265625,-6.0772265625,-3.47565234375,-18.19555078125,17.90068359375,-6.83579296875,-3.6357890625,1.57953515625,2.38529296875,-10.8487421875,-4.306484375,-1.21242578125,4.0178359375,-5.6720234375,-6.30568359375,1.16147265625,-1.40390625,-1.17208984375,-10.95405078125,-1.66691796875,6.81572265625,3.72942578125,-4.36126953125,3.76992578125,-8.3935625,-3.63259765625,-4.96976171875
-1.034984375,-1.77133203125,-6.3609921875,-7.6657265625,-6.2912265625,-4.25965234375,-19.51855078125,18.43168359375,-8.00579296875,-3.3257890625,1.32853515625,2.48029296875,-11.9987421875,-5.465484375,-2.21842578125,2.5598359375,-6.6210234375,-8.22568359375,-0.365527343749999,-2.79390625,-1.16908984375,-11.18805078125,-4.01491796875,5.68572265625,2.32242578125,-7.16426953125,0.890925781250001,-8.1135625,-4.18259765625,-5.10576171875
-1.782984375,-2.54233203125,-4.2919921875,-6.8257265625,-6.5842265625,-4.85065234375,-20.73155078125,18.42768359375,-8.54079296875,-3.4437890625,0.939535156250001,2.07929296875,-12.4347421875,-6.210484375,-3.50642578125,0.224835937499998,-6.9510234375,-9.17368359375,-1.82652734375,-5.04190625,-1.54908984375,-10.54205078125,-6.02291796875,4.35772265625,-0.206574218750001,-9.18126953125,-2.46607421875,-7.2825625,-4.34259765625,-5.46076171875
-1.419984375,-3.25133203125,-1.0179921875,-6.6147265625,-7.0972265625,-5.25565234375,-22.33155078125,18.00868359375,-8.68179296875,-4.1347890625,0.280535156250002,0.861292968750001,-12.1407421875,-6.636484375,-4.84442578125,-2.6161640625,-7.6350234375,-9.33668359375,-3.26252734375,-7.91790625,-2.73308984375,-9.69005078125,-7.74691796875,2.58972265625,-3.84657421875,-11.11226953125,-6.37607421875,-6.7575625,-5.12759765625,-7.02276171875
-0.269984375,-4.02033203125,1.9250078125,-7.2667265625,-8.0082265625,-5.70565234375,-24.68955078125,16.89168359375,-8.94279296875,-5.5327890625,-0.766464843749999,-1.43370703125,-11.5667421875,-7.025484375,-6.10942578125,-5.6881640625,-9.6600234375,-9.25568359375,-4.83952734375,-11.22990625,-5.17008984375,-9.48305078125,-9.40891796875,0.11272265625,-8.47757421875,-13.58426953125,-10.94407421875,-7.3395625,-7.38159765625,-10.41376171875
0.786015624999999,-4.97133203125,2.7870078125,-8.8307265625,-9.4392265625,-6.48765234375,-27.73555078125,14.69068359375,-9.86879296875,-7.6477890625,-2.22546484375,-4.79070703125,-11.4367421875,-7.724484375,-7.32142578125,-8.8431640625,-13.4560234375,-9.58868359375,-6.71752734375,-14.80890625,-9.04808984375,-10.61505078125,-11.25991796875,-3.19927734375,-13.81157421875,-16.73326953125,-16.14407421875,-9.4875625,-11.40659765625,-15.59676171875
0.809015624999999,-6.05533203125,0.8270078125,-11.1547265625,-11.2302265625,-7.60665234375,-30.78655078125,11.52768359375,-11.69079296875,-10.1617890625,-3.85946484375,-8.66570703125,-12.2657421875,-8.880484375,-8.44942578125,-11.8561640625,-18.4620234375,-10.68268359375,-8.76252734375,-18.28590625,-13.93708984375,-13.15705078125,-13.27891796875,-7.02827734375,-19.19857421875,-19.96926953125,-21.48607421875,-12.9225625,-16.58259765625,-21.63476171875
-0.690984375000001,-6.94233203125,-3.0429921875,-13.8927265625,-12.8922265625,-8.70065234375,-32.71955078125,8.35768359375,-14.12679296875,-12.4407890625,-5.10646484375,-11.94270703125,-13.9927421875,-10.257484375,-9.23842578125,-14.1991640625,-23.1010234375,-12.26268359375,-10.44652734375,-20.93090625,-18.65408984375,-16.31305078125,-14.97791796875,-10.48727734375,-23.53357421875,-22.15926953125,-25.87907421875,-16.4645625,-21.32859765625,-26.77076171875
-3.592984375,-7.18133203125,-6.7439921875,-16.6717265625,-13.8612265625,-9.35465234375,-32.51355078125,6.62668359375,-16.54879296875,-13.8187890625,-5.30046484375,-13.32370703125,-16.0517421875,-11.358484375,-9.31142578125,-15.1181640625,-25.2910234375,-13.58168359375,-11.13052734375,-21.85090625,-21.59808984375,-18.75105078125,-15.60591796875,-12.43227734375,-25.53657421875,-22.22126953125,-27.96207421875,-18.4575625,-23.70159765625,-29.04676171875
-7.421984375,-6.58233203125,-8.3309921875,-19.3107265625,-13.9082265625,-9.43565234375,-29.88655078125,7.45568359375,-18.41779296875,-13.9957890625,-4.12046484375,-12.01770703125,-17.8327421875,-11.843484375,-8.50642578125,-14.0871640625,-23.4410234375,-13.99068359375,-10.57052734375,-20.53490625,-21.51908984375,-19.41305078125,-14.72391796875,-12.13727734375,-24.39157421875,-19.83026953125,-26.86907421875,-17.7035625,-22.42759765625,-27.29276171875
-11.741984375,-5.55433203125,-7.1779921875,-21.9197265625,-13.3962265625,-9.23965234375,-25.62355078125,10.92868359375,-19.68379296875,-13.2817890625,-1.96746484375,-8.28670703125,-19.1327421875,-11.916484375,-7.17442578125,-11.3181640625,-17.5030234375,-13.51568359375,-9.26452734375,-17.36090625,-18.29208984375,-18.25105078125,-12.72391796875,-9.87327734375,-20.34157421875,-15.76826953125,-22.91507421875,-14.3225625,-17.75959765625,-21.89276171875
-16.385984375,-5.04233203125,-4.2599921875,-24.7797265625,-13.2212265625,-9.42965234375,-21.40255078125,15.95168359375,-20.80479296875,-12.5777890625,0.070535156250001,-3.45870703125,-20.2487421875,-12.318484375,-6.19242578125,-7.8931640625,-9.4850234375,-12.92968359375,-8.36552734375,-13.65190625,-13.17408984375,-16.32305078125,-10.82191796875,-6.94127734375,-14.79557421875,-11.67326953125,-17.67207421875,-9.8725625,-11.54759765625,-14.78176171875
-21.354984375,-6.05333203125,-1.4609921875,-28.0707265625,-14.3882265625,-10.79565234375,-19.10855078125,20.78068359375,-22.37979296875,-13.0257890625,0.682535156250001,0.666292968750001,-21.6817421875,-13.887484375,-6.60342578125,-5.3511640625,-2.9310234375,-13.26168359375,-9.15152734375,-11.15490625,-8.31208984375,-15.17205078125,-10.45091796875,-5.07627734375,-9.79357421875,-9.28726953125,-13.30407421875,-6.5745625,-6.39659765625,-8.60376171875
-26.531984375,-9.05933203125,-0.4819921875,-31.6507265625,-17.4352265625,-13.77765234375,-19.95755078125,23.85768359375,-24.69679296875,-15.4087890625,-1.01546484375,2.64829296875,-23.7277421875,-17.016484375,-9.07342578125,-4.9591640625,-1.4010234375,-15.12468359375,-12.32752734375,-11.23990625,-5.79908984375,-15.91105078125,-12.44991796875,-5.58127734375,-7.14757421875,-9.66026953125,-11.56307421875,-6.0905625,-4.39659765625,-5.50976171875
-31.514984375,-13.71433203125,-2.0689921875,-35.0717265625,-22.0712265625,-18.07865234375,-23.93055078125,24.41668359375,-27.54679296875,-19.7047890625,-5.06546484375,1.96229296875,-26.2917421875,-21.394484375,-13.51442578125,-7.1661640625,-6.6860234375,-18.34568359375,-17.60652734375,-14.30590625,-6.78908984375,-18.65405078125,-16.60391796875,-8.73727734375,-7.76257421875,-12.73326953125,-13.02207421875,-8.6325625,-6.15259765625,-6.30076171875
-35.768984375,-19.05433203125,-5.9279921875,-37.8707265625,-27.3572265625,-22.78465234375,-29.87155078125,22.54668359375,-30.39879296875,-25.1557890625,-10.72546484375,-1.01370703125,-28.9847421875,-26.209484375,-19.15442578125,-11.5161640625,-17.7970234375,-22.12368359375,-23.86952734375,-19.72090625,-11.15308984375,-22.58005078125,-21.80391796875,-13.82127734375,-11.44957421875,-17.52226953125,-16.98207421875,-12.9665625,-10.67159765625,-10.31576171875
-38.973984375,-24.06533203125,-11.1839921875,-39.9347265625,-32.3012265625,-27.01665234375,-36.20955078125,18.80368359375,-32.78779296875,-30.8297890625,-16.92646484375,-5.46670703125,-31.3987421875,-30.619484375,-25.01142578125,-17.0451640625,-31.3550234375,-25.54968359375,-29.82052734375,-26.28690625,-17.74908984375,-26.51205078125,-26.68991796875,-19.65227734375,-17.24657421875,-22.71426953125,-22.01007421875,-17.2705625,-16.10259765625,-16.03376171875
-41.283984375,-28.21033203125,-16.9719921875,-41.6417265625,-36.4282265625,-30.48565234375,-41.73955078125,13.76868359375,-34.64479296875,-36.1707890625,-22.80246484375,-10.68470703125,-33.3207421875,-34.205484375,-30.41042578125,-22.8311640625,-43.1370234375,-28.11968359375,-34.65852734375,-32.86590625,-25.08908984375,-29.59605078125,-30.36691796875,-25.24227734375,-23.96657421875,-27.29126953125,-26.73307421875,-20.2585625,-20.83259765625,-21.93676171875
-43.249984375,-31.58533203125,-22.7889921875,-43.6567265625,-39.8852265625,-33.45265234375,-45.98955078125,7.82868359375,-36.33279296875,-41.1227890625,-27.95346484375,-16.28170703125,-34.8067421875,-37.081484375,-35.17242578125,-28.3451640625,-49.9290234375,-29.93768359375,-38.29252734375,-38.76490625,-31.95708984375,-31.68405078125,-32.74591796875,-30.12927734375,-30.63657421875,-30.83326953125,-30.41707421875,-21.8605625,-24.24159765625,-27.14976171875
-45.477984375,-34.64533203125,-28.4569921875,-46.5277265625,-43.1102265625,-36.29665234375,-49.07955078125,1.21968359375,-38.37479296875,-45.8497890625,-32.35846484375,-22.03370703125,-36.1397421875,-39.640484375,-39.41142578125,-33.4331640625,-50.7950234375,-31.51168359375,-41.08152734375,-43.73490625,-37.67908984375,-33.28305078125,-34.38291796875,-34.27527734375,-36.63957421875,-33.44626953125,-33.06107421875,-23.0975625,-26.77359765625,-31.56676171875
-48.273984375,-37.75033203125,-33.7849921875,-50.3557265625,-46.4122265625,-39.20165234375,-51.38355078125,-5.80831640625,-41.05779296875,-50.3897890625,-36.08046484375,-27.55370703125,-37.7527421875,-42.143484375,-43.19042578125,-38.0291640625,-47.2540234375,-33.36068359375,-43.38652734375,-47.72790625,-42.03008984375,-35.17105078125,-35.98791796875,-37.75327734375,-41.61157421875,-35.46626953125,-35.12107421875,-25.3395625,-29.41359765625,-35.55976171875
-51.481984375,-40.87233203125,-38.1889921875,-54.6917265625,-49.7402265625,-42.12465234375,-53.24855078125,-12.81131640625,-44.20179296875,-54.4687890625,-39.06546484375,-32.17370703125,-40.1077421875,-44.496484375,-46.33242578125,-41.9261640625,-42.3100234375,-35.69668359375,-45.29952734375,-50.68390625,-45.01008984375,-37.94105078125,-37.98691796875,-40.53127734375,-45.31957421875,-37.17626953125,-37.12507421875,-29.4375625,-32.99759765625,-39.54476171875
-54.582984375,-43.65233203125,-40.5799921875,-58.6837265625,-52.7302265625,-44.85865234375,-54.87855078125,-19.07531640625,-47.25279296875,-57.5557890625,-41.15746484375,-35.19670703125,-43.4907421875,-46.343484375,-48.46742578125,-44.8041640625,-38.8090234375,-38.35668359375,-46.64352734375,-52.51790625,-46.70908984375,-41.65505078125,-40.36691796875,-42.48827734375,-47.66557421875,-38.66026953125,-39.42607421875,-35.2145625,-37.72259765625,-43.65676171875
-56.950984375,-45.68633203125,-39.8309921875,-61.3937265625,-54.9402265625,-47.14165234375,-56.33955078125,-23.78031640625,-49.58279296875,-59.1197890625,-42.25346484375,-36.38970703125,-47.7787421875,-47.369484375,-49.25942578125,-46.4641640625,-38.0470234375,-40.94868359375,-47.17252734375,-53.25190625,-47.31008984375,-45.77205078125,-42.82191796875,-43.58627734375,-48.78257421875,-39.85526953125,-42.15507421875,-41.5515625,-43.09259765625,-47.70676171875
-58.094984375,-46.81233203125,-35.6919921875,-62.2037265625,-56.1542265625,-48.86165234375,-57.63555078125,-26.38631640625,-50.80979296875,-58.9887890625,-42.44646484375,-36.30270703125,-52.3447421875,-47.541484375,-48.67042578125,-47.0401640625,-39.4400234375,-43.06568359375,-46.85052734375,-53.15190625,-47.15508984375,-49.39005078125,-45.00491796875,-44.01627734375,-49.09557421875,-40.73526953125,-45.29807421875,-46.9865625,-48.27459765625,-51.37476171875
-57.744984375,-47.22033203125,-29.5739921875,-61.1537265625,-56.5692265625,-50.19365234375,-58.77155078125,-26.99731640625,-50.99879296875,-57.5647890625,-42.05246484375,-36.14670703125,-56.2567421875,-47.169484375,-47.09742578125,-47.0081640625,-41.3210234375,-44.49168359375,-46.01952734375,-52.73290625,-46.75908984375,-51.69705078125,-46.76891796875,-44.22427734375,-49.25157421875,-41.50226953125,-48.81107421875,-50.4975625,-52.59459765625,-54.48076171875
-55.834984375,-47.37833203125,-24.4309921875,-58.9817265625,-56.7522265625,-51.48565234375,-59.79155078125,-26.36131640625,-50.69379296875,-55.7217890625,-41.52546484375,-37.21070703125,-58.7007421875,-46.827484375,-45.30442578125,-47.0041640625,-42.2030234375,-45.34068359375,-45.34952734375,-52.62990625,-46.71208984375,-52.43005078125,-48.27191796875,-44.80527734375,-49.95757421875,-42.63126953125,-52.69607421875,-52.0145625,-55.88259765625,-57.12176171875
-52.595984375,-47.85633203125,-23.5369921875,-56.8787265625,-57.4312265625,-52.99965234375,-60.84955078125,-25.49031640625,-50.75979296875,-54.5107890625,-41.37546484375,-40.19470703125,-59.3807421875,-47.200484375,-44.21142578125,-47.6061640625,-41.7220234375,-46.10568359375,-45.61252734375,-53.44790625,-47.54208984375,-52.10905078125,-49.96491796875,-46.34627734375,-51.80557421875,-44.72126953125,-57.02007421875,-52.4405625,-58.49159765625,-59.63276171875
-48.782984375,-49.18333203125,-28.7779921875,-56.1137265625,-59.2802265625,-54.90765234375,-62.33755078125,-25.22831640625,-52.08879296875,-54.8977890625,-42.12346484375,-44.86470703125,-58.6737421875,-48.927484375,-44.67242578125,-49.2251640625,-40.8290234375,-47.56668359375,-47.46852734375,-55.67190625,-49.60908984375,-51.89605078125,-52.44691796875,-49.28927734375,-55.15957421875,-48.25126953125,-61.90207421875,-53.2275625,-61.09559765625,-62.43776171875
-45.764984375,-51.74833203125,-39.4909921875,-57.7297265625,-62.7932265625,-57.49965234375,-64.89655078125,-26.06931640625,-55.27379296875,-57.5847890625,-44.22546484375,-50.22070703125,-57.5107421875,-52.429484375,-47.30742578125,-52.0831640625,-41.2600234375,-50.53268359375,-51.30652734375,-59.61790625,-53.06608984375,-53.14305078125,-56.24191796875,-53.83727734375,-60.09757421875,-53.34826953125,-67.45307421875,-55.7375625,-64.37759765625,-65.87476171875
-45.178984375,-55.70633203125,-52.5879921875,-62.2807265625,-68.1462265625,-61.20065234375,-69.11255078125,-28.19231640625,-60.39279296875,-62.7757890625,-47.90446484375,-55.03770703125,-57.0957421875,-57.743484375,-52.28942578125,-56.1701640625,-44.5490234375,-55.46968359375,-57.09252734375,-65.28990625,-57.81808984375,-56.77805078125,-61.52391796875,-59.84127734375,-66.34357421875,-59.63926953125,-73.63107421875,-60.6255625,-68.67859765625,-70.02076171875
-48.203984375,-60.88133203125,-63.9169921875,-69.6017265625,-75.0392265625,-66.23965234375,-75.02955078125,-31.52231640625,-66.97979296875,-69.9627890625,-52.91846484375,-58.49670703125,-58.5657421875,-64.409484375,-59.14142578125,-61.1841640625,-50.9940234375,-62.17868359375,-64.22652734375,-72.17790625,-63.43508984375,-62.84605078125,-67.93591796875,-66.68727734375,-73.19757421875,-66.25626953125,-80.07007421875,-67.4975625,-73.74759765625,-74.55476171875
-54.949984375,-66.74933203125,-70.1689921875,-78.7747265625,-82.6972265625,-72.39065234375,-81.90155078125,-35.72431640625,-74.19279296875,-78.0117890625,-58.48746484375,-60.58370703125,-62.6247421875,-71.530484375,-66.75242578125,-66.5341640625,-59.1320234375,-69.75268359375,-71.62652734375,-79.22790625,-69.11008984375,-70.43405078125,-74.60791796875,-73.33727734375,-79.58957421875,-72.07626953125,-86.04607421875,-75.0205625,-78.73659765625,-78.78576171875
-64.328984375,-72.56033203125,-70.3429921875,-88.3997265625,-90.0992265625,-79.05765234375,-88.45455078125,-40.18531640625,-81.08779296875,-85.6107890625,-63.50946484375,-62.01470703125,-69.2487421875,-78.027484375,-73.73242578125,-71.5021640625,-66.2350234375,-76.88468359375,-78.09052734375,-85.13890625,-73.81608984375,-78.06305078125,-80.45291796875,-78.63827734375,-84.37457421875,-76.16026953125,-90.68807421875,-81.4865625,-82.55159765625,-81.89576171875
-74.460984375,-77.54733203125,-66.0439921875,-97.0677265625,-96.3102265625,-85.51265234375,-93.46055078125,-44.06231640625,-86.88379296875,-91.7477890625,-66.98246484375,-63.69770703125,-77.6117421875,-83.014484375,-78.94842578125,-75.4941640625,-69.8040234375,-82.41468359375,-82.76252734375,-88.88690625,-76.70908984375,-84.33905078125,-84.62291796875,-81.77827734375,-86.80557421875,-78.16526953125,-93.36207421875,-85.5715625,-84.38559765625,-83.32076171875
-83.327984375,-81.17833203125,-60.5759921875,-103.7667265625,-100.6942265625,-90.96865234375,-96.23055078125,-46.50831640625,-91.14679296875,-95.9207890625,-68.39946484375,-66.08170703125,-86.3457421875,-86.121484375,-81.92842578125,-78.2581640625,-69.1530234375,-85.82868359375,-85.39952734375,-90.18790625,-77.62008984375,-88.54205078125,-86.88391796875,-82.67627734375,-86.96257421875,-78.50326953125,-94.00307421875,-86.9125625,-84.13159765625,-83.08876171875
-89.433984375,-83.34733203125,-57.3479921875,-108.0597265625,-103.0192265625,-94.62265234375,-96.80555078125,-47.06331640625,-93.85279296875,-98.1137890625,-67.94246484375,-68.91070703125,-94.0457421875,-87.616484375,-82.97042578125,-79.9681640625,-65.9090234375,-87.45468359375,-86.36152734375,-89.65390625,-77.29608984375,-90.84305078125,-87.73391796875,-82.07127734375,-85.86057421875,-78.17726953125,-93.23607421875,-86.2195625,-82.48759765625,-81.93176171875
-92.236984375,-84.41533203125,-58.3959921875,-110.0387265625,-103.4992265625,-95.88665234375,-95.86055078125,-45.96131640625,-95.33679296875,-98.6827890625,-66.38346484375,-71.48470703125,-99.7727421875,-88.245484375,-82.95742578125,-81.1281640625,-63.0060234375,-88.24668359375,-86.41352734375,-88.56090625,-77.16608984375,-92.08305078125,-88.16091796875,-81.23827734375,-85.08557421875,-78.39626953125,-92.19407421875,-84.8975625,-80.67659765625,-81.07176171875
-92.223984375,-85.02833203125,-63.6419921875,-110.1587265625,-102.7472265625,-94.68365234375,-94.39355078125,-43.98131640625,-96.14279296875,-98.2017890625,-64.72546484375,-73.12770703125,-103.3087421875,-88.862484375,-82.94042578125,-82.3151640625,-62.9250234375,-89.27468359375,-86.39352734375,-88.27990625,-78.64608984375,-93.25905078125,-89.15091796875,-81.41627734375,-86.07257421875,-80.11926953125,-92.05407421875,-84.3575625,-79.90259765625,-81.69976171875
-90.648984375,-85.79033203125,-71.1419921875,-109.1127265625,-101.5962265625,-91.60465234375,-93.33055078125,-41.93431640625,-96.83479296875,-97.2797890625,-63.74746484375,-73.53370703125,-105.1017421875,-90.034484375,-83.68242578125,-83.8721640625,-66.3790234375,-91.19968359375,-86.88752734375,-89.65890625,-82.35008984375,-95.06205078125,-91.20491796875,-83.22427734375,-89.38957421875,-83.67726953125,-93.50407421875,-85.4115625,-80.83459765625,-84.41776171875
-89.125984375,-87.01733203125,-78.1889921875,-107.8917265625,-100.9522265625,-88.00665234375,-93.30955078125,-40.34831640625,-97.86479296875,-96.5557890625,-63.70846484375,-72.91570703125,-105.9827421875,-91.854484375,-85.43042578125,-85.7441640625,-72.1140234375,-94.04368359375,-88.10652734375,-92.67890625,-87.67208984375,-97.70405078125,-94.14191796875,-86.40027734375,-94.44157421875,-88.66826953125,-96.44107421875,-88.0745625,-83.44159765625,-89.00276171875
-89.260984375,-88.74033203125,-82.6799921875,-107.9157265625,-101.7722265625,-86.14265234375,-94.76155078125,-39.70031640625,-99.54179296875,-96.9057890625,-64.40046484375,-72.02770703125,-106.8207421875,-94.023484375,-88.06642578125,-87.5751640625,-77.6750234375,-97.32968359375,-90.06352734375,-96.60490625,-92.99308984375,-101.08005078125,-97.28191796875,-90.02027734375,-99.78157421875,-94.19126953125,-100.10207421875,-91.8445625,-87.26659765625,-94.65776171875
-92.295984375,-90.84633203125,-83.9699921875,-110.8867265625,-105.0302265625,-88.90865234375,-98.09855078125,-40.79731640625,-102.03979296875,-99.5177890625,-65.43246484375,-71.97970703125,-108.2187421875,-96.100484375,-91.43342578125,-88.9651640625,-80.5280234375,-100.43668359375,-92.86252734375,-100.47890625,-96.41008984375,-105.01605078125,-99.84991796875,-93.03527734375,-103.81857421875,-99.30426953125,-103.51907421875,-96.1735625,-91.86259765625,-100.52176171875
-98.756984375,-93.21533203125,-82.7629921875,-118.1257265625,-111.4132265625,-98.73565234375,-103.65355078125,-44.59231640625,-105.38579296875,-105.4477890625,-66.50046484375,-73.77270703125,-110.3507421875,-97.750484375,-95.48842578125,-89.6941640625,-79.0640234375,-102.91768359375,-96.72052734375,-103.61090625,-96.61308984375,-109.39205078125,-101.34191796875,-94.78127734375,-105.53057421875,-103.43026953125,-106.00507421875,-100.7475625,-97.01459765625,-106.05776171875
-108.202984375,-95.74033203125,-80.3009921875,-129.6917265625,-120.8172265625,-115.95765234375,-111.32355078125,-51.38531640625,-109.42479296875,-114.8267890625,-67.47846484375,-77.70970703125,-113.0277421875,-98.871484375,-100.17942578125,-89.7941640625,-73.2310234375,-104.66568359375,-101.68752734375,-105.81990625,-93.50308984375,-114.09905078125,-101.71791796875,-95.20527734375,-104.86457421875,-106.52126953125,-107.41507421875,-105.4615625,-102.63459765625,-111.13676171875
-119.294984375,-98.30333203125,-77.5659921875,-143.9507265625,-132.0632265625,-137.92465234375,-120.28155078125,-60.15531640625,-113.82179296875,-126.3987890625,-68.34646484375,-83.09870703125,-115.9047421875,-99.606484375,-105.24442578125,-89.4991640625,-64.6090234375,-105.89468359375,-107.36752734375,-107.39090625,-88.28108984375,-118.94905078125,-101.36891796875,-94.78527734375,-102.69957421875,-108.97126953125,-108.10807421875,-110.2255625,-108.53359765625,-115.90576171875
-119.294984375,-98.30333203125,-77.5659921875,-143.9507265625,-132.0632265625,-137.92465234375,-120.28155078125,-60.15531640625,-113.82179296875,-126.3987890625,-68.34646484375,-83.09870703125,-115.9047421875,-99.606484375,-105.24442578125,-89.4991640625,-64.6090234375,-105.89468359375,-107.36752734375,-107.39090625,-88.28108984375,-118.94905078125,-101.36891796875,-94.78527734375,-102.69957421875,-108.97126953125,-108.10807421875,-110.2255625,-108.53359765625,-115.90576171875
