"Fp1","Fpz","Fp2","F7","F3","Fz","F4","F8","FC5","FC1","FC2","FC6","T7","C3","Cz","C4","T8","CP5","CP1","CP2","CP6","P7","P3","Pz","P4","P8","POz","O1","Oz","O2"
-6.61240234375,-3.97701953125,2.87168359375,-10.25506640625,-10.22840234375,-9.482890625,-6.07746875,4.81194921875,-9.7166171875,-10.706546875,-5.64350390625,0.57602734375,-1.96634765625,-13.2932265625,-11.476203125,-9.2554453125,0.4564453125,-9.851421875,-13.92808203125,-9.87983984375,-4.96076171875,-1.84276171875,-7.2774453125,-9.19727734375,-9.20135546875,4.4592578125,-4.8135703125,-3.26189453125,-3.3436640625,-12.95426171875
-6.05840234375,-2.78301953125,3.47768359375,-12.70406640625,-10.71840234375,-8.373890625,-5.13546875,5.01194921875,-11.1566171875,-10.069546875,-4.41850390625,1.82102734375,-2.83734765625,-11.3352265625,-10.136203125,-8.1854453125,2.8934453125,-9.096421875,-12.81008203125,-8.71383984375,-3.14876171875,-0.31476171875,-6.5354453125,-8.63327734375,-8.09135546875,4.7122578125,-4.0695703125,-2.00089453125,-2.4656640625,-12.10826171875
-6.08340234375,-2.15701953125,3.76468359375,-14.49006640625,-11.41340234375,-8.126890625,-4.72546875,5.17394921875,-12.6716171875,-10.184546875,-3.84450390625,2.09802734375,-3.44634765625,-10.8372265625,-9.709203125,-7.4294453125,4.6394453125,-9.387421875,-12.43408203125,-7.82383984375,-1.93276171875,0.75423828125,-6.4204453125,-8.36827734375,-7.28835546875,4.7912578125,-4.0365703125,-1.51589453125,-2.4176640625,-12.00526171875
-6.68240234375,-2.15201953125,3.54568359375,-15.35006640625,-12.02940234375,-8.560890625,-4.67646875,5.26194921875,-13.8916171875,-10.790546875,-3.74950390625,1.56602734375,-3.67334765625,-11.6932265625,-10.007203125,-6.8534453125,5.8404453125,-10.568421875,-12.69708203125,-7.11283984375,-1.24276171875,1.21723828125,-6.8544453125,-8.26627734375,-6.61635546875,4.9552578125,-4.6445703125,-1.81489453125,-3.2196640625,-12.58326171875
-7.64840234375,-2.65401953125,2.71168359375,-15.17106640625,-12.19540234375,-9.205890625,-4.63446875,5.23894921875,-14.4026171875,-11.362546875,-3.74750390625,0.73702734375,-3.48134765625,-13.3172265625,-10.545203125,-6.2154453125,6.8154453125,-12.126421875,-13.26408203125,-6.40783984375,-0.82776171875,1.03023828125,-7.5544453125,-8.09327734375,-5.78335546875,5.4712578125,-5.5815703125,-2.62389453125,-4.5966640625,-13.51626171875
-8.68440234375,-3.46101953125,1.33368359375,-14.07906640625,-11.73540234375,-9.620890625,-4.30646875,5.07494921875,-14.0786171875,-11.474546875,-3.52250390625,0.16902734375,-2.98434765625,-15.0142265625,-10.873203125,-5.3474453125,7.7824453125,-13.515421875,-13.81308203125,-5.62583984375,-0.424761718749999,0.27823828125,-8.2174453125,-7.69227734375,-4.59935546875,6.3792578125,-6.4815703125,-3.50589453125,-6.0866640625,-14.37126171875
-9.54240234375,-4.39501953125,-0.32231640625,-12.46006640625,-10.86640234375,-9.681890625,-3.68446875,4.77394921875,-13.2586171875,-11.098546875,-3.08150390625,0.171027343750001,-2.45834765625,-16.3572265625,-10.879203125,-4.3344453125,8.6554453125,-14.455421875,-14.25008203125,-4.91183984375,0.0602382812500002,-0.82076171875,-8.7014453125,-7.14927734375,-3.16935546875,7.4062578125,-7.1225703125,-4.03989453125,-7.2106640625,-14.78926171875
-10.14440234375,-5.37401953125,-1.89231640625,-10.86806640625,-10.17540234375,-9.650890625,-3.08446875,4.34394921875,-12.6456171875,-10.679546875,-2.80350390625,0.66302734375,-2.24034765625,-17.3672265625,-10.864203125,-3.5484453125,9.0414453125,-15.027421875,-14.77708203125,-4.64483984375,0.46223828125,-1.96276171875,-9.1044453125,-6.81127734375,-1.93035546875,8.1142578125,-7.5105703125,-3.98489453125,-7.6536640625,-14.61726171875
-10.59140234375,-6.40601953125,-3.06631640625,-9.84606640625,-10.35940234375,-10.015890625,-2.99446875,3.77194921875,-12.9536171875,-10.920546875,-3.26750390625,1.23902734375,-2.55434765625,-18.3842265625,-11.360203125,-3.5124453125,8.4304453125,-15.544421875,-15.75908203125,-5.28383984375,0.415238281250001,-2.85076171875,-9.6804453125,-7.15027734375,-1.47935546875,8.1422578125,-7.8425703125,-3.36789453125,-7.3606640625,-13.93626171875
-11.05540234375,-7.49701953125,-3.70031640625,-9.70306640625,-11.87240234375,-11.204890625,-3.81046875,3.00094921875,-14.5336171875,-12.407546875,-4.93750390625,1.38502734375,-3.39834765625,-19.7552265625,-12.821203125,-4.6474453125,6.4814453125,-16.309421875,-17.47308203125,-7.13183984375,-0.48476171875,-3.31476171875,-10.6604453125,-8.52227734375,-2.29335546875,7.3612578125,-8.3745703125,-2.45189453125,-6.5406640625,-13.00626171875
-11.64640234375,-8.56701953125,-3.84631640625,-10.40106640625,-14.66540234375,-13.345890625,-5.64046875,1.95794921875,-17.1786171875,-15.291546875,-7.91950390625,0.68902734375,-4.56834765625,-21.5302265625,-15.360203125,-7.0714453125,3.2344453125,-17.411421875,-19.90108203125,-10.14883984375,-2.48876171875,-3.39676171875,-12.0764453125,-10.96827734375,-4.49635546875,5.8912578125,-9.2755703125,-1.62089453125,-5.5646640625,-12.14826171875
-12.34940234375,-9.45701953125,-3.68731640625,-11.64006640625,-18.17440234375,-16.175890625,-8.24546875,0.56394921875,-20.2246171875,-19.178546875,-11.87350390625,-1.01197265625,-5.79634765625,-23.3712265625,-18.650203125,-10.5284453125,-0.8345546875,-18.684421875,-22.66108203125,-13.89883984375,-5.52476171875,-3.32376171875,-13.7104453125,-14.16027734375,-7.77135546875,4.0192578125,-10.5345703125,-1.21889453125,-4.7906640625,-11.60526171875
-13.01840234375,-9.99901953125,-3.44331640625,-13.05706640625,-21.52340234375,-19.111890625,-11.12346875,-1.22305078125,-22.8536171875,-23.266546875,-16.11150390625,-3.59297265625,-6.87034765625,-24.7232265625,-22.021203125,-14.4654453125,-4.9555546875,-19.819421875,-25.13008203125,-17.65783984375,-9.14376171875,-3.36276171875,-15.1894453125,-17.48727734375,-11.45635546875,2.0812578125,-11.9295703125,-1.39889453125,-4.4026640625,-11.44026171875
-13.42140234375,-10.09201953125,-3.27931640625,-14.36406640625,-23.85240234375,-21.451890625,-13.66446875,-3.33505078125,-24.4076171875,-26.625546875,-19.79450390625,-6.66797265625,-7.69134765625,-25.0942265625,-24.680203125,-18.1964453125,-8.3585546875,-20.533421875,-26.65508203125,-20.62883984375,-12.61676171875,-3.66076171875,-16.1434453125,-20.24827734375,-14.75435546875,0.3542578125,-13.1105703125,-2.06989453125,-4.3526640625,-11.52126171875
-13.30940234375,-9.74001953125,-3.25431640625,-15.36106640625,-24.62040234375,-22.626890625,-15.32646875,-5.52105078125,-24.5746171875,-28.508546875,-22.16450390625,-9.68397265625,-8.26234765625,-24.2842265625,-25.978203125,-21.0774453125,-10.5785546875,-20.665421875,-26.79708203125,-22.18983984375,-15.18576171875,-4.17676171875,-16.3524453125,-21.86927734375,-17.00335546875,-1.0247421875,-13.7425703125,-2.95189453125,-4.4226640625,-11.61126171875
-12.56840234375,-9.07101953125,-3.34731640625,-15.92106640625,-23.77840234375,-22.386890625,-15.78046875,-7.38105078125,-23.4316171875,-28.587546875,-22.75650390625,-12.08197265625,-8.65234765625,-22.4402265625,-25.625203125,-22.6604453125,-11.5775546875,-20.201421875,-25.48208203125,-22.08083984375,-16.35676171875,-4.74976171875,-15.7944453125,-22.07227734375,-17.88435546875,-2.0567421875,-13.6515703125,-3.73089453125,-4.3906640625,-11.52326171875
-11.33740234375,-8.32101953125,-3.48531640625,-16.00706640625,-21.76640234375,-20.875890625,-14.98546875,-8.49605078125,-21.3906171875,-27.055546875,-21.52550390625,-13.48497265625,-8.96234765625,-19.9742265625,-23.763203125,-22.7834453125,-11.6455546875,-19.237421875,-23.03108203125,-20.47483984375,-16.08676171875,-5.22976171875,-14.6304453125,-20.94527734375,-17.51335546875,-2.8087421875,-12.9085703125,-4.21289453125,-4.1636640625,-11.22626171875
-9.99440234375,-7.74701953125,-3.55831640625,-15.70806640625,-19.32040234375,-18.541890625,-13.16846875,-8.57805078125,-19.0746171875,-24.512546875,-18.84350390625,-13.79897265625,-9.28134765625,-17.3742265625,-20.881203125,-21.5894453125,-11.1755546875,-17.944421875,-20.03008203125,-17.88083984375,-14.76576171875,-5.56076171875,-13.1414453125,-18.88127734375,-16.35635546875,-3.3097421875,-11.7915703125,-4.38389453125,-3.8226640625,-10.83526171875
-8.96140234375,-7.51101953125,-3.42931640625,-15.18006640625,-17.17840234375,-15.955890625,-10.71546875,-7.53805078125,-17.1156171875,-21.701546875,-15.33050390625,-13.19497265625,-9.63634765625,-15.0352265625,-17.614203125,-19.4514453125,-10.4535546875,-16.531421875,-17.10908203125,-14.94783984375,-13.01076171875,-5.76676171875,-11.6364453125,-16.42227734375,-15.01735546875,-3.4897421875,-10.6655703125,-4.36189453125,-3.5436640625,-10.49326171875
-8.48540234375,-7.61201953125,-2.99731640625,-14.54606640625,-15.80240234375,-13.589890625,-8.04046875,-5.49305078125,-15.9296171875,-19.201546875,-11.63050390625,-11.98197265625,-9.96934765625,-13.1682265625,-14.507203125,-16.8334453125,-9.5755546875,-15.207421875,-14.71808203125,-12.21683984375,-11.37576171875,-5.87576171875,-10.3604453125,-14.07227734375,-13.97035546875,-3.2287421875,-9.8265703125,-4.29389453125,-3.4766640625,-10.24126171875
-8.55640234375,-7.92601953125,-2.31831640625,-13.83006640625,-15.25840234375,-11.689890625,-5.50246875,-2.79105078125,-15.5936171875,-17.250546875,-8.23650390625,-10.48397265625,-10.15834765625,-11.8122265625,-11.878203125,-14.1644453125,-8.5035546875,-14.152421875,-13.01708203125,-9.98883984375,-10.15176171875,-5.86476171875,-9.4374453125,-12.16127734375,-13.39535546875,-2.4787421875,-9.3925703125,-4.28489453125,-3.6526640625,-9.98026171875
-8.98640234375,-8.31801953125,-1.66831640625,-13.00206640625,-15.28840234375,-10.299890625,-3.42446875,0.00394921874999982,-15.8876171875,-15.776546875,-5.45450390625,-9.00697265625,-10.10234765625,-10.9202265625,-9.839203125,-11.8004453125,-7.2155546875,-13.505421875,-11.93908203125,-8.33783984375,-9.36876171875,-5.66676171875,-8.8844453125,-10.82427734375,-13.18935546875,-1.4007421875,-9.3155703125,-4.38389453125,-3.9746640625,-9.54326171875
-9.57140234375,-8.73501953125,-1.46831640625,-12.09206640625,-15.53440234375,-9.407890625,-2.13046875,2.21694921875,-16.4766171875,-14.581546875,-3.50150390625,-7.84797265625,-9.79034765625,-10.4352265625,-8.440203125,-10.0544453125,-5.8485546875,-13.346421875,-11.35208203125,-7.24983984375,-8.94676171875,-5.24176171875,-8.6694453125,-10.05027734375,-13.14335546875,-0.3787421875,-9.4925703125,-4.61889453125,-4.2906640625,-8.82226171875
-10.21940234375,-9.22901953125,-2.09431640625,-11.30306640625,-15.76540234375,-9.064890625,-1.93146875,3.25794921875,-17.1056171875,-13.565546875,-2.57850390625,-7.28497265625,-9.33734765625,-10.3222265625,-7.776203125,-9.2024453125,-4.7205546875,-13.667421875,-11.18708203125,-6.74283984375,-8.85876171875,-4.64776171875,-8.7524453125,-9.76627734375,-13.12635546875,0.1182578125,-9.8645703125,-5.01389453125,-4.4846640625,-7.85426171875
-10.96340234375,-9.89201953125,-3.66131640625,-11.02806640625,-15.96740234375,-9.368890625,-2.99946875,2.84094921875,-17.6696171875,-12.827546875,-2.84750390625,-7.49297265625,-8.95234765625,-10.5532265625,-7.967203125,-9.4044453125,-4.1875546875,-14.332421875,-11.45408203125,-6.85983984375,-9.16376171875,-4.06276171875,-9.0674453125,-9.87127734375,-13.15735546875,-0.2287421875,-10.4095703125,-5.56489453125,-4.5386640625,-6.81226171875
-11.86140234375,-10.74601953125,-5.90131640625,-11.70006640625,-16.24640234375,-10.327890625,-5.19746875,1.13394921875,-18.1496171875,-12.586546875,-4.27950390625,-8.42197265625,-8.85334765625,-11.0592265625,-9.016203125,-10.5944453125,-4.4485546875,-15.070421875,-12.14108203125,-7.56183984375,-9.91576171875,-3.73976171875,-9.4914453125,-10.23227734375,-13.33335546875,-1.4377421875,-11.0755703125,-6.19189453125,-4.5226640625,-5.91726171875
-12.81540234375,-11.62301953125,-8.18631640625,-13.49306640625,-16.63340234375,-11.739890625,-8.01846875,-1.22405078125,-18.4656171875,-12.971546875,-6.53350390625,-9.75397265625,-9.16234765625,-11.7022265625,-10.675203125,-12.4234453125,-5.4065546875,-15.524421875,-13.10608203125,-8.63083984375,-11.04676171875,-3.87076171875,-9.8434453125,-10.66727734375,-13.70435546875,-3.2447421875,-11.7075703125,-6.71889453125,-4.5266640625,-5.32726171875
-13.49440234375,-12.16601953125,-9.72431640625,-16.08406640625,-16.95940234375,-13.188890625,-10.71246875,-3.32705078125,-18.4246171875,-13.851546875,-8.97950390625,-10.98997265625,-9.81234765625,-12.2672265625,-12.451203125,-14.3434453125,-6.6985546875,-15.363421875,-14.04508203125,-9.68383984375,-12.30476171875,-4.46276171875,-9.9374453125,-10.95227734375,-14.17935546875,-5.2747421875,-12.0695703125,-6.91989453125,-4.5776640625,-5.07426171875
-13.45940234375,-11.96801953125,-9.89031640625,-18.68906640625,-16.90940234375,-14.191890625,-12.57946875,-4.38205078125,-17.8116171875,-14.844546875,-10.90350390625,-11.65397265625,-10.55234765625,-12.5102265625,-13.772203125,-15.8014453125,-7.8695546875,-14.424421875,-14.57808203125,-10.31783984375,-13.32076171875,-5.28476171875,-9.6574453125,-10.86927734375,-14.54935546875,-7.2447421875,-11.9275703125,-6.61789453125,-4.6106640625,-5.08426171875
-12.44740234375,-10.81301953125,-8.54631640625,-20.40106640625,-16.22240234375,-14.411890625,-13.25446875,-4.08705078125,-16.5286171875,-15.497546875,-11.79750390625,-11.51097265625,-11.05834765625,-12.2372265625,-14.235203125,-16.4524453125,-8.5855546875,-12.814421875,-14.42108203125,-10.29683984375,-13.76176171875,-5.99176171875,-9.0294453125,-10.28427734375,-14.58335546875,-9.0487421875,-11.1665703125,-5.78789453125,-4.5116640625,-5.25526171875
-10.57840234375,-8.83101953125,-6.15031640625,-20.56606640625,-14.86240234375,-13.801890625,-12.82846875,-2.75005078125,-14.6626171875,-15.506546875,-11.55750390625,-10.65597265625,-11.08934765625,-11.4042265625,-13.764203125,-16.2624453125,-8.7515546875,-10.902421875,-13.54008203125,-9.66483984375,-13.48276171875,-6.32576171875,-8.2134453125,-9.21427734375,-14.15035546875,-10.6857421875,-9.8705703125,-4.60489453125,-4.2096640625,-5.53026171875
-8.33940234375,-6.47401953125,-3.58131640625,-18.98206640625,-13.02840234375,-12.590890625,-11.73346875,-1.08705078125,-12.4136171875,-14.831546875,-10.46350390625,-9.43597265625,-10.58734765625,-10.1482265625,-12.608203125,-15.4604453125,-8.4745546875,-9.151421875,-12.16908203125,-8.69583984375,-12.57976171875,-6.24976171875,-7.4314453125,-7.82427734375,-13.25635546875,-12.1077421875,-8.3085703125,-3.39289453125,-3.7096640625,-5.89526171875
-6.34740234375,-4.31001953125,-1.75731640625,-15.91706640625,-11.02240234375,-11.128890625,-10.48046875,0.15594921875,-9.9946171875,-13.647546875,-8.97950390625,-8.25297265625,-9.66534765625,-8.7062265625,-11.158203125,-14.3674453125,-7.9465546875,-7.883421875,-10.68008203125,-7.72883984375,-11.29976171875,-5.90576171875,-6.8354453125,-6.36827734375,-12.00335546875,-13.1017421875,-6.8075703125,-2.48189453125,-3.0686640625,-6.31926171875
-5.06040234375,-2.76901953125,-1.24331640625,-12.00406640625,-9.08640234375,-9.694890625,-9.40646875,0.54794921875,-7.5846171875,-12.204546875,-7.49750390625,-7.37097265625,-8.53234765625,-7.2742265625,-9.739203125,-13.2354453125,-7.3625546875,-7.112421875,-9.37808203125,-6.98483984375,-9.89476171875,-5.44576171875,-6.4104453125,-5.09227734375,-10.52035546875,-13.3137421875,-5.5935703125,-2.04289453125,-2.3366640625,-6.69226171875
-4.58840234375,-1.98901953125,-2.04131640625,-8.07106640625,-7.33440234375,-8.405890625,-8.57846875,0.12694921875,-5.3666171875,-10.694546875,-6.18650390625,-6.82197265625,-7.40334765625,-5.8752265625,-8.490203125,-12.1584453125,-6.8865546875,-6.567421875,-8.35908203125,-6.48983984375,-8.49476171875,-4.89376171875,-5.9804453125,-4.16127734375,-8.92735546875,-12.4427421875,-4.7185703125,-2.02389453125,-1.5246640625,-6.83926171875
-4.68840234375,-1.80501953125,-3.63431640625,-4.89606640625,-5.78340234375,-7.243890625,-7.86746875,-0.66605078125,-3.5436171875,-9.200546875,-5.00950390625,-6.44297265625,-6.43134765625,-4.3722265625,-7.386203125,-11.0874453125,-6.6115546875,-5.881421875,-7.52808203125,-6.11583984375,-7.08476171875,-4.14976171875,-5.3384453125,-3.63927734375,-7.35435546875,-10.4817421875,-4.1015703125,-2.20389453125,-0.6516640625,-6.60026171875
-4.93940234375,-1.89201953125,-5.26031640625,-2.97906640625,-4.42940234375,-6.151890625,-7.10346875,-1.25605078125,-2.2876171875,-7.726546875,-3.84750390625,-6.00197265625,-5.66034765625,-2.5922265625,-6.327203125,-9.9054453125,-6.5095546875,-4.803421875,-6.71008203125,-5.69183984375,-5.57176171875,-3.10076171875,-4.3924453125,-3.49827734375,-5.96335546875,-7.8317421875,-3.6415703125,-2.34689453125,0.192335937499999,-5.93026171875
-5.00640234375,-1.97201953125,-6.26431640625,-2.39706640625,-3.28340234375,-5.099890625,-6.21346875,-1.27605078125,-1.6496171875,-6.255546875,-2.62050390625,-5.34097265625,-5.00734765625,-0.474226562499998,-5.226203125,-8.5094453125,-6.4145546875,-3.312421875,-5.79408203125,-5.10283984375,-3.90276171875,-1.76176171875,-3.2264453125,-3.66327734375,-4.92535546875,-5.1737421875,-3.3115703125,-2.36489453125,0.8153359375,-4.95426171875
-4.82240234375,-1.97701953125,-6.35431640625,-2.83006640625,-2.35640234375,-4.102890625,-5.25746875,-0.75505078125,-1.4916171875,-4.776546875,-1.33650390625,-4.46197265625,-4.31334765625,1.8557734375,-4.059203125,-6.8904453125,-6.1025546875,-1.595421875,-4.80108203125,-4.34183984375,-2.16976171875,-0.34176171875,-2.0724453125,-4.05827734375,-4.37135546875,-3.1697421875,-3.1935703125,-2.38489453125,0.966335937499999,-3.95126171875
-4.60440234375,-2.08401953125,-5.67231640625,-3.71306640625,-1.62440234375,-3.213890625,-4.38246875,-0.0540507812500002,-1.5116171875,-3.258546875,-0.0475039062500002,-3.51697265625,-3.44234765625,4.0957734375,-2.867203125,-5.1614453125,-5.4395546875,0.0465781249999999,-3.87908203125,-3.50883984375,-0.631761718749999,0.81923828125,-1.2074453125,-4.63227734375,-4.35035546875,-2.1597421875,-3.4425703125,-2.66289453125,0.458335937499999,-3.26426171875
-4.71940234375,-2.59701953125,-4.69331640625,-4.48606640625,-1.02540234375,-2.486890625,-3.72246875,0.38294921875,-1.3666171875,-1.636546875,1.21549609375,-2.71997265625,-2.36534765625,5.8467734375,-1.734203125,-3.5314453125,-4.4745546875,1.324578125,-3.24408203125,-2.75683984375,0.381238281250001,1.40323828125,-0.860445312500001,-5.36127734375,-4.79835546875,-2.0197421875,-4.1875703125,-3.37889453125,-0.6956640625,-3.16226171875
-5.48540234375,-3.77901953125,-4.04431640625,-4.79006640625,-0.485402343750001,-1.925890625,-3.31546875,0.27294921875,-0.858617187500002,0.172453125000001,2.49349609375,-2.21897265625,-1.17634765625,6.7327734375,-0.731203125000002,-2.2044453125,-3.3875546875,2.048578125,-3.07908203125,-2.20483984375,0.65323828125,1.29523828125,-1.1224453125,-6.20327734375,-5.53235546875,-2.2647421875,-5.4085703125,-4.44689453125,-2.2196640625,-3.70526171875
-7.00340234375,-5.69101953125,-4.27231640625,-4.50906640625,0.0615976562499991,-1.465890625,-3.08046875,-0.36205078125,-0.0576171875,2.203453125,3.87249609375,-1.99997265625,-0.0483476562499989,6.5667734375,0.126796874999998,-1.2644453125,-2.3095546875,2.163578125,-3.45008203125,-1.87483984375,0.237238281250001,0.63923828125,-1.9074453125,-7.06127734375,-6.27935546875,-2.3487421875,-6.8695703125,-5.48489453125,-3.6616640625,-4.69326171875
-9.08040234375,-8.15001953125,-5.64231640625,-3.67506640625,0.638597656249997,-1.021890625,-2.89046875,-1.21205078125,0.714382812499998,4.355453125,5.37149609375,-1.90197265625,0.820652343750001,5.4577734375,0.850796874999997,-0.640445312500001,-1.1745546875,1.739578125,-4.27608203125,-1.70283984375,-0.52776171875,-0.26676171875,-2.9784453125,-7.79027734375,-6.76635546875,-2.0167421875,-8.2065703125,-5.99589453125,-4.5996640625,-5.76226171875
-11.32340234375,-10.80201953125,-8.03431640625,-2.38606640625,1.16859765625,-0.598890624999999,-2.68646875,-1.81805078125,1.0533828125,6.326453125,6.82949609375,-1.72197265625,1.24465234375,3.8087734375,1.405796875,-0.187445312500001,0.2634453125,0.927578125,-5.36408203125,-1.63783984375,-1.19576171875,-1.16376171875,-4.0304453125,-8.25527734375,-6.84635546875,-1.5027421875,-9.1135703125,-5.65089453125,-4.8696640625,-6.57326171875
-13.33640234375,-13.26301953125,-10.99731640625,-0.821066406250001,1.46259765625,-0.341890625,-2.54346875,-1.81305078125,0.699382812499998,7.655453125,7.87649609375,-1.35597265625,1.10765234375,2.1517734375,1.662796875,0.1665546875,2.2274453125,-0.0624218750000001,-6.48308203125,-1.71783984375,-1.44976171875,-1.97076171875,-4.8044453125,-8.40827734375,-6.58535546875,-1.4247421875,-9.4985703125,-4.50089453125,-4.6396640625,-6.99226171875
-14.89440234375,-15.22801953125,-13.91331640625,0.711933593749999,1.29759765625,-0.461890624999999,-2.60746875,-1.12605078125,-0.282617187500001,7.901453125,8.09449609375,-0.84597265625,0.428652343750001,0.910773437500001,1.457796875,0.3555546875,4.6884453125,-0.989421875,-7.42808203125,-2.05383984375,-1.25176171875,-2.76676171875,-5.1654453125,-8.30127734375,-6.22435546875,-2.4107421875,-9.4885703125,-2.96389453125,-4.2916640625,-7.12126171875
-15.95240234375,-16.49501953125,-16.18031640625,1.84493359375,0.581597656249999,-1.071890625,-2.95746875,-0.00805078125000014,-1.4866171875,6.924453125,7.26849609375,-0.32397265625,-0.606347656249999,0.253773437500001,0.735796874999998,0.223554687499998,7.2704453125,-1.629421875,-8.04508203125,-2.73283984375,-0.821761718749999,-3.64476171875,-5.1194453125,-8.03427734375,-6.03735546875,-4.6757421875,-9.3045703125,-1.60689453125,-4.1756640625,-7.17226171875
-16.53440234375,-16.95401953125,-17.36531640625,2.31893359375,-0.530402343750001,-2.060890625,-3.51146875,1.11494921875,-2.3276171875,5.044453125,5.56749609375,0.0880273437500003,-1.71734765625,0.0767734375000018,-0.356203125000002,-0.332445312500001,9.3604453125,-1.862421875,-8.25508203125,-3.70683984375,-0.509761718749999,-4.57276171875,-4.7934453125,-7.68027734375,-6.15535546875,-7.7897421875,-9.1175703125,-0.85889453125,-4.4196640625,-7.29226171875
-16.65340234375,-16.61901953125,-17.32231640625,2.10593359375,-1.66140234375,-3.114890625,-4.06446875,1.82794921875,-2.3506171875,2.952453125,3.51949609375,0.33002734375,-2.66934765625,0.120773437500002,-1.487203125,-1.2684453125,10.3784453125,-1.760421875,-8.07508203125,-4.78083984375,-0.634761718749999,-5.37776171875,-4.3934453125,-7.26227734375,-6.49235546875,-10.7987421875,-8.9695703125,-0.83489453125,-4.9156640625,-7.48026171875
-16.32740234375,-15.67201953125,-16.25731640625,1.38193359375,-2.39140234375,-3.862890625,-4.42846875,1.84794921875,-1.4946171875,1.375453125,1.76549609375,0.39002734375,-3.37834765625,0.122773437500001,-2.296203125,-2.3974453125,10.0424453125,-1.594421875,-7.63808203125,-5.68883984375,-1.37776171875,-5.84776171875,-4.1464453125,-6.80127734375,-6.80435546875,-12.6587421875,-8.8155703125,-1.33789453125,-5.4516640625,-7.63326171875
-15.64040234375,-14.44901953125,-14.66131640625,0.412933593749999,-2.46240234375,-4.064890625,-4.53546875,1.12994921875,-0.1306171875,0.740453124999998,0.784496093750001,0.28402734375,-3.90534765625,-0.0502265624999971,-2.561203125,-3.4744453125,8.5064453125,-1.698421875,-7.14208203125,-6.20583984375,-2.69476171875,-5.85976171875,-4.2184453125,-6.35627734375,-6.83435546875,-12.7467421875,-8.6015703125,-2.01789453125,-5.8816640625,-7.65426171875
-14.75340234375,-13.32501953125,-13.10631640625,-0.567066406250001,-1.90740234375,-3.722890625,-4.43046875,-0.0780507812500002,1.1533828125,1.011453125,0.71849609375,0.0740273437500001,-4.33234765625,-0.346226562499998,-2.288203125,-4.2854453125,6.3144453125,-2.262421875,-6.74608203125,-6.20683984375,-4.31576171875,-5.45176171875,-4.6414453125,-6.01627734375,-6.44335546875,-11.1617421875,-8.3325703125,-2.58489453125,-6.1976640625,-7.52726171875
-13.87540234375,-12.56701953125,-12.01831640625,-1.43006640625,-1.04040234375,-3.056890625,-4.18446875,-1.28005078125,1.8753828125,1.770453125,1.37749609375,-0.11997265625,-4.62134765625,-0.572226562499997,-1.684203125,-4.6914453125,4.1854453125,-3.202421875,-6.47608203125,-5.68183984375,-5.81276171875,-4.80276171875,-5.2844453125,-5.83627734375,-5.66035546875,-8.6397421875,-8.0745703125,-2.95789453125,-6.5006640625,-7.32426171875
-13.19540234375,-12.23901953125,-11.53731640625,-2.13806640625,-0.310402343750001,-2.367890625,-3.81646875,-1.94705078125,1.8753828125,2.461453125,2.37849609375,-0.13797265625,-4.57734765625,-0.499226562499999,-1.026203125,-4.6274453125,2.7574453125,-4.184421875,-6.20308203125,-4.69683984375,-6.73576171875,-4.13976171875,-5.8934453125,-5.78627734375,-4.62635546875,-6.1477421875,-7.8775703125,-3.25589453125,-6.8986640625,-7.13126171875
-12.77040234375,-12.17701953125,-11.49031640625,-2.64206640625,-0.0594023437500013,-1.847890625,-3.25646875,-1.75905078125,1.3403828125,2.692453125,3.36249609375,0.15002734375,-3.94534765625,0.0587734375000011,-0.496203125000003,-4.0664453125,2.3864453125,-4.766421875,-5.70108203125,-3.33883984375,-6.75676171875,-3.62776171875,-6.1444453125,-5.71027734375,-3.48035546875,-4.4087421875,-7.6995703125,-3.65789453125,-7.4116640625,-6.97426171875
-12.42240234375,-12.03301953125,-11.45131640625,-2.75606640625,-0.314402343750002,-1.458890625,-2.37446875,-0.72505078125,0.6803828125,2.457453125,4.16149609375,0.78202734375,-2.60634765625,1.2057734375,-0.0632031250000029,-2.9864453125,3.0694453125,-4.570421875,-4.73208203125,-1.67083984375,-5.76276171875,-3.29676171875,-5.7284453125,-5.34827734375,-2.26635546875,-3.5977421875,-7.3705703125,-4.23789453125,-7.9346640625,-6.76426171875
-11.75140234375,-11.42001953125,-10.90831640625,-2.17906640625,-0.748402343750001,-0.954890624999999,-1.05246875,0.87294921875,0.341382812499997,2.150453125,4.85449609375,1.67402734375,-0.729347656249999,2.9417734375,0.499796874999998,-1.3824453125,4.4794453125,-3.432421875,-3.14208203125,0.272160156249999,-3.88676171875,-3.05876171875,-4.4514453125,-4.41727734375,-0.924355468750001,-3.3497421875,-6.6445703125,-4.88289453125,-8.2796640625,-6.31426171875
-10.35040234375,-10.12201953125,-9.51131640625,-0.714066406250002,-0.868402343750001,-0.0258906249999988,0.727531250000001,2.63594921875,0.6193828125,2.330453125,5.66449609375,2.65002734375,1.24065234375,5.1197734375,1.474796875,0.6795546875,6.0794453125,-1.483421875,-0.95008203125,2.43116015625,-1.46276171875,-2.78276171875,-2.3424453125,-2.74327734375,0.631644531249998,-3.0287421875,-5.3115703125,-5.33089453125,-8.2566640625,-5.42726171875
-8.08640234375,-8.24801953125,-7.30531640625,1.48393359375,-0.316402343750001,1.488109375,2.82253125,4.21394921875,1.5373828125,3.356453125,6.78049609375,3.51802734375,2.76365234375,7.4027734375,2.994796875,3.0145546875,7.2964453125,0.857578125,1.61591796875,4.66816015625,1.06123828125,-2.38676171875,0.283554687499999,-0.39027734375,2.41064453125,-2.1127421875,-3.3275703125,-5.28889453125,-7.7596640625,-4.01126171875
-5.27640234375,-6.22701953125,-4.78631640625,3.87593359375,0.90859765625,3.445109375,4.91353125,5.40094921875,2.8313828125,5.148453125,8.17949609375,4.14302734375,3.43965234375,9.2837734375,4.894796875,5.3015546875,7.6904453125,2.997578125,4.11391796875,6.73316015625,3.23223828125,-1.86476171875,2.8665546875,2.28172265625,4.26764453125,-0.4907421875,-0.904570312499999,-4.55489453125,-6.8266640625,-2.16226171875
-2.62840234375,-4.64501953125,-2.74231640625,5.75793359375,2.44359765625,5.382109375,6.56253125,6.09494921875,4.0613828125,7.180453125,9.55549609375,4.46602734375,3.16665234375,10.2207734375,6.700796875,7.1235546875,7.0794453125,4.351578125,5.96991796875,8.28016015625,4.68023828125,-1.25876171875,4.7605546875,4.66272265625,5.90264453125,1.4802578125,1.4824296875,-3.11089453125,-5.6376640625,-0.169261718749999
-0.98440234375,-4.01301953125,-1.94631640625,6.58393359375,3.75559765625,6.680109375,7.32653125,6.18194921875,4.7843828125,8.726453125,10.40249609375,4.47102734375,2.14365234375,9.8557734375,7.789796875,8.0695546875,5.5744453125,4.529578125,6.63691796875,8.95116015625,5.18223828125,-0.60176171875,5.4815546875,6.07072265625,6.94564453125,3.1692578125,3.2354296875,-1.14589453125,-4.4656640625,1.58073828125
-0.96840234375,-4.56501953125,-2.83431640625,6.17993359375,4.39659765625,6.822109375,6.91953125,5.46994921875,4.7313828125,9.177453125,10.22649609375,4.14202734375,0.739652343750001,8.2047734375,7.650796875,7.8675546875,3.5054453125,3.478578125,5.80391796875,8.50816015625,4.70023828125,0.10923828125,4.9155546875,6.00672265625,7.09664453125,3.9912578125,3.8584296875,0.99410546875,-3.5636640625,2.75373828125
-2.70140234375,-6.14701953125,-5.29531640625,4.74893359375,4.18459765625,5.623109375,5.34553125,3.82094921875,3.9293828125,8.298453125,8.78349609375,3.45902734375,-0.661347656249999,5.6847734375,6.117796875,6.4965546875,1.3114453125,1.525578125,3.54991796875,6.95116015625,3.39023828125,0.88323828125,3.3755546875,4.37372265625,6.26264453125,3.6752578125,3.1714296875,2.89710546875,-3.0846640625,3.19673828125
-5.70040234375,-8.26101953125,-8.66331640625,2.72693359375,3.22259765625,3.300109375,2.92553125,1.37794921875,2.7073828125,6.277453125,6.21749609375,2.43902734375,-1.77834765625,2.9297734375,3.434796875,4.2265546875,-0.5725546875,-0.699421874999999,0.35091796875,4.56316015625,1.56223828125,1.66323828125,1.4525546875,1.55172265625,4.62064453125,2.3632578125,1.3964296875,4.21010546875,-3.0386640625,2.99373828125
-9.05140234375,-10.25601953125,-11.95331640625,0.582933593749999,1.79759765625,0.380109375000002,0.19053125,-1.34905078125,1.5813828125,3.604453125,3.00649609375,1.17802734375,-2.46634765625,0.519773437500003,0.144796874999997,1.5335546875,-1.7965546875,-2.466421875,-3.07808203125,1.83616015625,-0.40276171875,2.28723828125,-0.2504453125,-1.73327734375,2.58064453125,0.5632578125,-0.900570312499999,4.76410546875,-3.3016640625,2.44573828125
-11.77340234375,-11.59201953125,-14.24931640625,-1.32306640625,0.256597656249999,-2.498890625,-2.31446875,-3.68505078125,1.0443828125,0.834453125,-0.22450390625,-0.14797265625,-2.73334765625,-1.2152265625,-3.129203125,-1.0584453125,-2.1645546875,-3.213421875,-6.03708203125,-0.693839843750002,-2.15976171875,2.49823828125,-1.3584453125,-4.69827734375,0.654644531249998,-1.0307421875,-3.0025703125,4.61910546875,-3.6766640625,1.96973828125
-13.18040234375,-12.04101953125,-15.06031640625,-2.77906640625,-1.10040234375,-4.806890625,-4.22446875,-5.14005078125,1.3353828125,-1.604546875,-2.94450390625,-1.34597265625,-2.75534765625,-2.2262265625,-5.895203125,-3.1574453125,-1.7145546875,-2.780421875,-8.07008203125,-2.63183984375,-3.48076171875,2.01623828125,-1.8444453125,-6.78327734375,-0.724355468750002,-1.8157421875,-4.2985703125,4.01510546875,-3.9706640625,1.94873828125
-13.08740234375,-11.71001953125,-14.47331640625,-3.65506640625,-2.07140234375,-6.270890625,-5.45446875,-5.65405078125,2.3273828125,-3.482546875,-4.86850390625,-2.28397265625,-2.87534765625,-2.6382265625,-7.908203125,-4.6204453125,-0.7285546875,-1.486421875,-9.06708203125,-3.83583984375,-4.28776171875,0.63123828125,-1.9744453125,-7.80227734375,-1.34035546875,-1.5397421875,-4.5155703125,3.22310546875,-4.0856640625,2.57373828125
-11.78940234375,-10.91401953125,-13.05531640625,-3.84306640625,-2.55840234375,-6.883890625,-6.15646875,-5.58105078125,3.5853828125,-4.726546875,-5.96350390625,-2.93397265625,-3.49934765625,-2.5982265625,-9.134203125,-5.5384453125,0.3494453125,0.0205781250000001,-9.19308203125,-4.38983984375,-4.60676171875,-1.67976171875,-2.1174453125,-7.90227734375,-1.24235546875,-0.4247421875,-3.7665703125,2.43210546875,-4.0486640625,3.76373828125
-9.87740234375,-9.99301953125,-11.55931640625,-3.27506640625,-2.53640234375,-6.797890625,-6.55346875,-5.46305078125,4.6003828125,-5.343546875,-6.34250390625,-3.33697265625,-4.88434765625,-2.1762265625,-9.642203125,-6.1244453125,1.0714453125,1.053578125,-8.71508203125,-4.48283984375,-4.50276171875,-4.67776171875,-2.5234453125,-7.37827734375,-0.676355468750002,0.9592578125,-2.4135703125,1.73010546875,-3.9656640625,5.22273828125
-7.94940234375,-9.16001953125,-10.58231640625,-1.98006640625,-2.01740234375,-6.188890625,-6.77846875,-5.73805078125,5.0393828125,-5.357546875,-6.14850390625,-3.56497265625,-6.92834765625,-1.3462265625,-9.495203125,-6.5704453125,1.1204453125,1.186578125,-7.83308203125,-4.27983984375,-4.04876171875,-7.86476171875,-3.1764453125,-6.49127734375,0.040644531249999,1.9672578125,-0.849570312499999,1.16710546875,-3.9296640625,6.57273828125
-6.36240234375,-8.43801953125,-10.32331640625,-0.113066406250002,-1.01540234375,-5.189890625,-6.81646875,-6.53705078125,4.8853828125,-4.803546875,-5.49650390625,-3.69497265625,-9.09534765625,-0.0162265624999982,-8.732203125,-6.9654453125,0.3364453125,0.433578125,-6.60108203125,-3.86483984375,-3.34976171875,-10.61276171875,-3.8084453125,-5.37827734375,0.631644531249998,2.1432578125,0.669429687500001,0.82710546875,-3.9446640625,7.52073828125
-5.13440234375,-7.70101953125,-10.54531640625,2.06693359375,0.436597656249999,-3.899890625,-6.56146875,-7.67705078125,4.4153828125,-3.738546875,-4.49750390625,-3.81997265625,-10.58434765625,1.8987734375,-7.412203125,-7.2914453125,-1.3245546875,-0.756421874999999,-4.96808203125,-3.25483984375,-2.58976171875,-12.34676171875,-4.0254453125,-4.05927734375,0.918644531249999,1.3662578125,2.0504296875,0.82610546875,-3.9226640625,7.94373828125
-4.05940234375,-6.80001953125,-10.78431640625,4.24593359375,2.24159765625,-2.419890625,-5.95046875,-8.84405078125,4.0433828125,-2.277546875,-3.29850390625,-4.05497265625,-10.68134765625,4.3917734375,-5.660203125,-7.4674453125,-3.8215546875,-1.671421875,-2.87408203125,-2.45983984375,-2.04676171875,-12.72276171875,-3.4904453125,-2.52927734375,0.832644531249999,-0.1677421875,3.2974296875,1.25010546875,-3.7556640625,7.88373828125
-2.93740234375,-5.70301953125,-10.62931640625,6.09993359375,4.19559765625,-0.889890625,-5.06346875,-9.81605078125,4.1363828125,-0.599546875,-2.09750390625,-4.50497265625,-9.12834765625,7.2837734375,-3.683203125,-7.4234453125,-6.9965546875,-1.646421875,-0.375082031249999,-1.53583984375,-2.04376171875,-11.71276171875,-2.0934453125,-0.83927734375,0.379644531249999,-2.0827421875,4.3954296875,2.05510546875,-3.4346640625,7.45573828125
-1.75440234375,-4.54901953125,-9.94431640625,7.36693359375,6.01659765625,0.504109375000001,-4.14546875,-10.56805078125,4.8893828125,1.097453125,-1.11450390625,-5.21497265625,-6.29034765625,10.2007734375,-1.747203125,-7.1534453125,-10.5145546875,-0.368421874999999,2.28691796875,-0.617839843750001,-2.83376171875,-9.60076171875,-0.0444453125000006,0.852722656249998,-0.402355468750001,-4.0297421875,5.2244296875,3.00510546875,-3.1366640625,6.74973828125
-0.69940234375,-3.60401953125,-8.91031640625,7.90693359375,7.43959765625,1.553109375,-3.52246875,-11.21305078125,6.3103828125,2.648453125,-0.52850390625,-6.15597265625,-2.99834765625,12.6477734375,-0.119203125000002,-6.7354453125,-13.8445546875,1.961578125,4.71491796875,0.103160156249999,-4.47976171875,-6.87576171875,2.1635546875,2.29572265625,-1.47135546875,-5.8227421875,5.5544296875,3.71810546875,-3.2046640625,5.77973828125
-0.0584023437500001,-3.14001953125,-7.93131640625,7.73893359375,8.34759765625,2.110109375,-3.45946875,-11.89405078125,8.2523828125,3.979453125,-0.40050390625,-7.24197265625,-0.146347656249999,14.2127734375,1.028796875,-6.2944453125,-16.3705546875,4.720578125,6.50291796875,0.455160156249999,-6.76476171875,-4.09476171875,3.9575546875,3.23972265625,-2.74035546875,-7.4307421875,5.1634296875,3.83610546875,-3.9796640625,4.54673828125
-0.0344023437499992,-3.28601953125,-7.42531640625,7.03893359375,8.84959765625,2.201109375,-4.00146875,-12.67505078125,10.4563828125,5.112453125,-0.61150390625,-8.33297265625,1.69665234375,14.7947734375,1.704796875,-5.9014453125,-17.5855546875,7.140578125,7.45591796875,0.419160156249999,-9.18776171875,-1.71876171875,4.9705546875,3.57072265625,-4.00435546875,-8.8337421875,4.0194296875,3.23210546875,-5.5716640625,3.14573828125
-0.58340234375,-3.92401953125,-7.60031640625,6.11493359375,9.24459765625,2.076109375,-4.87646875,-13.43905078125,12.6123828125,6.173453125,-0.851503906249999,-9.20797265625,2.45765234375,14.6817734375,2.148796875,-5.4674453125,-17.2765546875,8.651578125,7.70991796875,0.228160156249999,-11.06176171875,0.0122382812500001,5.2335546875,3.41372265625,-4.89835546875,-9.9117421875,2.4064296875,2.13410546875,-7.7146640625,1.83873828125
-1.36240234375,-4.69301953125,-8.31731640625,5.35293359375,9.87859765625,2.147109375,-5.54646875,-13.85405078125,14.4303828125,7.352453125,-0.70250390625,-9.54597265625,2.43165234375,14.3837734375,2.748796875,-4.7344453125,-15.5915546875,9.099578125,7.67491796875,0.310160156249999,-11.73276171875,1.13123828125,5.1395546875,3.10472265625,-4.98935546875,-10.4417421875,0.864429687499999,1.08110546875,-9.7996640625,1.01373828125
-1.89940234375,-5.16501953125,-9.16431640625,5.08193359375,10.93759765625,2.791109375,-5.40946875,-13.50405078125,15.7053828125,8.812453125,0.18649609375,-9.00697265625,2.01465234375,14.2857734375,3.848796875,-3.3974453125,-12.9505546875,8.737578125,7.77491796875,1.07116015625,-10.84576171875,1.87023828125,5.1915546875,3.01672265625,-3.98535546875,-10.2147421875,-0.0425703124999988,0.676105468749999,-11.1236640625,1.01073828125
-1.88740234375,-5.10401953125,-9.70031640625,5.42293359375,12.31159765625,4.133109375,-4.09246875,-12.16405078125,16.3273828125,10.554453125,1.89549609375,-7.41797265625,1.46065234375,14.3707734375,5.530796875,-1.3234453125,-9.8985546875,8.010578125,8.17691796875,2.61716015625,-8.55776171875,2.48923828125,5.6785546875,3.32872265625,-1.96235546875,-9.1667421875,-0.0075703125000004,1.28010546875,-11.2266640625,1.91173828125
-1.39640234375,-4.62201953125,-9.69331640625,6.23893359375,13.61159765625,5.931109375,-1.66746875,-9.99605078125,16.2463828125,12.334453125,4.13549609375,-4.92397265625,0.812652343750001,14.2157734375,7.512796875,1.2865546875,-6.9765546875,7.280578125,8.65791796875,4.61016015625,-5.53076171875,3.08723828125,6.4895546875,3.89572265625,0.557644531249998,-7.4577421875,0.8444296875,2.79110546875,-10.1446640625,3.42473828125
-0.800402343749999,-4.08801953125,-9.20631640625,7.23893359375,14.33259765625,7.633109375,1.33053125,-7.50105078125,15.4273828125,13.707453125,6.31749609375,-2.01197265625,-0.0403476562499989,13.2857734375,9.222796875,3.9055546875,-4.6385546875,6.668578125,8.72391796875,6.36716015625,-2.67276171875,3.52923828125,7.1615546875,4.31572265625,2.77664453125,-5.4347421875,2.0064296875,4.67410546875,-8.4106640625,4.98573828125
-0.51740234375,-3.88301953125,-8.52431640625,8.09993359375,14.07059765625,8.601109375,4.09353125,-5.28805078125,13.8513828125,14.167453125,7.75149609375,0.63802734375,-1.24534765625,11.2937734375,10.025796875,5.8665546875,-3.1665546875,6.064578125,7.89491796875,7.15716015625,-0.74476171875,3.54823828125,7.1405546875,4.15472265625,3.97564453125,-3.5077421875,2.8574296875,6.23010546875,-6.7726640625,6.06173828125
-0.78340234375,-4.17401953125,-8.00031640625,8.50493359375,12.66059765625,8.366109375,5.82753125,-3.84905078125,11.5733828125,13.302453125,7.88049609375,2.38602734375,-2.88034765625,8.3897734375,9.464796875,6.6005546875,-2.6265546875,5.268578125,5.97491796875,6.53416015625,-0.0567617187499998,2.95223828125,6.0975546875,3.17972265625,3.85164453125,-2.0027421875,2.9954296875,6.96410546875,-5.8056640625,6.44373828125
-1.60140234375,-4.87301953125,-7.91931640625,8.13393359375,10.19759765625,6.802109375,6.02353125,-3.43905078125,8.7873828125,10.912453125,6.45049609375,2.83402734375,-4.86034765625,5.0557734375,7.407796875,5.8225546875,-2.8605546875,4.123578125,3.16991796875,4.51716015625,-0.424761718749999,1.78923828125,4.1005546875,1.47972265625,2.62764453125,-1.0797421875,2.4304296875,6.80310546875,-5.6576640625,6.32173828125
-2.81840234375,-5.72401953125,-8.39131640625,6.72993359375,6.99159765625,4.139109375,4.60153125,-4.03205078125,5.8403828125,7.104453125,3.57449609375,1.94402734375,-6.89734765625,1.8527734375,4.080796875,3.6075546875,-3.5485546875,2.594578125,0.00691796874999895,1.57416015625,-1.37076171875,0.35523828125,1.5765546875,-0.583277343750002,0.904644531249998,-0.7427421875,1.5284296875,6.05610546875,-6.0686640625,6.11473828125
-4.22740234375,-6.43401953125,-9.30731640625,4.29993359375,3.50459765625,0.880109375000002,1.92453125,-5.33005078125,3.1693828125,2.361453125,-0.283503906249999,0.0370273437500002,-8.53834765625,-0.768226562499997,0.0047968749999967,0.382554687499999,-4.2815546875,0.812578125,-2.86908203125,-1.57583984375,-2.37576171875,-0.94476171875,-0.876445312500001,-2.52527734375,-0.637355468750002,-0.900742187500001,0.7804296875,5.16810546875,-6.6146640625,6.17573828125
-5.61340234375,-6.75701953125,-10.36131640625,1.26393359375,0.289597656249999,-2.335890625,-1.31146875,-6.84705078125,1.1793828125,-2.495546875,-4.40350390625,-2.31797265625,-9.31634765625,-2.5072265625,-4.107203125,-3.1614453125,-4.6615546875,-0.905421875,-4.89108203125,-4.20383984375,-3.07776171875,-1.76776171875,-2.6984453125,-3.90127734375,-1.50335546875,-1.4127421875,0.5554296875,4.47710546875,-6.9826640625,6.58673828125
-6.75740234375,-6.55101953125,-11.14431640625,-1.58306640625,-2.12140234375,-4.881890625,-4.27846875,-8.06405078125,0.120382812499997,-6.509546875,-7.98350390625,-4.47797265625,-8.99034765625,-3.2032265625,-7.495203125,-6.2274453125,-4.4385546875,-2.113421875,-5.72708203125,-5.79583984375,-3.32976171875,-1.95476171875,-3.5314453125,-4.43027734375,-1.52535546875,-2.1237421875,0.961429687500001,4.07210546875,-7.1236640625,7.12573828125
-7.43640234375,-5.78501953125,-11.26831640625,-3.35806640625,-3.36840234375,-6.316890625,-6.24946875,-8.57005078125,0.00738281249999773,-8.919546875,-10.35350390625,-5.91897265625,-7.72234765625,-2.8502265625,-9.552203125,-8.1334453125,-3.6465546875,-2.404421875,-5.35108203125,-6.16683984375,-3.17476171875,-1.56376171875,-3.3064453125,-4.05827734375,-0.845355468750002,-2.8837421875,1.8274296875,3.80910546875,-7.2136640625,7.41073828125
-7.45740234375,-4.53501953125,-10.50731640625,-3.47306640625,-3.40540234375,-6.503890625,-6.79346875,-8.14305078125,0.6253828125,-9.468546875,-11.15150390625,-6.34797265625,-6.05834765625,-1.6692265625,-10.000203125,-8.5054453125,-2.6565546875,-1.622421875,-4.02608203125,-5.45083984375,-2.77276171875,-0.83376171875,-2.2584453125,-2.93727734375,0.19964453125,-3.5727421875,2.8044296875,3.43010546875,-7.4906640625,7.10973828125
-6.73140234375,-2.95601953125,-8.90731640625,-1.92106640625,-2.52140234375,-5.626890625,-5.86746875,-6.79005078125,1.6093828125,-8.495546875,-10.39950390625,-5.73497265625,-4.68034765625,-0.0992265624999966,-8.954203125,-7.3774453125,-2.0525546875,0.0275781249999998,-2.19108203125,-3.96283984375,-2.29476171875,-0.0917617187499999,-0.832445312500001,-1.34427734375,1.24964453125,-4.1057421875,3.5404296875,2.72710546875,-8.0666640625,6.13173828125
-5.32940234375,-1.23401953125,-6.77031640625,0.709933593749998,-1.21340234375,-4.060890625,-3.75946875,-4.72105078125,2.5813828125,-6.739546875,-8.43050390625,-4.25897265625,-4.05834765625,1.3587734375,-6.829203125,-5.1414453125,-2.3435546875,2.072578125,-0.26808203125,-2.01683984375,-1.84776171875,0.36923828125,0.5095546875,0.441722656249999,2.06764453125,-4.4437421875,3.8654296875,1.68510546875,-8.8216640625,4.68373828125
-3.46240234375,0.47298046875,-4.50931640625,3.51793359375,0.0535976562499982,-2.205890625,-0.956468749999999,-2.26405078125,3.3043828125,-4.968546875,-5.73150390625,-2.21697265625,-4.23734765625,2.3627734375,-4.160203125,-2.3784453125,-3.6595546875,3.985578125,1.49991796875,0.194160156249998,-1.44776171875,0.39023828125,1.4735546875,2.24172265625,2.60664453125,-4.5997421875,3.8604296875,0.52010546875,-9.4566640625,3.18173828125
-1.38140234375,2.06998046875,-2.45431640625,5.71493359375,1.04259765625,-0.369890624999998,2.01153125,0.24394921875,3.7733828125,-3.647546875,-2.79750390625,0.0740273437500001,-4.85434765625,2.8657734375,-1.437203125,0.340554687499999,-5.5825546875,5.413578125,3.09891796875,2.58116015625,-1.04476171875,-0.0127617187499998,2.0355546875,3.98772265625,2.96264453125,-4.6707421875,3.7794296875,-0.41089453125,-9.6636640625,2.05573828125
0.68559765625,3.49398046875,-0.76631640625,6.96893359375,1.77759765625,1.259109375,4.66053125,2.48894921875,4.1793828125,-2.832546875,-0.0595039062499989,2.32402734375,-5.34034765625,3.0557734375,0.984796874999997,2.6245546875,-7.2595546875,6.287578125,4.65391796875,5.05516015625,-0.576761718749999,-0.67176171875,2.3865546875,5.65572265625,3.27864453125,-4.8427421875,3.8684296875,-0.79989453125,-9.3266640625,1.55973828125
2.53159765625,4.64098046875,0.48068359375,7.45993359375,2.42759765625,2.576109375,6.60453125,4.11894921875,4.7533828125,-2.299546875,2.13649609375,4.27702734375,-5.18534765625,3.1657734375,2.887796875,4.3115546875,-7.8055546875,6.792578125,6.26491796875,7.42416015625,-0.0277617187499999,-1.34676171875,2.7675546875,7.16572265625,3.64564453125,-5.3597421875,4.1954296875,-0.57189453125,-8.6386640625,1.65673828125
3.93559765625,5.31898046875,1.18868359375,7.64793359375,3.13859765625,3.512109375,7.57753125,4.75994921875,5.5773828125,-1.762546875,3.54549609375,5.70102734375,-4.17034765625,3.3177734375,4.175796875,5.4115546875,-6.7935546875,7.197578125,7.87791796875,9.38116015625,0.54223828125,-1.83176171875,3.2895546875,8.33872265625,4.04264453125,-6.4537421875,4.5904296875,0.0311054687499999,-8.0556640625,2.03273828125
4.67159765625,5.29698046875,1.19568359375,7.95193359375,3.94059765625,4.016109375,7.48753125,4.18694921875,6.4943828125,-1.019546875,4.05749609375,6.41602734375,-2.48834765625,3.5037734375,4.853796875,5.9975546875,-4.5345546875,7.674578125,9.26691796875,10.60216015625,1.00623828125,-2.03276171875,3.8575546875,8.93772265625,4.32264453125,-8.2077421875,4.7154296875,0.54610546875,-8.0856640625,2.22273828125
4.56759765625,4.41698046875,0.35768359375,8.51393359375,4.75159765625,4.080109375,6.44953125,2.51394921875,7.1763828125,-0.00954687500000162,3.73749609375,6.35102734375,-0.723347656249999,3.6497734375,5.016796875,6.1215546875,-1.9415546875,8.209578125,10.12591796875,10.87116015625,1.22623828125,-1.99776171875,4.2185546875,8.77672265625,4.27964453125,-10.4167421875,4.2474296875,0.53910546875,-9.0186640625,1.84573828125
3.57059765625,2.70698046875,-1.33831640625,9.15693359375,5.44459765625,3.777109375,4.78653125,0.21494921875,7.3163828125,1.187453125,2.82749609375,5.58902734375,0.355652343750001,3.6667734375,4.827796875,5.8045546875,-0.0465546874999998,8.651578125,10.20291796875,10.18316015625,1.13323828125,-1.87176171875,4.1275546875,7.82372265625,3.74864453125,-12.5357421875,3.0744296875,-0.15389453125,-10.7506640625,0.81673828125
1.79359765625,0.40798046875,-3.68931640625,9.53393359375,5.90559765625,3.269109375,2.94553125,-2.06705078125,6.7913828125,2.369453125,1.67849609375,4.36702734375,0.109652343750001,3.4407734375,4.487796875,5.0925546875,0.5014453125,8.826578125,9.41191796875,8.74916015625,0.77923828125,-1.83176171875,3.4795546875,6.22772265625,2.71264453125,-13.8287421875,1.3864296875,-1.34389453125,-12.8166640625,-0.58426171875
-0.47440234375,-2.07001953125,-6.27831640625,9.33293359375,6.04259765625,2.762109375,1.37653125,-3.76805078125,5.6843828125,3.247453125,0.651496093750001,3.03102734375,-1.66434765625,2.8087734375,4.166796875,4.1205546875,-0.3145546875,8.616578125,7.86491796875,6.92916015625,0.33423828125,-2.02576171875,2.3535546875,4.27172265625,1.34464453125,-13.7187421875,-0.3995703125,-2.64589453125,-14.6266640625,-1.84226171875
-2.82940234375,-4.27901953125,-8.57731640625,8.39493359375,5.76159765625,2.408109375,0.399531250000001,-4.54305078125,4.1553828125,3.523453125,-0.0025039062500003,1.95402734375,-4.61134765625,1.6037734375,3.942796875,3.1085546875,-1.9705546875,7.946578125,5.81991796875,5.10416015625,0.00823828125000059,-2.54776171875,0.939554687499999,2.26672265625,-0.0403554687500005,-12.1267421875,-1.8355703125,-3.72989453125,-15.7336640625,-2.46426171875
-4.88940234375,-5.88001953125,-10.13131640625,6.70093359375,4.96459765625,2.234109375,0.130531250000001,-4.31305078125,2.2793828125,2.967453125,-0.22750390625,1.43502734375,-7.95534765625,-0.243226562499999,3.773796875,2.2705546875,-3.7235546875,6.732578125,3.58791796875,3.56016015625,-0.0537617187499997,-3.44476171875,-0.559445312500001,0.464722656249998,-1.10735546875,-9.5607421875,-2.6245703125,-4.50789453125,-15.9976640625,-2.21226171875
-6.41840234375,-6.73301953125,-10.73131640625,4.30893359375,3.58959765625,2.129109375,0.460531250000001,-3.23205078125,0.0383828125000001,1.498453125,-0.177503906249999,1.58102734375,-10.84934765625,-2.5952265625,3.512796875,1.6965546875,-4.9515546875,4.889578125,1.43391796875,2.42316015625,0.170238281250001,-4.70276171875,-1.9844453125,-0.994277343750001,-1.63135546875,-6.8917421875,-2.7065703125,-5.10889453125,-15.5776640625,-1.19226171875
-7.35540234375,-6.88901953125,-10.45131640625,1.38493359375,1.69559765625,1.892109375,1.11553125,-1.60805078125,-2.5266171875,-0.762546875,-0.15950390625,2.25602734375,-12.75834765625,-5.0912265625,2.967796875,1.2965546875,-5.3725546875,2.433578125,-0.46908203125,1.64816015625,0.57423828125,-6.22576171875,-3.2174453125,-2.07227734375,-1.60135546875,-4.9637421875,-2.2455703125,-5.72589453125,-14.7976640625,0.21673828125
-7.75440234375,-6.51801953125,-9.57231640625,-1.71306640625,-0.494402343750002,1.310109375,1.75153125,0.17394921875,-5.1536171875,-3.488546875,-0.510503906249999,3.11802734375,-13.63434765625,-7.2462265625,1.970796875,0.837554687499999,-5.0785546875,-0.394421874999999,-2.04608203125,1.06916015625,0.985238281250001,-7.79276171875,-4.1494453125,-2.80327734375,-1.21735546875,-4.2437421875,-1.5385703125,-6.41689453125,-13.9766640625,1.53473828125
-7.72640234375,-5.83101953125,-8.45731640625,-4.44706640625,-2.64740234375,0.263109375000001,2.06353125,1.68194921875,-7.4186171875,-6.238546875,-1.46150390625,3.73902734375,-13.81134765625,-8.6322265625,0.457796874999998,0.0785546874999987,-4.4115546875,-3.094421875,-3.28308203125,0.478160156249999,1.22723828125,-9.07876171875,-4.6744453125,-3.26527734375,-0.802355468750001,-4.6727421875,-0.8895703125,-7.03589453125,-13.2986640625,2.39173828125
-7.42840234375,-5.06601953125,-7.44231640625,-6.26506640625,-4.44740234375,-1.208890625,1.86053125,2.46294921875,-8.9656171875,-8.611546875,-3.05150390625,3.77902734375,-13.69434765625,-9.0442265625,-1.489203125,-1.0904453125,-3.7945546875,-5.051421875,-4.19308203125,-0.287839843750001,1.17023828125,-9.75076171875,-4.7264453125,-3.54727734375,-0.641355468750001,-5.7387421875,-0.493570312499999,-7.30989453125,-12.7816640625,2.66673828125
-7.06840234375,-4.47201953125,-6.76531640625,-6.83206640625,-5.72640234375,-2.917890625,1.09753125,2.18694921875,-9.7106171875,-10.391546875,-5.12250390625,3.11002734375,-13.49234765625,-8.5622265625,-3.662203125,-2.5904453125,-3.5755546875,-5.810421875,-4.79308203125,-1.29383984375,0.74423828125,-9.60776171875,-4.3354453125,-3.72227734375,-0.871355468750002,-6.7427421875,-0.3805703125,-7.01889453125,-12.3346640625,2.50273828125
-6.86840234375,-4.25301953125,-6.49531640625,-6.15806640625,-6.51740234375,-4.608890625,-0.146468749999999,0.85594921875,-9.8316171875,-11.588546875,-7.39950390625,1.83502734375,-13.15634765625,-7.5052265625,-5.801203125,-4.2034453125,-3.9665546875,-5.271421875,-5.09708203125,-2.49483984375,-0.0567617187499998,-8.66876171875,-3.6254453125,-3.80627734375,-1.45635546875,-7.1337421875,-0.439570312499999,-6.13689453125,-11.8456640625,2.18873828125
-6.97340234375,-4.48801953125,-6.54931640625,-4.58106640625,-6.98540234375,-6.054890625,-1.70746875,-1.12505078125,-9.5716171875,-12.358546875,-9.58150390625,0.21602734375,-12.50834765625,-6.2922265625,-7.668203125,-5.6714453125,-5.0445546875,-3.695421875,-5.10408203125,-3.74983984375,-1.16076171875,-7.14276171875,-2.7484453125,-3.73027734375,-2.23835546875,-6.7527421875,-0.4885703125,-4.85589453125,-11.2486640625,1.99373828125
-7.36640234375,-5.07301953125,-6.77431640625,-2.62006640625,-7.29640234375,-7.098890625,-3.37246875,-3.14605078125,-9.0336171875,-12.859546875,-11.39950390625,-1.45697265625,-11.41834765625,-5.2782265625,-9.074203125,-6.7824453125,-6.7645546875,-1.523421875,-4.78208203125,-4.84783984375,-2.39876171875,-5.31576171875,-1.7824453125,-3.34927734375,-3.01235546875,-5.8717421875,-0.3445703125,-3.48789453125,-10.5386640625,2.03973828125
-7.83140234375,-5.74501953125,-7.04331640625,-0.753066406250001,-7.48840234375,-7.649890625,-4.90246875,-4.69305078125,-8.1216171875,-13.144546875,-12.64550390625,-2.97297265625,-9.92434765625,-4.6482265625,-9.882203125,-7.4154453125,-8.9445546875,0.822578125,-4.07108203125,-5.54883984375,-3.50476171875,-3.45376171875,-0.709445312500002,-2.50927734375,-3.59035546875,-5.0267421875,0.1014296875,-2.33389453125,-9.7646640625,2.28473828125
-8.00640234375,-6.16401953125,-7.25631640625,0.768933593749999,-7.45540234375,-7.672890625,-6.05246875,-5.52105078125,-6.6606171875,-13.146546875,-13.18250390625,-4.21397265625,-8.22934765625,-4.3662265625,-10.010203125,-7.5354453125,-11.2185546875,3.054578125,-2.92208203125,-5.64283984375,-4.17376171875,-1.75676171875,0.533554687499999,-1.14027734375,-3.84135546875,-4.7157421875,0.8544296875,-1.55989453125,-8.9886640625,2.59673828125
-7.51540234375,-6.02601953125,-7.30031640625,1.94093359375,-7.03140234375,-7.187890625,-6.60446875,-5.61505078125,-4.6326171875,-12.741546875,-12.96150390625,-5.10097265625,-6.63234765625,-4.2102265625,-9.455203125,-7.1664453125,-13.0415546875,5.026578125,-1.33708203125,-5.02083984375,-4.15376171875,-0.36676171875,1.9605546875,0.693722656249999,-3.68235546875,-5.1227421875,1.8354296875,-1.11789453125,-8.2346640625,2.86773828125
-6.15740234375,-5.16701953125,-7.03231640625,2.85593359375,-6.12540234375,-6.247890625,-6.40246875,-5.06305078125,-2.3326171875,-11.854546875,-12.03650390625,-5.52397265625,-5.42134765625,-3.8632265625,-8.296203125,-6.3634453125,-13.8235546875,6.678578125,0.601917968750001,-3.71183984375,-3.33876171875,0.63223828125,3.4995546875,2.79672265625,-3.05035546875,-6.0007421875,2.9554296875,-0.74789453125,-7.4466640625,3.09473828125
-4.01540234375,-3.60501953125,-6.33831640625,3.52093359375,-4.79140234375,-4.926890625,-5.40246875,-3.98805078125,-0.3166171875,-10.509546875,-10.54950390625,-5.32597265625,-4.79334765625,-3.0552265625,-6.678203125,-5.2044453125,-13.1945546875,7.976578125,2.72491796875,-1.88783984375,-1.83476171875,1.22023828125,4.9995546875,4.90172265625,-1.91635546875,-6.8017421875,4.1534296875,-0.0998945312500004,-6.5076640625,3.36373828125
-1.44140234375,-1.53101953125,-5.19331640625,3.82293359375,-3.20140234375,-3.332890625,-3.72246875,-2.55905078125,0.865382812499998,-8.822546875,-8.70850390625,-4.38897265625,-4.81934765625,-1.6902265625,-4.781203125,-3.8054453125,-11.2665546875,8.856578125,4.76891796875,0.154160156249999,0.0432382812500007,1.42323828125,6.2635546875,6.71172265625,-0.350355468750001,-6.9947421875,5.3454296875,1.05110546875,-5.3596640625,3.73273828125
1.07659765625,0.73398046875,-3.69731640625,3.65393359375,-1.57840234375,-1.633890625,-1.66946875,-1.00605078125,0.964382812499998,-6.960546875,-6.75650390625,-2.76797265625,-5.46334765625,0.0737734375000016,-2.804203125,-2.3484453125,-8.6595546875,9.211578125,6.41391796875,2.03116015625,1.84623828125,1.27623828125,7.0775546875,7.93072265625,1.39964453125,-6.3857421875,6.3344296875,2.59410546875,-4.1326640625,4.10573828125
3.06659765625,2.76098046875,-2.08831640625,3.01593359375,-0.140402343750001,-0.0778906249999984,0.29453125,0.36994921875,0.138382812499998,-5.139546875,-4.95350390625,-0.77297265625,-6.60834765625,1.8307734375,-0.961203125000003,-1.0764453125,-6.2635546875,8.915578125,7.32391796875,3.33816015625,3.13323828125,0.79323828125,7.2375546875,8.27772265625,2.89864453125,-5.2457421875,6.7724296875,4.03410546875,-3.1986640625,4.20973828125
4.17659765625,4.04998046875,-0.74631640625,1.99493359375,0.897597656249998,1.042109375,1.66853125,1.23594921875,-1.1916171875,-3.637546875,-3.55450390625,1.07002734375,-8.10334765625,3.0107734375,0.520796874999997,-0.236445312500001,-4.8425546875,7.859578125,7.23691796875,3.75016015625,3.61523828125,-0.0437617187499999,6.5745546875,7.54172265625,3.63964453125,-4.1637421875,6.2654296875,4.66810546875,-3.0506640625,3.70973828125
4.23059765625,4.13498046875,-0.12631640625,0.658933593749998,1.31459765625,1.454109375,2.07453125,1.31794921875,-2.6126171875,-2.771546875,-2.76250390625,2.20202734375,-9.82134765625,3.0597734375,1.421796875,0.0125546874999998,-4.7385546875,5.995578125,6.03191796875,3.11916015625,3.23923828125,-1.26676171875,4.9915546875,5.65272265625,3.24164453125,-3.7407421875,4.5444296875,3.89510546875,-4.0846640625,2.40173828125
3.24259765625,2.74798046875,-0.60731640625,-1.00306640625,0.912597656249998,0.990109375000001,1.39153125,0.53294921875,-3.9536171875,-2.804546875,-2.67750390625,2.27402734375,-11.72334765625,1.6387734375,1.569796875,-0.3274453125,-5.7415546875,3.341578125,3.76791796875,1.53316015625,2.19223828125,-2.88576171875,2.4875546875,2.74672265625,1.61364453125,-4.2717421875,1.6114296875,1.51610546875,-6.3846640625,0.34273828125
1.39559765625,-0.0130195312500003,-2.30031640625,-3.03906640625,-0.420402343750002,-0.349890624999999,-0.20046875,-0.95005078125,-5.3696171875,-3.858546875,-3.26150390625,1.30902734375,-13.84834765625,-1.2112265625,0.885796874999997,-1.0924453125,-7.1815546875,-0.0124218749999994,0.676917968750001,-0.699839843750002,0.82623828125,-4.84776171875,-0.805445312500002,-0.836277343750002,-0.967355468750002,-5.5617421875,-2.2035703125,-2.15489453125,-9.6426640625,-2.14326171875
-0.99440234375,-3.62801953125,-4.92531640625,-5.43906640625,-2.63540234375,-2.374890625,-2.30046875,-2.76505078125,-7.2486171875,-5.857546875,-4.35350390625,-0.31397265625,-16.23034765625,-5.0322265625,-0.572203125000003,-2.0304453125,-8.1825546875,-3.905421875,-2.86808203125,-3.12483984375,-0.462761718749999,-6.98676171875,-4.5984453125,-4.60727734375,-3.93735546875,-6.9707421875,-6.3005703125,-6.38689453125,-13.2446640625,-4.58326171875
-3.47640234375,-7.22501953125,-7.81431640625,-8.04406640625,-5.46040234375,-4.746890625,-4.43246875,-4.47505078125,-9.9546171875,-8.545546875,-5.74550390625,-2.05497265625,-18.78334765625,-9.0662265625,-2.610203125,-2.9244453125,-8.0445546875,-8.057421875,-6.40408203125,-5.27783984375,-1.37676171875,-9.02376171875,-8.4594453125,-8.03727734375,-6.62335546875,-7.6917421875,-9.9505703125,-10.29689453125,-16.4766640625,-6.51326171875
-5.48740234375,-9.81801953125,-10.07831640625,-10.54806640625,-8.43940234375,-7.082890625,-6.21646875,-5.70605078125,-13.5066171875,-11.556546875,-7.25850390625,-3.45997265625,-21.22134765625,-12.5042265625,-4.955203125,-3.6994453125,-6.6095546875,-12.030421875,-9.46908203125,-6.83283984375,-1.83076171875,-10.63276171875,-11.8794453125,-10.66927734375,-8.47635546875,-7.1487421875,-12.4995703125,-13.14389453125,-18.7546640625,-7.59726171875
-6.48140234375,-10.64001953125,-10.92431640625,-12.62906640625,-11.08340234375,-9.079890625,-7.48646875,-6.23705078125,-17.4106171875,-14.513546875,-8.80650390625,-4.33197265625,-23.10834765625,-14.7912265625,-7.339203125,-4.4414453125,-4.4035546875,-15.261421875,-11.71608203125,-7.72383984375,-1.98576171875,-11.58176171875,-14.4124453125,-12.23427734375,-9.25835546875,-5.3237421875,-13.5535703125,-14.53689453125,-19.7836640625,-7.68926171875
-6.16240234375,-9.47601953125,-9.99031640625,-14.11906640625,-13.06340234375,-10.604890625,-8.31846875,-6.07505078125,-20.8036171875,-17.131546875,-10.39150390625,-4.77197265625,-24.03334765625,-15.8502265625,-9.583203125,-5.3524453125,-2.4335546875,-17.238421875,-13.01808203125,-8.17283984375,-2.16576171875,-11.86176171875,-15.8264453125,-12.72027734375,-9.09735546875,-2.8247421875,-13.0925703125,-14.48089453125,-19.5906640625,-6.83326171875
-4.64740234375,-6.77501953125,-7.52531640625,-15.07306640625,-14.29740234375,-11.692890625,-8.95346875,-5.46705078125,-22.8386171875,-19.258546875,-12.05250390625,-5.06797265625,-23.83734765625,-16.0622265625,-11.612203125,-6.6414453125,-1.7285546875,-17.741421875,-13.48208203125,-8.59783984375,-2.70776171875,-11.71376171875,-16.1844453125,-12.36027734375,-8.40235546875,-0.626742187500001,-11.4435703125,-13.27889453125,-18.4436640625,-5.24026171875
-2.42140234375,-3.45301953125,-4.28031640625,-15.64006640625,-14.87840234375,-12.471890625,-9.65846875,-4.81405078125,-23.0716171875,-20.812546875,-13.77050390625,-5.52997265625,-22.73534765625,-15.9852265625,-13.404203125,-8.4094453125,-2.8515546875,-16.972421875,-13.34908203125,-9.40183984375,-3.80276171875,-11.49776171875,-15.7774453125,-11.51727734375,-7.67235546875,0.3572578125,-9.1565703125,-11.37389453125,-16.7226640625,-3.24626171875
-0.10640234375,-0.47701953125,-1.17131640625,-15.90406640625,-14.90940234375,-13.037890625,-10.57346875,-4.51405078125,-21.6236171875,-21.708546875,-15.40150390625,-6.33897265625,-21.23834765625,-15.9732265625,-14.894203125,-10.5644453125,-5.6445546875,-15.444421875,-12.83508203125,-10.74783984375,-5.39376171875,-11.48876171875,-14.9504453125,-10.51527734375,-7.28135546875,-0.3277421875,-6.8025703125,-9.20389453125,-14.8046640625,-1.25426171875
1.77259765625,1.52198046875,1.09768359375,-15.84506640625,-14.42840234375,-13.372890625,-11.63246875,-4.82005078125,-19.0826171875,-21.845546875,-16.68050390625,-7.48997265625,-19.89334765625,-15.9732265625,-15.928203125,-12.8164453125,-9.3135546875,-13.726421875,-12.03108203125,-12.45883984375,-7.19876171875,-11.74176171875,-13.9294453125,-9.53227734375,-7.35335546875,-2.5027421875,-4.7925703125,-7.11989453125,-12.9976640625,0.34973828125
2.93859765625,2.42598046875,2.25368359375,-15.43306640625,-13.45640234375,-13.363890625,-12.59646875,-5.77805078125,-16.2136171875,-21.190546875,-17.31850390625,-8.82897265625,-19.02234765625,-15.6292265625,-16.316203125,-14.7644453125,-12.8115546875,-12.198421875,-10.92608203125,-14.09483984375,-8.83976171875,-12.08476171875,-12.7694453125,-8.58327734375,-7.76135546875,-5.4617421875,-3.2965703125,-5.35289453125,-11.5046640625,1.30873828125
3.38359765625,2.53998046875,2.48268359375,-14.67106640625,-12.08140234375,-12.902890625,-13.17446875,-7.20605078125,-13.6476171875,-19.856546875,-17.14050390625,-10.13197265625,-18.63334765625,-14.5912265625,-15.948203125,-16.0464453125,-15.3275546875,-10.976421875,-9.50008203125,-15.17483984375,-10.02376171875,-12.23776171875,-11.4274453125,-7.60727734375,-8.24435546875,-8.2527421875,-2.2695703125,-3.99889453125,-10.3906640625,1.58373828125
3.32759765625,2.36898046875,2.28768359375,-13.54606640625,-10.47340234375,-11.972890625,-13.15346875,-8.72805078125,-11.6926171875,-18.073546875,-16.16350390625,-11.17597265625,-18.52034765625,-12.7772265625,-14.870203125,-16.4684453125,-16.6055546875,-9.983421875,-7.80808203125,-15.39383984375,-10.64476171875,-11.97976171875,-9.8894453125,-6.54627734375,-8.53235546875,-10.0117421875,-1.5555703125,-3.03989453125,-9.5706640625,1.37973828125
3.10459765625,2.36598046875,2.24268359375,-11.98906640625,-8.81040234375,-10.654890625,-12.47246875,-9.89605078125,-10.3476171875,-16.086546875,-14.57250390625,-11.77097265625,-18.42534765625,-10.4202265625,-13.262203125,-16.0334453125,-16.9435546875,-9.073421875,-5.98308203125,-14.72883984375,-10.76876171875,-11.26476171875,-8.2354453125,-5.39027734375,-8.44435546875,-10.2397421875,-0.983570312499999,-2.37789453125,-8.8656640625,1.05573828125
3.00159765625,2.74798046875,2.73468359375,-9.94606640625,-7.20840234375,-9.079890625,-11.23546875,-10.39405078125,-9.4466171875,-14.059546875,-12.64250390625,-11.78697265625,-18.15934765625,-7.9252265625,-11.349203125,-14.9154453125,-16.9055546875,-8.137421875,-4.19708203125,-13.40383984375,-10.53776171875,-10.24676171875,-6.6024453125,-4.17927734375,-7.93435546875,-8.9617421875,-0.4315703125,-1.90989453125,-8.1086640625,0.927738281250001
3.14359765625,3.44798046875,3.79768359375,-7.52406640625,-5.70840234375,-7.384890625,-9.67346875,-10.19405078125,-8.8306171875,-12.055546875,-10.64750390625,-11.20097265625,-17.61134765625,-5.6772265625,-9.323203125,-13.3874453125,-17.0035546875,-7.144421875,-2.61308203125,-11.77183984375,-10.08676171875,-9.20076171875,-5.1034453125,-2.98327734375,-7.10335546875,-6.7307421875,0.1424296875,-1.59089453125,-7.2596640625,1.07973828125
3.46459765625,4.19798046875,5.11868359375,-5.04706640625,-4.31840234375,-5.694890625,-8.07046875,-9.54005078125,-8.3996171875,-10.079546875,-8.80150390625,-10.11197265625,-16.72434765625,-3.8962265625,-7.327203125,-11.7444453125,-17.4865546875,-6.136421875,-1.34908203125,-10.17583984375,-9.49976171875,-8.39376171875,-3.7684453125,-1.87027734375,-6.16135546875,-4.4287421875,0.711429687500001,-1.45289453125,-6.4426640625,1.31873828125
3.77159765625,4.68898046875,6.22068359375,-2.98806640625,-3.05440234375,-4.107890625,-6.66246875,-8.78005078125,-8.0816171875,-8.116546875,-7.21850390625,-8.70997265625,-15.47234765625,-2.5922265625,-5.453203125,-10.2164453125,-18.2975546875,-5.208421875,-0.43708203125,-8.83183984375,-8.80176171875,-7.97576171875,-2.5534453125,-0.869277343750001,-5.30735546875,-2.8917421875,1.2274296875,-1.54589453125,-5.8606640625,1.32473828125
3.82859765625,4.70598046875,6.67968359375,-1.79906640625,-1.94340234375,-2.659890625,-5.55446875,-8.18005078125,-7.7606171875,-6.135546875,-5.87450390625,-7.18597265625,-13.89034765625,-1.5972265625,-3.730203125,-8.8794453125,-19.1225546875,-4.457421875,0.214917968750001,-7.74983984375,-7.94276171875,-7.93676171875,-1.3844453125,0.0607226562499985,-4.58635546875,-2.5197421875,1.7024296875,-1.85589453125,-5.6616640625,0.91873828125
3.44959765625,4.19098046875,6.28268359375,-1.71206640625,-0.979402343750001,-1.291890625,-4.67746875,-7.82305078125,-7.2596171875,-4.046546875,-4.60850390625,-5.64397265625,-12.09834765625,-0.658226562499998,-2.107203125,-7.6274453125,-19.5105546875,-3.933421875,0.811917968749999,-6.75883984375,-6.79976171875,-8.13376171875,-0.217445312500001,1.04872265625,-3.82035546875,-3.0937421875,2.2204296875,-2.26389453125,-5.8376640625,0.23073828125
2.58959765625,3.22798046875,5.07668359375,-2.61006640625,-0.0924023437500008,0.125109375000001,-3.83346875,-7.62105078125,-6.4186171875,-1.705546875,-3.17650390625,-4.06597265625,-10.28334765625,0.4447734375,-0.463203125000003,-6.2234453125,-19.0245546875,-3.573421875,1.60191796875,-5.60483984375,-5.22976171875,-8.34876171875,0.940554687499999,2.24972265625,-2.70735546875,-3.9217421875,2.8864296875,-2.58389453125,-6.2246640625,-0.35026171875
1.37859765625,2.00298046875,3.31868359375,-4.07206640625,0.833597656249998,1.722109375,-2.78846875,-7.41805078125,-5.2166171875,1.030453125,-1.37150390625,-2.37597265625,-8.66034765625,1.7777734375,1.337796875,-4.4314453125,-17.4005546875,-3.176421875,2.75391796875,-4.10883984375,-3.18076171875,-8.37176171875,2.0355546875,3.74572265625,-1.01435546875,-4.2087421875,3.7344296875,-2.65489453125,-6.5736640625,-0.393261718749999
0.0725976562500001,0.73198046875,1.37068359375,-5.59706640625,1.90159765625,3.554109375,-1.38446875,-7.10605078125,-3.8206171875,4.171453125,0.850496093750001,-0.55297265625,-7.41834765625,3.2017734375,3.371796875,-2.1594453125,-14.6775546875,-2.473421875,4.25791796875,-2.27883984375,-0.781761718749999,-8.07076171875,2.9955546875,5.44572265625,1.23164453125,-3.4307421875,4.6864296875,-2.40489453125,-6.6616640625,0.334738281250001
-1.05740234375,-0.39601953125,-0.40931640625,-6.83206640625,3.14259765625,5.547109375,0.384531250000001,-6.66905078125,-2.4746171875,7.512453125,3.30049609375,1.28002734375,-6.68234765625,4.4077734375,5.582796875,0.4545546875,-11.2245546875,-1.283421875,5.90791796875,-0.321839843750002,1.64023828125,-7.45476171875,3.7425546875,7.07172265625,3.70164453125,-1.5247421875,5.5664296875,-1.86589453125,-6.3916640625,1.75073828125
-1.84040234375,-1.27801953125,-1.77531640625,-7.61906640625,4.48759765625,7.478109375,2.33753125,-6.13305078125,-1.3236171875,10.639453125,5.58949609375,2.87002734375,-6.47934765625,5.0357734375,7.755796875,3.0635546875,-7.6615546875,0.331578125,7.37291796875,1.44216015625,3.66123828125,-6.69076171875,4.1855546875,8.25772265625,5.86964453125,1.1412578125,6.1494296875,-1.16389453125,-5.8586640625,3.47373828125
-2.26940234375,-1.92701953125,-2.65931640625,-7.88906640625,5.77959765625,9.014109375,4.14053125,-5.51705078125,-0.353617187500003,13.035453125,7.24749609375,3.93402734375,-6.72834765625,4.8377734375,9.550796875,5.2265546875,-4.6635546875,2.047578125,8.32991796875,2.71416015625,4.92423828125,-6.04676171875,4.2295546875,8.70272265625,7.21464453125,3.9402578125,6.2264296875,-0.48789453125,-5.3386640625,4.96773828125
-2.49440234375,-2.46401953125,-3.19931640625,-7.55606640625,6.81059765625,9.812109375,5.39753125,-4.86405078125,0.480382812499997,14.250453125,7.89449609375,4.28302734375,-7.24534765625,3.8187734375,10.604796875,6.5595546875,-2.7365546875,3.414578125,8.59691796875,3.31616015625,5.28823828125,-5.78076171875,3.8025546875,8.29872265625,7.41864453125,6.2112578125,5.6654296875,-0.03089453125,-5.1706640625,5.72573828125
-2.75440234375,-3.07001953125,-3.66731640625,-6.54206640625,7.37759765625,9.647109375,5.78153125,-4.31505078125,1.0783828125,14.047453125,7.36949609375,3.90502734375,-7.79734765625,2.2727734375,10.657796875,6.8665546875,-2.0215546875,4.078578125,8.17791796875,3.21616015625,4.87623828125,-6.02676171875,2.9015546875,7.15172265625,6.47664453125,7.4752578125,4.4804296875,0.0881054687499998,-5.5626640625,5.47073828125
-3.24340234375,-3.88801953125,-4.32131640625,-4.88406640625,7.33259765625,8.497109375,5.14453125,-4.08105078125,1.1793828125,12.508453125,5.77949609375,2.96602734375,-8.16434765625,0.666773437500002,9.635796875,6.1805546875,-2.2485546875,3.948578125,7.23191796875,2.49716015625,3.98823828125,-6.72576171875,1.6265546875,5.51672265625,4.67864453125,7.5672578125,2.8494296875,-0.08689453125,-6.4396640625,4.27673828125
-4.02040234375,-4.95601953125,-5.26331640625,-2.81306640625,6.62259765625,6.555109375,3.58153125,-4.31805078125,0.560382812499999,10.032453125,3.45049609375,1.73302734375,-8.19634765625,-0.570226562499998,7.673796875,4.7225546875,-2.8605546875,3.235578125,5.99191796875,1.29616015625,2.94223828125,-7.64576171875,0.1855546875,3.71372265625,2.48264453125,6.6592578125,1.0904296875,-0.33789453125,-7.4416640625,2.55273828125
-5.01440234375,-6.19601953125,-6.39031640625,-0.739066406250002,5.32559765625,4.185109375,1.41153125,-4.99705078125,-0.712617187500001,7.223453125,0.828496093750001,0.46902734375,-7.80234765625,-1.2102265625,5.089796875,2.8055546875,-3.2745546875,2.351578125,4.69191796875,-0.229839843750002,1.93923828125,-8.46176171875,-1.1334453125,2.04572265625,0.349644531249998,5.1452578125,-0.4145703125,-0.37489453125,-8.1216640625,0.872738281250001
-6.09240234375,-7.45301953125,-7.45631640625,0.864933593749999,3.66959765625,1.839109375,-0.89446875,-5.88705078125,-2.1676171875,4.701453125,-1.63250390625,-0.63597265625,-6.90034765625,-1.2662265625,2.340796875,0.763554687499999,-3.1545546875,1.747578125,3.54091796875,-1.89483984375,1.04023828125,-8.87876171875,-2.0284453125,0.757722656249999,-1.36635546875,3.4582578125,-1.3325703125,0.000105468749999726,-8.2156640625,-0.287261718749999
-7.09840234375,-8.52001953125,-8.16631640625,1.67593359375,2.00759765625,-0.0418906249999988,-2.81746875,-6.62105078125,-3.0616171875,2.930453125,-3.55150390625,-1.44997265625,-5.39134765625,-0.893226562499997,-0.0692031250000031,-1.0824453125,-2.5105546875,1.751578125,2.71591796875,-3.45383984375,0.24423828125,-8.72276171875,-2.2564453125,0.0167226562499998,-2.46035546875,1.9052578125,-1.4795703125,0.78710546875,-7.8066640625,-0.748261718749999
-7.84740234375,-9.13701953125,-8.24931640625,1.71693359375,0.73659765625,-1.129890625,-3.89946875,-6.78805078125,-2.7336171875,2.136453125,-4.65550390625,-1.82797265625,-3.20234765625,-0.265226562499999,-1.696203125,-2.4054453125,-1.5545546875,2.482578125,2.36691796875,-4.59583984375,-0.39476171875,-7.97776171875,-1.6864453125,-0.0832773437500016,-2.83935546875,0.6132578125,-0.8735703125,1.81210546875,-7.2446640625,-0.64826171875
-8.11740234375,-9.01901953125,-7.53331640625,1.38893359375,0.18259765625,-1.267890625,-3.83846875,-6.05005078125,-0.976617187500002,2.314453125,-4.79150390625,-1.56797265625,-0.391347656249999,0.5407734375,-2.248203125,-2.8744453125,-0.4345546875,3.848578125,2.61591796875,-4.97683984375,-0.69176171875,-6.76076171875,-0.319445312500001,0.498722656249999,-2.45935546875,-0.3747421875,0.307429687500001,2.84910546875,-6.8576640625,-0.290261718749999
-7.71040234375,-7.95101953125,-5.99731640625,1.25793359375,0.50959765625,-0.458890624999999,-2.56646875,-4.29205078125,1.7953828125,3.292453125,-3.92950390625,-0.46797265625,2.74965234375,1.5807734375,-1.629203125,-2.2124453125,0.9174453125,5.611578125,3.54291796875,-4.30383984375,-0.371761718749999,-5.27176171875,1.7305546875,1.76972265625,-1.28535546875,-0.9547421875,1.8344296875,3.76710546875,-6.6536640625,0.07973828125
-6.51540234375,-5.91301953125,-3.78131640625,1.78393359375,1.69159765625,1.168109375,-0.26946875,-1.70405078125,4.7453828125,4.820453125,-2.17750390625,1.52202734375,5.71565234375,3.0047734375,0.0627968749999983,-0.326445312500001,2.6614453125,7.480578125,5.15391796875,-2.44683984375,0.795238281250001,-3.74776171875,4.2435546875,3.68272265625,0.685644531249999,-0.9137421875,3.5154296875,4.57610546875,-6.2096640625,0.394738281250001
-4.55440234375,-3.15801953125,-1.16231640625,3.14393359375,3.52559765625,3.377109375,2.63153125,1.25294921875,7.0383828125,6.636453125,0.20249609375,4.16602734375,7.92165234375,4.9317734375,2.557796875,2.5665546875,4.7924453125,9.165578125,7.32891796875,0.458160156249999,2.83023828125,-2.43176171875,6.8955546875,6.08872265625,3.33964453125,-0.0577421875000002,5.1974296875,5.36810546875,-4.8596640625,0.737738281250001
-1.99240234375,-0.18401953125,1.48568359375,5.22793359375,5.67759765625,5.825109375,5.56653125,3.99094921875,8.2103828125,8.485453125,2.80449609375,6.93002734375,8.92265234375,7.2977734375,5.442796875,5.9125546875,6.9934453125,10.419578125,9.78191796875,3.96816015625,5.46723828125,-1.53876171875,9.2745546875,8.69572265625,6.35764453125,1.5722578125,6.7054296875,6.20210546875,-2.0776640625,1.18473828125
0.88059765625,2.41598046875,3.76468359375,7.72393359375,7.74859765625,8.103109375,7.97853125,5.96194921875,8.2893828125,10.127453125,5.16249609375,9.14602734375,8.59465234375,9.7937734375,8.222796875,8.9605546875,8.7524453125,11.081578125,12.09691796875,7.41616015625,8.21623828125,-1.19376171875,10.9655546875,11.08972265625,9.24064453125,3.5922578125,7.8374296875,7.02510546875,2.1713359375,1.67973828125
3.71459765625,4.19998046875,5.38468359375,10.22693359375,9.37959765625,9.836109375,9.50253125,6.84594921875,7.6523828125,11.346453125,6.88049609375,10.31602734375,7.19665234375,11.9177734375,10.437796875,11.0445546875,9.6454453125,11.139578125,13.83691796875,10.11016015625,10.53523828125,-1.36876171875,11.6815546875,12.84272265625,11.44164453125,5.4152578125,8.4244296875,7.68410546875,7.3243359375,2.03573828125
6.21759765625,5.07298046875,6.32368359375,12.35993359375,10.34459765625,10.781109375,10.08153125,6.70794921875,6.7923828125,11.974453125,7.76149609375,10.35502734375,5.30265234375,13.1287734375,11.765796875,11.8395546875,9.5654453125,10.739578125,14.68091796875,11.56716015625,12.02523828125,-1.85276171875,11.3805546875,13.65272265625,12.56864453125,6.5422578125,8.4114296875,8.00710546875,12.4393359375,2.05373828125
8.22959765625,5.31298046875,6.86368359375,13.84493359375,10.58959765625,10.881109375,9.93053125,5.98994921875,6.1243828125,11.919453125,7.83049609375,9.62802734375,3.60465234375,13.0237734375,12.089796875,11.4575546875,8.7484453125,10.107578125,14.49991796875,11.66016015625,12.55223828125,-2.31576171875,10.2695546875,13.43372265625,12.53164453125,6.8232578125,7.8864296875,7.89510546875,16.5933359375,1.64873828125
9.70759765625,5.37898046875,7.42068359375,14.49093359375,10.20459765625,10.251109375,9.36553125,5.26494921875,5.8763828125,11.174453125,7.27949609375,8.71902734375,2.66265234375,11.4977734375,11.493796875,10.3295546875,7.6154453125,9.417578125,13.37491796875,10.61916015625,12.24923828125,-2.44576171875,8.6995546875,12.31072265625,11.55564453125,6.5092578125,7.0374296875,7.36410546875,19.2403359375,0.908738281250001
10.63759765625,5.61198046875,8.24468359375,14.14993359375,9.35759765625,9.118109375,8.62353125,4.90794921875,6.0543828125,9.832453125,6.34649609375,8.11302734375,2.69065234375,8.8377734375,10.215796875,8.9795546875,6.5674453125,8.720578125,11.55591796875,8.89916015625,11.42823828125,-2.09276171875,7.0135546875,10.54872265625,10.06364453125,6.0562578125,6.0584296875,6.52010546875,20.3263359375,0.0237382812500009
10.98659765625,6.04298046875,9.23068359375,12.76593359375,8.24559765625,7.736109375,7.76853125,4.92594921875,6.4883828125,8.107453125,5.23549609375,7.96202734375,3.51365234375,5.6727734375,8.570796875,7.7995546875,5.8394453125,7.960578125,9.38091796875,6.99116015625,10.43623828125,-1.35176171875,5.4255546875,8.44972265625,8.50064453125,5.8292578125,5.0564296875,5.48510546875,20.1703359375,-0.83326171875
10.73759765625,6.42198046875,9.96668359375,10.48893359375,7.06059765625,6.332109375,6.74253125,5.02394921875,6.9163828125,6.335453125,4.09249609375,8.08002734375,4.70465234375,2.7787734375,6.879796875,6.9475546875,5.4654453125,7.058578125,7.19491796875,5.27716015625,9.54523828125,-0.52476171875,3.9915546875,6.29072265625,7.17664453125,5.8942578125,4.0254296875,4.33510546875,19.2233359375,-1.59326171875
9.96759765625,6.42198046875,10.00068359375,7.71793359375,5.97659765625,5.086109375,5.49353125,4.81994921875,7.0923828125,4.894453125,3.03949609375,8.13902734375,5.82965234375,0.799773437500001,5.431796875,6.3795546875,5.3154453125,5.991578125,5.28891796875,3.98116015625,8.91123828125,0.0272382812500003,2.6775546875,4.30572265625,6.23064453125,6.0452578125,2.9074296875,3.09810546875,17.8753359375,-2.27626171875
8.89059765625,5.89198046875,9.14768359375,4.97293359375,5.12659765625,4.153109375,4.11753125,4.06394921875,6.8563828125,4.083453125,2.20849609375,7.92402734375,6.62965234375,0.0287734375000035,4.461796875,5.9765546875,5.1734453125,4.819578125,3.87291796875,3.20616015625,8.60223828125,0.0692382812500001,1.4755546875,2.70072265625,5.68164453125,6.0152578125,1.7024296875,1.79810546875,16.3883359375,-2.91326171875
7.83659765625,4.99898046875,7.67168359375,2.68693359375,4.57559765625,3.668109375,2.89853125,2.80194921875,6.1783828125,4.008453125,1.75649609375,7.50402734375,7.05165234375,0.350773437500003,4.128796875,5.6765546875,4.8324453125,3.674578125,3.08291796875,2.98916015625,8.63123828125,-0.37376171875,0.476554687499998,1.64472265625,5.51964453125,5.7282578125,0.5334296875,0.51110546875,14.9093359375,-3.46426171875
7.17459765625,4.19698046875,6.23668359375,1.06593359375,4.31459765625,3.707109375,2.21653125,1.40894921875,5.1603828125,4.548453125,1.81049609375,7.20802734375,7.15865234375,1.3527734375,4.475796875,5.5415546875,4.2334453125,2.725578125,2.98891796875,3.33616015625,8.98823828125,-1.00776171875,-0.143445312500001,1.23872265625,5.75664453125,5.3822578125,-0.385570312500001,-0.62089453125,13.5303359375,-3.81526171875
7.18659765625,4.04998046875,5.64568359375,0.0889335937499993,4.27559765625,4.259109375,2.38853125,0.47794921875,4.0023828125,5.406453125,2.41849609375,7.44602734375,7.04765234375,2.5427734375,5.415796875,5.7405546875,3.5944453125,2.134578125,3.59791796875,4.21316015625,9.66623828125,-1.38376171875,-0.204445312500001,1.49672265625,6.41964453125,5.3472578125,-0.8295703125,-1.41389453125,12.3373359375,-3.83726171875
7.97159765625,4.97398046875,6.48568359375,-0.406066406250002,4.37159765625,5.218109375,3.51453125,0.56794921875,2.9483828125,6.227453125,3.49649609375,8.48802734375,6.82265234375,3.5427734375,6.749796875,6.4555546875,3.4264453125,2.023578125,4.82891796875,5.53316015625,10.66923828125,-1.08876171875,0.388554687499999,2.33972265625,7.49464453125,5.9362578125,-0.6455703125,-1.69189453125,11.4283359375,-3.45926171875
9.41059765625,7.04398046875,8.83468359375,-0.636066406250002,4.50959765625,6.388109375,5.40053125,1.94094921875,2.1963828125,6.689453125,4.81449609375,10.30502734375,6.60565234375,4.1637734375,8.204796875,7.7545546875,4.3354453125,2.416578125,6.48291796875,7.12216015625,11.98823828125,0.0472382812500003,1.5665546875,3.60472265625,8.84864453125,7.2062578125,0.1644296875,-1.35489453125,10.8813359375,-2.73226171875
11.19559765625,9.91098046875,12.17568359375,-0.810066406250002,4.56359765625,7.478109375,7.57653125,4.43694921875,1.7813828125,6.574453125,6.00749609375,12.52802734375,6.52265234375,4.3607734375,9.456796875,9.4705546875,6.6384453125,3.174578125,8.20691796875,8.69916015625,13.51423828125,1.83523828125,3.0805546875,5.04172265625,10.17764453125,8.8902578125,1.3934296875,-0.45789453125,10.6773359375,-1.84226171875
12.87559765625,12.85898046875,15.54468359375,-1.10906640625,4.35959765625,8.140109375,9.41953125,7.50494921875,1.5093828125,5.792453125,6.66449609375,14.55002734375,6.66565234375,4.1417734375,10.163796875,11.1795546875,10.0604453125,4.000578125,9.55991796875,9.88716015625,14.99923828125,3.79223828125,4.5545546875,6.32672265625,11.06564453125,10.5072578125,2.6534296875,0.79510546875,10.6813359375,-1.04526171875
13.91659765625,15.02198046875,17.88068359375,-1.68606640625,3.73959765625,8.084109375,10.36753125,10.36794921875,1.0233828125,4.412453125,6.48949609375,15.73602734375,7.07065234375,3.5697734375,10.060796875,12.3345546875,13.7604453125,4.557578125,10.18091796875,10.32816015625,16.10223828125,5.37423828125,5.6505546875,7.15372265625,11.15364453125,11.5982578125,3.5394296875,2.14010546875,10.7063359375,-0.53526171875
13.84259765625,15.69198046875,18.45468359375,-2.64406640625,2.68259765625,7.242109375,10.15253125,12.27694921875,0.00338281249999994,2.695453125,5.48749609375,15.67602734375,7.73665234375,2.8317734375,9.098796875,12.5135546875,16.6914453125,4.681578125,9.98691796875,9.85016015625,16.54623828125,6.26623828125,6.2465546875,7.37572265625,10.33764453125,11.9442578125,3.8454296875,3.38410546875,10.6323359375,-0.32126171875
12.44259765625,14.63098046875,17.19568359375,-4.00006640625,1.39959765625,5.863109375,8.93853125,12.81594921875,-1.5846171875,1.086453125,4.03549609375,14.36302734375,8.63465234375,2.2717734375,7.542796875,11.6475546875,18.0694453125,4.551578125,9.27291796875,8.60616015625,16.25023828125,6.56123828125,6.5325546875,7.11372265625,8.85964453125,11.6392578125,3.6754296875,4.46810546875,10.4943359375,-0.19826171875
9.92159765625,12.19898046875,14.72268359375,-5.66306640625,0.293597656249998,4.457109375,7.29153125,12.10194921875,-3.3916171875,0.105453125,2.79549609375,12.22102734375,9.69865234375,2.2937734375,5.931796875,10.0925546875,17.6804453125,4.665578125,8.59691796875,7.07116015625,15.37623828125,6.71423828125,6.9185546875,6.72672265625,7.22664453125,11.0022578125,3.3864296875,5.44310546875,10.4663359375,0.145738281250001
6.85859765625,9.19398046875,12.02768359375,-7.46006640625,-0.215402343750002,3.596109375,5.95353125,10.73694921875,-4.7906171875,0.141453124999998,2.43949609375,9.95002734375,10.80665234375,3.1327734375,4.889796875,8.4875546875,15.9144453125,5.570578125,8.49591796875,5.86616015625,14.24723828125,7.30423828125,7.7925546875,6.63872265625,5.99664453125,10.3882578125,3.3854296875,6.36010546875,10.7433359375,0.94873828125
3.97059765625,6.49198046875,9.98768359375,-9.15206640625,0.0895976562499978,3.650109375,5.51353125,9.48594921875,-5.1606171875,1.247453125,3.32749609375,8.24502734375,11.79265234375,4.6237734375,4.839796875,7.4605546875,13.5174453125,7.474578125,9.16891796875,5.48916015625,13.19223828125,8.70623828125,9.2335546875,7.09172265625,5.53264453125,10.0052578125,3.8934296875,7.17010546875,11.3853359375,2.19773828125
1.85159765625,4.69998046875,8.99268359375,-10.42406640625,1.09259765625,4.593109375,6.14053125,8.90094921875,-4.1896171875,3.065453125,5.30349609375,7.50702734375,12.48765234375,6.1477734375,5.788796875,7.3425546875,11.2214453125,9.993578125,10.32491796875,6.06216015625,12.38323828125,10.84823828125,10.8635546875,7.99072265625,5.84064453125,9.8262578125,4.8154296875,7.66310546875,12.2033359375,3.57473828125
0.82559765625,4.00698046875,8.90468359375,-10.88806640625,2.39559765625,6.010109375,7.52353125,9.11894921875,-2.0566171875,4.978453125,7.73049609375,7.70102734375,12.79265234375,6.8737734375,7.302796875,8.0435546875,9.4094453125,12.239578125,11.30191796875,7.26616015625,11.77623828125,13.21123828125,11.9795546875,8.94772265625,6.59564453125,9.6492578125,5.7824296875,7.54210546875,12.8193359375,4.59073828125
0.93759765625,4.27198046875,9.30068359375,-10.18106640625,3.52759765625,7.319109375,9.05553125,9.90894921875,0.6193828125,6.401453125,9.79249609375,8.42602734375,12.74165234375,6.2037734375,8.732796875,9.1575546875,8.0054453125,13.260578125,11.42591796875,8.50416015625,11.18723828125,15.08323828125,11.9215546875,9.51572265625,7.33864453125,9.2712578125,6.3964296875,6.60010546875,12.8923359375,4.86573828125
2.01959765625,5.19798046875,9.79968359375,-8.16606640625,4.18359765625,8.080109375,10.14353125,10.86794921875,3.0603828125,7.043453125,10.88349609375,9.13902734375,12.52465234375,4.1327734375,9.549796875,10.2175546875,6.6334453125,12.561578125,10.39291796875,9.21416015625,10.43723828125,15.90523828125,10.4585546875,9.45172265625,7.73064453125,8.6492578125,6.4904296875,4.90410546875,12.3543359375,4.37773828125
3.75959765625,6.48498046875,10.25668359375,-5.09006640625,4.33259765625,8.197109375,10.46153125,11.62394921875,4.6863828125,6.983453125,10.86449609375,9.39902734375,12.43965234375,1.2697734375,9.586796875,10.9155546875,4.9294453125,10.341578125,8.43591796875,9.14616015625,9.46923828125,15.49023828125,7.9205546875,8.85272265625,7.69764453125,7.9252578125,6.2244296875,2.81310546875,11.4793359375,3.47673828125
5.78259765625,7.88498046875,10.73768359375,-1.56106640625,4.16859765625,7.892109375,10.02153125,11.97794921875,5.3443828125,6.555453125,10.06049609375,9.02202734375,12.75965234375,-1.5052265625,9.046796875,11.1845546875,2.8194453125,7.327578125,6.18691796875,8.43816015625,8.37923828125,14.00723828125,5.0005546875,8.07072265625,7.39164453125,7.2902578125,5.9524296875,0.80510546875,10.6983359375,2.66573828125
7.71259765625,9.19398046875,11.36168359375,1.63793359375,3.94159765625,7.519109375,9.09153125,11.94894921875,5.2593828125,6.135453125,9.04749609375,8.11402734375,13.57665234375,-3.4752265625,8.334796875,11.1545546875,0.6314453125,4.371578125,4.35591796875,7.49716015625,7.37123828125,11.81123828125,2.3975546875,7.49272265625,7.05864453125,6.8392578125,5.9704296875,-0.77589453125,10.3063359375,2.29173828125
9.22859765625,10.24398046875,12.14068359375,3.81993359375,3.82459765625,7.362109375,8.05653125,11.73194921875,4.8003828125,5.974453125,8.37649609375,7.01602734375,14.72165234375,-4.3362265625,7.837796875,11.0535546875,-1.0245546875,2.088578125,3.41991796875,6.76516015625,6.70023828125,9.26723828125,0.540554687499998,7.34572265625,6.91064453125,6.5332578125,6.3514296875,-1.85589453125,10.2843359375,2.36873828125
10.14359765625,10.92698046875,12.93568359375,4.66493359375,3.89059765625,7.542109375,7.29253125,11.58394921875,4.2613828125,6.168453125,8.37549609375,6.16802734375,15.83165234375,-4.1802265625,7.776796875,11.1115546875,-1.5235546875,0.724578125000001,3.47691796875,6.54416015625,6.60123828125,6.69523828125,-0.479445312500001,7.61472265625,7.07464453125,6.2812578125,6.9364296875,-2.56789453125,10.3573359375,2.63273828125
10.48559765625,11.25598046875,13.54168359375,4.41493359375,4.18359765625,8.027109375,7.04953125,11.68694921875,3.8023828125,6.724453125,9.09849609375,5.93002734375,16.53565234375,-3.2982265625,8.186796875,11.4775546875,-0.5345546875,0.231578125,4.29491796875,6.90416015625,7.20423828125,4.39923828125,-0.8014453125,8.10172265625,7.57764453125,6.0452578125,7.4524296875,-3.07289453125,10.2273359375,2.74773828125
10.50059765625,11.35998046875,13.81768359375,3.83293359375,4.77959765625,8.698109375,7.37953125,12.03594921875,3.5183828125,7.639453125,10.36649609375,6.41002734375,16.62365234375,-1.9852265625,8.968796875,12.1655546875,1.8064453125,0.407578125000001,5.46491796875,7.71016015625,8.45623828125,2.68923828125,-0.637445312500001,8.52272265625,8.34764453125,5.8992578125,7.6364296875,-3.39989453125,9.8073359375,2.52473828125
10.52659765625,11.42098046875,13.74968359375,3.85693359375,5.75159765625,9.425109375,8.11753125,12.42194921875,3.4973828125,8.902453125,11.88149609375,7.41002734375,16.10065234375,-0.447226562499997,9.972796875,13.0525546875,4.9324453125,1.006578125,6.57991796875,8.71716015625,10.09323828125,1.82923828125,-0.184445312500001,8.60972265625,9.20664453125,6.0192578125,7.3244296875,-3.44089453125,9.2833359375,2.00673828125
10.80759765625,11.57498046875,13.44868359375,5.10393359375,7.07459765625,10.112109375,8.96653125,12.54994921875,3.8123828125,10.447453125,13.34749609375,8.52702734375,15.11765234375,1.1757734375,11.057796875,13.9415546875,8.0664453125,1.785578125,7.36191796875,9.67216015625,11.71523828125,1.93323828125,0.398554687499999,8.17672265625,9.90164453125,6.6132578125,6.4784296875,-3.07089453125,8.9833359375,1.41373828125
11.38559765625,11.85198046875,13.07768359375,7.53993359375,8.55559765625,10.681109375,9.62853125,12.21294921875,4.4903828125,12.105453125,14.54549609375,9.32802734375,13.89865234375,2.7477734375,12.105796875,14.6395546875,10.5094453125,2.538578125,7.71891796875,10.39616015625,12.91223828125,2.90223828125,0.969554687499999,7.16772265625,10.16964453125,7.8092578125,5.1544296875,-2.29389453125,9.1683359375,0.991738281250001
12.10859765625,12.16398046875,12.73568359375,10.51393359375,9.85959765625,11.036109375,9.89053125,11.36494921875,5.4983828125,13.621453125,15.33149609375,9.49602734375,12.72065234375,4.1017734375,12.985796875,14.9745546875,11.8404453125,3.136578125,7.73091796875,10.76716015625,13.36423828125,4.44723828125,1.4155546875,5.67472265625,9.80564453125,9.5262578125,3.4604296875,-1.29489453125,9.8813359375,0.878738281250001
12.70359765625,12.30698046875,12.34868359375,13.07693359375,10.61459765625,11.029109375,9.62453125,10.04094921875,6.7503828125,14.706453125,15.57249609375,8.87302734375,11.88965234375,5.0527734375,13.507796875,14.7595546875,11.9634453125,3.553578125,7.56591796875,10.65816015625,12.88823828125,6.18323828125,1.6785546875,3.89972265625,8.69864453125,11.4052578125,1.5264296875,-0.34689453125,10.9453359375,1.05173828125
12.87159765625,12.01198046875,11.66268359375,14.38293359375,10.54859765625,10.493109375,8.75653125,8.24794921875,8.1193828125,15.116453125,15.09849609375,7.44902734375,11.65165234375,5.4567734375,13.443796875,13.7605546875,11.0284453125,3.854578125,7.36191796875,9.88016015625,11.42923828125,7.75723828125,1.7955546875,2.08772265625,6.83864453125,12.8982578125,-0.484570312499999,0.34610546875,12.0753359375,1.36273828125
12.39659765625,11.06298046875,10.41068359375,13.99293359375,9.61259765625,9.323109375,7.27553125,6.02294921875,9.4663828125,14.749453125,13.75249609375,5.35602734375,12.04365234375,5.2737734375,12.603796875,11.7535546875,9.3224453125,4.158578125,7.15091796875,8.24016015625,9.05823828125,8.95623828125,1.8935546875,0.457722656249999,4.32064453125,13.5062578125,-2.3555703125,0.77010546875,13.0323359375,1.65073828125
11.26859765625,9.46298046875,8.55068359375,12.04593359375,8.02959765625,7.578109375,5.29153125,3.59694921875,10.6693828125,13.716453125,11.52049609375,2.88302734375,12.85265234375,4.6127734375,10.962796875,8.6825546875,7.1964453125,4.599578125,6.87191796875,5.68116015625,6.00523828125,9.75423828125,2.1545546875,-0.818277343750001,1.36864453125,13.0292578125,-3.8055703125,1.10210546875,13.7533359375,1.85673828125
9.75059765625,7.52298046875,6.40068359375,9.22693359375,6.24359765625,5.536109375,3.08353125,1.45894921875,11.6423828125,12.344453125,8.65449609375,0.44602734375,13.75765234375,3.7397734375,8.743796875,4.8125546875,5.0294453125,5.290578125,6.46191796875,2.43616015625,2.66823828125,10.28823828125,2.7655546875,-1.59927734375,-1.65035546875,11.6742578125,-4.5145703125,1.59310546875,14.3723359375,2.05973828125
8.32359765625,5.79798046875,4.55068359375,6.53593359375,4.78359765625,3.663109375,1.07453125,0.16794921875,12.3363828125,11.075453125,5.66949609375,-1.52097265625,14.54665234375,3.0087734375,6.413796875,0.753554687499999,3.1644453125,6.309578125,5.97891796875,-0.934839843750002,-0.43676171875,10.78023828125,3.8565546875,-1.76527734375,-4.26135546875,9.9112578125,-4.2035703125,2.41910546875,15.1223359375,2.40273828125
7.53959765625,4.88598046875,3.61268359375,4.89793359375,4.10459765625,2.477109375,-0.27746875,0.0489492187499999,12.7573828125,10.314453125,3.20449609375,-2.72097265625,15.23365234375,2.7277734375,4.566796875,-2.6834453125,1.8374453125,7.668578125,5.63691796875,-3.66083984375,-2.80576171875,11.41423828125,5.4505546875,-1.21927734375,-5.98135546875,8.1782578125,-2.7485703125,3.56710546875,16.1443359375,2.94773828125
7.82259765625,5.19198046875,3.96768359375,4.80493359375,4.45359765625,2.367109375,-0.622468749999999,1.03194921875,12.9853828125,10.315453125,1.81149609375,-3.09297265625,15.97965234375,3.0337734375,3.729796875,-4.7514453125,1.1144453125,9.290578125,5.74791796875,-5.00683984375,-4.09776171875,12.23523828125,7.4365546875,0.0857226562499989,-6.45435546875,6.6362578125,-0.2745703125,4.83710546875,17.3383359375,3.59273828125
9.31159765625,6.78498046875,5.62768359375,6.14893359375,5.80859765625,3.454109375,0.178531250000001,2.72994921875,13.1623828125,11.125453125,1.78249609375,-2.78797265625,16.91165234375,3.8737734375,4.191796875,-5.0074453125,0.9064453125,11.000578125,6.59191796875,-4.52783984375,-4.21576171875,13.12223828125,9.5955546875,2.13372265625,-5.54435546875,5.1592578125,2.8564296875,5.95310546875,18.3843359375,4.11373828125
11.80459765625,9.41698046875,8.28268359375,8.32493359375,7.92459765625,5.578109375,2.03253125,4.64794921875,13.4243828125,12.616453125,3.08649609375,-2.05997265625,17.99965234375,5.0987734375,5.928796875,-3.4444453125,1.0274453125,12.550578125,8.29891796875,-2.23283984375,-3.28976171875,13.85323828125,11.6735546875,4.83372265625,-3.34635546875,3.5522578125,6.1814296875,6.71910546875,18.9283359375,4.33473828125
14.86059765625,12.66498046875,11.45868359375,10.55493359375,10.43459765625,8.363109375,4.65253125,6.37394921875,13.8493828125,14.536453125,5.39749609375,-1.14297265625,19.09165234375,6.5877734375,8.614796875,-0.4684453125,1.2474453125,13.710578125,10.77491796875,1.41516015625,-1.61076171875,14.23223828125,13.4635546875,7.99772265625,-0.141355468750001,1.8352578125,9.2884296875,7.12510546875,18.8093359375,4.26673828125
17.99959765625,16.09498046875,14.71468359375,12.27493359375,12.96859765625,11.322109375,7.61153125,7.66594921875,14.4673828125,16.577453125,8.18749609375,-0.21497265625,20.04565234375,8.2787734375,11.709796875,3.2375546875,1.3124453125,14.366578125,13.69491796875,5.64216015625,0.43823828125,14.22423828125,14.8475546875,11.32672265625,3.67564453125,0.3532578125,11.9144296875,7.31610546875,18.1663359375,4.14373828125
20.85559765625,19.34898046875,17.74868359375,13.37293359375,15.23159765625,13.964109375,10.40853125,8.42194921875,15.2873828125,18.436453125,10.85449609375,0.58402734375,20.84565234375,10.1087734375,14.582796875,6.9005546875,0.9674453125,14.565578125,16.54591796875,9.60416015625,2.44923828125,13.99323828125,15.7855546875,14.43172265625,7.65264453125,-0.3627421875,13.9414296875,7.49110546875,17.3563359375,4.30173828125
23.19759765625,22.12098046875,20.35368359375,14.13393359375,17.01159765625,15.902109375,12.55253125,8.59494921875,16.2753828125,19.854453125,12.86849609375,1.10402734375,21.57665234375,11.9337734375,16.679796875,9.8645546875,0.0464453125000002,14.450578125,18.75491796875,12.64516015625,4.05223828125,13.81423828125,16.2725546875,16.90872265625,11.33964453125,0.0962578124999995,15.3594296875,7.78510546875,16.7503359375,4.98673828125
24.84659765625,24.10698046875,22.31068359375,14.98693359375,18.17359765625,16.937109375,13.67753125,8.12394921875,17.2943828125,20.670453125,13.90849609375,1.19602734375,22.30865234375,13.5337734375,17.682796875,11.7345546875,-1.4055546875,14.142578125,19.85591796875,14.44916015625,4.98823828125,13.90023828125,16.2915546875,18.45872265625,14.32464453125,1.7302578125,16.2154296875,8.20310546875,16.5453359375,6.20973828125
25.63059765625,25.00798046875,23.33368359375,16.23993359375,18.64959765625,17.080109375,13.64653125,6.94894921875,18.1053828125,20.859453125,13.93949609375,0.77202734375,22.99465234375,14.6847734375,17.578796875,12.4305546875,-3.0775546875,13.678578125,19.64491796875,15.04716015625,5.15723828125,14.25723828125,15.7885546875,18.97372265625,16.28164453125,4.0622578125,16.5444296875,8.62910546875,16.6803359375,7.70873828125
25.40659765625,24.59798046875,23.12768359375,17.90893359375,18.44359765625,16.495109375,12.59253125,5.08594921875,18.4703828125,20.513453125,13.17449609375,-0.11997265625,23.46565234375,15.2347734375,16.626796875,12.1375546875,-4.5035546875,13.039578125,18.23791796875,14.70216015625,4.61423828125,14.67023828125,14.6815546875,18.52972265625,16.98864453125,6.3142578125,16.3134296875,8.87010546875,16.8903359375,9.03473828125
24.11359765625,22.80598046875,21.52068359375,19.65693359375,17.60459765625,15.396109375,10.85853125,2.66794921875,18.2703828125,19.774453125,11.94549609375,-1.28897265625,23.51565234375,15.1327734375,15.210796875,11.2035546875,-5.2795546875,12.207578125,15.99991796875,13.73316015625,3.54123828125,14.81923828125,12.9105546875,17.28972265625,16.34264453125,7.7212578125,15.3874296875,8.71610546875,16.8333359375,9.69873828125
21.79559765625,19.74698046875,18.55468359375,20.84693359375,16.17459765625,13.955109375,8.85653125,-0.0820507812500002,17.5223828125,18.735453125,10.55149609375,-2.45497265625,23.01165234375,14.3947734375,13.685796875,10.0195546875,-5.2655546875,11.183578125,13.37691796875,12.38916015625,2.19523828125,14.43323828125,10.4785546875,15.38372265625,14.37964453125,7.8272578125,13.5754296875,7.98710546875,16.2143359375,9.33373828125
18.59759765625,15.70598046875,14.51968359375,20.76093359375,14.15859765625,12.255109375,6.92353125,-2.88305078125,16.3033828125,17.405453125,9.16149609375,-3.35497265625,21.95165234375,13.0857734375,12.251796875,8.9275546875,-4.5985546875,9.964578125,10.72791796875,10.80516015625,0.85323828125,13.40523828125,7.4845546875,12.84772265625,11.29664453125,6.6182578125,10.7254296875,6.56810546875,14.8853359375,7.81873828125
14.75859765625,11.10398046875,9.91868359375,18.90793359375,11.55459765625,10.310109375,5.24253125,-5.40505078125,14.6603828125,15.772453125,7.80949609375,-3.84397265625,20.46065234375,11.3307734375,10.924796875,8.1425546875,-3.5435546875,8.536578125,8.25491796875,9.02916015625,-0.25076171875,11.82223828125,4.1445546875,9.67472265625,7.45964453125,4.5112578125,6.8574296875,4.47410546875,12.9163359375,5.35173828125
10.59159765625,6.44398046875,5.36968359375,15.28493359375,8.43759765625,8.122109375,3.83353125,-7.32205078125,12.5893828125,13.880453125,6.44549609375,-3.95297265625,18.74565234375,9.3587734375,9.585796875,7.6955546875,-2.2875546875,6.901578125,6.01791796875,7.06416015625,-1.00676171875,9.94923828125,0.792554687499999,5.91872265625,3.36164453125,2.2172578125,2.2454296875,1.91710546875,10.6053359375,2.41973828125
6.44459765625,2.23298046875,1.45268359375,10.40993359375,5.03059765625,5.735109375,2.60753125,-8.43605078125,10.0973828125,11.854453125,4.99149609375,-3.88297265625,17.06865234375,7.4797734375,8.068796875,7.4215546875,-0.8485546875,5.137578125,4.00691796875,4.89416015625,-1.47876171875,8.16123828125,-2.1524453125,1.75872265625,-0.501355468750001,0.5222578125,-2.5905703125,-0.69089453125,8.4073359375,-0.332261718749999
2.67659765625,-1.10601953125,-1.43331640625,5.14193359375,1.70559765625,3.262109375,1.43353125,-8.76405078125,7.2913828125,9.859453125,3.37949609375,-3.91597265625,15.70465234375,5.9927734375,6.260796875,7.0185546875,0.8664453125,3.428578125,2.20091796875,2.51416015625,-1.87076171875,6.86823828125,-4.2674453125,-2.48427734375,-3.75535546875,0.0182578124999995,-7.0035703125,-2.82889453125,6.7783359375,-2.30726171875
-0.368402343750001,-3.31101953125,-3.12931640625,0.401933593749998,-1.10540234375,0.876109375,0.219531250000001,-8.48705078125,4.4573828125,8.043453125,1.60349609375,-4.26397265625,14.86565234375,5.0687734375,4.171796875,6.2045546875,2.8984453125,2.041578125,0.607917968750002,-0.0148398437500017,-2.39876171875,6.42023828125,-5.2384453125,-6.38727734375,-6.21535546875,0.8722578125,-10.3905703125,-4.02689453125,6.0333359375,-3.14726171875
-2.40540234375,-4.30701953125,-3.68031640625,-3.07506640625,-3.03940234375,-1.207890625,-1.02546875,-7.81205078125,2.0553828125,6.513453125,-0.241503906249999,-4.92697265625,14.59265234375,4.6827734375,1.960796875,4.8825546875,5.1214453125,1.241578125,-0.705082031249999,-2.50683984375,-3.12876171875,7.01923828125,-4.9484453125,-9.48127734375,-7.82435546875,2.7322578125,-12.3205703125,-3.98689453125,6.2913359375,-2.79526171875
-3.28140234375,-4.18601953125,-3.24031640625,-4.88806640625,-3.90040234375,-2.750890625,-2.16846875,-6.87505078125,0.595382812499999,5.345453125,-1.93250390625,-5.66197265625,14.71465234375,4.6627734375,-0.0792031250000029,3.2265546875,7.2444453125,1.181578125,-1.61608203125,-4.64183984375,-3.89776171875,8.66523828125,-3.4934453125,-11.31627734375,-8.55535546875,4.8712578125,-12.5725703125,-2.63489453125,7.5213359375,-1.43226171875
-2.99340234375,-3.12801953125,-1.96231640625,-5.00406640625,-3.70040234375,-3.524890625,-2.97646875,-5.73905078125,0.444382812499999,4.581453125,-3.16950390625,-6.08497265625,14.91965234375,4.8007734375,-1.600203125,1.6305546875,8.9504453125,1.805578125,-1.97208203125,-6.03983984375,-4.38776171875,11.12823828125,-1.1394453125,-11.56327734375,-8.35435546875,6.4852578125,-11.1275703125,-0.10489453125,9.6143359375,0.64073828125
-1.63840234375,-1.29201953125,0.0616835937499998,-3.67606640625,-2.61840234375,-3.365890625,-3.17746875,-4.43005078125,1.6513828125,4.244453125,-3.65350390625,-5.83897265625,14.91765234375,4.9677734375,-2.300203125,0.549554687499999,10.0784453125,2.847578125,-1.65508203125,-6.40183984375,-4.29176171875,13.99323828125,1.7575546875,-10.12127734375,-7.18035546875,7.0232578125,-8.1555703125,3.31110546875,12.4263359375,3.12273828125
0.65659765625,1.22498046875,2.77368359375,-1.32506640625,-0.946402343750002,-2.241890625,-2.53946875,-2.96705078125,3.9013828125,4.329453125,-3.19750390625,-4.73897265625,14.58965234375,5.1617734375,-2.021203125,0.3265546875,10.7444453125,3.922578125,-0.644082031249999,-5.62683984375,-3.47476171875,16.75323828125,4.8425546875,-7.17827734375,-5.07835546875,6.4122578125,-4.0085703125,7.20410546875,15.7683359375,5.78473828125
3.71759765625,4.32198046875,6.03368359375,1.55193359375,0.973597656249998,-0.289890625,-0.96846875,-1.39105078125,6.5943828125,4.787453125,-1.80550390625,-2.84897265625,14.03365234375,5.4527734375,-0.814203125000002,1.0775546875,11.3084453125,4.685578125,0.941917968750001,-3.86283984375,-2.03176171875,18.93323828125,7.8055546875,-3.19827734375,-2.23735546875,5.0842578125,0.8124296875,11.09610546875,19.3833359375,8.48273828125
7.25259765625,7.77798046875,9.51768359375,4.42793359375,2.80359765625,2.188109375,1.40553125,0.21694921875,9.0123828125,5.504453125,0.29449609375,-0.46997265625,13.46665234375,5.8837734375,1.059796875,2.6695546875,12.1714453125,4.948578125,2.85491796875,-1.44683984375,-0.256761718749999,20.20223828125,10.3995546875,1.17772265625,1.01864453125,3.7792578125,5.7194296875,14.49610546875,22.9043359375,11.10973828125
10.82459765625,11.21498046875,12.75568359375,6.82693359375,4.28059765625,4.771109375,4.21853125,1.79994921875,10.5253828125,6.324453125,2.70049609375,1.96202734375,13.06265234375,6.4027734375,3.190796875,4.8005546875,13.5284453125,4.719578125,4.76591796875,1.22116015625,1.47823828125,20.42923828125,12.4195546875,5.27872265625,4.29464453125,3.1792578125,10.1104296875,16.94710546875,25.8503359375,13.51373828125
13.93759765625,14.19098046875,15.29368359375,8.45093359375,5.28759765625,7.029109375,6.96853125,3.38694921875,10.8013828125,7.108453125,4.97049609375,4.05102734375,12.84865234375,6.8687734375,5.141796875,7.1445546875,15.2534453125,4.149578125,6.36491796875,3.80416015625,2.87123828125,19.68023828125,13.6915546875,8.56072265625,7.23264453125,3.5732578125,13.4714296875,18.09410546875,27.6833359375,15.43873828125
16.17259765625,16.36198046875,16.88368359375,9.27593359375,5.88559765625,8.646109375,9.19053125,5.07594921875,9.9343828125,7.795453125,6.77449609375,5.59802734375,12.70765234375,7.1277734375,6.588796875,9.4815546875,17.0164453125,3.436578125,7.43891796875,6.12116015625,3.81823828125,18.14623828125,14.1005546875,10.70672265625,9.62264453125,4.7492578125,15.4764296875,17.74710546875,27.9553359375,16.56873828125
17.32159765625,17.60898046875,17.55468359375,9.53893359375,6.24559765625,9.518109375,10.62553125,6.91394921875,8.4163828125,8.390453125,7.98949609375,6.65502734375,12.48465234375,7.0867734375,7.410796875,11.7415546875,18.5204453125,2.723578125,7.91291796875,8.14616015625,4.45223828125,16.04023828125,13.6295546875,11.66972265625,11.45664453125,6.1662578125,16.0714296875,15.94310546875,26.4943359375,16.65173828125
17.45959765625,18.05998046875,17.56368359375,9.61993359375,6.53159765625,9.745109375,11.27353125,8.81194921875,6.9393828125,8.897453125,8.67549609375,7.43802734375,12.07865234375,6.7467734375,7.689796875,13.9255546875,19.6694453125,2.027578125,7.83091796875,9.92316015625,5.04523828125,13.53423828125,12.3775546875,11.62472265625,12.87064453125,7.2502578125,15.4604296875,12.95510546875,23.5263359375,15.62373828125
16.93959765625,18.00898046875,17.25068359375,9.88093359375,6.77759765625,9.528109375,11.31553125,10.58394921875,6.1103828125,9.237453125,8.95749609375,8.14302734375,11.47865234375,6.1717734375,7.607796875,15.9495546875,20.5344453125,1.260578125,7.28891796875,11.45716015625,5.82623828125,10.76823828125,10.5515546875,10.87372265625,13.99464453125,7.6272578125,14.0054296875,9.22810546875,19.6343359375,13.66373828125
16.25559765625,17.76398046875,16.87468359375,10.53393359375,6.88759765625,9.031109375,10.97653125,12.03494921875,6.2243828125,9.234453125,8.90749609375,8.79902734375,10.73465234375,5.4447734375,7.319796875,17.5435546875,21.2094453125,0.311578125,6.37391796875,12.63516015625,6.82423828125,7.90823828125,8.4015546875,9.73172265625,14.82364453125,7.1972578125,12.0914296875,5.26710546875,15.5673359375,11.12273828125
15.83859765625,17.50298046875,16.51468359375,11.58393359375,6.73259765625,8.322109375,10.40853125,13.02494921875,7.2233828125,8.672453125,8.50349609375,9.24702734375,9.92065234375,4.6507734375,6.886796875,18.2975546875,21.6834453125,-0.839421874999999,5.15591796875,13.24716015625,7.82823828125,5.18723828125,6.1765546875,8.45372265625,15.19564453125,6.0892578125,10.0374296875,1.51310546875,11.9803359375,8.39773828125
15.89559765625,17.22898046875,16.08268359375,12.86793359375,6.29459765625,7.414109375,9.68353125,13.48494921875,8.8203828125,7.437453125,7.69749609375,9.25702734375,9.13265234375,3.9097734375,6.293796875,17.8575546875,21.8374453125,-2.052421875,3.72791796875,13.10316015625,8.49723828125,2.88323828125,4.0935546875,7.21372265625,14.90564453125,4.5802578125,8.0814296875,-1.72589453125,9.2583359375,5.82573828125
16.37159765625,16.84298046875,15.44268359375,14.15293359375,5.70759765625,6.343109375,8.84253125,13.42994921875,10.6533828125,5.627453125,6.53349609375,8.71302734375,8.51565234375,3.3877734375,5.534796875,16.1615546875,21.5564453125,-3.063421875,2.24391796875,12.16716015625,8.55623828125,1.25123828125,2.3305546875,6.11472265625,13.86964453125,3.0362578125,6.3964296875,-4.26789453125,7.4783359375,3.64273828125
16.99059765625,16.24498046875,14.51068359375,15.19093359375,5.14859765625,5.215109375,7.94253125,12.92594921875,12.3363828125,3.545453125,5.20649609375,7.70502734375,8.27265234375,3.2367734375,4.656796875,13.5845546875,20.8804453125,-3.615421875,0.90291796875,10.63316015625,7.97023828125,0.43223828125,1.0235546875,5.20572265625,12.24064453125,1.8542578125,5.1084296875,-6.03189453125,6.4863359375,2.00773828125
17.32059765625,15.37798046875,13.28268359375,15.69593359375,4.66159765625,4.203109375,7.05453125,11.99294921875,13.4253828125,1.566453125,4.02049609375,6.50802734375,8.63465234375,3.5077734375,3.770796875,10.8525546875,20.1024453125,-3.592421875,-0.118082031250001,8.89116015625,7.00623828125,0.40723828125,0.2525546875,4.47772265625,10.38264453125,1.3872578125,4.3094296875,-7.00389453125,6.0163359375,1.03973828125
16.87959765625,14.21798046875,11.79968359375,15.34893359375,4.09059765625,3.497109375,6.23453125,10.53294921875,13.4323828125,-0.0375468750000003,3.27549609375,5.45202734375,9.80565234375,4.1087734375,3.011796875,8.7805546875,19.7034453125,-3.073421875,-0.718082031249999,7.40516015625,6.13023828125,1.00723828125,0.0405546874999985,3.87972265625,8.73564453125,1.8482578125,4.0574296875,-7.21989453125,5.7993359375,0.81673828125
15.33159765625,12.76798046875,10.12568359375,13.92793359375,3.19059765625,3.224109375,5.51253125,8.40194921875,11.9993828125,-1.183546875,3.13749609375,4.78002734375,11.86765234375,4.8627734375,2.486796875,7.9305546875,20.1344453125,-2.258421875,-0.89608203125,6.53016015625,5.77923828125,2.00623828125,0.3555546875,3.34572265625,7.62964453125,3.2442578125,4.3614296875,-6.76489453125,5.6433359375,1.33673828125
12.68559765625,11.07498046875,8.33068359375,11.48893359375,1.83459765625,3.384109375,4.88253125,5.57894921875,9.1553828125,-1.956546875,3.57849609375,4.54702734375,14.71665234375,5.6267734375,2.216796875,8.3605546875,21.5334453125,-1.342421875,-0.737082031249999,6.34816015625,6.11923828125,3.20723828125,1.1005546875,2.82972265625,7.13764453125,5.3742578125,5.1424296875,-5.78289453125,5.4643359375,2.47573828125
9.36059765625,9.24498046875,6.48768359375,8.44093359375,0.149597656249998,3.818109375,4.31053125,2.29494921875,5.4523828125,-2.533546875,4.36749609375,4.60702734375,18.03165234375,6.3537734375,2.116796875,9.5925546875,23.5844453125,-0.422421875,-0.391082031250001,6.61716015625,6.94723828125,4.48823828125,2.0945546875,2.31372265625,7.04764453125,7.8872578125,6.2084296875,-4.49389453125,5.2713359375,3.96973828125
9.36059765625,9.24498046875,6.48768359375,8.44093359375,0.149597656249998,3.818109375,4.31053125,2.29494921875,5.4523828125,-2.533546875,4.36749609375,4.60702734375,18.03165234375,6.3537734375,2.116796875,9.5925546875,23.5844453125,-0.422421875,-0.391082031250001,6.61716015625,6.94723828125,4.48823828125,2.0945546875,2.31372265625,7.04764453125,7.8872578125,6.2084296875,-4.49389453125,5.2713359375,3.96973828125
