"Fp1","Fpz","Fp2","F7","F3","Fz","F4","F8","FC5","FC1","FC2","FC6","T7","C3","Cz","C4","T8","CP5","CP1","CP2","CP6","P7","P3","Pz","P4","P8","POz","O1","Oz","O2"
-6.875109375,-1.12551953125,-0.557160156249999,-1.2053984375,-4.58328515625,-6.2342421875,-3.0858515625,-3.5688046875,-3.26890234375,-2.0677265625,2.4568984375,2.52721875,2.98956640625,-5.1235390625,-5.174546875,-1.5413125,1.7583359375,-4.745859375,-4.41730859375,-4.30325390625,-0.560796875,0.0354687499999999,-6.124078125,-5.18223828125,-2.9683828125,2.049359375,-4.010328125,-1.879734375,-2.975171875,-2.7811328125
-0.0161093750000001,3.26748046875,6.00683984375,3.5346015625,-1.34328515625,-2.3972421875,-0.7948515625,-0.4778046875,-1.97190234375,0.8752734375,4.6848984375,2.80421875,3.91656640625,-0.730539062500001,-3.489546875,-0.624312499999999,3.8773359375,0.0031406249999999,-1.68930859375,-1.78125390625,1.496203125,2.10846875,-3.545078125,-3.02823828125,-0.8923828125,4.205359375,-1.286328125,-0.351734375,0.348828125,-0.545132812499999
5.061890625,6.99048046875,10.92883984375,6.6386015625,1.19871484375,0.3027578125,0.9341484375,1.6841953125,-0.799902343750001,3.1482734375,6.2578984375,3.88221875,3.96856640625,2.3874609375,-2.016546875,0.2656875,4.4963359375,2.407140625,0.0646914062499997,-0.17625390625,2.636203125,3.08446875,-2.420078125,-1.88323828125,0.2566171875,4.902359375,0.0126718750000006,0.120265625,2.175828125,0.538867187500001
8.192890625,9.78048046875,14.05883984375,8.0576015625,2.92071484375,1.8187578125,1.9021484375,2.8671953125,0.0910976562499997,4.6182734375,7.0608984375,5.69121875,3.85556640625,4.0184609375,-0.814546875,0.9676875,3.5373359375,2.531140625,0.81869140625,0.45674609375,2.754203125,2.96346875,-2.631078125,-1.74923828125,0.4036171875,4.155359375,-0.0943281249999997,-0.428734375,2.438828125,0.4678671875
9.718890625,11.52948046875,15.72583984375,8.2036015625,3.89671484375,2.4267578125,2.0621484375,3.2531953125,0.53809765625,5.3152734375,7.1628984375,7.77221875,4.60756640625,4.2874609375,0.0704531250000002,1.2796875,1.4263359375,1.164140625,0.81869140625,0.31874609375,2.001203125,2.04946875,-3.620078125,-2.33123828125,-0.2493828125,2.464359375,-1.166328125,-1.623734375,1.515828125,-0.3991328125
10.217890625,12.27648046875,16.46583984375,7.6696015625,4.32871484375,2.5217578125,1.5631484375,3.0921953125,0.460097656249999,5.4002734375,6.7688984375,9.44921875,6.72156640625,3.5664609375,0.587453125,1.0496875,-1.0626640625,-0.681859375,0.39769140625,-0.28625390625,0.696203125,0.71746875,-4.757078125,-3.22823828125,-1.3383828125,0.538359375,-2.627328125,-3.003734375,-0.00517187499999983,-1.5521328125
10.197890625,12.15948046875,16.74583984375,6.9486015625,4.43971484375,2.4187578125,0.7101484375,2.5761953125,-0.0779023437500008,5.0932734375,6.1188984375,10.11921875,9.65056640625,2.3454609375,0.687453125,0.256687500000001,-3.0256640625,-2.241859375,-0.18130859375,-1.08025390625,-0.808796875,-0.77753125,-5.648078125,-4.10623828125,-2.4933828125,-1.002640625,-4.019328125,-4.248734375,-1.576171875,-2.5601328125
9.955890625,11.39448046875,16.84683984375,6.3016015625,4.39271484375,2.2667578125,-0.1688515625,1.8461953125,-0.850902343750001,4.6202734375,5.3898984375,9.50421875,12.05456640625,1.1204609375,0.359453125,-0.974312499999999,-3.6806640625,-3.201859375,-0.77130859375,-1.88425390625,-2.209796875,-2.30853125,-6.207078125,-4.76623828125,-3.4553828125,-1.828640625,-5.107328125,-5.242734375,-2.819171875,-3.2051328125
9.636890625,10.31148046875,16.93283984375,5.7806015625,4.26771484375,2.0847578125,-0.8388515625,1.0541953125,-1.54390234375,4.1622734375,4.6738984375,7.73221875,12.70756640625,0.298460937499999,-0.321546875,-2.4083125,-2.6226640625,-3.596859375,-1.30830859375,-2.59425390625,-3.271796875,-3.73853125,-6.517078125,-5.12523828125,-4.0863828125,-1.950640625,-5.817328125,-5.967734375,-3.538171875,-3.4681328125
9.341890625,9.36648046875,17.14083984375,5.3176015625,4.08471484375,1.8407578125,-1.2058515625,0.3951953125,-1.91190234375,3.8212734375,4.0268984375,5.27821875,11.38756640625,0.112460937499999,-1.171546875,-3.7313125,-0.0086640624999999,-3.569859375,-1.72230859375,-3.12025390625,-3.792796875,-4.79553125,-6.627078125,-5.14723828125,-4.3143828125,-1.647640625,-6.126328125,-6.360734375,-3.664171875,-3.4091328125
9.166890625,9.01348046875,17.58183984375,4.8246015625,3.83771484375,1.5127578125,-1.2978515625,0.0531953125,-1.91790234375,3.5902734375,3.5198984375,2.78721875,9.06256640625,0.557460937499999,-1.959546875,-4.6103125,3.4493359375,-3.190859375,-1.92330859375,-3.36325390625,-3.591796875,-5.10053125,-6.454078125,-4.81523828125,-4.0623828125,-1.335640625,-5.988328125,-6.292734375,-3.222171875,-3.0571328125
9.165890625,9.48048046875,18.25683984375,4.2616015625,3.51771484375,1.1227578125,-1.2288515625,0.1161953125,-1.74790234375,3.3472734375,3.2178984375,0.88521875,7.19456640625,1.3724609375,-2.516546875,-4.7933125,6.7023359375,-2.449859375,-1.85130859375,-3.26325390625,-2.580796875,-4.33653125,-5.846078125,-4.17623828125,-3.2763828125,-1.418640625,-5.371328125,-5.663734375,-2.322171875,-2.4081328125
9.278890625,10.56448046875,18.98683984375,3.6376015625,3.11471484375,0.7107578125,-1.1678515625,0.4981953125,-1.66390234375,2.9012734375,3.1088984375,-0.0297812500000001,6.71556640625,2.1184609375,-2.851546875,-4.2333125,8.7153359375,-1.354859375,-1.57230859375,-2.88925390625,-0.873796875,-2.47953125,-4.740078125,-3.39223828125,-2.0293828125,-2.144640625,-4.342328125,-4.535734375,-1.168171875,-1.5101328125
9.272890625,11.64448046875,19.43083984375,2.9676015625,2.59471484375,0.2827578125,-1.2838515625,0.9321953125,-1.83790234375,2.0672734375,3.0598984375,0.0932187499999997,7.46756640625,2.3514609375,-3.153546875,-3.1483125,8.8043359375,-0.0408593750000001,-1.32030859375,-2.48925390625,1.136203125,0.0584687500000001,-3.293078125,-2.76023828125,-0.6033828125,-3.458640625,-3.150328125,-3.157734375,-0.0371718749999999,-0.5461328125
8.793890625,11.94248046875,19.20383984375,2.2346015625,1.89671484375,-0.2332421875,-1.6928515625,1.0591953125,-2.29090234375,0.7552734375,2.8448984375,0.96221875,8.51756640625,1.8094609375,-3.703546875,-1.9653125,6.8453359375,1.179140625,-1.43930859375,-2.42825390625,2.824203125,2.46546875,-1.917078125,-2.63723828125,0.5256171875,-4.944640625,-2.211328125,-1.887734375,0.775828125,0.1948671875
7.522890625,10.90948046875,18.05383984375,1.4206015625,0.95971484375,-0.9672421875,-2.4388515625,0.5861953125,-2.97190234375,-0.9817265625,2.2348984375,2.09021875,8.97756640625,0.505460937499999,-4.731546875,-1.1823125,3.2923359375,1.848140625,-2.26330859375,-3.04525390625,3.516203125,3.79546875,-1.176078125,-3.32923828125,0.8276171875,-5.940640625,-1.985328125,-1.051734375,1.047828125,0.437867187500001
5.351890625,8.47348046875,15.96383984375,0.5596015625,-0.236285156249999,-2.0412421875,-3.5108515625,-0.5828046875,-3.86890234375,-2.9857265625,1.0848984375,3.00221875,8.60756640625,-1.3495390625,-6.334546875,-1.2143125,-0.9946640625,1.485140625,-3.98230859375,-4.51925390625,2.741203125,3.39446875,-1.589078125,-4.97423828125,-0.0693828125000007,-5.857640625,-2.805328125,-0.838734375,0.682828125,0.0478671875000005
2.427890625,5.02548046875,13.11983984375,-0.2593984375,-1.65928515625,-3.5002421875,-4.8708515625,-2.3248046875,-5.04390234375,-5.0667265625,-0.6081015625,3.40221875,7.76756640625,-3.4955390625,-8.438546875,-2.2623125,-5.0366640625,-0.203859375,-6.54930859375,-6.79625390625,0.462203125,1.26546875,-3.405078125,-7.48823828125,-2.2063828125,-4.547640625,-4.733328125,-1.285734375,-0.273171875,-0.910132812499999
-0.917109375,1.19948046875,9.80683984375,-0.9463984375,-3.22728515625,-5.2662421875,-6.4378515625,-4.3528046875,-6.53890234375,-7.0497265625,-2.6861015625,3.19821875,6.90356640625,-5.7145390625,-10.812546875,-4.2343125,-8.0146640625,-3.100859375,-9.64730859375,-9.59925390625,-2.847796875,-1.87053125,-6.439078125,-10.54723828125,-5.2363828125,-2.437640625,-7.518328125,-2.281734375,-1.646171875,-2.1971328125
-4.244109375,-2.34651953125,6.36783984375,-1.4443984375,-4.79328515625,-7.1052421875,-8.0418515625,-6.2828046875,-8.22990234375,-8.7777265625,-4.8291015625,2.44121875,6.14856640625,-7.8035390625,-13.114546875,-6.7483125,-9.4546640625,-6.593859375,-12.75130859375,-12.46925390625,-6.353796875,-4.86453125,-10.059078125,-13.64123828125,-8.5083828125,-0.311640625,-10.637328125,-3.575734375,-3.175171875,-3.4861328125
-7.046109375,-5.07351953125,3.21983984375,-1.7193984375,-6.14928515625,-8.6672421875,-9.4268515625,-7.7228046875,-9.75990234375,-10.1027265625,-6.6331015625,1.23421875,5.33356640625,-9.5255390625,-14.975546875,-9.2493125,-9.2836640625,-9.754859375,-15.28430859375,-14.88425390625,-9.160796875,-6.66353125,-13.383078125,-16.20323828125,-11.2983828125,1.095359375,-13.444328125,-4.814734375,-4.570171875,-4.4901328125
-8.858109375,-6.64851953125,0.81983984375,-1.7503984375,-7.08528515625,-9.6142421875,-10.3418515625,-8.3858046875,-10.66890234375,-10.9197265625,-7.7541015625,-0.29378125,4.22956640625,-10.6455390625,-16.123546875,-11.2203125,-7.8066640625,-11.744859375,-16.81830859375,-16.41625390625,-10.657796875,-6.77053125,-15.626078125,-17.79023828125,-13.0703828125,1.432359375,-15.382328125,-5.674734375,-5.626171875,-5.0681328125
-9.435109375,-7.02151953125,-0.49116015625,-1.5663984375,-7.49328515625,-9.7992421875,-10.6558515625,-8.2198046875,-10.65190234375,-11.2177265625,-8.0731015625,-1.94778125,2.68756640625,-11.0325390625,-16.488546875,-12.3793125,-5.5746640625,-12.211859375,-17.23730859375,-16.89925390625,-10.713796875,-5.45353125,-16.434078125,-18.26223828125,-13.6493828125,0.799359375,-16.205328125,-6.047734375,-6.325171875,-5.2881328125
-8.856109375,-6.40551953125,-0.615160156249999,-1.2563984375,-7.41528515625,-9.3312421875,-10.4218515625,-7.4248046875,-9.73690234375,-11.0917265625,-7.7561015625,-3.41278125,0.62756640625,-10.7335390625,-16.221546875,-12.7493125,-3.1966640625,-11.436859375,-16.75730859375,-16.49425390625,-9.673796875,-3.60453125,-16.013078125,-17.83323828125,-13.2483828125,-0.400640625,-16.069328125,-6.145734375,-6.860171875,-5.3751328125
-7.457109375,-5.17451953125,0.28783984375,-0.9373984375,-6.99428515625,-8.4892421875,-9.8308515625,-6.3548046875,-8.28790234375,-10.6917265625,-7.1631015625,-4.29178125,-1.93143359375,-9.9675390625,-15.612546875,-12.5613125,-1.1446640625,-10.146859375,-15.80630859375,-15.60525390625,-8.166796875,-2.32053125,-14.985078125,-16.96723828125,-12.3283828125,-1.693640625,-15.431328125,-6.407734375,-7.528171875,-5.6011328125
-5.680109375,-3.73351953125,1.86183984375,-0.7013984375,-6.39728515625,-7.5562421875,-9.1008515625,-5.3608046875,-6.84290234375,-10.1637265625,-6.6521015625,-4.26978125,-4.68443359375,-9.0545390625,-14.953546875,-12.0813125,0.3343359375,-9.131859375,-14.83030859375,-14.68925390625,-6.833796875,-2.42453125,-14.053078125,-16.15023828125,-11.3823828125,-2.729640625,-14.813328125,-7.254734375,-8.542171875,-6.1461328125
-3.987109375,-2.45751953125,3.60883984375,-0.6173984375,-5.79328515625,-6.7302421875,-8.4058515625,-4.6918046875,-5.93690234375,-9.6417265625,-6.4221015625,-3.31878125,-6.92443359375,-8.3465390625,-14.435546875,-11.4733125,1.2073359375,-8.882859375,-14.13430859375,-14.07525390625,-6.091796875,-4.13153125,-13.691078125,-15.69623828125,-10.7523828125,-3.379640625,-14.552328125,-8.841734375,-9.896171875,-7.0231328125
-2.830109375,-1.71751953125,4.93483984375,-0.7523984375,-5.35728515625,-6.1072421875,-7.8668515625,-4.4788046875,-5.95490234375,-9.2597265625,-6.4701015625,-1.82278125,-7.76243359375,-8.1545390625,-14.128546875,-10.8003125,1.5763359375,-9.436859375,-13.82430859375,-13.87625390625,-6.033796875,-7.00753125,-13.995078125,-15.66123828125,-10.5603828125,-3.739640625,-14.695328125,-10.958734375,-11.362171875,-8.0891328125
-2.568109375,-1.84851953125,5.29583984375,-1.1493984375,-5.25128515625,-5.7052421875,-7.5698515625,-4.7408046875,-7.00990234375,-9.1487265625,-6.6771015625,-0.46478125,-6.61743359375,-8.6625390625,-14.025546875,-10.1103125,1.5703359375,-10.454859375,-13.85130859375,-14.02225390625,-6.484796875,-10.22153125,-14.733078125,-15.91023828125,-10.7453828125,-4.028640625,-15.047328125,-13.142734375,-12.616171875,-9.1331328125
-3.353109375,-3.05551953125,4.39783984375,-1.7763984375,-5.55728515625,-5.4812421875,-7.5628515625,-5.3998046875,-8.87190234375,-9.3957265625,-6.9091015625,0.0732187499999997,-3.64643359375,-9.8275390625,-14.101546875,-9.5103125,1.2623359375,-11.466859375,-14.09830859375,-14.35525390625,-7.141796875,-12.94053125,-15.523078125,-16.24023828125,-11.1553828125,-4.422640625,-15.317328125,-14.891734375,-13.403171875,-9.9701328125
-5.089109375,-5.29051953125,2.32283984375,-2.5393984375,-6.24928515625,-5.3842421875,-7.8288515625,-6.3118046875,-11.03090234375,-9.9887265625,-7.0941015625,-0.55378125,0.21356640625,-11.3485390625,-14.323546875,-9.1423125,0.6703359375,-12.139859375,-14.45230859375,-14.71425390625,-7.710796875,-14.68953125,-16.054078125,-16.49223828125,-11.6143828125,-4.907640625,-15.270328125,-15.882734375,-13.640171875,-10.4731328125
-7.519109375,-8.25151953125,-0.55316015625,-3.3583984375,-7.23828515625,-5.4442421875,-8.2898515625,-7.3168046875,-12.91690234375,-10.8417265625,-7.2521015625,-2.17578125,3.61656640625,-12.7925390625,-14.656546875,-9.0913125,-0.1876640625,-12.453859375,-14.83730859375,-14.98225390625,-7.990796875,-15.46153125,-16.237078125,-16.58523828125,-11.9683828125,-5.250640625,-14.819328125,-16.062734375,-13.420171875,-10.5811328125
-10.372109375,-11.48151953125,-3.75216015625,-4.2313984375,-8.47028515625,-5.8192421875,-8.8828515625,-8.2868046875,-14.15390234375,-11.8717265625,-7.4961015625,-4.19278125,5.34656640625,-13.8405390625,-15.087546875,-9.3203125,-1.2576640625,-12.686859375,-15.24530859375,-15.10925390625,-7.911796875,-15.57453125,-16.236078125,-16.53023828125,-12.1133828125,-5.140640625,-14.061328125,-15.622734375,-12.928171875,-10.2951328125
-13.413109375,-14.51051953125,-6.86016015625,-5.2103984375,-9.95928515625,-6.7482421875,-9.6198515625,-9.1578046875,-14.71290234375,-13.0757265625,-8.0041015625,-5.82378125,4.78356640625,-14.4825390625,-15.653546875,-9.6913125,-2.4606640625,-13.225859375,-15.73830859375,-15.11725390625,-7.543796875,-15.39053125,-16.359078125,-16.41923828125,-12.0263828125,-4.401640625,-13.220328125,-14.881734375,-12.350171875,-9.6951328125
-16.419109375,-16.97851953125,-9.56916015625,-6.3073984375,-11.73228515625,-8.3922421875,-10.5718515625,-9.9218046875,-14.89190234375,-14.5137265625,-8.9331015625,-6.41978125,2.13256640625,-14.9825390625,-16.427546875,-10.0303125,-3.7216640625,-14.293859375,-16.41630859375,-15.09825390625,-7.058796875,-15.09853125,-16.863078125,-16.39223828125,-11.7583828125,-3.138640625,-12.557328125,-14.142734375,-11.813171875,-8.9291328125
-19.113109375,-18.67551953125,-11.62716015625,-7.4123984375,-13.71528515625,-10.6562421875,-11.7448515625,-10.5748046875,-15.10790234375,-16.1997265625,-10.3061015625,-5.68578125,-1.64843359375,-15.6355390625,-17.428546875,-10.2043125,-4.9196640625,-15.743859375,-17.32230859375,-15.17325390625,-6.634796875,-14.68453125,-17.793078125,-16.56723828125,-11.3853828125,-1.723640625,-12.259328125,-13.594734375,-11.379171875,-8.1811328125
-21.133109375,-19.54251953125,-12.80716015625,-8.2723984375,-15.64428515625,-13.1002421875,-12.9868515625,-11.0488046875,-15.63390234375,-17.9887265625,-11.9511015625,-3.78078125,-5.24943359375,-16.5185390625,-18.557546875,-10.1833125,-5.7926640625,-17.085859375,-18.38630859375,-15.43725390625,-6.364796875,-14.05053125,-18.939078125,-16.97623828125,-10.9673828125,-0.657640625,-12.380328125,-13.288734375,-11.080171875,-7.6201328125
-22.110109375,-19.62651953125,-12.94916015625,-8.5773984375,-17.10328515625,-15.0422421875,-13.9898515625,-11.1898046875,-16.40590234375,-19.5667265625,-13.5511015625,-1.26678125,-7.58743359375,-17.4275390625,-19.598546875,-10.0613125,-5.9136640625,-17.732859375,-19.42130859375,-15.91125390625,-6.222796875,-13.19053125,-19.961078125,-17.55323828125,-10.5493828125,-0.386640625,-12.857328125,-13.179734375,-10.938171875,-7.3671328125
-21.835109375,-19.06051953125,-12.07416015625,-8.1293984375,-17.68528515625,-15.8382421875,-14.4198515625,-10.8538046875,-17.03890234375,-20.5537265625,-14.7681015625,1.08321875,-8.26743359375,-18.0225390625,-20.314546875,-10.0263125,-4.8636640625,-17.337859375,-20.20030859375,-16.53025390625,-6.103796875,-12.28753125,-20.586078125,-18.16823828125,-10.1843828125,-1.131640625,-13.573328125,-13.199734375,-10.982171875,-7.4791328125
-20.420109375,-18.04451953125,-10.44816015625,-6.9873984375,-17.18428515625,-15.1732421875,-14.0638515625,-10.0288046875,-17.05190234375,-20.6637265625,-15.3731015625,2.54321875,-7.67543359375,-18.0365390625,-20.533546875,-10.2443125,-2.5516640625,-15.976859375,-20.55030859375,-17.16925390625,-5.907796875,-11.64653125,-20.736078125,-18.69523828125,-9.9463828125,-2.789640625,-14.411328125,-13.284734375,-11.214171875,-7.9221328125
-18.293109375,-16.80851953125,-8.51716015625,-5.4903984375,-15.69428515625,-13.2162421875,-12.9478515625,-8.9168046875,-16.15290234375,-19.8257265625,-15.3111015625,2.70121875,-6.68443359375,-17.4115390625,-20.215546875,-10.7473125,0.5123359375,-14.112859375,-20.42130859375,-17.68625390625,-5.638796875,-11.52253125,-20.524078125,-19.05623828125,-9.9293828125,-4.972640625,-15.292328125,-13.382734375,-11.586171875,-8.5771328125
-16.004109375,-15.55051953125,-6.71516015625,-4.1063984375,-13.58328515625,-10.5392421875,-11.3598515625,-7.8928046875,-14.41790234375,-18.2267265625,-14.7181015625,1.58721875,-6.15943359375,-16.3135390625,-19.469546875,-11.4133125,3.2333359375,-12.375859375,-19.91730859375,-17.99825390625,-5.469796875,-11.93253125,-20.161078125,-19.27023828125,-10.2583828125,-7.189640625,-16.177328125,-13.442734375,-11.999171875,-9.2981328125
-13.965109375,-14.37851953125,-5.28416015625,-3.2253984375,-11.35428515625,-7.8892421875,-9.7628515625,-7.3898046875,-12.27990234375,-16.2707265625,-13.8681015625,-0.39178125,-6.52143359375,-15.0495390625,-18.531546875,-12.0693125,4.3253359375,-11.319859375,-19.28430859375,-18.15225390625,-5.731796875,-12.58753125,-19.846078125,-19.45823828125,-11.0843828125,-9.062640625,-17.081328125,-13.408734375,-12.335171875,-9.9801328125
-12.329109375,-13.30251953125,-4.24216015625,-2.9963984375,-9.49628515625,-5.9192421875,-8.6048515625,-7.7528046875,-10.33690234375,-14.4537265625,-13.0691015625,-2.66778125,-7.52043359375,-13.9465390625,-17.683546875,-12.6013125,2.8903359375,-11.220859375,-18.80730859375,-18.31925390625,-6.763796875,-12.95853125,-19.697078125,-19.78323828125,-12.5123828125,-10.443640625,-18.035328125,-13.198734375,-12.487171875,-10.5761328125
-11.064109375,-12.31451953125,-3.50516015625,-3.3063984375,-8.35628515625,-4.9922421875,-8.1428515625,-9.0938046875,-9.11090234375,-13.1947265625,-12.5361015625,-4.70378125,-8.33543359375,-13.2665390625,-17.140546875,-12.9933125,-1.0946640625,-11.992859375,-18.68330859375,-18.68825390625,-8.677796875,-12.49553125,-19.706078125,-20.34423828125,-14.4823828125,-11.361640625,-19.036328125,-12.694734375,-12.379171875,-11.0411328125
-10.143109375,-11.50451953125,-3.07216015625,-3.8743984375,-8.06828515625,-5.1052421875,-8.3678515625,-11.1968046875,-8.85790234375,-12.7117265625,-12.3231015625,-6.12378125,-8.03943359375,-13.1665390625,-16.979546875,-13.2923125,-6.6626640625,-13.236859375,-18.94130859375,-19.32925390625,-11.216796875,-10.93353125,-19.763078125,-21.10523828125,-16.7043828125,-11.877640625,-19.992328125,-11.797734375,-11.984171875,-11.2821328125
-9.686109375,-11.10551953125,-3.09516015625,-4.4193984375,-8.55528515625,-5.9542421875,-9.0698515625,-13.5538046875,-9.50790234375,-12.9787265625,-12.3711015625,-6.78078125,-6.21843359375,-13.6885390625,-17.149546875,-13.5653125,-12.1616640625,-14.431859375,-19.46230859375,-20.12825390625,-13.785796875,-8.54953125,-19.749078125,-21.91523828125,-18.7113828125,-11.975640625,-20.753328125,-10.545734375,-11.358171875,-11.1781328125
-9.930109375,-11.38951953125,-3.76616015625,-4.7983984375,-9.57328515625,-7.1082421875,-9.9568515625,-15.5268046875,-10.73690234375,-13.7817265625,-12.5901015625,-6.79178125,-3.34443359375,-14.7325390625,-17.524546875,-13.8593125,-15.8636640625,-15.168859375,-20.06030859375,-20.82925390625,-15.670796875,-6.17053125,-19.638078125,-22.58723828125,-20.0223828125,-11.556640625,-21.177328125,-9.175734375,-10.639171875,-10.6661328125
-11.020109375,-12.44651953125,-5.09816015625,-5.0363984375,-10.78628515625,-8.1802421875,-10.7588515625,-16.5778046875,-12.11290234375,-14.7937265625,-12.9271015625,-6.49078125,-0.55643359375,-16.0355390625,-17.958546875,-14.1733125,-16.5936640625,-15.313859375,-20.57330859375,-21.14725390625,-16.299796875,-4.84353125,-19.537078125,-22.97923828125,-20.3013828125,-10.535640625,-21.206328125,-8.044734375,-9.990171875,-9.7941328125
-12.776109375,-14.04251953125,-6.77916015625,-5.2353984375,-11.84928515625,-8.9392421875,-11.2898515625,-16.4538046875,-13.26090234375,-15.6947265625,-13.3641015625,-6.25978125,1.01956640625,-17.2395390625,-18.327546875,-14.4493125,-14.1556640625,-15.043859375,-20.91230859375,-20.88625390625,-15.457796875,-5.31053125,-19.619078125,-23.03123828125,-19.4663828125,-8.942640625,-20.874328125,-7.436734375,-9.506171875,-8.7241328125
-14.690109375,-15.70051953125,-8.28816015625,-5.4633984375,-12.52128515625,-9.3672421875,-11.5188515625,-15.2968046875,-14.00890234375,-16.2867265625,-13.9171015625,-6.32578125,0.88156640625,-18.0635390625,-18.582546875,-14.6223125,-9.4036640625,-14.740859375,-21.09830859375,-20.04225390625,-13.386796875,-7.57953125,-20.016078125,-22.78323828125,-17.7423828125,-6.958640625,-20.280328125,-7.423734375,-9.166171875,-7.6771328125
-16.198109375,-16.96951953125,-9.18716015625,-5.7363984375,-12.77028515625,-9.6432421875,-11.5918515625,-13.6148046875,-14.43390234375,-16.5717265625,-14.6191015625,-6.66478125,-0.74443359375,-18.4535390625,-18.760546875,-14.6723125,-3.9216640625,-14.798859375,-21.23630859375,-18.83325390625,-10.724796875,-10.86653125,-20.724078125,-22.35623828125,-15.5983828125,-4.846640625,-19.546328125,-7.875734375,-8.884171875,-6.8631328125
-16.979109375,-17.63651953125,-9.34316015625,-6.0613984375,-12.75128515625,-10.0302421875,-11.7418515625,-12.0758046875,-14.75990234375,-16.6977265625,-15.4821015625,-7.04178125,-3.26743359375,-18.5435390625,-18.919546875,-14.6173125,0.5693359375,-15.378859375,-21.41230859375,-17.60725390625,-8.266796875,-13.94153125,-21.547078125,-21.87423828125,-13.5843828125,-2.833640625,-18.769328125,-8.604734375,-8.610171875,-6.4221328125
-17.007109375,-17.70551953125,-8.87516015625,-6.4183984375,-12.64028515625,-10.6492421875,-12.0938515625,-11.1798046875,-15.12590234375,-16.7807265625,-16.4031015625,-7.12378125,-6.13143359375,-18.4515390625,-19.022546875,-14.4263125,2.8733359375,-16.246859375,-21.56830859375,-16.65225390625,-6.630796875,-15.68853125,-22.103078125,-21.36323828125,-12.0993828125,-1.039640625,-17.960328125,-9.490734375,-8.378171875,-6.3801328125
-16.362109375,-17.23751953125,-7.92016015625,-6.7033984375,-12.44428515625,-11.3012421875,-12.4988515625,-10.9918046875,-15.39890234375,-16.7407265625,-17.1121015625,-6.62578125,-8.95143359375,-18.0775390625,-18.861546875,-13.9513125,2.7333359375,-16.811859375,-21.44430859375,-16.00325390625,-6.000796875,-15.58553125,-21.919078125,-20.68223828125,-11.2163828125,0.507359375,-17.013328125,-10.470734375,-8.250171875,-6.6321328125
-15.046109375,-16.22251953125,-6.49416015625,-6.7013984375,-11.94228515625,-11.4962421875,-12.5268515625,-11.1268046875,-15.18490234375,-16.2837265625,-17.2141015625,-5.46878125,-11.42843359375,-17.1085390625,-18.107546875,-12.9603125,0.8563359375,-16.390859375,-20.67030859375,-15.40425390625,-6.084796875,-13.85953125,-20.623078125,-19.56223828125,-10.6683828125,1.795359375,-15.728328125,-11.406734375,-8.215171875,-6.9611328125
-12.972109375,-14.59951953125,-4.52616015625,-6.1353984375,-10.82128515625,-10.7012421875,-11.6718515625,-10.9938046875,-14.05190234375,-15.0617265625,-16.3421015625,-3.87078125,-13.24043359375,-15.2185390625,-16.475546875,-11.2743125,-1.4486640625,-14.574859375,-18.95330859375,-14.45125390625,-6.288796875,-11.27153125,-18.141078125,-17.74323828125,-10.0013828125,2.775359375,-13.908328125,-11.964734375,-8.138171875,-7.1031328125
-10.101109375,-12.35951953125,-2.00716015625,-4.7903984375,-8.89028515625,-8.6422421875,-9.6368515625,-10.1278046875,-11.80890234375,-12.8967265625,-14.3611015625,-2.28978125,-14.05343359375,-12.3385390625,-13.902546875,-8.9113125,-2.8686640625,-11.469859375,-16.25630859375,-12.83725390625,-6.026796875,-8.67753125,-14.776078125,-15.11823828125,-8.8093828125,3.348359375,-11.479328125,-11.663734375,-7.811171875,-6.8441328125
-6.625109375,-9.66951953125,0.86383984375,-2.6283984375,-6.24528515625,-5.4932421875,-6.5668515625,-8.4268046875,-8.66590234375,-9.9377265625,-11.4881015625,-1.18978125,-13.60043359375,-8.8045390625,-10.650546875,-6.1503125,-2.6686640625,-7.689859375,-12.87130859375,-10.54625390625,-5.005796875,-6.62353125,-11.104078125,-11.82523828125,-6.9443828125,3.397359375,-8.568328125,-10.103734375,-7.066171875,-6.1261328125
-3.105109375,-6.95051953125,3.59683984375,0.0976015625,-3.31128515625,-1.8752421875,-3.0678515625,-6.2068046875,-5.22890234375,-6.6677265625,-8.2721015625,-0.78478125,-11.75343359375,-5.2905390625,-7.254546875,-3.4563125,-0.9976640625,-4.099859375,-9.34330859375,-7.90125390625,-3.348796875,-5.19253125,-7.743078125,-8.24523828125,-4.5873828125,2.845359375,-5.494328125,-7.253734375,-5.866171875,-5.0841328125
-0.438109375,-4.82451953125,5.46883984375,2.8276015625,-0.742285156249999,1.3327578125,-0.00385156249999996,-4.0788046875,-2.34390234375,-3.7527265625,-5.4071015625,-0.96478125,-8.55243359375,-2.5485390625,-4.321546875,-1.2913125,1.2493359375,-1.454859375,-6.27130859375,-5.41525390625,-1.482796875,-4.12753125,-5.120078125,-4.88323828125,-2.1453828125,1.722359375,-2.655328125,-3.585734375,-4.340171875,-3.9791328125
0.460890625,-3.88451953125,5.78783984375,4.8376015625,0.821714843750001,3.3257578125,1.8721484375,-2.6978046875,-0.81090234375,-1.7857265625,-3.4561015625,-1.41278125,-4.27643359375,-1.0865390625,-2.286546875,0.0706875000000009,2.9383359375,-0.116859375,-4.08730859375,-3.54825390625,0.100203125,-3.10553125,-3.352078125,-2.20623828125,-0.0553828125000004,0.222359375,-0.386328124999999,0.060265625,-2.739171875,-3.0711328125
-0.783109375,-4.37651953125,4.31483984375,5.5686015625,1.06371484375,3.7237578125,2.2351484375,-2.4548046875,-1.03890234375,-1.0347265625,-2.6311015625,-1.80878125,0.42756640625,-0.967539062500001,-1.258546875,0.6246875,3.2833359375,0.0251406250000001,-2.92230859375,-2.51825390625,1.074203125,-1.97853125,-2.284078125,-0.49523828125,1.3836171875,-1.327640625,1.138671875,2.807265625,-1.360171875,-2.5181328125
-3.609109375,-5.96151953125,1.56083984375,4.9326015625,0.188714843750001,2.7427578125,1.3121484375,-3.2828046875,-2.79890234375,-1.3407265625,-2.7521015625,-1.96678125,4.49556640625,-1.8055390625,-1.032546875,0.5656875,2.1943359375,-0.567859375,-2.59630859375,-2.25925390625,1.364203125,-0.86653125,-1.644078125,0.22176171875,2.0566171875,-2.587640625,1.922671875,4.089265625,-0.450171875,-2.3401328125
-6.650109375,-7.78151953125,-1.30516015625,3.3756015625,-1.14928515625,1.0687578125,-0.2448515625,-4.6828046875,-5.23490234375,-2.1977265625,-3.3811015625,-1.85378125,6.71656640625,-2.9445390625,-1.228546875,0.1426875,0.2293359375,-1.321859375,-2.73030859375,-2.51725390625,1.081203125,-0.0955312500000001,-1.198078125,0.14476171875,1.9886171875,-3.340640625,2.088671875,3.849265625,-0.121171875,-2.4351328125
-8.406109375,-8.84251953125,-2.97516015625,1.6476015625,-2.15028515625,-0.4832421875,-1.6428515625,-5.9758046875,-7.19690234375,-2.9807265625,-4.0351015625,-1.54778125,6.25956640625,-3.7055390625,-1.459546875,-0.4413125,-1.7516640625,-1.770859375,-2.90530859375,-2.99325390625,0.420203125,-0.01553125,-0.850078125,-0.39223828125,1.2986171875,-3.587640625,1.810671875,2.493265625,-0.302171875,-2.6391328125
-8.031109375,-8.53051953125,-2.66016015625,0.4396015625,-2.25528515625,-1.3102421875,-2.2738515625,-6.6128046875,-7.73790234375,-3.2257265625,-4.3571015625,-1.19478125,3.17756640625,-3.6485390625,-1.477546875,-1.0473125,-2.9876640625,-1.694859375,-2.82530859375,-3.45325390625,-0.421796875,-0.77953125,-0.634078125,-1.05223828125,0.1656171875,-3.543640625,1.249671875,0.666265625,-0.772171875,-2.7941328125
-5.740109375,-6.93451953125,-0.48516015625,0.1026015625,-1.37228515625,-1.2052421875,-1.9298515625,-6.3838046875,-6.53190234375,-2.8067265625,-4.2091015625,-0.97378125,-1.49543359375,-2.7415390625,-1.246546875,-1.5823125,-3.0946640625,-1.147859375,-2.42430859375,-3.77925390625,-1.256796875,-2.21053125,-0.661078125,-1.62723828125,-1.1763828125,-3.576640625,0.519671875,-1.017734375,-1.265171875,-2.8311328125
-2.626109375,-4.78051953125,2.59983984375,0.5506015625,0.131714843750001,-0.3582421875,-0.8308515625,-5.4508046875,-4.00090234375,-1.9497265625,-3.6791015625,-1.06078125,-6.16143359375,-1.3675390625,-0.923546875,-1.9893125,-2.1076640625,-0.382859375,-1.88630859375,-3.99025390625,-1.899796875,-3.85653125,-1.038078125,-2.09323828125,-2.4843828125,-4.055640625,-0.327328124999999,-2.188734375,-1.604171875,-2.7891328125
-0.0841093750000002,-3.03651953125,5.29783984375,1.3496015625,1.65971484375,0.7897578125,0.5381484375,-4.2418046875,-1.10790234375,-1.0717265625,-3.0131015625,-1.58078125,-9.35043359375,-0.143539062500001,-0.751546875,-2.2543125,-0.3856640625,0.262140625,-1.53430859375,-4.21325390625,-2.191796875,-5.24153125,-1.819078125,-2.58023828125,-3.5583828125,-5.164640625,-1.287328125,-2.801734375,-1.779171875,-2.7701328125
0.831890625,-2.44951953125,6.53583984375,1.9456015625,2.67371484375,1.7597578125,1.6811484375,-3.2508046875,1.07109765625,-0.5487265625,-2.4971015625,-2.52178125,-10.29243359375,0.369460937499999,-0.918546875000001,-2.4123125,1.5343359375,0.480140625,-1.66230859375,-4.61625390625,-2.075796875,-6.15453125,-2.982078125,-3.27023828125,-4.3073828125,-6.746640625,-2.377328125,-3.060734375,-1.929171875,-2.8501328125
-0.189109375,-3.25151953125,5.86983984375,1.9136015625,2.92371484375,2.2267578125,2.2951484375,-2.8388046875,1.79309765625,-0.5287265625,-2.3291015625,-3.68478125,-9.06043359375,-0.0715390625000007,-1.458546875,-2.5343125,3.0953359375,0.0881406249999999,-2.39030859375,-5.31625390625,-1.665796875,-6.74853125,-4.436078125,-4.27223828125,-4.7773828125,-8.313640625,-3.583328125,-3.257734375,-2.226171875,-3.0141328125
-2.684109375,-5.12151953125,3.58283984375,1.1366015625,2.48971484375,2.1237578125,2.3481484375,-3.1148046875,0.908097656249999,-0.8957265625,-2.5371015625,-4.72978125,-6.31843359375,-1.2855390625,-2.232546875,-2.6953125,3.8943359375,-0.906859375,-3.59030859375,-6.30825390625,-1.228796875,-7.37453125,-6.030078125,-5.55023828125,-5.1093828125,-9.226640625,-4.838328125,-3.590734375,-2.737171875,-3.1521328125
-5.732109375,-7.37451953125,0.50483984375,-0.1973984375,1.66171484375,1.5957578125,2.0151484375,-3.9308046875,-1.16190234375,-1.3817265625,-2.9881015625,-5.35378125,-2.94343359375,-2.7795390625,-2.997546875,-2.9233125,3.8233359375,-2.307859375,-4.94730859375,-7.44425390625,-1.058796875,-8.31353125,-7.583078125,-6.91823828125,-5.4503828125,-9.006640625,-6.024328125,-4.073734375,-3.373171875,-3.1111328125
-8.437109375,-9.31551953125,-2.41016015625,-1.7343984375,0.722714843750001,0.8607578125,1.5311484375,-5.0028046875,-3.68290234375,-1.7557265625,-3.4801015625,-5.48278125,0.19456640625,-4.0135390625,-3.538546875,-3.1863125,3.0363359375,-3.802859375,-6.11230859375,-8.49225390625,-1.329796875,-9.57953125,-8.924078125,-8.12723828125,-5.8703828125,-7.598640625,-7.020328125,-4.579734375,-3.943171875,-2.7831328125
-10.334109375,-10.59451953125,-4.53016015625,-3.1343984375,-0.212285156249999,0.0507578125000001,1.0291484375,-6.0708046875,-5.94390234375,-1.9897265625,-3.8701015625,-5.32478125,2.32856640625,-4.6965390625,-3.812546875,-3.4223125,1.7273359375,-5.078859375,-6.88930859375,-9.25525390625,-2.036796875,-10.91053125,-9.935078125,-8.99223828125,-6.3473828125,-5.439640625,-7.752328125,-4.977734375,-4.289171875,-2.1861328125
-11.518109375,-11.37851953125,-5.80116015625,-4.2123984375,-1.24528515625,-0.8682421875,0.4701484375,-7.0198046875,-7.52690234375,-2.2977265625,-4.1651015625,-5.21278125,2.89756640625,-4.9365390625,-3.989546875,-3.6063125,-0.0756640624999999,-5.927859375,-7.33530859375,-9.68325390625,-3.040796875,-11.90653125,-10.578078125,-9.49223828125,-6.8223828125,-3.274640625,-8.218328125,-5.249734375,-4.381171875,-1.4751328125
-12.454109375,-12.17051953125,-6.64416015625,-4.9643984375,-2.58328515625,-2.0542421875,-0.2928515625,-7.8788046875,-8.38590234375,-3.0027265625,-4.5111015625,-5.38878125,1.73456640625,-5.1335390625,-4.363546875,-3.7863125,-2.4726640625,-6.264859375,-7.70230859375,-9.89825390625,-4.158796875,-12.22853125,-10.892078125,-9.76423828125,-7.2383828125,-1.808640625,-8.468328125,-5.492734375,-4.324171875,-0.8681328125
-13.585109375,-13.40051953125,-7.56516015625,-5.4953984375,-4.34428515625,-3.6262421875,-1.3738515625,-8.7028046875,-8.75790234375,-4.3067265625,-5.0861015625,-5.88878125,-0.85343359375,-5.6975390625,-5.158546875,-4.0533125,-5.4146640625,-6.124859375,-8.26430859375,-10.12025390625,-5.233796875,-11.78053125,-10.973078125,-9.99423828125,-7.5703828125,-1.409640625,-8.581328125,-5.837734375,-4.291171875,-0.5341328125
-15.000109375,-15.07351953125,-8.77916015625,-5.9123984375,-6.40528515625,-5.5102421875,-2.7448515625,-9.4418046875,-8.96090234375,-6.1247265625,-5.9791015625,-6.64178125,-4.23343359375,-6.7745390625,-6.387546875,-4.4943125,-8.4266640625,-5.662859375,-9.15630859375,-10.52225390625,-6.163796875,-10.79753125,-10.962078125,-10.31923828125,-7.8133828125,-1.989640625,-8.654328125,-6.344734375,-4.434171875,-0.5121328125
-16.399109375,-16.73751953125,-10.09116015625,-6.2633984375,-8.42128515625,-7.4092421875,-4.2268515625,-9.9208046875,-9.22990234375,-8.0987265625,-7.1211015625,-7.61978125,-7.69143359375,-8.1825390625,-7.832546875,-5.1303125,-10.6526640625,-5.147859375,-10.30930859375,-11.13025390625,-6.900796875,-9.78753125,-11.032078125,-10.77023828125,-7.9783828125,-3.115640625,-8.795328125,-6.944734375,-4.819171875,-0.7151328125
-17.372109375,-17.79151953125,-11.11816015625,-6.5463984375,-9.99828515625,-8.9542421875,-5.5638515625,-9.9738046875,-9.63990234375,-9.7847265625,-8.3041015625,-8.90678125,-10.54843359375,-9.5555390625,-9.151546875,-5.8943125,-11.2426640625,-4.887859375,-11.49930859375,-11.80425390625,-7.424796875,-9.28153125,-11.328078125,-11.27223828125,-8.0633828125,-4.217640625,-9.081328125,-7.436734375,-5.375171875,-0.958132812499999
-17.752109375,-17.91251953125,-11.63016015625,-6.7603984375,-10.89528515625,-9.9092421875,-6.5118515625,-9.6058046875,-10.13890234375,-10.8537265625,-9.2511015625,-10.60678125,-12.14843359375,-10.5595390625,-10.015546875,-6.6463125,-9.8476640625,-5.071859375,-12.42230859375,-12.29825390625,-7.704796875,-9.53053125,-11.860078125,-11.66523828125,-8.0243828125,-4.805640625,-9.476328125,-7.533734375,-5.882171875,-1.0181328125
-17.768109375,-17.30951953125,-11.76016015625,-6.9113984375,-11.10728515625,-10.2682421875,-6.9308515625,-9.0368046875,-10.60890234375,-11.2097265625,-9.7301015625,-12.69478125,-11.94243359375,-11.0195390625,-10.223546875,-7.2343125,-6.8826640625,-5.625859375,-12.79930859375,-12.35925390625,-7.668796875,-10.30553125,-12.427078125,-11.73923828125,-7.7673828125,-4.625640625,-9.768328125,-6.939734375,-6.002171875,-0.692132812499999
-17.859109375,-16.61751953125,-11.90816015625,-6.9733984375,-10.80228515625,-10.2022421875,-6.8258515625,-8.5698046875,-10.90890234375,-10.9557265625,-9.6591015625,-14.93578125,-9.81343359375,-10.9175390625,-9.754546875,-7.5763125,-3.3646640625,-6.213859375,-12.45830859375,-11.82825390625,-7.233796875,-10.99553125,-12.658078125,-11.29523828125,-7.1863828125,-3.715640625,-9.611328125,-5.462734375,-5.403171875,0.1108671875
-18.321109375,-16.46551953125,-12.41416015625,-6.8633984375,-10.17728515625,-9.9022421875,-6.3368515625,-8.3788046875,-10.88690234375,-10.2777265625,-9.1411015625,-16.93778125,-6.40943359375,-10.3085390625,-8.740546875,-7.6853125,-0.4426640625,-6.381859375,-11.38230859375,-10.69625390625,-6.352796875,-10.94353125,-12.172078125,-10.22423828125,-6.2263828125,-2.359640625,-8.684328125,-3.117734375,-3.919171875,1.3198671875
-19.027109375,-17.01651953125,-13.25216015625,-6.4543984375,-9.35228515625,-9.4502421875,-5.6438515625,-8.3988046875,-10.40890234375,-9.3147265625,-8.3951015625,-18.26878125,-3.09243359375,-9.2275390625,-7.378546875,-7.6053125,1.0823359375,-5.770859375,-9.69030859375,-9.08825390625,-5.075796875,-9.81353125,-10.771078125,-8.54723828125,-4.9183828125,-0.962640625,-6.868328125,-0.193734375,-1.675171875,2.7198671875
-19.458109375,-17.83451953125,-13.98416015625,-5.6273984375,-8.33728515625,-8.7692421875,-4.8528515625,-8.3688046875,-9.40490234375,-8.1037265625,-7.6071015625,-18.57378125,-1.31843359375,-7.6855390625,-5.828546875,-7.3053125,0.9633359375,-4.290859375,-7.58330859375,-7.18925390625,-3.579796875,-7.75053125,-8.547078125,-6.40923828125,-3.3833828125,0.0893593749999999,-4.344328125,2.795265625,0.921828125,4.0368671875
-19.045109375,-18.19951953125,-14.07516015625,-4.3663984375,-7.12628515625,-7.7042421875,-3.9688515625,-8.0128046875,-7.94590234375,-6.6347265625,-6.8301015625,-17.66778125,-1.74943359375,-5.7675390625,-4.188546875,-6.6503125,-0.5626640625,-2.167859375,-5.31430859375,-5.18225390625,-2.146796875,-5.28153125,-5.867078125,-4.06423828125,-1.8073828125,0.529359375,-1.557328125,5.264265625,3.317828125,5.0338671875
-17.618109375,-17.65151953125,-13.34216015625,-2.8473984375,-5.82228515625,-6.2182421875,-2.9748515625,-7.2538046875,-6.30990234375,-4.9817265625,-6.0161015625,-15.62078125,-3.75043359375,-3.7505390625,-2.541546875,-5.5033125,-2.9816640625,0.117140625,-3.16030859375,-3.23825390625,-1.086796875,-3.04053125,-3.271078125,-1.83123828125,-0.4023828125,0.282359375,0.936671875,6.775265625,5.014828125,5.5638671875
-15.643109375,-16.33451953125,-12.17116015625,-1.4743984375,-4.69428515625,-4.5412421875,-1.9468515625,-6.2978046875,-4.95690234375,-3.3797265625,-5.1271015625,-12.81878125,-5.67043359375,-2.0965390625,-1.016546875,-3.8903125,-5.6556640625,2.005140625,-1.40630859375,-1.54125390625,-0.626796875,-1.49453125,-1.300078125,-0.0422382812500004,0.6556171875,-0.513640625,2.665671875,7.204265625,5.740828125,5.5958671875
-13.985109375,-14.87451953125,-11.28916015625,-0.7433984375,-4.07828515625,-3.1262421875,-1.0938515625,-5.5228046875,-4.36690234375,-2.1617265625,-4.2331015625,-9.90378125,-5.80443359375,-1.2625390625,0.211453125,-2.0923125,-7.9286640625,3.068140625,-0.27130859375,-0.29025390625,-0.813796875,-0.80453125,-0.317078125,1.04776171875,1.2736171875,-1.547640625,3.391671875,6.774265625,5.521828125,5.2058671875
-13.340109375,-13.91351953125,-11.23416015625,-0.9753984375,-4.16628515625,-2.4082421875,-0.6778515625,-5.2398046875,-4.79790234375,-1.5807265625,-3.5041015625,-7.59778125,-3.39343359375,-1.4395390625,0.980453124999999,-0.575312499999999,-9.2646640625,3.167140625,0.15869140625,0.349746093749999,-1.502796875,-0.82353125,-0.385078125,1.34576171875,1.4556171875,-2.466640625,3.161671875,5.932265625,4.634828125,4.5408671875
-13.773109375,-13.69151953125,-11.96816015625,-2.0943984375,-4.85728515625,-2.5302421875,-0.8738515625,-5.5088046875,-6.11890234375,-1.6557265625,-3.1131015625,-6.45778125,0.892566406249999,-2.4245390625,1.219453125,0.213687500000001,-9.4536640625,2.478140625,-0.0343085937499996,0.31274609375,-2.435796875,-1.19553125,-1.247078125,0.936761718750001,1.2726171875,-3.047640625,2.244671875,5.146265625,3.484828125,3.7598671875
-14.715109375,-13.96951953125,-12.93316015625,-3.6383984375,-5.79128515625,-3.2702421875,-1.6478515625,-6.1598046875,-7.84690234375,-2.1687265625,-3.1241015625,-6.68878125,5.20356640625,-3.7085390625,0.985453125,0.0726875000000007,-8.7006640625,1.384140625,-0.64030859375,-0.32425390625,-3.351796875,-1.50053125,-2.446078125,0.04676171875,0.8146171875,-3.319640625,0.979671875,4.723265625,2.445828125,2.9708671875
-15.367109375,-14.27351953125,-13.43616015625,-4.9863984375,-6.53828515625,-4.1682421875,-2.7508515625,-6.9248046875,-9.35690234375,-2.7837265625,-3.4421015625,-8.09478125,7.31756640625,-4.7125390625,0.440453125,-0.8513125,-7.5146640625,0.315140625,-1.39430859375,-1.36325390625,-4.073796875,-1.41453125,-3.507078125,-1.04923828125,0.159617187499999,-3.537640625,-0.351328124999999,4.687265625,1.728828125,2.1978671875
-15.174109375,-14.22051953125,-13.05516015625,-5.6563984375,-6.79328515625,-4.7612421875,-3.8128515625,-7.5798046875,-10.13290234375,-3.2187265625,-3.8571015625,-10.16078125,5.71756640625,-5.0315390625,-0.216546875,-2.1363125,-6.4296640625,-0.402859375,-2.07030859375,-2.54325390625,-4.561796875,-0.84253125,-4.102078125,-2.12023828125,-0.6683828125,-4.021640625,-1.601328125,4.782265625,1.302828125,1.3648671875
-14.079109375,-13.73251953125,-11.84316015625,-5.4883984375,-6.50028515625,-4.7952421875,-4.5068515625,-8.0018046875,-9.93890234375,-3.3527265625,-4.1551015625,-12.24078125,0.45256640625,-4.5695390625,-0.837546875,-3.3043125,-5.7786640625,-0.639859375,-2.54430859375,-3.63925390625,-4.927796875,0.03046875,-4.149078125,-3.04223828125,-1.7133828125,-4.954640625,-2.748328125,4.582265625,0.934828125,0.3268671875
-12.525109375,-13.07251953125,-10.30316015625,-4.6603984375,-5.85528515625,-4.3192421875,-4.6588515625,-8.1898046875,-8.88490234375,-3.2557265625,-4.2261015625,-13.77178125,-6.66043359375,-3.5565390625,-1.372546875,-4.0383125,-5.6106640625,-0.474859375,-2.81830859375,-4.52925390625,-5.376796875,0.81246875,-3.808078125,-3.80823828125,-3.0613828125,-6.241640625,-3.845328125,3.699265625,0.313828125,-1.0471328125
-11.201109375,-12.67851953125,-9.15316015625,-3.5443984375,-5.18728515625,-3.6232421875,-4.2658515625,-8.2238046875,-7.35790234375,-3.0827265625,-4.0961015625,-14.41278125,-12.76243359375,-2.4125390625,-1.832546875,-4.2673125,-5.7596640625,-0.130859375,-2.97230859375,-5.19425390625,-6.082796875,1.07446875,-3.392078125,-4.47623828125,-4.7503828125,-7.556640625,-4.941328125,2.010265625,-0.765171875,-2.7781328125
-10.649109375,-12.86551953125,-8.95116015625,-2.4983984375,-4.75728515625,-3.0262421875,-3.4288515625,-8.1758046875,-5.82490234375,-2.9417265625,-3.8541015625,-14.07678125,-15.30643359375,-1.5205390625,-2.215546875,-4.1033125,-5.9906640625,0.139140625,-3.07630859375,-5.66025390625,-7.059796875,0.57346875,-3.229078125,-5.07923828125,-6.6613828125,-8.532640625,-6.015328125,-0.224734375,-2.275171875,-4.7091328125
-10.943109375,-13.56851953125,-9.79116015625,-1.7123984375,-4.60628515625,-2.6702421875,-2.2898515625,-8.0338046875,-4.62190234375,-2.7867265625,-3.5711015625,-12.85778125,-13.29443359375,-1.0325390625,-2.443546875,-3.7033125,-6.1726640625,0.167140625,-3.12030859375,-5.91825390625,-8.109796875,-0.58953125,-3.491078125,-5.55923828125,-8.4823828125,-8.997640625,-6.933328125,-2.416734375,-3.938171875,-6.5241328125
-11.691109375,-14.34251953125,-11.27116015625,-1.1963984375,-4.56428515625,-2.4692421875,-1.0108515625,-7.7148046875,-3.85890234375,-2.4617265625,-3.2501015625,-10.96778125,-7.70443359375,-0.823539062500001,-2.377546875,-3.1693125,-6.3626640625,-0.0698593750000001,-3.00330859375,-5.90425390625,-8.902796875,-1.96953125,-4.111078125,-5.76023828125,-9.7933828125,-9.040640625,-7.467328125,-3.874734375,-5.334171875,-7.8371328125
-12.373109375,-14.65351953125,-12.79316015625,-0.8983984375,-4.42928515625,-2.2672421875,0.2161484375,-7.1838046875,-3.49190234375,-1.8447265625,-2.8641015625,-8.72278125,-0.91743359375,-0.631539062500001,-1.906546875,-2.5343125,-6.7356640625,-0.473859375,-2.60430859375,-5.53125390625,-9.146796875,-2.97253125,-4.818078125,-5.50523828125,-10.2303828125,-8.880640625,-7.387328125,-4.112734375,-6.073171875,-8.3311328125
-12.745109375,-14.27551953125,-13.95916015625,-0.8133984375,-4.16028515625,-2.0302421875,1.1521484375,-6.5468046875,-3.46790234375,-1.0087265625,-2.4391015625,-6.55478125,4.42356640625,-0.292539062500001,-1.065546875,-1.8413125,-7.4046640625,-0.913859375,-1.90130859375,-4.77125390625,-8.742796875,-3.16353125,-5.301078125,-4.71423828125,-9.6563828125,-8.648640625,-6.588328125,-3.090734375,-5.966171875,-7.8771328125
-12.962109375,-13.47051953125,-14.76016015625,-0.9993984375,-3.93628515625,-1.9292421875,1.5431484375,-6.0208046875,-3.79690234375,-0.2597265625,-2.1081015625,-4.97478125,6.47756640625,0.111460937499999,-0.0935468750000004,-1.1973125,-8.2576640625,-1.315859375,-1.03630859375,-3.72625390625,-7.850796875,-2.50453125,-5.394078125,-3.50023828125,-8.2363828125,-8.289640625,-5.174328125,-1.247734375,-5.102171875,-6.6061328125
-13.349109375,-12.78651953125,-15.41416015625,-1.4893984375,-4.02628515625,-2.2112421875,1.2271484375,-5.7948046875,-4.47890234375,0.0152734375000001,-2.0541015625,-4.42278125,4.79656640625,0.304460937499999,0.653453125,-0.7543125,-8.9336640625,-1.667859375,-0.25930859375,-2.60525390625,-6.788796875,-1.34553125,-5.131078125,-2.12723828125,-6.3503828125,-7.618640625,-3.413328125,0.704265625,-3.781171875,-4.8471328125
-14.022109375,-12.59051953125,-15.99916015625,-2.1993984375,-4.57028515625,-2.9762421875,0.2691484375,-5.8788046875,-5.38290234375,-0.4027265625,-2.3701015625,-5.08978125,0.34256640625,0.0534609374999993,0.910453125,-0.587312499999999,-8.9586640625,-1.943859375,0.24669140625,-1.60525390625,-5.822796875,-0.19953125,-4.648078125,-0.85023828125,-4.3843828125,-6.469640625,-1.589328125,2.115265625,-2.360171875,-2.9801328125
-14.689109375,-12.76051953125,-16.24316015625,-2.9303984375,-5.44828515625,-4.0102421875,-0.9928515625,-6.0838046875,-6.22890234375,-1.3797265625,-2.9461015625,-6.82078125,-5.05143359375,-0.603539062500001,0.683453125,-0.600312499999999,-7.9776640625,-2.040859375,0.51769140625,-0.78025390625,-4.999796875,0.54546875,-4.030078125,0.24376171875,-2.5513828125,-4.839640625,0.145671875000001,2.688265625,-1.091171875,-1.2691328125
-14.825109375,-12.80251953125,-15.69916015625,-3.4613984375,-6.34128515625,-4.8472421875,-2.0768515625,-6.1388046875,-6.70190234375,-2.4717265625,-3.4981015625,-9.14778125,-9.56943359375,-1.3375390625,0.257453125,-0.5363125,-5.9956640625,-1.806859375,0.79969140625,-0.00325390625000033,-4.145796875,0.79546875,-3.237078125,1.28076171875,-0.8593828125,-2.939640625,1.817671875,2.554265625,-0.056171875,0.1938671875
-14.066109375,-12.27151953125,-14.16516015625,-3.6663984375,-6.92028515625,-5.0152421875,-2.5928515625,-5.8668046875,-6.61090234375,-3.1617265625,-3.7201015625,-11.43778125,-12.21943359375,-1.7205390625,0.0314531249999996,-0.108312499999999,-3.4706640625,-1.138859375,1.39769140625,0.942746093749999,-3.051796875,0.75046875,-2.139078125,2.48376171875,0.7756171875,-1.127640625,3.539671875,2.148265625,0.801828125,1.4318671875
-12.508109375,-11.10951953125,-11.94716015625,-3.5773984375,-7.01928515625,-4.3172421875,-2.4138515625,-5.2898046875,-5.97790234375,-3.1307265625,-3.4461015625,-13.08978125,-13.06443359375,-1.4675390625,0.308453125,0.846687500000001,-1.1696640625,-0.053859375,2.49169140625,2.20774609375,-1.675796875,0.78246875,-0.634078125,4.00376171875,2.3836171875,0.258359375,5.385671875,1.951265625,1.586828125,2.4908671875
-10.671109375,-9.65451953125,-9.73716015625,-3.3463984375,-6.67328515625,-2.9432421875,-1.6968515625,-4.5838046875,-5.00090234375,-2.3857265625,-2.7181015625,-13.72078125,-12.79743359375,-0.558539062500001,1.154453125,2.2806875,0.2063359375,1.311140625,4.03569140625,3.75974609375,-0.222796875,1.22646875,1.246921875,5.80276171875,3.8746171875,1.078359375,7.293671875,2.258265625,2.365828125,3.3708671875
-9.174109375,-8.36651953125,-8.19916015625,-3.1413984375,-6.04228515625,-1.3652421875,-0.7728515625,-3.9488046875,-3.94790234375,-1.2147265625,-1.7491015625,-13.25478125,-12.06343359375,0.787460937499999,2.388453125,3.9186875,0.3583359375,2.728140625,5.76269140625,5.36374609375,0.946203125,2.19446875,3.291921875,7.64676171875,5.0646171875,1.444359375,9.042671875,3.058265625,3.113828125,4.0028671875
-8.342109375,-7.51551953125,-7.56316015625,-3.0243984375,-5.28328515625,-0.0702421874999999,0.0261484374999998,-3.4868046875,-3.03990234375,-0.0237265624999998,-0.804101562500001,-11.89578125,-11.07443359375,2.2374609375,3.670453125,5.3576875,-0.5266640625,3.940140625,7.29369140625,6.67574609375,1.512203125,3.48946875,5.164921875,9.20276171875,5.7716171875,1.634359375,10.334671875,4.065265625,3.713828125,4.2738671875
-7.985109375,-6.97651953125,-7.45916015625,-2.9033984375,-4.44328515625,0.7067578125,0.5361484375,-3.1748046875,-2.36290234375,0.8932734375,-0.0541015625000004,-9.99078125,-9.67243359375,3.4914609375,4.693453125,6.2626875,-1.9426640625,4.757140625,8.32969140625,7.43974609375,1.404203125,4.73546875,6.572921875,10.22676171875,5.9626171875,1.927359375,10.954671875,4.917265625,4.042828125,4.1338671875
-7.457109375,-6.24351953125,-7.04016015625,-2.5893984375,-3.40428515625,1.1297578125,0.8731484375,-2.8928046875,-1.84490234375,1.5262734375,0.5648984375,-7.89378125,-7.58243359375,4.4174609375,5.393453125,6.6056875,-3.3016640625,5.196140625,8.84269140625,7.68474609375,0.920203125,5.64346875,7.454921875,10.75176171875,5.8776171875,2.524359375,10.952671875,5.439265625,4.107828125,3.7288671875
-5.926109375,-4.63951953125,-5.33216015625,-1.9223984375,-1.90728515625,1.7237578125,1.3951484375,-2.4698046875,-1.30890234375,2.1892734375,1.3818984375,-5.88578125,-4.59143359375,5.1094609375,6.041453125,6.7636875,-4.0586640625,5.542140625,9.16169140625,7.80874609375,0.684203125,6.24346875,8.089921875,11.14376171875,6.0206171875,3.536359375,10.719671875,5.821265625,4.143828125,3.4608671875
-2.768109375,-1.67051953125,-1.69116015625,-0.8873984375,0.31671484375,3.1397578125,2.5131484375,-1.7418046875,-0.586902343750001,3.3652734375,2.8388984375,-4.14878125,-0.620433593750001,5.8184609375,7.118453125,7.3496875,-3.8076640625,6.247140625,9.82769140625,8.42674609375,1.387203125,6.88446875,8.978921875,11.94476171875,6.9716171875,4.988359375,10.862671875,6.537265625,4.549828125,3.8478671875
2.086890625,2.64148046875,3.81283984375,0.3706015625,3.33971484375,5.7937578125,4.4351484375,-0.6368046875,0.366097656249999,5.4002734375,5.2168984375,-2.76078125,4.16156640625,6.7894609375,9.017453125,8.8516875,-2.4176640625,7.645140625,11.27469140625,10.02474609375,3.418203125,7.94646875,10.525921875,13.53876171875,9.0466171875,6.773359375,11.862671875,8.010265625,5.632828125,5.2238671875
7.998890625,7.66548046875,10.28583984375,1.6556015625,6.87171484375,9.5567578125,7.0071484375,0.7721953125,1.45609765625,8.2322734375,8.3818984375,-1.69578125,9.19256640625,8.0844609375,11.721453125,11.2786875,-0.1896640625,9.668140625,13.49269140625,12.58374609375,6.538203125,9.44946875,12.681921875,15.81176171875,12.0006171875,8.588359375,13.682671875,10.212265625,7.302828125,7.4258671875
13.765890625,12.35048046875,16.27083984375,2.8946015625,10.26171484375,13.6737578125,9.7031484375,2.2841953125,2.52109765625,11.2752734375,11.6928984375,-0.89378125,13.48256640625,9.4734609375,14.640453125,14.0216875,2.1473359375,11.745140625,15.86369140625,15.40174609375,9.820203125,10.86146875,14.779921875,18.01776171875,14.9236171875,9.911359375,15.587671875,12.478265625,8.917828125,9.6798671875
18.019890625,15.61048046875,20.24783984375,4.2046015625,12.68071484375,16.9877578125,11.7581484375,3.6481953125,3.43009765625,13.5682734375,14.1438984375,-0.38978125,15.78856640625,10.4524609375,16.729453125,16.0096875,3.7143359375,12.976140625,17.30669140625,17.27474609375,11.933203125,11.30246875,15.750921875,18.97576171875,16.4896171875,10.107359375,16.338671875,13.713265625,9.473828125,10.8068671875
19.720890625,16.73848046875,21.17383984375,5.7536015625,13.43871484375,18.3817578125,12.4261484375,4.6451953125,4.11609765625,14.1602734375,14.7388984375,-0.40078125,14.99056640625,10.4304609375,16.904453125,16.1666875,3.9163359375,12.553140625,16.75169140625,17.02174609375,11.736203125,10.05246875,14.651921875,17.60776171875,15.5106171875,8.664359375,14.779671875,12.946265625,8.093828125,9.7418671875
18.540890625,15.69148046875,18.86183984375,7.5036015625,12.28771484375,17.2897578125,11.3241484375,5.1261953125,4.54109765625,12.6082734375,12.9938984375,-1.22078125,10.56856640625,9.0764609375,14.634453125,13.9816875,2.7373359375,10.210140625,13.74569140625,14.14674609375,8.880203125,7.06046875,11.254921875,13.58176171875,11.5966171875,5.522359375,10.528671875,9.918265625,4.580828125,6.1428671875
15.031890625,13.14148046875,14.09883984375,9.1056015625,9.60671484375,14.0297578125,8.7061484375,5.0401953125,4.69409765625,9.3182734375,9.3008984375,-2.93878125,3.04656640625,6.6224609375,10.368453125,9.8996875,0.7063359375,6.470140625,8.84869140625,9.24574609375,4.069203125,3.08846875,6.327921875,7.67676171875,5.5086171875,1.261359375,4.356671875,5.338265625,-0.318171875,0.727867187500001
10.483890625,10.23748046875,8.42483984375,10.0866015625,6.33071484375,9.7657578125,5.4611484375,4.4811953125,4.61409765625,5.4682734375,4.8778984375,-5.18978125,-5.84343359375,3.8764609375,5.456453125,5.2366875,-1.4116640625,2.482140625,3.50969140625,3.85174609375,-1.213796875,-0.59953125,1.365921875,1.57276171875,-1.0513828125,-3.028640625,-2.037328125,0.602265625,-5.167171875,-4.9441328125
6.465890625,8.14148046875,3.61783984375,10.1826015625,3.60371484375,6.0437578125,2.7621484375,3.7091953125,4.39609765625,2.4912734375,1.2668984375,-7.18578125,-13.52943359375,1.8834609375,1.565453125,1.5936875,-2.9736640625,-0.481859375,-0.56530859375,-0.251253906250001,-5.381796875,-2.83653125,-2.108078125,-2.88523828125,-6.1713828125,-6.206640625,-6.776328125,-2.853734375,-8.491171875,-9.1561328125
4.188890625,7.53748046875,1.00983984375,9.5106015625,2.28571484375,4.0947578125,1.5211484375,3.0541953125,4.13509765625,1.3852734375,-0.3631015625,-8.08378125,-17.51443359375,1.4004609375,-0.0905468750000002,0.107687500000001,-3.6626640625,-1.601859375,-2.19930859375,-1.85325390625,-7.424796875,-3.08453125,-3.258078125,-4.52823828125,-8.5563828125,-7.611640625,-8.652328125,-4.190734375,-9.458171875,-10.8031328125
3.982890625,8.36048046875,0.954839843749999,8.4436015625,2.56871484375,4.2817578125,1.9741484375,2.7311953125,3.83109765625,2.2692734375,0.2858984375,-7.47478125,-16.49343359375,2.5054609375,0.726453125,0.9466875,-3.5446640625,-0.850859375,-1.23430859375,-0.83525390625,-7.261796875,-1.62453125,-2.252078125,-3.34123828125,-8.0323828125,-7.334640625,-7.612328125,-3.452734375,-8.204171875,-9.8341328125
5.214890625,9.86048046875,2.71183984375,7.3476015625,3.92771484375,6.0097578125,3.6001484375,2.6811953125,3.39809765625,4.3882734375,2.5808984375,-5.65778125,-11.05743359375,4.5494609375,3.248453125,3.3076875,-3.0166640625,1.047140625,1.47769140625,1.89374609375,-5.642796875,0.65146875,-0.0630781249999997,-0.35923828125,-5.4963828125,-6.100640625,-4.657328125,-1.419734375,-5.657171875,-7.1621328125
6.699890625,10.99748046875,4.85983984375,6.3966015625,5.43371484375,8.1157578125,5.4221484375,2.5971953125,2.75809765625,6.5522734375,5.3118984375,-3.51178125,-3.51043359375,6.4674609375,6.120453125,5.8586875,-2.6196640625,2.984140625,4.53769140625,4.90474609375,-3.697796875,2.68346875,2.092921875,2.87976171875,-2.4103828125,-4.849640625,-1.294328125,0.827265625,-3.028171875,-4.1561328125
7.379890625,10.99548046875,6.04283984375,5.5876015625,6.25171484375,9.4947578125,6.5121484375,2.1421953125,1.94709765625,7.7382734375,7.2818984375,-2.04278125,3.16656640625,7.3074609375,8.042453125,7.3746875,-2.7266640625,3.981140625,6.65869140625,6.92274609375,-2.378796875,3.69946875,3.319921875,5.03976171875,-0.1203828125,-4.260640625,1.148671875,2.375265625,-1.271171875,-2.0111328125
6.880890625,9.77648046875,5.65283984375,4.8666015625,6.05471484375,9.6207578125,6.4371484375,1.2171953125,1.12009765625,7.5682734375,7.8198984375,-1.87278125,6.63956640625,6.7064609375,8.328453125,7.2686875,-3.2436640625,3.613140625,7.19469140625,7.32974609375,-2.049796875,3.46146875,3.356921875,5.49776171875,0.6746171875,-4.477640625,1.988671875,2.780265625,-0.769171875,-1.2901328125
5.667890625,8.01148046875,4.09083984375,4.2456015625,5.14171484375,8.7167578125,5.4091484375,0.1031953125,0.485097656249999,6.4152734375,7.0098984375,-2.97178125,6.14256640625,5.0534609375,7.124453125,5.7606875,-3.5786640625,2.137140625,6.30069140625,6.30874609375,-2.427796875,2.25646875,2.530921875,4.46276171875,0.0906171874999995,-5.142640625,1.291671875,2.103265625,-1.340171875,-1.8281328125
4.694890625,6.72948046875,2.44783984375,3.8136015625,4.20371484375,7.5157578125,4.0731484375,-0.6548046875,0.215097656249999,5.1092734375,5.5098984375,-4.74878125,2.55356640625,3.2144609375,5.196453125,3.6526875,-2.9746640625,0.267140625,4.69569140625,4.61174609375,-2.859796875,0.67646875,1.451921875,2.71576171875,-1.1743828125,-5.664640625,-0.362328124999999,0.737265625,-2.469171875,-2.9861328125
4.742890625,6.67548046875,1.79183984375,3.6376015625,3.85871484375,6.7847578125,3.0841484375,-0.5678046875,0.363097656249999,4.4202734375,4.1338984375,-6.42878125,-2.29243359375,2.0014609375,3.458453125,1.8686875,-0.9976640625,-1.230859375,3.20069140625,3.11174609375,-2.735796875,-0.68053125,0.644921875000001,1.14376171875,-2.2673828125,-5.553640625,-2.252328125,-0.838734375,-3.610171875,-4.0481328125
5.854890625,7.83648046875,2.46883984375,3.6536015625,4.25271484375,6.8667578125,2.7691484375,0.4651953125,0.81209765625,4.6402734375,3.4318984375,-7.44278125,-6.55943359375,1.7364609375,2.524453125,1.0416875,2.0923359375,-1.899859375,2.34969140625,2.40674609375,-1.814796875,-1.45253125,0.331921875,0.35376171875,-2.5913828125,-4.632640625,-3.821328125,-2.228734375,-4.399171875,-4.5451328125
7.257890625,9.42448046875,3.88883984375,3.6526015625,4.98371484375,7.5377578125,3.0201484375,2.0661953125,1.28009765625,5.4872734375,3.5008984375,-7.58978125,-9.08643359375,2.1624609375,2.511453125,1.3276875,5.3133359375,-1.724859375,2.24269140625,2.62774609375,-0.302796875,-1.60353125,0.435921875,0.506761718750001,-1.9923828125,-3.074640625,-4.807328125,-3.204734375,-4.715171875,-4.3751328125
7.859890625,10.35148046875,4.91983984375,3.3926015625,5.37771484375,8.2147578125,3.4441484375,3.5781953125,1.40709765625,6.3412734375,4.0568984375,-6.92278125,-9.48743359375,2.6924609375,3.117453125,2.4586875,7.3043359375,-1.039859375,2.64569140625,3.49074609375,1.296203125,-1.35853125,0.733921875,1.39076171875,-0.7263828125,-1.305640625,-5.191328125,-3.693734375,-4.618171875,-3.7301328125
6.944890625,9.86148046875,4.61383984375,2.7426015625,4.91371484375,8.3337578125,3.6131484375,4.3951953125,0.882097656249999,6.6132734375,4.6658984375,-5.56178125,-7.86043359375,2.7984609375,3.877453125,3.9436875,6.9363359375,-0.293859375,3.21769140625,4.51674609375,2.445203125,-1.00153125,1.052921875,2.64176171875,0.7486171875,0.186359375,-5.058328125,-3.720734375,-4.216171875,-2.9111328125
4.605890625,7.93548046875,2.77883984375,1.7526015625,3.51871484375,7.6557578125,3.2891484375,4.2201953125,-0.434902343750001,6.0482734375,4.9588984375,-3.65278125,-4.53843359375,2.2824609375,4.421453125,5.2776875,3.9523359375,0.185140625,3.72569140625,5.29274609375,2.841203125,-0.68353125,1.368921875,3.95576171875,2.0156171875,1.054359375,-4.469328125,-3.310734375,-3.557171875,-2.1321328125
1.707890625,5.29648046875,0.10683984375,0.6416015625,1.59171484375,6.3427578125,2.5031484375,3.1461953125,-2.41890234375,4.8072734375,4.7658984375,-1.49178125,-0.11443359375,1.3334609375,4.622453125,6.0816875,-0.7346640625,0.319140625,4.12369140625,5.63374609375,2.530203125,-0.36253125,1.784921875,5.18676171875,2.8596171875,1.208359375,-3.437328125,-2.472734375,-2.621171875,-1.4271328125
-0.527109375,3.04748046875,-2.17616015625,-0.2763984375,-0.216285156249999,4.8487578125,1.4941484375,1.5871953125,-4.64190234375,3.3412734375,4.1178984375,0.35721875,4.40956640625,0.362460937499999,4.566453125,6.1336875,-5.3296640625,0.242140625,4.49769140625,5.60174609375,1.837203125,0.08146875,2.400921875,6.29176171875,3.2776171875,0.816359375,-2.004328125,-1.261734375,-1.418171875,-0.7091328125
-1.091109375,2.13548046875,-2.93716015625,-0.7053984375,-1.31328515625,3.6817578125,0.5461484375,0.1001953125,-6.46990234375,2.1492734375,3.1848984375,1.15221875,7.68856640625,-0.235539062500001,4.418453125,5.3616875,-7.9506640625,0.158140625,4.93169140625,5.38074609375,1.157203125,0.70046875,3.193921875,7.21876171875,3.3686171875,0.197359375,-0.326328125,0.152265625,-0.0781718750000002,0.0968671875000005
0.335890625,2.92148046875,-1.72816015625,-0.5113984375,-1.42228515625,3.1647578125,-0.1638515625,-0.8418046875,-7.30690234375,1.5482734375,2.1758984375,0.30321875,8.44056640625,-0.275539062500001,4.302453125,3.8416875,-7.5226640625,0.190140625,5.41569140625,5.13174609375,0.749203125,1.39346875,3.999921875,7.85476171875,3.2276171875,-0.295640625,1.334671875,1.500265625,1.164828125,0.9648671875
3.221890625,5.03248046875,0.98583984375,0.1646015625,-0.66228515625,3.3177578125,-0.6148515625,-1.0388046875,-6.87890234375,1.5782734375,1.2768984375,-2.22378125,6.01256640625,0.187460937499999,4.256453125,1.8296875,-4.3116640625,0.314140625,5.84369140625,4.91574609375,0.646203125,1.94346875,4.597921875,8.07176171875,2.9106171875,-0.384640625,2.704671875,2.537265625,2.087828125,1.7808671875
6.453890625,7.56748046875,4.07583984375,0.9376015625,0.561714843750001,3.8997578125,-0.8918515625,-0.6308046875,-5.38890234375,2.0512734375,0.6298984375,-5.72478125,0.783566406249999,0.925460937499999,4.266453125,-0.2383125,0.1833359375,0.393140625,6.08269140625,4.72474609375,0.703203125,2.13746875,4.814921875,7.81076171875,2.4706171875,0.00735937499999995,3.598671875,3.144265625,2.606828125,2.4188671875
8.829890625,9.49648046875,6.28083984375,1.3596015625,1.76071484375,4.5637578125,-1.0758515625,0.00319531249999994,-3.43690234375,2.6822734375,0.3408984375,-8.96478125,-5.80843359375,1.6524609375,4.321453125,-1.8393125,3.9173359375,0.285140625,6.04969140625,4.55874609375,0.734203125,1.90446875,4.616921875,7.14476171875,1.9936171875,0.656359375,3.968671875,3.360265625,2.802828125,2.7888671875
9.499890625,10.03448046875,6.69983984375,1.1456015625,2.54471484375,4.9957578125,-1.1848515625,0.4181953125,-1.76090234375,3.2192734375,0.4668984375,-10.71978125,-11.67743359375,2.1114609375,4.439453125,-2.5283125,5.2213359375,-0.021859375,5.76769140625,4.45974609375,0.609203125,1.40746875,4.124921875,6.25976171875,1.5866171875,1.087359375,3.886671875,3.333265625,2.839828125,2.8438671875
8.180890625,8.87048046875,5.04883984375,0.3106015625,2.69871484375,4.9867578125,-1.1808515625,0.2991953125,-0.946902343750001,3.5062734375,0.977898437499999,-10.32978125,-14.83743359375,2.1454609375,4.651453125,-2.1213125,3.5043359375,-0.358859375,5.36969140625,4.48374609375,0.267203125,0.99146875,3.576921875,5.38976171875,1.3106171875,0.813359375,3.482671875,3.224265625,2.827828125,2.5688671875
5.209890625,6.24048046875,1.69883984375,-0.8473984375,2.20671484375,4.4597578125,-1.0438515625,-0.4068046875,-1.21490234375,3.4932734375,1.7148984375,-7.98678125,-14.24343359375,1.7464609375,4.943453125,-0.798312499999999,-0.5576640625,-0.457859375,5.02969140625,4.61174609375,-0.341796875,0.99146875,3.210921875,4.70576171875,1.1066171875,-0.324640625,2.864671875,3.125265625,2.735828125,1.9648671875
1.472890625,2.86848046875,-2.44816015625,-1.9003984375,1.24171484375,3.4697578125,-0.8458515625,-1.4708046875,-2.37490234375,3.1882734375,2.3848984375,-4.62678125,-10.27143359375,1.0614609375,5.198453125,0.910687500000001,-5.3946640625,-0.151859375,4.85269140625,4.70174609375,-1.294796875,1.50646875,3.140921875,4.22276171875,0.7746171875,-1.990640625,2.058671875,3.017265625,2.400828125,1.0458671875
-1.837109375,-0.22751953125,-6.20616015625,-2.4753984375,0.109714843750001,2.1767578125,-0.7548515625,-2.4818046875,-3.94190234375,2.6222734375,2.6258984375,-1.49878125,-4.52243359375,0.312460937499999,5.195453125,2.3006875,-9.2446640625,0.469140625,4.78369140625,4.51774609375,-2.635796875,2.33346875,3.283921875,3.77976171875,0.0746171874999995,-3.481640625,1.024671875,2.792265625,1.640828125,-0.1391328125
-3.610109375,-2.04951953125,-8.45416015625,-2.3943984375,-0.855285156249999,0.7807578125,-0.9428515625,-3.0448046875,-5.37290234375,1.8302734375,2.1478984375,0.33721875,0.98656640625,-0.295539062500001,4.708453125,2.7686875,-10.8626640625,1.070140625,4.63669140625,3.85174609375,-4.251796875,3.09046875,3.396921875,3.14676171875,-1.1033828125,-4.081640625,-0.262328125,2.327265625,0.407828125,-1.4641328125
-3.163109375,-1.91751953125,-8.43716015625,-1.6903984375,-1.35928515625,-0.4932421875,-1.4438515625,-2.9298046875,-6.26490234375,0.8912734375,0.9018984375,0.41021875,4.75856640625,-0.655539062500001,3.659453125,2.1016875,-9.9006640625,1.279140625,4.22669140625,2.68274609375,-5.786796875,3.46546875,3.237921875,2.19276171875,-2.5953828125,-3.423640625,-1.707328125,1.565265625,-1.123171875,-2.6991328125
-0.320109375,0.41148046875,-5.84816015625,-0.5003984375,-1.16628515625,-1.3702421875,-2.0458515625,-2.1028046875,-6.41390234375,-0.0237265624999998,-0.8341015625,-1.03178125,6.36856640625,-0.759539062500001,2.210453125,0.5956875,-6.8516640625,0.938140625,3.51769140625,1.25574609375,-6.704796875,3.38846875,2.705921875,1.01676171875,-3.9703828125,-1.635640625,-3.064328125,0.552265625,-2.582171875,-3.5731328125
4.695890625,4.75448046875,-0.794160156249999,1.0296015625,-0.105285156249999,-1.5482421875,-2.3668515625,-0.6618046875,-5.79290234375,-0.6787265625,-2.5361015625,-3.18478125,6.40256640625,-0.678539062500001,0.720453125,-1.0913125,-2.6886640625,0.210140625,2.65469140625,-0.01025390625,-6.514796875,3.02746875,1.898921875,-0.09423828125,-4.7053828125,0.756359375,-4.030328125,-0.587734375,-3.576171875,-3.8821328125
11.299890625,10.51348046875,6.15683984375,2.7416015625,1.81371484375,-0.8612421875,-2.0728515625,1.2021953125,-4.54790234375,-0.8937265625,-3.6771015625,-5.04978125,5.89956640625,-0.526539062500001,-0.425546875,-2.2883125,1.5243359375,-0.528859375,1.86669140625,-0.73725390625,-5.038796875,2.60646875,1.029921875,-0.82923828125,-4.4573828125,3.076359375,-4.409328125,-1.712734375,-3.876171875,-3.5821328125
18.421890625,16.62448046875,13.81583984375,4.3766015625,4.23371484375,0.5077578125,-1.1378515625,3.1951953125,-3.01190234375,-0.6867265625,-4.0051015625,-5.83178125,5.63656640625,-0.438539062500001,-1.017546875,-2.6563125,4.8783359375,-0.938859375,1.31569140625,-0.79525390625,-2.569796875,2.21346875,0.296921875,-1.04923828125,-3.2533828125,4.730359375,-4.225328125,-2.705734375,-3.527171875,-2.8131328125
24.495890625,21.62848046875,20.37383984375,5.5556015625,6.41471484375,1.9667578125,0.0781484374999999,4.9111953125,-1.65590234375,-0.3187265625,-3.6651015625,-5.22878125,5.61256640625,-0.541539062500001,-1.124546875,-2.3173125,6.7273359375,-0.942859375,0.99269140625,-0.384253906250001,0.178203125,1.69746875,-0.227078125,-0.86223828125,-1.5163828125,5.364359375,-3.697328125,-3.479734375,-2.787171875,-1.8431328125
27.814890625,24.03848046875,23.84683984375,5.8966015625,7.44671484375,2.7197578125,0.9821484375,5.8971953125,-0.915902343750001,-0.1827265625,-3.1021015625,-3.48578125,5.03856640625,-0.933539062500001,-1.051546875,-1.7273125,6.7443359375,-0.795859375,0.73869140625,0.0757460937499994,2.324203125,0.76246875,-0.614078125,-0.55523828125,0.1026171875,4.901359375,-3.114328125,-3.975734375,-1.968171875,-0.9781328125
27.223890625,22.97348046875,22.90283984375,5.2066015625,6.65871484375,2.1557578125,1.0751484375,5.8111953125,-1.00690234375,-0.5967265625,-2.7971015625,-1.24378125,2.89056640625,-1.6475390625,-1.151546875,-1.3653125,5.0003359375,-0.905859375,0.36569140625,0.171746093749999,3.183203125,-0.78853125,-1.008078125,-0.41423828125,1.0056171875,3.531359375,-2.676328125,-4.151734375,-1.281171875,-0.465132812499999
22.776890625,18.70248046875,17.62783984375,3.6386015625,4.01171484375,0.1807578125,0.2411484375,4.6081953125,-1.81690234375,-1.6067265625,-2.9961015625,0.74821875,-1.26543359375,-2.5875390625,-1.610546875,-1.4533125,2.0343359375,-1.531859375,-0.18130859375,-0.26625390625,2.573203125,-2.79253125,-1.490078125,-0.54723828125,0.9286171875,1.677359375,-2.396328125,-3.996734375,-0.777171875,-0.3981328125
15.912890625,12.69448046875,9.70483984375,1.7126015625,0.21871484375,-2.6612421875,-1.1608515625,2.6551953125,-2.95290234375,-2.9207265625,-3.5651015625,1.91521875,-6.69443359375,-3.4965390625,-2.318546875,-1.8503125,-1.1896640625,-2.548859375,-0.73530859375,-1.04325390625,0.922203125,-4.65453125,-1.961078125,-0.80323828125,0.0796171874999994,-0.076640625,-2.094328125,-3.524734375,-0.367171875,-0.6591328125
8.929890625,7.02048046875,1.78283984375,0.1196015625,-3.50828515625,-5.3962421875,-2.4828515625,0.6361953125,-3.91890234375,-4.0357265625,-4.0861015625,2.01821875,-11.57643359375,-4.0275390625,-2.921546875,-2.1853125,-3.5186640625,-3.469859375,-0.96930859375,-1.67925390625,-0.918796875,-5.58153125,-2.137078125,-0.84423828125,-0.9723828125,-1.119640625,-1.496328125,-2.775734375,0.113828125,-0.950132812499999
3.911890625,3.36648046875,-3.75516015625,-0.6153984375,-6.01028515625,-7.0802421875,-3.1438515625,-0.7428046875,-4.38190234375,-4.4987265625,-4.1151015625,1.17121875,-13.77543359375,-3.9135390625,-3.023546875,-2.1023125,-4.0206640625,-3.723859375,-0.57730859375,-1.66625390625,-2.070796875,-5.01453125,-1.694078125,-0.33623828125,-1.5863828125,-1.009640625,-0.389328125,-1.811734375,0.811828125,-0.9191328125
1.728890625,2.24648046875,-5.90216015625,-0.4383984375,-6.72028515625,-7.2612421875,-2.9308515625,-1.1068046875,-4.37690234375,-4.1527265625,-3.4451015625,-0.24878125,-11.93943359375,-3.1315390625,-2.402546875,-1.4603125,-2.4036640625,-2.992859375,0.53669140625,-0.73825390625,-2.023796875,-2.98153125,-0.463078125,0.868761718749999,-1.3623828125,0.358359375,1.234671875,-0.729734375,1.772828125,-0.336132812499999
1.775890625,2.91948046875,-5.32016015625,0.2316015625,-5.84628515625,-6.1282421875,-2.0538515625,-0.5538046875,-4.24990234375,-3.1817265625,-2.1881015625,-1.71678125,-6.29143359375,-1.9005390625,-1.122546875,-0.357312499999999,0.7903359375,-1.373859375,2.19069140625,0.99374609375,-0.819796875,-0.10153125,1.455921875,2.64476171875,-0.287382812500001,2.682359375,3.161671875,0.348265625,2.917828125,0.784867187500001
2.622890625,4.03448046875,-3.64316015625,0.8176015625,-4.10228515625,-4.2942421875,-0.9548515625,0.5041953125,-4.34690234375,-1.9557265625,-0.6501015625,-2.65078125,1.37656640625,-0.513539062500001,0.520453125,0.9966875,4.3583359375,0.719140625,4.01569140625,3.12974609375,1.049203125,2.76246875,3.727921875,4.66476171875,1.3466171875,5.354359375,5.058671875,1.329265625,4.098828125,2.1918671875
3.042890625,4.53048046875,-2.34916015625,0.9636015625,-2.23028515625,-2.3992421875,-0.0138515625000002,1.6341953125,-4.69690234375,-0.7877265625,0.8728984375,-2.51378125,8.54456640625,0.852460937499999,2.152453125,2.4186875,6.9563359375,2.787140625,5.63569140625,5.19074609375,2.950203125,4.97046875,5.939921875,6.55276171875,3.1506171875,7.674359375,6.649671875,2.214265625,5.204828125,3.5368671875
2.657890625,4.16648046875,-1.99316015625,0.6966015625,-0.66928515625,-0.8332421875,0.6131484375,2.5801953125,-4.96690234375,0.1822734375,2.2128984375,-0.99978125,13.09856640625,2.1774609375,3.475453125,3.7866875,7.7373359375,4.463140625,6.82569140625,6.81674609375,4.424203125,6.35146875,7.758921875,8.03476171875,4.8236171875,9.101359375,7.826671875,3.105265625,6.218828125,4.5538671875
1.913890625,3.44448046875,-2.19016015625,0.3096015625,0.493714843750001,0.3117578125,0.9851484375,3.2651953125,-4.71090234375,0.9872734375,3.3058984375,1.75621875,14.06856640625,3.4904609375,4.356453125,4.9866875,6.7833359375,5.571140625,7.56069140625,7.86374609375,5.344203125,7.12146875,9.031921875,9.01576171875,6.2196171875,9.398359375,8.658671875,4.126265625,7.188828125,5.1668671875
1.622890625,3.14348046875,-2.09716015625,0.1446015625,1.39471484375,1.1537578125,1.2431484375,3.7191953125,-3.66190234375,1.7412734375,4.1368984375,5.08021875,11.68856640625,4.7414609375,4.834453125,5.8636875,5.0553359375,6.083140625,7.95869140625,8.38474609375,5.861203125,7.57446875,9.791921875,9.55676171875,7.2846171875,8.644359375,9.303671875,5.311265625,8.138828125,5.4658671875
2.490890625,3.87548046875,-0.984160156250001,0.4246015625,2.23671484375,1.9037578125,1.5131484375,4.0091953125,-1.86190234375,2.5732734375,4.7198984375,7.93621875,7.02056640625,5.7914609375,5.073453125,6.2476875,3.8533359375,6.054140625,8.17269140625,8.53974609375,6.209203125,7.83346875,10.192921875,9.78876171875,7.9856171875,7.138359375,9.887671875,6.536265625,8.992828125,5.5988671875
4.790890625,5.82248046875,1.40783984375,1.1746015625,3.17771484375,2.7347578125,1.8591484375,4.2211953125,0.382097656249999,3.5622734375,5.1008984375,9.37521875,1.56956640625,6.5214609375,5.273453125,6.0476875,4.0493359375,5.609140625,8.28969140625,8.48474609375,6.518203125,7.82146875,10.402921875,9.79976171875,8.2616171875,5.274359375,10.408671875,7.537265625,9.566828125,5.6558671875
8.192890625,8.66348046875,4.72383984375,2.2146015625,4.23371484375,3.6707578125,2.2891484375,4.4331953125,2.60809765625,4.6752734375,5.3538984375,9.02521875,-3.01543359375,6.9154609375,5.554453125,5.3396875,5.5253359375,4.955140625,8.27969140625,8.28074609375,6.736203125,7.42446875,10.490921875,9.55976171875,8.0486171875,3.406359375,10.683671875,8.005265625,9.632828125,5.6188671875
11.780890625,11.62248046875,8.04983984375,3.2336015625,5.22271484375,4.5347578125,2.7371484375,4.6891953125,4.32709765625,5.7062734375,5.5348984375,7.31521875,-5.27643359375,7.0234609375,5.868453125,4.3716875,7.2023359375,4.353140625,8.00169140625,7.87074609375,6.675203125,6.67446875,10.372921875,8.91076171875,7.3116171875,1.761359375,10.412671875,7.722265625,9.027828125,5.3658671875
14.319890625,13.68048046875,10.17283984375,3.9266015625,5.81471484375,5.0197578125,3.0651484375,5.0031953125,5.15509765625,6.3272734375,5.6328984375,5.25521875,-4.39643359375,6.8544609375,6.001453125,3.4756875,7.7223359375,4.007140625,7.26769140625,7.13174609375,6.152203125,5.80546875,9.855921875,7.65576171875,6.0836171875,0.430359375,9.318671875,6.695265625,7.750828125,4.7638671875
14.722890625,13.94748046875,10.02183984375,4.1226015625,5.68871484375,4.8517578125,3.1131484375,5.3671953125,4.94909765625,6.2432734375,5.5818984375,3.89421875,-0.56843359375,6.3484609375,5.711453125,2.9196875,6.3523359375,3.968140625,5.97369140625,5.96474609375,5.108203125,5.15946875,8.770921875,5.71876171875,4.4766171875,-0.548640625,7.322671875,5.201265625,6.011828125,3.7688671875
12.535890625,12.05348046875,7.14583984375,3.8246015625,4.73571484375,3.9497578125,2.7921484375,5.7601953125,3.87909765625,5.4012734375,5.3098984375,3.76121875,4.95456640625,5.4744609375,4.898453125,2.7586875,3.5043359375,4.093140625,4.21069140625,4.38674609375,3.656203125,4.98446875,7.116921875,3.26876171875,2.6566171875,-1.109640625,4.637671875,3.669265625,4.144828125,2.4948671875
8.175890625,8.33448046875,1.97883984375,3.1686015625,3.15871484375,2.4897578125,2.1241484375,6.1281953125,2.37209765625,4.0642734375,4.7948984375,4.64421875,10.20156640625,4.3574609375,3.694453125,2.7846875,0.4933359375,4.106140625,2.27469140625,2.55074609375,2.011203125,5.26246875,5.097921875,0.70776171875,0.7996171875,-1.175640625,1.709671875,2.448265625,2.451828125,1.1608671875
2.804890625,3.70348046875,-4.25516015625,2.3376015625,1.41871484375,0.8457578125,1.2251484375,6.3921953125,0.952097656249999,2.6992734375,4.0858984375,5.78521875,13.12956640625,3.2764609375,2.404453125,2.6346875,-1.2636640625,3.706140625,0.54869140625,0.71274609375,0.384203125,5.67446875,3.049921875,-1.48023828125,-0.9523828125,-0.758640625,-0.947328124999999,1.607265625,1.060828125,-0.0211328124999994
-2.123109375,-0.71651953125,-9.98316015625,1.5016015625,0.0367148437500006,-0.5472421875,0.2661484375,6.4791953125,0.0420976562499993,1.7632734375,3.3188984375,6.33921875,12.43456640625,2.5664609375,1.378453125,2.0356875,-1.0556640625,2.713140625,-0.63330859375,-0.83425390625,-1.070796875,5.74446875,1.299921875,-2.91523828125,-2.4783828125,-0.0296406250000001,-2.918328125,0.945265625,-0.0711718750000001,-0.944132812499999
-5.423109375,-3.98751953125,-13.86216015625,0.7846015625,-0.601285156249999,-1.3382421875,-0.5338515625,6.3791953125,-0.168902343750001,1.5312734375,2.7048984375,5.82121875,8.25756640625,2.4724609375,0.904453125,1.0306875,0.8363359375,1.215140625,-1.08130859375,-1.80425390625,-2.229796875,5.10946875,0.084921875,-3.41423828125,-3.6273828125,0.744359375,-3.978328125,0.176265625,-1.032171875,-1.5831328125
-6.554109375,-5.61851953125,-15.23016015625,0.2766015625,-0.354285156249999,-1.3532421875,-0.9388515625,6.2011953125,0.24809765625,2.0382734375,2.4678984375,4.31021875,2.35956640625,3.0464609375,1.143453125,0.00768750000000029,3.4563359375,-0.398859375,-0.76030859375,-1.98825390625,-2.937796875,3.76546875,-0.465078125,-2.99723828125,-4.1993828125,1.346359375,-4.086328125,-0.843734375,-1.820171875,-1.9281328125
-5.667109375,-5.60351953125,-14.23816015625,0.0396015624999997,0.664714843750001,-0.6422421875,-0.7948515625,6.1671953125,1.04809765625,3.0982734375,2.7048984375,2.34621875,-2.59643359375,4.1154609375,2.049453125,-0.5623125,5.7653359375,-1.555859375,0.19969140625,-1.35725390625,-3.031796875,2.13446875,-0.303078125,-1.84723828125,-4.0233828125,1.726359375,-3.357328125,-1.997734375,-2.304171875,-1.9461328125
-3.401109375,-4.30151953125,-11.67016015625,0.0866015624999998,2.13271484375,0.5197578125,-0.1608515625,6.5051953125,1.95009765625,4.3682734375,3.2698984375,0.60821875,-4.35643359375,5.3174609375,3.336453125,-0.4533125,7.0993359375,-1.774859375,1.51569140625,-0.14025390625,-2.444796875,0.86646875,0.519921875000001,-0.27023828125,-3.1053828125,1.993359375,-2.024328125,-2.978734375,-2.320171875,-1.6151328125
-0.610109375,-2.25351953125,-8.61116015625,0.3236015625,3.59671484375,1.6787578125,0.6561484375,7.2961953125,2.71109765625,5.4282734375,3.7978984375,-0.40078125,-2.22643359375,6.2194609375,4.531453125,0.1516875,7.2703359375,-0.938859375,2.80169140625,1.18874609375,-1.311796875,0.47946875,1.812921875,1.34076171875,-1.6873828125,2.305359375,-0.418328124999999,-3.468734375,-1.817171875,-0.9811328125
1.845890625,-0.0795195312500008,-6.11416015625,0.5206015625,4.56771484375,2.3307578125,1.2151484375,8.3601953125,3.14509765625,5.8962734375,3.8808984375,-0.49878125,2.60456640625,6.4694609375,5.137453125,0.7996875,6.4223359375,0.585140625,3.67269140625,2.09374609375,0.0232031250000002,1.01046875,3.215921875,2.58476171875,-0.1723828125,2.745359375,1.090671875,-3.319734375,-0.930171875,-0.171132812499999
3.261890625,1.58548046875,-4.95516015625,0.3776015625,4.67071484375,2.1177578125,1.1521484375,9.3011953125,3.13109765625,5.5482734375,3.2838984375,0.20421875,7.67556640625,5.9134609375,4.832453125,1.0656875,4.8273359375,2.077140625,3.86469140625,2.21174609375,1.124203125,1.96846875,4.272921875,3.16376171875,1.0476171875,3.285359375,2.178671875,-2.630734375,0.0638281250000001,0.655867187500001
3.272890625,2.21648046875,-5.43016015625,-0.3213984375,3.79571484375,1.0067578125,0.3591484375,9.6911953125,2.68309765625,4.4052734375,2.0688984375,1.40021875,10.41356640625,4.6574609375,3.609453125,0.793687500000001,2.8063359375,2.816140625,3.33769140625,1.53474609375,1.655203125,2.62646875,4.620921875,2.97676171875,1.7516171875,3.828359375,2.673671875,-1.694734375,0.885828125,1.3588671875
2.009890625,1.64148046875,-7.22116015625,-1.5623984375,2.19271484375,-0.6602421875,-0.9418515625,9.3011953125,2.02209765625,2.7492734375,0.5718984375,2.68821875,9.30456640625,3.0674609375,1.814453125,0.152687500000001,0.7663359375,2.473140625,2.32369140625,0.41574609375,1.541203125,2.50246875,4.206921875,2.19276171875,1.9596171875,4.315359375,2.645671875,-0.842734375,1.383828125,1.8648671875
0.121890625,0.24648046875,-9.43916015625,-3.0663984375,0.43571484375,-2.2832421875,-2.2628515625,8.2391953125,1.54009765625,1.0642734375,-0.7211015625,3.69821875,4.60356640625,1.6944609375,0.0474531249999997,-0.4613125,-0.7786640625,1.321140625,1.28169140625,-0.573253906250001,1.028203125,1.69046875,3.397921875,1.23176171875,1.9186171875,4.773359375,2.405671875,-0.292734375,1.585828125,2.1858671875
-1.463109375,-1.12951953125,-10.94816015625,-4.3983984375,-0.79228515625,-3.2412421875,-3.0498515625,6.9241953125,1.63409765625,-0.1287265625,-1.3601015625,4.24221875,-1.72643359375,1.0754609375,-1.061546875,-0.6253125,-1.3266640625,0.101140625,0.73969140625,-0.87125390625,0.579203125,0.80546875,2.828921875,0.64276171875,1.9886171875,5.259359375,2.392671875,-0.0797343749999997,1.648828125,2.3858671875
-1.962109375,-1.61151953125,-10.88516015625,-5.1703984375,-1.00628515625,-3.1702421875,-2.9378515625,5.8951953125,2.46609765625,-0.4787265625,-1.1111015625,4.41621875,-6.91243359375,1.4854609375,-1.119546875,-0.0873124999999995,-0.6356640625,-0.391859375,1.04769140625,-0.16425390625,0.652203125,0.58246875,3.071921875,0.86676171875,2.4696171875,5.704359375,2.953671875,-0.110734375,1.744828125,2.5208671875
-1.100109375,-0.757519531250001,-9.05816015625,-5.2183984375,-0.146285156249999,-2.1192421875,-1.9318515625,5.5591953125,3.83609765625,0.0472734375000001,-0.0501015625000004,4.54621875,-8.71543359375,2.8004609375,-0.139546875,1.1176875,1.0853359375,0.274140625,2.21169140625,1.48074609375,1.476203125,1.39946875,4.311921875,2.03076171875,3.4456171875,5.824359375,4.136671875,-0.264734375,1.939828125,2.5728671875
0.835890625,1.27248046875,-5.97616015625,-4.6323984375,1.42171484375,-0.5062421875,-0.3838515625,6.0331953125,5.29209765625,1.1852734375,1.4778984375,4.98621875,-6.51243359375,4.5754609375,1.489453125,2.6876875,3.1963359375,1.979140625,3.89569140625,3.63774609375,2.925203125,3.03046875,6.247921875,3.86976171875,4.7296171875,5.195359375,5.648671875,-0.455734375,2.169828125,2.4458671875
3.238890625,3.88048046875,-2.53716015625,-3.6393984375,3.13571484375,1.1197578125,1.2081484375,7.1471953125,6.42109765625,2.5342734375,3.0228984375,5.89721875,-1.45943359375,6.2974609375,3.205453125,4.1926875,4.8593359375,4.170140625,5.59769140625,5.70474609375,4.567203125,4.78546875,8.264921875,5.84976171875,5.9396171875,3.522359375,6.994671875,-0.626734375,2.312828125,2.0338671875
5.477890625,6.31848046875,0.33883984375,-2.4653984375,4.50871484375,2.3227578125,2.4251484375,8.5501953125,7.07809765625,3.7252734375,4.2038984375,7.15621875,4.31156640625,7.5944609375,4.510453125,5.2426875,5.3733359375,6.136140625,6.86669140625,7.13874609375,5.833203125,5.89346875,9.752921875,7.40876171875,6.6696171875,0.932359375,7.740671875,-0.721734375,2.298828125,1.3048671875
7.000890625,7.87248046875,1.89683984375,-1.2983984375,5.24471484375,2.8817578125,3.0521484375,9.8191953125,7.39109765625,4.4932734375,4.8018984375,8.43321875,8.87856640625,8.2814609375,5.112453125,5.6156875,4.4623359375,7.283140625,7.44969140625,7.64774609375,6.257203125,5.91046875,10.364921875,8.18676171875,6.6696171875,-1.913640625,7.728671875,-0.662734375,2.174828125,0.3728671875
7.306890625,7.98048046875,1.61683984375,-0.3353984375,5.21771484375,2.7307578125,3.0811484375,10.5331953125,7.56809765625,4.6732734375,4.7708984375,9.34621875,11.32356640625,8.2944609375,4.976453125,5.3006875,2.4193359375,7.316140625,7.33969140625,7.25674609375,5.677203125,4.89446875,10.127921875,8.16276171875,5.9766171875,-3.989640625,7.143671875,-0.358734375,2.092828125,-0.4911328125
6.029890625,6.37948046875,-0.67816015625,0.2026015625,4.43171484375,1.9017578125,2.6571484375,10.3931953125,7.72109765625,4.2102734375,4.2148984375,9.60821875,11.74856640625,7.6494609375,4.289453125,4.4866875,0.0213359375000001,6.310140625,6.74669140625,6.26974609375,4.339203125,3.30746875,9.366921875,7.63576171875,4.9346171875,-4.351640625,6.419671875,0.272265625,2.234828125,-0.936132812499999
3.180890625,3.28148046875,-4.65416015625,0.1406015625,3.03671484375,0.5397578125,2.0171484375,9.3601953125,7.82609765625,3.2012734375,3.3668984375,9.12921875,10.76156640625,6.4664609375,3.381453125,3.5016875,-1.7576640625,4.644140625,6.00969140625,5.15274609375,2.820203125,1.73946875,8.524921875,7.06176171875,4.0706171875,-2.614640625,6.026671875,1.271265625,2.724828125,-0.6751328125
-0.690109375,-0.59051953125,-9.45216015625,-0.5573984375,1.34071484375,-1.0762421875,1.4151484375,7.7071953125,7.80309765625,1.8972734375,2.5278984375,8.05521875,8.96056640625,5.0064609375,2.594453125,2.7036875,-2.1436640625,2.843140625,5.47269140625,4.36274609375,1.797203125,0.64546875,7.964921875,6.83076171875,3.8666171875,0.795359375,6.261671875,2.585265625,3.556828125,0.365867187500001
-4.656109375,-4.26151953125,-13.96416015625,-1.7853984375,-0.303285156249999,-2.6262421875,1.0281484375,5.9141953125,7.57709765625,0.6102734375,1.9648984375,6.73321875,6.80356640625,3.5834609375,2.154453125,2.3606875,-0.8776640625,1.367140625,5.35069140625,4.17674609375,1.754203125,0.19346875,7.822921875,7.08476171875,4.5226171875,4.803359375,7.119671875,4.020265625,4.558828125,1.9698671875
-7.854109375,-6.95451953125,-17.30816015625,-3.3733984375,-1.66728515625,-3.9092421875,0.8721484375,4.4531953125,7.09409765625,-0.4447265625,1.7788984375,5.56421875,4.74856640625,2.4114609375,2.070453125,2.5486875,1.6843359375,0.453140625,5.63469140625,4.58474609375,2.770203125,0.28046875,7.982921875,7.66776171875,5.8556171875,8.155359375,8.314671875,5.261265625,5.428828125,3.7038671875
-9.858109375,-8.43951953125,-19.16216015625,-5.1513984375,-2.74328515625,-4.9482421875,0.7681484375,3.5841953125,6.32209765625,-1.2527265625,1.8428984375,4.82721875,3.30356640625,1.4914609375,2.139453125,3.1066875,4.6933359375,0.0731406249999997,6.09469140625,5.31974609375,4.498203125,0.66746875,8.186921875,8.23176171875,7.3946171875,9.941359375,9.438671875,5.979265625,5.856828125,5.0828671875
-10.739109375,-9.04051953125,-19.76216015625,-6.9503984375,-3.67428515625,-5.9232421875,0.4381484375,3.2881953125,5.29409765625,-1.9467265625,1.8718984375,4.57421875,2.76456640625,0.680460937499999,2.065453125,3.7136875,7.1223359375,0.0231406249999999,6.40369140625,6.00874609375,6.338203125,1.13646875,8.216921875,8.44676171875,8.6096171875,9.907359375,10.178671875,5.994265625,5.692828125,5.7768671875
-10.813109375,-9.27051953125,-19.56916015625,-8.5533984375,-4.56028515625,-6.9682421875,-0.2888515625,3.3531953125,4.18209765625,-2.6537265625,1.6138984375,4.70721875,2.91456640625,-0.119539062500001,1.665453125,4.0606875,8.1773359375,0.091140625,6.33269140625,6.37874609375,7.729203125,1.59546875,8.061921875,8.19976171875,9.1916171875,8.479359375,10.475671875,5.407265625,5.061828125,5.7688671875
-10.279109375,-9.35551953125,-18.86316015625,-9.6723984375,-5.30328515625,-7.9852421875,-1.2878515625,3.5431953125,3.32809765625,-3.3317265625,1.0478984375,5.11921875,3.09156640625,-0.785539062500001,1.015453125,4.0456875,7.6493359375,0.202140625,5.90369140625,6.40974609375,8.394203125,2.07246875,7.937921875,7.69176171875,9.1906171875,6.524359375,10.538671875,4.593265625,4.337828125,5.3648671875
-8.998109375,-8.96451953125,-17.52016015625,-9.9923984375,-5.58828515625,-8.6012421875,-2.1108515625,3.7691953125,3.14809765625,-3.7287265625,0.4448984375,5.77321875,2.67256640625,-1.0035390625,0.444453125,3.8436875,6.0253359375,0.441140625,5.38869140625,6.33174609375,8.429203125,2.65346875,8.157921875,7.33176171875,8.9606171875,4.976359375,10.696671875,4.043265625,3.978828125,5.0418671875
-6.568109375,-7.38151953125,-15.14416015625,-9.2793984375,-5.04528515625,-8.3392421875,-2.2098515625,4.1321953125,3.95309765625,-3.5287265625,0.2288984375,6.64121875,1.53856640625,-0.488539062500001,0.345453125,3.7846875,4.2613359375,0.929140625,5.12969140625,6.45674609375,8.171203125,3.38646875,8.903921875,7.49976171875,8.9146171875,4.464359375,11.178671875,4.106265625,4.268828125,5.1828671875
-2.707109375,-4.03051953125,-11.45316015625,-7.5453984375,-3.48628515625,-6.9172421875,-1.2578515625,4.8101953125,5.75109765625,-2.5467265625,0.7148984375,7.59221875,0.102566406249999,0.772460937499999,0.935453125,4.1256875,3.3263359375,1.678140625,5.32069140625,6.96274609375,7.973203125,4.22146875,10.062921875,8.30776171875,9.2856171875,5.102359375,11.953671875,4.785265625,5.152828125,5.8608671875
2.366890625,0.99348046875,-6.64216015625,-5.1503984375,-1.07228515625,-4.4752421875,0.6181484375,5.8721953125,8.18709765625,-0.8717265625,1.9008984375,8.38121875,-1.06743359375,2.4634609375,2.128453125,4.8636875,3.7273359375,2.536140625,5.90269140625,7.77774609375,8.008203125,5.02746875,11.250921875,9.52376171875,10.0096171875,6.509359375,12.735671875,5.742265625,6.266828125,6.8218671875
7.868890625,6.82148046875,-1.39416015625,-2.7383984375,1.71471484375,-1.5612421875,2.8631484375,7.1571953125,10.65609765625,1.1642734375,3.4498984375,8.78921875,-1.65843359375,4.1074609375,3.580453125,5.7456875,5.2263359375,3.280140625,6.62469140625,8.62874609375,8.200203125,5.68546875,12.028921875,10.68676171875,10.7906171875,8.006359375,13.144671875,6.517265625,7.145828125,7.6538671875
12.786890625,12.19548046875,3.43183984375,-0.9823984375,4.26971484375,1.1277578125,4.7461484375,8.3131953125,12.55309765625,3.1342734375,4.8508984375,8.80921875,-1.73243359375,5.3294609375,4.862453125,6.4286875,6.8963359375,3.773140625,7.20469140625,9.20974609375,8.296203125,6.20646875,12.161921875,11.34276171875,11.2686171875,8.900359375,12.926671875,6.823265625,7.495828125,8.0208671875
16.341890625,16.05748046875,7.18883984375,-0.2863984375,6.11871484375,3.0447578125,5.7171484375,8.9581953125,13.52109765625,4.6862734375,5.6748984375,8.70921875,-1.55043359375,6.0114609375,5.660453125,6.6916875,7.5553359375,4.053140625,7.48169140625,9.35774609375,8.034203125,6.77146875,11.746921875,11.25476171875,11.2046171875,8.741359375,12.092671875,6.712265625,7.330828125,7.8268671875
18.233890625,17.94748046875,9.60983984375,-0.6253984375,7.05671484375,3.9687578125,5.6481484375,8.8721953125,13.56609765625,5.6552734375,5.7578984375,8.86621875,-1.27743359375,6.2714609375,5.913453125,6.5546875,6.4143359375,4.305140625,7.47769140625,9.12874609375,7.348203125,7.64646875,11.141921875,10.51076171875,10.5956171875,7.482359375,10.931671875,6.528265625,6.941828125,7.2388671875
18.609890625,18.03648046875,10.74583984375,-1.5863984375,7.16071484375,4.0097578125,4.8561484375,8.1181953125,12.99409765625,6.0802734375,5.2468984375,9.45821875,-0.84643359375,6.3244609375,5.830453125,6.2286875,3.6073359375,4.750140625,7.36469140625,8.76674609375,6.462203125,8.99346875,10.768921875,9.48676171875,9.6896171875,5.503359375,9.886671875,6.690265625,6.717828125,6.5818671875
17.912890625,16.91048046875,10.83883984375,-2.5603984375,6.71971484375,3.5187578125,3.8971484375,7.0551953125,12.24309765625,6.1612734375,4.5018984375,10.25021875,-0.0754335937500006,6.3574609375,5.784453125,5.9596875,0.2673359375,5.520140625,7.36769140625,8.58774609375,5.814203125,10.71846875,10.912921875,8.68176171875,8.8746171875,3.476359375,9.385671875,7.439265625,6.951828125,6.1758671875
16.741890625,15.30948046875,10.25483984375,-2.9933984375,6.13671484375,2.9607578125,3.3041484375,6.2001953125,11.72809765625,6.1962734375,3.9378984375,10.69721875,1.05456640625,6.5104609375,6.149453125,5.8886875,-1.9926640625,6.614140625,7.68369140625,8.85874609375,5.837203125,12.44746875,11.646921875,8.51776171875,8.5136171875,2.132359375,9.701671875,8.709265625,7.733828125,6.2138671875
15.721890625,13.92748046875,9.46083984375,-2.5833984375,5.82471484375,2.7697578125,3.3991484375,6.0051953125,11.76009765625,6.4862734375,3.8728984375,10.30921875,2.25856640625,6.9154609375,7.141453125,6.0276875,-1.9346640625,7.924140625,8.42869140625,9.69474609375,6.720203125,13.68346875,12.856921875,9.19476171875,8.8196171875,1.983359375,10.881671875,10.193265625,8.962828125,6.7338671875
15.340890625,13.25348046875,8.95783984375,-1.3633984375,6.07471484375,3.2037578125,4.2381484375,6.6611953125,12.51009765625,7.2382734375,4.4238984375,9.02821875,3.16256640625,7.6994609375,8.733453125,6.3126875,0.6143359375,9.312140625,9.61369140625,11.02174609375,8.306203125,14.06146875,14.327921875,10.63176171875,9.7856171875,3.105359375,12.737671875,11.537265625,10.426828125,7.6548671875
15.801890625,13.44348046875,9.12383984375,0.3566015625,6.96771484375,4.2517578125,5.6361484375,8.0201953125,13.96409765625,8.4692734375,5.4728984375,7.34021875,3.69056640625,8.9174609375,10.662453125,6.6676875,4.6223359375,10.656140625,11.12269140625,12.59974609375,10.154203125,13.56346875,15.820921875,12.51876171875,11.1996171875,5.090359375,14.897671875,12.528265625,11.886828125,8.8288671875
16.900890625,14.24148046875,10.00683984375,2.1286015625,8.32171484375,5.6357578125,7.2331484375,9.6711953125,15.88609765625,9.9792734375,6.7178984375,6.06921875,4.20556640625,10.4674609375,12.523453125,7.0366875,8.3353359375,11.855140625,12.72469140625,14.09174609375,11.718203125,12.54046875,17.125921875,14.42776171875,12.7066171875,7.237359375,16.893671875,13.145265625,13.132828125,10.0578671875
18.008890625,15.01248046875,11.18383984375,3.4936015625,9.74871484375,6.9107578125,8.6171484375,11.0951953125,17.84209765625,11.4242734375,7.8138984375,5.98221875,5.16956640625,12.0704609375,13.945453125,7.3906875,10.1183359375,12.819140625,14.13469140625,15.18474609375,12.549203125,11.51246875,18.078921875,15.95276171875,13.9296171875,8.899359375,18.290671875,13.479265625,14.009828125,11.1218671875
18.239890625,14.97648046875,11.86683984375,4.0946015625,10.79071484375,7.6587578125,9.4831484375,11.8571953125,19.35209765625,12.4862734375,8.5538984375,7.42621875,6.64856640625,13.3794609375,14.766453125,7.7636875,9.2503359375,13.474140625,15.11969140625,15.70674609375,12.470203125,10.86646875,18.574921875,16.84276171875,14.6096171875,9.780359375,18.810671875,13.598265625,14.417828125,11.8248671875
16.864890625,13.59348046875,11.28683984375,3.8186015625,11.14771484375,7.7257578125,9.7861484375,11.7931953125,20.12209765625,13.0492734375,8.9668984375,10.16921875,8.19256640625,14.1374609375,15.113453125,8.2346875,6.3013359375,13.798140625,15.60269140625,15.71374609375,11.652203125,10.67546875,18.579921875,17.07176171875,14.7036171875,9.996359375,18.436671875,13.484265625,14.324828125,12.0618671875
13.783890625,10.91548046875,9.17283984375,2.9146015625,10.84271484375,7.3297578125,9.7701484375,11.1071953125,20.23109765625,13.2682734375,9.2908984375,13.48021875,9.20056640625,14.2984609375,15.324453125,8.8706875,2.8833359375,13.850140625,15.69869140625,15.47774609375,10.546203125,10.76946875,18.161921875,16.82776171875,14.3776171875,9.894359375,17.419671875,13.085265625,13.794828125,11.8538671875
9.697890625,7.65048046875,5.98283984375,1.9476015625,10.22671484375,6.9547578125,9.8251484375,10.2731953125,20.08409765625,13.4692734375,9.8028984375,16.40821875,9.40756640625,14.0244609375,15.749453125,9.6396875,0.8663359375,13.766140625,15.65269140625,15.35574609375,9.681203125,10.93946875,17.482921875,16.40776171875,13.9016171875,9.767359375,16.180671875,12.417265625,12.980828125,11.3398671875
5.838890625,4.86848046875,2.73083984375,1.5556015625,9.78071484375,7.0517578125,10.2561484375,9.7931953125,20.13909765625,13.9342734375,10.6438984375,18.14921875,9.01156640625,13.5924609375,16.545453125,10.3826875,1.4393359375,13.697140625,15.69669140625,15.61274609375,9.422203125,11.09546875,16.749921875,16.08776171875,13.5096171875,9.668359375,15.125671875,11.617265625,12.080828125,10.6998671875
3.405890625,3.51248046875,0.522839843750001,2.1296015625,9.87071484375,7.7837578125,11.1101484375,9.9461953125,20.62509765625,14.7402734375,11.7398984375,18.35621875,8.39856640625,13.2714609375,17.596453125,10.8916875,4.5183359375,13.740140625,15.93569140625,16.28174609375,9.827203125,11.28646875,16.148921875,16.01576171875,13.3176171875,9.427359375,14.499671875,10.889265625,11.254828125,10.0708671875
3.086890625,3.98248046875,0.0808398437500006,3.6446015625,10.61171484375,8.9897578125,12.1781484375,10.7041953125,21.47509765625,15.7412734375,12.8688984375,17.27521875,7.74856640625,13.2314609375,18.597453125,11.0436875,8.7833359375,13.919140625,16.30569140625,17.16874609375,10.657203125,11.63146875,15.812921875,16.19376171875,13.3246171875,8.835359375,14.331671875,10.370265625,10.562828125,9.5008671875
4.861890625,6.02148046875,1.51883984375,5.6946015625,11.87971484375,10.3397578125,13.1491484375,11.8021953125,22.46409765625,16.6932734375,13.8208984375,15.62621875,6.88956640625,13.5194609375,19.249453125,10.9016875,12.3343359375,14.222140625,16.64469140625,17.97674609375,11.538203125,12.21746875,15.832921875,16.53176171875,13.4716171875,7.859359375,14.483671875,10.020265625,9.973828125,8.9728671875
8.153890625,8.93848046875,4.42783984375,7.6966015625,13.42671484375,11.5677578125,13.8291484375,12.9071953125,23.41609765625,17.4262734375,14.5248984375,14.28121875,5.52956640625,14.1104609375,19.451453125,10.7126875,13.6143359375,14.662140625,16.82769140625,18.47674609375,12.161203125,13.02546875,16.266921875,16.92876171875,13.7136171875,6.728359375,14.757671875,9.627265625,9.424828125,8.4698671875
12.176890625,12.01048046875,8.18283984375,9.1476015625,15.02371484375,12.6277578125,14.2601484375,13.7821953125,24.28409765625,17.9502734375,15.0878984375,13.91121875,3.72856640625,14.9774609375,19.358453125,10.7916875,12.1373359375,15.293140625,16.87269140625,18.61974609375,12.441203125,13.87846875,17.123921875,17.33176171875,14.0506171875,5.829359375,14.995671875,8.951265625,8.887828125,8.0218671875
16.267890625,14.78648046875,12.21383984375,9.8196015625,16.53771484375,13.6767578125,14.6631484375,14.3531953125,25.08409765625,18.4202734375,15.6838984375,14.72321875,2.15256640625,16.0834609375,19.275453125,11.3256875,8.6653359375,16.117140625,16.91769140625,18.52574609375,12.509203125,14.45446875,18.288921875,17.71676171875,14.4956171875,5.488359375,15.120671875,7.916265625,8.399828125,7.6958671875
19.974890625,17.10748046875,16.04783984375,9.7736015625,17.87371484375,14.8767578125,15.2261484375,14.6331953125,25.74009765625,18.9742734375,16.3698984375,16.37821875,1.77456640625,17.2874609375,19.410453125,12.1986875,4.7873359375,16.937140625,17.07569140625,18.34074609375,12.569203125,14.36746875,19.449921875,18.01576171875,14.9816171875,5.791359375,15.113671875,6.713265625,8.022828125,7.5238671875
22.906890625,18.89948046875,19.18583984375,9.2256015625,18.86271484375,16.1427578125,15.8911484375,14.5901953125,26.01309765625,19.5502734375,16.9618984375,18.10921875,3.10856640625,18.2574609375,19.691453125,12.9626875,2.1273359375,17.323140625,17.27569140625,18.07674609375,12.693203125,13.32146875,20.123921875,18.06676171875,15.3076171875,6.574359375,14.957671875,5.729265625,7.791828125,7.4688671875
24.625890625,20.00648046875,21.05283984375,8.3876015625,19.22871484375,17.0747578125,16.3501484375,14.0991953125,25.62309765625,19.8582734375,17.0998984375,19.04421875,5.62356640625,18.5514609375,19.774453125,13.0516875,1.6023359375,16.801140625,17.25869140625,17.57274609375,12.751203125,11.29446875,19.847921875,17.67576171875,15.1996171875,7.528359375,14.635671875,5.340265625,7.694828125,7.4488671875
24.741890625,20.21648046875,21.16683984375,7.4226015625,18.71471484375,17.1677578125,16.2451484375,13.0571953125,24.48909765625,19.5292734375,16.4738984375,18.61521875,7.87256640625,17.8294609375,19.253453125,12.1186875,3.0513359375,15.181140625,16.73169140625,16.63174609375,12.496203125,8.62846875,18.453921875,16.75376171875,14.4766171875,8.332359375,14.161671875,5.701265625,7.691828125,7.4068671875
23.143890625,19.39348046875,19.39083984375,6.4686015625,17.27171484375,16.1357578125,15.4291484375,11.5441953125,22.87909765625,18.3442734375,15.0538984375,16.86121875,8.36856640625,16.0764609375,17.919453125,10.2916875,5.3933359375,12.760140625,15.56769140625,15.21874609375,11.751203125,5.93246875,16.231921875,15.44176171875,13.1896171875,8.741359375,13.632671875,6.667265625,7.753828125,7.3418671875
20.106890625,17.59048046875,16.05683984375,5.6326015625,15.14171484375,14.1147578125,14.0801484375,9.8611953125,21.28409765625,16.3752734375,13.1328984375,14.44321875,6.62756640625,13.6444609375,15.906453125,8.1586875,7.2083359375,10.224140625,13.90169140625,13.54274609375,10.543203125,3.81346875,13.818921875,14.07276171875,11.6226171875,8.642359375,13.195671875,7.878265625,7.863828125,7.2918671875
16.207890625,15.06848046875,11.86883984375,4.9486015625,12.76371484375,11.5787578125,12.5911484375,8.4031953125,20.11009765625,13.9732734375,11.1688984375,12.32421875,3.62656640625,11.1044609375,13.626453125,6.4526875,7.4563359375,8.283140625,12.05769140625,11.95774609375,9.095203125,2.59746875,11.873921875,12.99776171875,10.1446171875,8.074359375,12.935671875,8.914265625,7.983828125,7.2888671875
12.139890625,12.24548046875,7.68683984375,4.3536015625,10.57271484375,9.0847578125,11.3241484375,7.4661953125,19.42109765625,11.5952734375,9.5248984375,11.23521875,1.27156640625,8.9714609375,11.548453125,5.6446875,5.9813359375,7.287140625,10.35969140625,10.74874609375,7.712203125,2.20946875,10.727921875,12.35676171875,9.0116171875,7.211359375,12.754671875,9.402265625,8.004828125,7.3038671875
8.522890625,9.58848046875,4.26483984375,3.7546015625,8.82571484375,6.9977578125,10.4121484375,7.0941953125,18.92509765625,9.5972734375,8.2998984375,11.24621875,1.19456640625,7.4664609375,9.958453125,5.6826875,3.5493359375,7.066140625,8.96669140625,9.97974609375,6.647203125,2.29046875,10.252921875,11.99176171875,8.2456171875,6.274359375,12.360671875,9.073265625,7.745828125,7.2328671875
5.769890625,7.47448046875,2.05883984375,3.1096015625,7.54271484375,5.3827578125,9.7341484375,7.0911953125,18.21809765625,8.1172734375,7.3318984375,11.72021875,3.67256640625,6.4824609375,8.876453125,6.0596875,1.4223359375,7.096140625,7.84569140625,9.49874609375,6.022203125,2.46146875,10.009921875,11.55876171875,7.6806171875,5.420359375,11.415671875,7.823265625,7.037828125,6.9398671875
4.059890625,6.10548046875,1.15883984375,2.4876015625,6.60771484375,4.1067578125,9.0821484375,7.1561953125,17.10409765625,7.1042734375,6.3898984375,11.73421875,7.44056640625,5.7754609375,8.151453125,6.1726875,0.6643359375,6.890140625,6.88869140625,9.09774609375,5.839203125,2.55446875,9.594921875,10.77676171875,7.1306171875,4.644359375,9.771671875,5.818265625,5.860828125,6.3518671875
3.449890625,5.52348046875,1.40583984375,2.0806015625,5.94371484375,3.0647578125,8.3601484375,7.0931953125,15.78809765625,6.4522734375,5.3928984375,10.70821875,10.43956640625,5.2114609375,7.637453125,5.7166875,1.5333359375,6.331140625,6.06769140625,8.68474609375,5.998203125,2.68946875,8.937921875,9.64576171875,6.5366171875,3.729359375,7.646671875,3.539265625,4.427828125,5.5138671875
4.027890625,5.66048046875,2.57183984375,2.1606015625,5.62571484375,2.3577578125,7.6641484375,6.9281953125,14.83109765625,6.1002734375,4.5078984375,8.79821875,10.91756640625,4.8774609375,7.300453125,4.8646875,3.2703359375,5.743140625,5.48769140625,8.35874609375,6.308203125,3.15546875,8.367921875,8.44976171875,5.9996171875,2.257359375,5.590671875,1.666265625,3.134828125,4.5558671875
5.941890625,6.38148046875,4.47783984375,2.9946015625,5.84671484375,2.2807578125,7.2041484375,6.8701953125,14.88109765625,6.0482734375,4.0568984375,6.79721875,8.13256640625,4.9954609375,7.188453125,4.1246875,4.4363359375,5.677140625,5.31569140625,8.33274609375,6.516203125,4.20246875,8.416921875,7.59776171875,5.6836171875,-0.260640625,4.254671875,0.815265625,2.388828125,3.6008671875
9.261890625,7.49748046875,6.98983984375,4.7166015625,6.77371484375,3.1157578125,7.1631484375,7.1431953125,16.35809765625,6.3052734375,4.3158984375,5.61621875,2.38756640625,5.7364609375,7.354453125,4.0066875,3.6813359375,6.575140625,5.66369140625,8.79574609375,6.393203125,5.88446875,9.505921875,7.38876171875,5.6986171875,-4.154640625,4.081671875,1.279265625,2.426828125,2.7028671875
13.807890625,8.82448046875,9.96283984375,7.2356015625,8.39671484375,4.8937578125,7.5771484375,7.8281953125,19.22309765625,6.8332734375,5.3298984375,5.70021875,-5.38943359375,7.0944609375,7.792453125,4.7176875,0.5203359375,8.519140625,6.50769140625,9.77874609375,5.863203125,8.06646875,11.692921875,7.86876171875,6.0406171875,-9.369640625,5.087671875,2.925265625,3.211828125,1.8528671875
19.087890625,10.22848046875,13.20683984375,10.2266015625,10.46671484375,7.2917578125,8.2981484375,8.8111953125,22.96009765625,7.5342734375,6.8498984375,6.74521875,-14.11643359375,8.8564609375,8.415453125,6.0366875,-4.3316640625,11.169140625,7.66769140625,11.11374609375,5.063203125,10.52946875,14.608921875,8.80476171875,6.5996171875,-15.398640625,6.836671875,5.246265625,4.446828125,1.0238671875
19.087890625,10.22848046875,13.20683984375,10.2266015625,10.46671484375,7.2917578125,8.2981484375,8.8111953125,22.96009765625,7.5342734375,6.8498984375,6.74521875,-14.11643359375,8.8564609375,8.415453125,6.0366875,-4.3316640625,11.169140625,7.66769140625,11.11374609375,5.063203125,10.52946875,14.608921875,8.80476171875,6.5996171875,-15.398640625,6.836671875,5.246265625,4.446828125,1.0238671875
