"Fp1","Fpz","Fp2","F7","F3","Fz","F4","F8","FC5","FC1","FC2","FC6","T7","C3","Cz","C4","T8","CP5","CP1","CP2","CP6","P7","P3","Pz","P4","P8","POz","O1","Oz","O2"
-4.1165,-8.76076953125,-2.232953125,9.0639375,-8.15590625,-5.5908046875,-3.79254296875,-1.65955859375,-0.972855468750001,-8.1465625,-5.3101640625,-2.63680078125,-5.7586796875,-5.37241796875,-8.25762109375,-5.34830859375,-2.96649609375,3.1792109375,-1.193296875,-1.26298828125,-4.39902734375,9.5725546875,3.1307421875,-0.360164062500001,-1.64752734375,-6.82391796875,0.509917968749999,6.98262109375,2.83323046875,-1.4466328125
-2.1685,-6.82776953125,-1.007953125,11.7329375,-5.24090625,-3.6958046875,-4.02254296875,-0.96255859375,-0.26985546875,-4.4295625,-3.1261640625,-0.54580078125,0.7423203125,-3.53041796875,-4.88462109375,-2.99830859375,0.46250390625,4.4042109375,1.610703125,2.24601171875,0.0659726562499996,10.1865546875,4.7687421875,1.4168359375,2.16747265625,-2.02191796875,3.24291796875,7.59262109375,6.13423046875,2.1873671875
-0.4475,-5.07976953125,0.282046875000001,13.6419375,-2.73190625,-1.6878046875,-3.70454296875,-0.46455859375,0.753144531249999,-1.3405625,-1.0251640625,1.26019921875,5.9533203125,-2.16041796875,-2.22062109375,-1.00530859375,3.91750390625,5.3302109375,3.448703125,4.76801171875,3.45797265625,10.0685546875,5.5157421875,2.7788359375,4.85547265625,1.64508203125,5.13991796875,7.40362109375,8.11223046875,4.7803671875
0.8945,-3.64576953125,1.397046875,14.3739375,-0.851906249999999,0.1841953125,-2.97354296875,-0.27155859375,1.89614453125,0.8594375,0.7998359375,2.44819921875,9.1593203125,-1.50541796875,-0.552621093749998,0.425691406249999,7.23750390625,5.6812109375,4.030703125,6.03301171875,5.50897265625,8.8505546875,5.0107421875,3.4438359375,6.15047265625,3.84008203125,5.83391796875,5.99362109375,8.36923046875,5.9563671875
1.7105,-2.64576953125,2.025046875,13.7209375,0.19809375,1.5491953125,-2.19754296875,-0.37455859375,2.79914453125,1.9464375,2.0648359375,2.69319921875,9.7243203125,-1.74941796875,-0.0946210937499981,1.14369140625,10.13450390625,5.1872109375,3.234703125,5.94201171875,6.14397265625,6.2945546875,3.0577421875,3.1038359375,5.98347265625,4.42108203125,5.06391796875,3.12162109375,6.80523046875,5.5133671875
1.8935,-2.15076953125,1.962046875,11.8529375,0.29009375,2.0821953125,-1.80254296875,-0.59955859375,3.10314453125,1.7844375,2.4788359375,1.84919921875,7.3313203125,-2.94141796875,-0.946621093749998,1.08169140625,12.21750390625,3.7172109375,1.117703125,4.55501171875,5.44897265625,2.4475546875,-0.278257812500001,1.5168359375,4.45147265625,3.47308203125,2.77691796875,-1.07137890625,3.67023046875,3.5093671875
1.4385,-2.12476953125,1.232046875,9.3129375,-0.546906249999999,1.6651953125,-2.04554296875,-0.65755859375,2.60414453125,0.416437500000001,1.8858359375,0.11419921875,2.3133203125,-4.94241796875,-3.01462109375,0.29069140625,13.05150390625,1.3872109375,-2.038296875,2.12701171875,3.68397265625,-2.2294453125,-4.5892578125,-1.3321640625,1.84647265625,1.35708203125,-0.759082031250001,-5.94637890625,-0.40276953125,0.3613671875
0.5085,-2.40876953125,0.113046875,6.8519375,-2.06890625,0.485195312499999,-2.82654296875,-0.28955859375,1.34714453125,-1.8395625,0.4008359375,-1.94580078125,-4.1166796875,-7.41541796875,-5.92062109375,-1.03430859375,12.30950390625,-1.4227890625,-5.699296875,-0.85998828125,1.30397265625,-6.8764453125,-9.1442578125,-5.0951640625,-1.30352734375,-1.26891796875,-4.90608203125,-10.46637890625,-4.48376953125,-3.1586328125
-0.5725,-2.76276953125,-0.958953125,5.1549375,-3.83790625,-1.0038046875,-3.68354296875,0.60344140625,-0.387855468750001,-4.4185625,-1.5481640625,-3.55480078125,-10.0406796875,-9.89541796875,-9.02462109375,-2.54930859375,9.99450390625,-4.1627890625,-9.166296875,-3.76698828125,-1.08302734375,-10.4704453125,-13.0622578125,-9.0721640625,-4.29952734375,-3.59491796875,-8.78208203125,-13.52237890625,-7.59476953125,-6.1186328125
-1.4395,-2.97676953125,-1.568953125,4.5329375,-5.38590625,-2.2668046875,-4.05254296875,1.87544140625,-2.21285546875,-6.6905625,-3.3631640625,-4.05580078125,-13.5216796875,-11.94741796875,-11.61262109375,-3.85330859375,6.58150390625,-6.3127890625,-11.782296875,-5.99898828125,-2.90902734375,-12.2254453125,-15.6142578125,-12.4321640625,-6.49652734375,-4.95791796875,-11.56908203125,-14.40137890625,-9.06676953125,-7.7926328125
-1.8945,-3.01076953125,-1.538953125,4.7149375,-6.43290625,-2.9718046875,-3.67954296875,3.12844140625,-3.82685546875,-8.2455625,-4.5601640625,-3.27880078125,-13.5026796875,-13.34041796875,-13.19962109375,-4.66730859375,2.92250390625,-7.6097890625,-13.181296875,-7.24298828125,-3.88302734375,-11.9404453125,-16.5052578125,-14.5421640625,-7.57352734375,-5.14991796875,-12.84508203125,-13.13137890625,-8.83376953125,-7.9946328125
-2.0335,-3.05576953125,-1.043953125,4.9099375,-7.03190625,-3.1968046875,-2.91954296875,3.81644140625,-5.18085546875,-9.0795625,-5.0411640625,-1.70980078125,-10.3626796875,-14.14941796875,-13.75062109375,-4.99730859375,-0.07949609375,-8.1527890625,-13.432296875,-7.59998828125,-4.14402734375,-10.0874453125,-15.9882578125,-15.2291640625,-7.67752734375,-4.52391796875,-12.75708203125,-10.48937890625,-7.44876953125,-7.1566328125
-2.2105,-3.46276953125,-0.553953125,4.1909375,-7.53090625,-3.3898046875,-2.62954296875,3.46844140625,-6.49985546875,-9.5815625,-5.1671640625,-0.33080078125,-5.7426796875,-14.68441796875,-13.68762109375,-5.16730859375,-1.83849609375,-8.3217890625,-13.003296875,-7.53198828125,-4.18602734375,-7.5944453125,-14.7162578125,-14.8181640625,-7.34252734375,-3.81191796875,-11.90008203125,-7.62837890625,-5.81576953125,-6.0706328125
-2.8135,-4.54776953125,-0.618953125,2.0399375,-8.36590625,-4.0978046875,-3.67154296875,1.93844140625,-8.13585546875,-10.3035625,-5.5601640625,-0.14980078125,-1.8026796875,-15.32241796875,-13.65462109375,-5.65230859375,-2.28449609375,-8.5617890625,-12.543296875,-7.62698828125,-4.60402734375,-5.4574453125,-13.4452578125,-13.9321640625,-7.22252734375,-3.75391796875,-11.00308203125,-5.54637890625,-4.76576953125,-5.4816328125
-4.0465,-6.39776953125,-1.607953125,-1.3010625,-9.82090625,-5.6538046875,-6.33554296875,-0.50155859375,-10.32585546875,-11.6525625,-6.7381640625,-1.70580078125,-0.3126796875,-16.30241796875,-14.19762109375,-6.82030859375,-1.82649609375,-9.1677890625,-12.592296875,-8.30798828125,-5.80002734375,-4.3594453125,-12.7112578125,-13.1971640625,-7.77752734375,-4.76691796875,-10.60908203125,-4.71237890625,-4.71876953125,-5.7686328125
-5.8265,-8.80176953125,-3.536953125,-4.8870625,-11.88590625,-8.0118046875,-10.07654296875,-3.28655859375,-12.99585546875,-13.6785625,-8.8221640625,-4.79280078125,-1.9996796875,-17.62241796875,-15.51062109375,-8.72430859375,-1.15049609375,-10.1727890625,-13.365296875,-9.63798828125,-7.79902734375,-4.4784453125,-12.6732578125,-12.9721640625,-9.06552734375,-6.78291796875,-10.89208203125,-4.99037890625,-5.58576953125,-6.8486328125
-7.8425,-11.33076953125,-6.039953125,-7.5380625,-14.27390625,-10.7868046875,-13.75954296875,-5.80155859375,-15.74085546875,-16.0535625,-11.4651640625,-8.55780078125,-6.3426796875,-19.03341796875,-17.38462109375,-11.04330859375,-0.87549609375,-11.3657890625,-14.686296875,-11.30398828125,-10.22502734375,-5.5024453125,-13.1242578125,-13.2461640625,-10.74152734375,-9.30091796875,-11.67408203125,-5.84137890625,-6.90076953125,-8.2936328125
-9.6805,-13.48676953125,-8.503953125,-8.4380625,-16.54190625,-13.4348046875,-16.23954296875,-7.56655859375,-18.00385546875,-18.2305625,-14.0181640625,-11.87880078125,-11.8516796875,-20.15741796875,-19.34262109375,-13.20130859375,-1.20149609375,-12.4017890625,-16.104296875,-12.78998828125,-12.44402734375,-6.8104453125,-13.6472578125,-13.6881640625,-12.22552734375,-11.58191796875,-12.55808203125,-6.61137890625,-8.07876953125,-9.5476328125
-10.9595,-14.84976953125,-10.306953125,-7.5390625,-18.25890625,-15.4558046875,-16.90454296875,-8.34155859375,-19.32385546875,-19.6825625,-15.8341640625,-13.83680078125,-16.6916796875,-20.65241796875,-20.87762109375,-14.60030859375,-1.74549609375,-12.9397890625,-17.103296875,-13.61198828125,-13.79502734375,-7.7294453125,-13.8062578125,-13.8271640625,-12.95552734375,-12.90491796875,-13.10108203125,-6.77937890625,-8.64376953125,-10.1356328125
-11.4165,-15.17376953125,-11.090953125,-5.5390625,-19.11490625,-16.5488046875,-15.88354296875,-8.14755859375,-19.51285546875,-20.1085625,-16.5281640625,-14.03480078125,-19.3886796875,-20.35041796875,-21.65162109375,-14.85830859375,-1.78449609375,-12.7647890625,-17.291296875,-13.50598828125,-13.84802734375,-7.7704453125,-13.2942578125,-13.2511640625,-12.59252734375,-12.78291796875,-12.96108203125,-6.10637890625,-8.35676953125,-9.7956328125
-10.9535,-14.43176953125,-10.911953125,-3.4870625,-18.98790625,-16.6448046875,-13.84554296875,-7.23055859375,-18.66985546875,-19.5095625,-16.0741640625,-12.65280078125,-19.3226796875,-19.30441796875,-21.57362109375,-13.92630859375,-0.79949609375,-11.8617890625,-16.525296875,-12.47298828125,-12.55802734375,-6.7874453125,-12.0252578125,-11.7551640625,-11.11652734375,-11.09691796875,-11.99608203125,-4.64737890625,-7.23376953125,-8.5256328125
-9.6455,-12.81076953125,-10.166953125,-2.2480625,-17.94990625,-15.8498046875,-11.60254296875,-5.96055859375,-17.09885546875,-18.1375625,-14.7151640625,-10.25580078125,-16.8756796875,-17.73041796875,-20.72862109375,-12.03630859375,1.09850390625,-10.4117890625,-14.916296875,-10.70998828125,-10.24802734375,-5.0064453125,-10.1442578125,-9.3951640625,-8.78852734375,-8.09691796875,-10.28708203125,-2.68337890625,-5.49676953125,-6.5416328125
-7.7345,-10.65276953125,-9.367953125,-2.1530625,-16.23290625,-14.3518046875,-9.74254296875,-4.71855859375,-15.18685546875,-16.3455625,-12.7771640625,-7.51080078125,-13.2276796875,-15.89341796875,-19.25862109375,-9.54430859375,3.18050390625,-8.7337890625,-12.748296875,-8.48098828125,-7.45702734375,-2.9034453125,-7.9532578125,-6.4401640625,-6.02052734375,-4.31691796875,-8.08408203125,-0.58137890625,-3.48376953125,-4.1916328125
-5.5895,-8.36476953125,-8.870953125,-2.9590625,-14.15990625,-12.3638046875,-8.45654296875,-3.79755859375,-13.30485546875,-14.4105625,-10.5051640625,-4.94980078125,-9.8566796875,-13.99841796875,-17.27162109375,-6.77930859375,4.54050390625,-7.1607890625,-10.332296875,-6.00498828125,-4.72402734375,-0.9844453125,-5.7582578125,-3.2611640625,-3.19952734375,-0.40391796875,-5.68908203125,1.35462109375,-1.51776953125,-1.8406328125
-3.6225,-6.32776953125,-8.717953125,-4.0530625,-12.05590625,-10.1108046875,-7.57954296875,-3.33755859375,-11.71985546875,-12.4325625,-8.0301640625,-2.86680078125,-7.9076796875,-12.11941796875,-14.83262109375,-3.97130859375,4.60550390625,-5.8917890625,-7.882296875,-3.42598828125,-2.40702734375,0.4195546875,-3.7392578125,-0.217164062500001,-0.56052734375,3.07608203125,-3.34008203125,2.98162109375,0.19023046875,0.243367187500001
-2.1745,-4.81176953125,-8.669953125,-4.7230625,-10.15590625,-7.8168046875,-6.80454296875,-3.29855859375,-10.52085546875,-10.3645625,-5.4441640625,-1.34380078125,-7.7036796875,-10.20741796875,-12.02762109375,-1.29230859375,3.42250390625,-4.9027890625,-5.489296875,-0.86498828125,-0.61102734375,1.2215546875,-1.9202578125,2.4138359375,1.81047265625,5.80608203125,-1.18108203125,4.31162109375,1.57623046875,1.9543671875
-1.3985,-3.91676953125,-8.432953125,-4.4160625,-8.56590625,-5.7078046875,-5.93354296875,-3.52055859375,-9.61185546875,-8.1335625,-2.9091640625,-0.357800781249999,-8.7026796875,-8.17041796875,-9.04062109375,1.04869140625,1.60550390625,-3.9987890625,-3.199296875,1.49401171875,0.75497265625,1.5105546875,-0.273257812500001,4.4458359375,3.89147265625,7.76308203125,0.687917968749999,5.39762109375,2.65323046875,3.3313671875
-1.2195,-3.57176953125,-7.893953125,-2.9450625,-7.26990625,-3.9908046875,-5.03354296875,-3.83655859375,-8.79185546875,-5.7685625,-0.7061640625,0.11119921875,-9.9196796875,-6.01541796875,-6.16962109375,2.75669140625,0.0355039062499998,-2.9947890625,-1.116296875,3.37901171875,1.82897265625,1.4225546875,1.1517421875,5.7558359375,5.61247265625,9.12108203125,2.13391796875,6.19462109375,3.43023046875,4.4643671875
-1.3925,-3.59876953125,-7.217953125,-0.5750625,-6.20190625,-2.8298046875,-4.36754296875,-4.18255859375,-7.90185546875,-3.4655625,0.832835937500001,0.0521992187500002,-10.5336796875,-3.95841796875,-3.76962109375,3.50169140625,-0.52349609375,-1.8977890625,0.537703124999998,4.47801171875,2.64197265625,1.0615546875,2.1437421875,6.2638359375,6.80147265625,10.03808203125,2.95991796875,6.51062109375,3.85423046875,5.3933671875
-1.6375,-3.82976953125,-6.708953125,2.0609375,-5.33590625,-2.3018046875,-4.16954296875,-4.59555859375,-6.94285546875,-1.5465625,1.4528359375,-0.51680078125,-10.2896796875,-2.40141796875,-2.13862109375,3.06469140625,0.20250390625,-0.9687890625,1.453703125,4.53101171875,3.04797265625,0.4835546875,2.3827421875,5.9198359375,7.20447265625,10.46408203125,2.94791796875,6.10562109375,3.82723046875,6.0493671875
-1.7665,-4.17876953125,-6.573953125,4.2249375,-4.71790625,-2.3458046875,-4.42054296875,-5.14355859375,-6.07085546875,-0.334562499999999,1.1188359375,-1.45580078125,-9.4886796875,-1.76541796875,-1.41462109375,1.49369140625,1.80250390625,-0.6007890625,1.362703125,3.43301171875,2.81297265625,-0.2474453125,1.5957421875,4.7318359375,6.58047265625,10.12408203125,1.95891796875,4.87962109375,3.27123046875,6.2703671875
-1.7045,-4.61276953125,-6.779953125,5.4069375,-4.39890625,-2.7408046875,-4.79854296875,-5.82255859375,-5.46485546875,0.0374375000000011,0.0798359375000004,-2.45480078125,-8.5986796875,-2.23441796875,-1.49662109375,-0.822308593750001,3.34950390625,-1.0697890625,0.211703125,1.34601171875,1.80597265625,-1.0034453125,-0.2372578125,2.8218359375,4.87247265625,8.74708203125,0.078917968749999,3.04562109375,2.23723046875,5.9183671875
-1.4225,-5.04576953125,-7.071953125,5.5509375,-4.30590625,-3.1308046875,-4.82954296875,-6.51155859375,-5.14385546875,-0.250562499999999,-1.1671640625,-3.09280078125,-7.8076796875,-3.57141796875,-2.03762109375,-3.21430859375,3.92950390625,-2.2997890625,-1.699296875,-1.24898828125,0.191972656249999,-1.5674453125,-2.7422578125,0.4848359375,2.35647265625,6.38208203125,-2.29208203125,1.13962109375,0.99723046875,5.0383671875
-0.8525,-5.27676953125,-7.129953125,5.0539375,-4.18290625,-3.1188046875,-4.15054296875,-6.96855859375,-4.90085546875,-0.7335625,-2.0591640625,-2.99680078125,-6.8996796875,-5.14141796875,-2.55162109375,-4.95330859375,3.22250390625,-3.8197890625,-3.747296875,-3.65298828125,-1.56702734375,-1.7204453125,-5.2052578125,-1.8261640625,-0.37952734375,3.55108203125,-4.51208203125,-0.16237890625,-0.00676953124999979,3.9223671875
0.0924999999999994,-5.06176953125,-6.740953125,4.5159375,-3.69590625,-2.4168046875,-2.72154296875,-6.91055859375,-4.43285546875,-0.882562499999999,-2.2021640625,-2.03680078125,-5.6086796875,-6.17441796875,-2.61262109375,-5.54130859375,1.67050390625,-4.9567890625,-5.224296875,-5.22098828125,-2.92902734375,-1.3794453125,-6.8402578125,-3.6301640625,-2.67152734375,1.05108203125,-5.93908203125,-0.35137890625,-0.35876953125,2.9933671875
1.4135,-4.27376953125,-5.943953125,4.3679375,-2.64290625,-1.0058046875,-0.88354296875,-6.16155859375,-3.57785546875,-0.3835625,-1.5591640625,-0.442800781249999,-4.0946796875,-6.12341796875,-2.04062109375,-4.93730859375,0.10550390625,-5.1717890625,-5.647296875,-5.65298828125,-3.58402734375,-0.6824453125,-7.1272578125,-4.6031640625,-4.09352734375,-0.46091796875,-6.22108203125,0.68462109375,0.10923046875,2.5813671875
2.9355,-3.04076953125,-5.055953125,4.6399375,-1.12490625,0.799195312499999,0.79945703125,-4.82355859375,-2.46285546875,0.6894375,-0.467164062499999,1.24319921875,-3.0346796875,-4.92541796875,-0.986621093749999,-3.57730859375,-0.89849609375,-4.3427890625,-4.971296875,-5.12198828125,-3.61202734375,0.0865546875000005,-6.0142578125,-4.7001640625,-4.62852734375,-0.77391796875,-5.44408203125,2.63162109375,1.23623046875,2.7693671875
4.3175,-1.75876953125,-4.556953125,5.0189375,0.45209375,2.4461953125,1.82145703125,-3.32955859375,-1.44585546875,1.9044375,0.5468359375,2.38519921875,-3.1616796875,-3.00941796875,0.156378906250001,-2.16630859375,-1.40249609375,-2.8157890625,-3.581296875,-4.15898828125,-3.37802734375,0.686554687500001,-3.9022578125,-4.1611640625,-4.60252734375,-0.14491796875,-4.05108203125,4.93962109375,2.64523046875,3.3983671875
5.1735,-0.945769531250001,-4.860953125,5.1109375,1.53409375,3.3751953125,1.95645703125,-2.30255859375,-0.90485546875,2.6694375,1.0478359375,2.50619921875,-4.6476796875,-1.09441796875,0.934378906250002,-1.34430859375,-1.94349609375,-1.2447890625,-2.110296875,-3.38498828125,-3.26602734375,1.0525546875,-1.4572578125,-3.4031640625,-4.45852734375,0.935082031249999,-2.62708203125,7.07062109375,3.91323046875,4.1903671875
5.2255,-1.01476953125,-6.084953125,4.6879375,1.67509375,3.2701953125,1.32345703125,-2.29855859375,-1.04885546875,2.5224375,0.8958359375,1.46419921875,-6.8826796875,0.0975820312500009,1.02337890625,-1.42330859375,-2.97149609375,-0.293789062499999,-1.169296875,-3.23298828125,-3.46202734375,1.3045546875,0.6477421875,-2.8581640625,-4.52152734375,2.00008203125,-1.64708203125,8.67362109375,4.74523046875,4.8793671875
4.4105,-2.08376953125,-7.969953125,3.7649375,0.73709375,2.1601953125,0.264457031250001,-3.54255859375,-1.82685546875,1.3484375,0.2548359375,-0.52680078125,-8.8216796875,0.11558203125,0.351378906250002,-2.31730859375,-4.39649609375,-0.356789062499999,-1.109296875,-3.80498828125,-3.90202734375,1.6375546875,1.9467421875,-2.8201640625,-4.87752734375,2.74908203125,-1.32208203125,9.65162109375,5.04623046875,5.2883671875
2.8985,-3.91676953125,-9.985953125,2.5389375,-1.05990625,0.368195312499999,-0.85154296875,-5.80955859375,-2.97685546875,-0.568562499999999,-0.5771640625,-2.99080078125,-9.5956796875,-1.08541796875,-0.912621093749999,-3.67430859375,-5.62149609375,-1.3867890625,-1.927296875,-4.90398828125,-4.39502734375,2.1685546875,2.3027421875,-3.3761640625,-5.40152734375,3.05508203125,-1.59208203125,10.10362109375,4.91323046875,5.3543671875
1.0065,-6.04876953125,-11.539953125,1.3079375,-3.26990625,-1.6778046875,-1.78754296875,-8.48555859375,-4.15685546875,-2.7135625,-1.3911640625,-5.34380078125,-8.9096796875,-3.16141796875,-2.47862109375,-5.09930859375,-6.02349609375,-2.9367890625,-3.340296875,-6.20798828125,-4.78202734375,2.8325546875,1.8827421875,-4.4301640625,-5.91652734375,2.90308203125,-2.25108203125,10.19762109375,4.51923046875,5.0853671875
-0.9405,-8.00976953125,-12.198953125,0.3589375,-5.44490625,-3.6198046875,-2.50954296875,-10.80755859375,-5.11085546875,-4.6065625,-2.1761640625,-7.06680078125,-7.0456796875,-5.55541796875,-4.07762109375,-6.32630859375,-5.44349609375,-4.3797890625,-4.959296875,-7.45798828125,-5.04502734375,3.3905546875,1.0277421875,-5.7871640625,-6.34252734375,2.33808203125,-3.10208203125,10.04962109375,3.97623046875,4.5113671875
-2.7075,-9.51576953125,-11.851953125,-0.1570625,-7.30390625,-5.2828046875,-3.14954296875,-12.19355859375,-5.77985546875,-6.0025625,-3.0591640625,-7.87380078125,-4.5856796875,-7.73741796875,-5.54062109375,-7.25030859375,-4.34649609375,-5.2037890625,-6.451296875,-8.53098828125,-5.30502734375,3.5705546875,0.0977421874999997,-7.2121640625,-6.73052734375,1.45008203125,-4.02308203125,9.66962109375,3.27423046875,3.6603671875
-4.1705,-10.52676953125,-10.765953125,-0.3160625,-8.75690625,-6.6628046875,-3.89554296875,-12.48655859375,-6.27885546875,-6.9255625,-4.1311640625,-7.80280078125,-2.1076796875,-9.37341796875,-6.79362109375,-7.86530859375,-3.58849609375,-5.2297890625,-7.613296875,-9.39298828125,-5.72502734375,3.2525546875,-0.6442578125,-8.4671640625,-7.16452734375,0.379082031249999,-4.94008203125,9.00662109375,2.33123046875,2.5903671875
-5.2555,-11.16876953125,-9.497953125,-0.3460625,-9.82390625,-7.8258046875,-4.86954296875,-11.97555859375,-6.75585546875,-7.5585625,-5.3271640625,-7.18780078125,0.0113203124999997,-10.36541796875,-7.80562109375,-8.17030859375,-3.98649609375,-4.6307890625,-8.376296875,-10.01698828125,-6.37602734375,2.5735546875,-1.0792578125,-9.3271640625,-7.64552734375,-0.68691796875,-5.75408203125,8.05762109375,1.11923046875,1.4423671875
-5.8805,-11.56776953125,-8.675953125,-0.4240625,-10.52590625,-8.7978046875,-6.05254296875,-11.16055859375,-7.24585546875,-8.0945625,-6.4371640625,-6.48980078125,1.6273203125,-10.76141796875,-8.55462109375,-8.15430859375,-5.87449609375,-3.7557890625,-8.763296875,-10.34398828125,-7.14202734375,1.8935546875,-1.2012578125,-9.6151640625,-8.03452734375,-1.51291796875,-6.30708203125,6.96962109375,-0.23676953125,0.459367187500001
-5.9415,-11.73676953125,-8.729953125,-0.4810625,-10.83890625,-9.5148046875,-7.27454296875,-10.44555859375,-7.60585546875,-8.6185625,-7.2341640625,-6.07280078125,2.7053203125,-10.64841796875,-9.02962109375,-7.82430859375,-8.81149609375,-2.8927890625,-8.823296875,-10.29998828125,-7.71102734375,1.6265546875,-1.0452578125,-9.2541640625,-8.09752734375,-1.85391796875,-6.43508203125,6.03762109375,-1.44576953125,-0.0726328124999993
-5.3965,-11.58676953125,-9.698953125,-0.2450625,-10.72790625,-9.8818046875,-8.28554296875,-9.95055859375,-7.61185546875,-9.0995625,-7.6131640625,-6.06280078125,3.1603203125,-10.11341796875,-9.25962109375,-7.27330859375,-11.63349609375,-2.1367890625,-8.615296875,-9.86198828125,-7.71002734375,2.0205546875,-0.649257812500001,-8.3251640625,-7.63652734375,-1.50591796875,-6.07608203125,5.56262109375,-2.16476953125,0.0333671875000006
-4.3665,-11.06676953125,-11.208953125,0.5129375,-10.24990625,-9.8758046875,-8.86054296875,-9.54655859375,-7.13385546875,-9.4945625,-7.6501640625,-6.34180078125,2.8273203125,-9.29241796875,-9.34562109375,-6.70030859375,-12.93849609375,-1.4587890625,-8.233296875,-9.13698828125,-6.91402734375,2.9865546875,-0.101257812500001,-7.1101640625,-6.62652734375,-0.38991796875,-5.38508203125,5.65562109375,-2.20076953125,0.744367187500001
-3.1905,-10.29576953125,-12.627953125,1.6999375,-9.61990625,-9.6328046875,-8.91954296875,-9.03155859375,-6.27585546875,-9.8675625,-7.5701640625,-6.66280078125,1.6393203125,-8.42941796875,-9.46062109375,-6.36630859375,-11.80749609375,-0.8617890625,-7.858296875,-8.40498828125,-5.40902734375,4.0865546875,0.406742187499999,-6.0491640625,-5.28952734375,1.37308203125,-4.73008203125,6.14262109375,-1.65976953125,1.7783671875
-2.3625,-9.59076953125,-13.346953125,2.8349375,-9.19190625,-9.4458046875,-8.60754296875,-8.33355859375,-5.37785546875,-10.4185625,-7.6321640625,-6.80580078125,-0.154679687500001,-7.84341796875,-9.79762109375,-6.49330859375,-8.32249609375,-0.4727890625,-7.722296875,-8.02498828125,-3.58702734375,4.7415546875,0.5987421875,-5.5771640625,-4.00352734375,3.48008203125,-4.52308203125,6.65462109375,-0.88776953125,2.7443671875
-2.3325,-9.35876953125,-13.062953125,3.2849375,-9.30690625,-9.6628046875,-8.28454296875,-7.61755859375,-4.83385546875,-11.3685625,-8.0181640625,-6.69380078125,-1.9646796875,-7.79941796875,-10.45262109375,-7.15330859375,-3.52949609375,-0.476789062499999,-7.980296875,-8.24998828125,-1.97002734375,4.5525546875,0.252742187499999,-5.8811640625,-3.09252734375,5.54508203125,-4.94008203125,6.86962109375,-0.24876953125,3.3683671875
-3.2845,-9.89276953125,-11.919953125,2.6499375,-10.10890625,-10.4988046875,-8.38654296875,-7.21355859375,-4.87385546875,-12.7835625,-8.7481640625,-6.43180078125,-3.1596796875,-8.35141796875,-11.32462109375,-8.20630859375,1.06850390625,-0.945789062499999,-8.585296875,-9.04798828125,-0.96202734375,3.5165546875,-0.6342578125,-6.7371640625,-2.63352734375,7.26908203125,-5.74808203125,6.71162109375,0.12523046875,3.6773671875
-5.0095,-11.21376953125,-10.421953125,1.0579375,-11.43690625,-11.8848046875,-9.18454296875,-7.39055859375,-5.42485546875,-14.4705625,-9.6591640625,-6.22480078125,-3.4816796875,-9.28341796875,-12.10062109375,-9.31730859375,4.15650390625,-1.7047890625,-9.263296875,-10.06298828125,-0.669027343750001,1.9935546875,-1.8152578125,-7.5631640625,-2.42052734375,8.54108203125,-6.36908203125,6.39362109375,0.41023046875,3.9843671875
-6.9525,-13.01076953125,-9.173953125,-0.8740625,-12.86590625,-13.4348046875,-10.57754296875,-8.14055859375,-6.16885546875,-16.0145625,-10.4391640625,-6.24680078125,-3.1916796875,-10.19441796875,-12.35862109375,-10.06130859375,5.05550390625,-2.3497890625,-9.629296875,-10.76898828125,-0.856027343750001,0.4875546875,-2.8922578125,-7.6911640625,-2.08852734375,9.44308203125,-6.17008203125,6.27162109375,0.95323046875,4.6993671875
-8.4315,-14.73276953125,-8.594953125,-2.3710625,-13.87190625,-14.5938046875,-12.06854296875,-9.13555859375,-6.73185546875,-16.9315625,-10.7281640625,-6.52380078125,-2.7846796875,-10.68041796875,-11.74562109375,-10.06330859375,3.84850390625,-2.4207890625,-9.355296875,-10.70098828125,-1.07502734375,-0.5964453125,-3.5042578125,-6.6961640625,-1.31352734375,10.16208203125,-4.80108203125,6.64162109375,2.05723046875,6.0713671875
-8.8945,-15.77576953125,-8.756953125,-2.9130625,-14.03790625,-14.8818046875,-12.96254296875,-9.88655859375,-6.85785546875,-16.8585625,-10.2511640625,-6.90480078125,-2.5146796875,-10.50341796875,-10.15662109375,-9.12730859375,1.21650390625,-1.6337890625,-8.325296875,-9.66198828125,-0.87402734375,-1.0704453125,-3.4822578125,-4.6271640625,0.00847265624999949,10.86708203125,-2.38508203125,7.57362109375,3.79423046875,8.0343671875
-8.1325,-15.70276953125,-9.386953125,-2.4320625,-13.20490625,-14.0838046875,-12.68454296875,-9.99055859375,-6.49485546875,-15.6885625,-8.9181640625,-7.12580078125,-2.1796796875,-9.65841796875,-7.78962109375,-7.30830859375,-1.85949609375,-0.061789062499999,-6.687296875,-7.81498828125,-0.0280273437500007,-0.9574453125,-2.9142578125,-1.9961640625,1.67947265625,11.58708203125,0.518917968749999,8.86662109375,5.91623046875,10.2003671875
-6.3415,-14.38776953125,-10.014953125,-1.2340625,-11.51190625,-12.3048046875,-11.07554296875,-9.31355859375,-5.76785546875,-13.5995625,-6.8641640625,-6.93380078125,-1.3736796875,-8.33441796875,-5.08062109375,-4.90230859375,-4.41649609375,1.8442109375,-4.810296875,-5.62098828125,1.32797265625,-0.4234453125,-2.1062578125,0.429835937499999,3.21947265625,12.14208203125,3.11891796875,10.08062109375,7.89223046875,11.9823671875
-4.0415,-12.07276953125,-10.205953125,0.2289375,-9.32490625,-9.9258046875,-8.51654296875,-8.04955859375,-4.89885546875,-10.9765625,-4.4361640625,-6.22980078125,0.0223203124999998,-6.81941796875,-2.54462109375,-2.39130859375,-5.76449609375,3.4082109375,-3.130296875,-3.65898828125,2.70597265625,0.2725546875,-1.4492578125,1.9508359375,4.03147265625,12.18408203125,4.68191796875,10.66662109375,9.07123046875,12.7813671875
-1.8915,-9.30376953125,-9.771953125,1.5589375,-7.11690625,-7.4768046875,-5.82354296875,-6.64755859375,-4.12685546875,-8.2785625,-2.1251640625,-5.15980078125,1.5653203125,-5.40041796875,-0.611621093749999,-0.33930859375,-5.63249609375,4.0082109375,-1.988296875,-2.42098828125,3.44597265625,0.8225546875,-1.2592578125,2.1938359375,3.63447265625,11.35608203125,4.77691796875,10.14662109375,8.92423046875,12.2023671875
-0.4665,-6.78176953125,-8.863953125,2.4769375,-5.34290625,-5.5098046875,-3.95254296875,-5.63355859375,-3.65485546875,-5.9365625,-0.4641640625,-4.10280078125,2.4163203125,-4.30541796875,0.446378906250001,0.72969140625,-4.20649609375,3.3472109375,-1.534296875,-2.17598828125,2.99097265625,0.904554687500001,-1.6642578125,1.2048359375,1.85247265625,9.49508203125,3.39391796875,8.29862109375,7.26623046875,10.1943671875
-0.0985,-5.16476953125,-7.897953125,2.7859375,-4.35590625,-4.4688046875,-3.62254296875,-5.41855859375,-3.64285546875,-4.3185625,0.1118359375,-3.54580078125,1.8183203125,-3.68941796875,0.512378906250001,0.45269140625,-2.08449609375,1.5942109375,-1.742296875,-2.95198828125,1.11197265625,0.2365546875,-2.6052578125,-0.639164062500001,-1.12352734375,6.72408203125,0.891917968749999,5.26162109375,4.32723046875,7.0723671875
-0.8165,-4.86476953125,-7.357953125,2.3459375,-4.34290625,-4.5878046875,-5.04054296875,-6.16555859375,-4.19485546875,-3.6885625,-0.579164062499999,-3.89280078125,-0.462679687500001,-3.63341796875,-0.407621093749999,-1.25130859375,-0.13749609375,-0.689789062499999,-2.482296875,-4.58398828125,-2.00902734375,-1.2984453125,-3.8882578125,-2.8311640625,-4.81352734375,3.40208203125,-2.14408203125,1.51162109375,0.67423046875,3.3943671875
-2.3665,-5.89176953125,-7.560953125,1.1259375,-5.25590625,-5.8198046875,-7.79754296875,-7.73555859375,-5.30185546875,-4.1355625,-2.3621640625,-5.25780078125,-3.9496796875,-4.12341796875,-2.17262109375,-4.11030859375,0.73650390625,-2.7947890625,-3.571296875,-6.75498828125,-5.84402734375,-3.5294453125,-5.2572578125,-4.9101640625,-8.58352734375,-0.0109179687500003,-5.08808203125,-2.26937890625,-2.95376953125,-0.204632812499999
-4.2795,-7.80076953125,-8.468953125,-0.6840625,-6.77590625,-7.7868046875,-10.96654296875,-9.66255859375,-6.76685546875,-5.4905625,-4.7181640625,-7.34780078125,-7.5936796875,-5.01841796875,-4.45762109375,-7.49430859375,-0.0724960937499999,-4.1707890625,-4.801296875,-9.03798828125,-9.67602734375,-5.9534453125,-6.4522578125,-6.5461640625,-11.80452734375,-3.08591796875,-7.41608203125,-5.38237890625,-5.86076953125,-3.1686328125
-5.9665,-9.79976953125,-9.669953125,-2.6340625,-8.36690625,-9.8168046875,-13.40354296875,-11.23455859375,-8.20285546875,-7.3155625,-6.9261640625,-9.47880078125,-10.1676796875,-6.05341796875,-6.74962109375,-10.53730859375,-2.62149609375,-4.6487890625,-5.954296875,-10.96298828125,-12.79702734375,-7.8924453125,-7.2682578125,-7.5611640625,-13.99452734375,-5.53491796875,-8.81008203125,-7.30237890625,-7.59776953125,-5.1466328125
-6.8835,-11.01876953125,-10.556953125,-4.1320625,-9.43990625,-11.1298046875,-14.17554296875,-11.71755859375,-9.15185546875,-9.0215625,-8.3041640625,-10.80980078125,-10.7836796875,-6.91441796875,-8.45662109375,-12.39530859375,-6.35649609375,-4.4787890625,-6.837296875,-12.13798828125,-14.70502734375,-8.7704453125,-7.6022578125,-7.9111640625,-14.94152734375,-7.27691796875,-9.20708203125,-7.83337890625,-8.09476953125,-6.0886328125
-6.7015,-10.85576953125,-10.641953125,-4.6960625,-9.57390625,-11.1368046875,-12.94054296875,-10.70055859375,-9.28085546875,-10.0535625,-8.4491640625,-10.67980078125,-9.3406796875,-7.34841796875,-9.10762109375,-12.55830859375,-10.29449609375,-4.1577890625,-7.327296875,-12.36298828125,-15.23502734375,-8.3864453125,-7.4722578125,-7.6731640625,-14.72752734375,-8.44691796875,-8.79108203125,-7.16137890625,-7.64976953125,-6.2406328125
-5.4405,-9.23976953125,-9.775953125,-4.1670625,-8.66190625,-9.6868046875,-10.07554296875,-8.31455859375,-8.52685546875,-10.0785625,-7.3571640625,-8.92080078125,-6.6406796875,-7.25941796875,-8.53962109375,-11.05030859375,-13.32649609375,-4.1477890625,-7.408296875,-11.68898828125,-14.58202734375,-7.0174453125,-6.9942578125,-7.0341640625,-13.66852734375,-9.29891796875,-7.91208203125,-5.77237890625,-6.77976953125,-6.0266328125
-3.4665,-6.65876953125,-8.151953125,-2.7740625,-6.94490625,-7.1338046875,-6.46454296875,-5.18055859375,-7.10985546875,-9.0855625,-5.3871640625,-5.96980078125,-4.0176796875,-6.70841796875,-6.97362109375,-8.42330859375,-14.50249609375,-4.6387890625,-7.175296875,-10.40198828125,-13.17702734375,-5.3074453125,-6.3372578125,-6.2551640625,-12.17652734375,-10.03691796875,-6.96408203125,-4.25937890625,-5.99676953125,-5.8416328125
-1.3645,-3.93276953125,-6.135953125,-1.0210625,-4.88590625,-4.1658046875,-3.07654296875,-2.11855859375,-5.41585546875,-7.3685625,-3.0781640625,-2.70680078125,-2.6066796875,-5.85841796875,-4.91062109375,-5.52730859375,-13.24949609375,-5.4767890625,-6.795296875,-8.90298828125,-11.49502734375,-3.9754453125,-5.6632578125,-5.5991640625,-10.61152734375,-10.66791796875,-6.25908203125,-3.09437890625,-5.61776953125,-5.8726328125
0.305499999999999,-1.85476953125,-4.077953125,0.5269375,-2.96290625,-1.5018046875,-0.576542968749999,0.16444140625,-3.80485546875,-5.3635625,-0.909164062499999,-0.0788007812499996,-2.7296796875,-4.87141796875,-2.88762109375,-3.14530859375,-9.55749609375,-6.2557890625,-6.411296875,-7.53698828125,-9.88002734375,-3.4774453125,-5.0622578125,-5.2251640625,-9.17252734375,-11.00191796875,-5.92308203125,-2.46937890625,-5.67576953125,-6.0506328125
1.2395,-0.85276953125,-2.219953125,1.4869375,-1.45190625,0.4091953125,0.870457031250001,1.28744140625,-2.43885546875,-3.4465625,0.8908359375,1.31119921875,-3.7926796875,-3.82541796875,-1.23362109375,-1.67730859375,-4.10649609375,-6.4987890625,-6.044296875,-6.45098828125,-8.48902734375,-3.8194453125,-4.5172578125,-5.1231640625,-7.87152734375,-10.80291796875,-5.88108203125,-2.29137890625,-5.97876953125,-6.1446328125
1.4945,-0.849769531250001,-0.668953125,1.8229375,-0.34090625,1.5511953125,1.55645703125,1.28244140625,-1.22085546875,-1.7915625,2.3888359375,1.46419921875,-4.7426796875,-2.70241796875,0.0293789062500007,-1.02630859375,1.79450390625,-5.8707890625,-5.598296875,-5.57898828125,-7.34002734375,-4.6344453125,-3.9452578125,-5.1451640625,-6.63052734375,-9.99491796875,-5.95508203125,-2.33237890625,-6.28776953125,-5.9636328125
1.4105,-1.35176953125,0.596046875,1.8399375,0.587093750000001,2.2801953125,2.03145703125,0.574441406250001,0.10914453125,-0.3775625,3.8438359375,0.94119921875,-4.6796796875,-1.45641796875,1.08037890625,-0.73830859375,6.56350390625,-4.3247890625,-4.950296875,-4.75898828125,-6.37902734375,-5.4364453125,-3.2842578125,-5.1381640625,-5.39152734375,-8.72891796875,-6.00108203125,-2.41837890625,-6.48076953125,-5.4976328125
1.4195,-1.70476953125,1.672046875,1.9909375,1.58709375,3.0841953125,2.84145703125,-0.18455859375,1.77414453125,0.9084375,5.4978359375,0.56619921875,-3.2446796875,-0.0984179687500006,2.10137890625,-0.30230859375,8.91250390625,-2.1557890625,-4.071296875,-3.86798828125,-5.49902734375,-5.8794453125,-2.5582578125,-5.0471640625,-4.16152734375,-7.25691796875,-5.99508203125,-2.51237890625,-6.58076953125,-4.8966328125
1.8425,-1.38076953125,2.637046875,2.6279375,2.78509375,4.2891953125,4.29145703125,-0.38855859375,3.75014453125,2.1424375,7.3928359375,1.02119921875,-0.654679687500001,1.24858203125,3.12437890625,0.57769140625,8.39650390625,0.0822109375000011,-3.067296875,-2.90098828125,-4.52102734375,-5.8534453125,-1.8792578125,-4.9601640625,-2.98952734375,-5.73091796875,-6.02108203125,-2.65637890625,-6.65376953125,-4.3246328125
2.7785,-0.20976953125,3.468046875,3.8409375,4.09909375,5.8871953125,6.29845703125,0.27544140625,5.67814453125,3.2774375,9.3168359375,2.53819921875,2.4173203125,2.36458203125,4.00437890625,1.87969140625,5.67950390625,1.7742109375,-2.171296875,-1.98798828125,-3.23902734375,-5.4664453125,-1.4182578125,-5.0531640625,-1.94452734375,-4.13291796875,-6.20808203125,-2.86237890625,-6.72276953125,-3.8436328125
4.0795,1.55323046875,4.048046875,5.4389375,5.26109375,7.5551953125,8.41145703125,1.70944140625,6.95114453125,4.1434375,10.8848359375,4.83919921875,4.9893203125,3.00258203125,4.49437890625,3.32269140625,2.28550390625,2.4532109375,-1.673296875,-1.35298828125,-1.55102734375,-4.9774453125,-1.3602578125,-5.5141640625,-1.13752734375,-2.40791796875,-6.68008203125,-3.07537890625,-6.78976953125,-3.4366328125
5.3915,3.32723046875,4.272046875,7.0309375,5.91709375,8.8171953125,10.00345703125,3.46244140625,6.97814453125,4.5174375,11.7318359375,7.31019921875,6.0063203125,2.96858203125,4.37937890625,4.53669140625,-0.13449609375,1.9632109375,-1.831296875,-1.23198828125,0.391972656249999,-4.7074453125,-1.8492578125,-6.4611640625,-0.73952734375,-0.67791796875,-7.51708203125,-3.23737890625,-6.90276953125,-3.1176328125
6.2845,4.45523046875,4.138046875,8.1479375,5.80309375,9.2681953125,10.56845703125,4.91444140625,5.51314453125,4.2524375,11.6898359375,9.29619921875,4.7713203125,2.19958203125,3.58937890625,5.23469140625,-0.65949609375,0.488210937500001,-2.755296875,-1.76598828125,2.16297265625,-4.9164453125,-2.9222578125,-7.8811640625,-0.93552734375,0.677082031249999,-8.70308203125,-3.35137890625,-7.16376953125,-3.0036328125
6.4325,4.51123046875,3.770046875,8.4209375,4.88709375,8.7481953125,9.98345703125,5.54044140625,2.85414453125,3.3664375,10.8778359375,10.37519921875,1.4023203125,0.81358203125,2.26637890625,5.31369140625,0.49350390625,-1.5177890625,-4.331296875,-2.91698828125,3.20897265625,-5.6714453125,-4.4572578125,-9.6061640625,-1.81952734375,1.17408203125,-10.08208203125,-3.46437890625,-7.63176953125,-3.2376328125
5.7685,3.50923046875,3.371046875,7.7639375,3.42609375,7.4191953125,8.58945703125,5.14144140625,-0.19585546875,2.0634375,9.6778359375,10.47319921875,-3.0346796875,-0.908417968749999,0.720378906250001,4.87069140625,2.24250390625,-3.4777890625,-6.231296875,-4.45898828125,3.11897265625,-6.7784453125,-6.1792578125,-11.3411640625,-3.30552734375,0.51608203125,-11.35108203125,-3.58437890625,-8.21176953125,-3.8596328125
4.4985,1.87023046875,3.114046875,6.4489375,1.87009375,5.6951953125,7.00145703125,3.88344140625,-2.64285546875,0.6614375,8.5928359375,9.80319921875,-6.9366796875,-2.58041796875,-0.672621093749999,4.10669140625,3.31150390625,-4.8867890625,-8.007296875,-6.04798828125,1.81397265625,-7.8324453125,-7.7402578125,-12.7281640625,-5.12352734375,-1.20991796875,-12.12808203125,-3.60937890625,-8.63476953125,-4.7196328125
2.9765,0.18823046875,3.046046875,4.9859375,0.674093750000001,4.0571953125,5.77045703125,2.13444140625,-3.71385546875,-0.506562499999999,8.0478359375,8.68819921875,-8.9566796875,-3.82141796875,-1.60062109375,3.18869140625,2.81350390625,-5.4587890625,-9.225296875,-7.34598828125,-0.423027343750001,-8.3914453125,-8.8072578125,-13.4431640625,-6.91152734375,-3.54491796875,-12.08308203125,-3.35237890625,-8.55476953125,-5.5276328125
1.5575,-1.05176953125,3.064046875,3.8899375,0.145093750000001,2.8901953125,5.12445703125,0.25044140625,-3.14985546875,-1.1585625,8.2298359375,7.41019921875,-8.6766796875,-4.32741796875,-1.88862109375,2.17469140625,0.54750390625,-5.1747890625,-9.586296875,-8.10998828125,-3.06602734375,-8.1854453125,-9.1402578125,-13.2781640625,-8.34652734375,-5.87791796875,-11.05808203125,-2.65737890625,-7.72276953125,-5.9906328125
0.5205,-1.62576953125,2.989046875,3.4959375,0.372093749999999,2.4091953125,4.95745703125,-1.51655859375,-1.25785546875,-1.1055625,9.0548359375,6.14719921875,-6.7356796875,-3.93041796875,-1.50662109375,1.04669140625,-2.91649609375,-4.1997890625,-8.979296875,-8.24098828125,-5.52802734375,-7.2284453125,-8.6302578125,-12.1951640625,-9.24352734375,-7.70391796875,-9.13208203125,-1.49237890625,-6.12276953125,-5.9446328125
0.0594999999999999,-1.55076953125,2.671046875,3.8999375,1.26009375,2.6811953125,5.01745703125,-3.01955859375,1.28614453125,-0.2715625,10.2588359375,4.97219921875,-4.3506796875,-2.62241796875,-0.526621093749998,-0.18230859375,-6.34149609375,-2.7497890625,-7.479296875,-7.76998828125,-7.34002734375,-5.7824453125,-7.3122578125,-10.3191640625,-9.58352734375,-8.80691796875,-6.60208203125,0.00962109375000031,-4.00576953125,-5.4226328125
0.2745,-0.97676953125,2.044046875,4.9919375,2.60809375,3.6561953125,5.09945703125,-4.20455859375,3.75614453125,1.2874375,11.5358359375,3.87019921875,-2.5506796875,-0.58441796875,0.91137890625,-1.39830859375,-8.22149609375,-1.0107890625,-5.294296875,-6.81498828125,-8.27602734375,-4.1954453125,-5.3482578125,-7.8891640625,-9.47452734375,-9.29591796875,-3.88008203125,1.60262109375,-1.79476953125,-4.6386328125
1.1245,-0.0987695312500003,1.136046875,6.5069375,4.18309375,5.1671953125,5.14445703125,-5.11755859375,5.66014453125,3.3714375,12.6468359375,2.77819921875,-1.5976796875,1.83458203125,2.63237890625,-2.39530859375,-7.51949609375,0.855210937500001,-2.704296875,-5.52598828125,-8.39002734375,-2.7504453125,-3.0012578125,-5.1891640625,-9.06752734375,-9.48391796875,-1.36308203125,3.00062109375,0.0712304687500001,-3.9006328125
2.3945,0.892230468749999,0.0800468750000003,8.0589375,5.74609375,6.9401953125,5.21045703125,-5.84555859375,6.84414453125,5.6454375,13.4718359375,1.67519921875,-0.9346796875,4.18058203125,4.45337890625,-2.94630859375,-4.34449609375,2.6422109375,-0.0252968750000004,-4.06198828125,-7.93402734375,-1.6174453125,-0.597257812500001,-2.4831640625,-8.49452734375,-9.68891796875,0.663917968749999,3.94362109375,1.27923046875,-3.4876328125
3.7095,1.82423046875,-0.866953125,9.1839375,7.05209375,8.6301953125,5.38445703125,-6.41655859375,7.40114453125,7.6884375,14.0118359375,0.69919921875,0.3073203125,6.01058203125,6.21037890625,-2.87330859375,-0.0484960937500003,4.0732109375,2.430703125,-2.56998828125,-7.20002734375,-0.9024453125,1.5297421875,0.0168359374999989,-7.83052734375,-10.05791796875,2.07491796875,4.23062109375,1.70123046875,-3.5536328125
4.6425,2.53523046875,-1.382953125,9.4349375,7.85509375,9.8711953125,5.68145703125,-6.75655859375,7.48814453125,9.0874375,14.3298359375,0.157199218750001,2.5773203125,7.01058203125,7.76237890625,-2.09630859375,3.43250390625,4.8462109375,4.409703125,-1.15598828125,-6.36602734375,-0.6964453125,3.1007421875,2.1778359375,-7.08452734375,-10.49991796875,2.90991796875,3.75262109375,1.40223046875,-4.0836328125
4.8625,2.87723046875,-1.236953125,8.5709375,7.95709375,10.3501953125,5.99045703125,-6.76755859375,7.19914453125,9.5484375,14.4778359375,0.38719921875,5.4583203125,7.06958203125,8.99837890625,-0.668308593750001,4.58750390625,4.7642109375,5.779703125,0.13201171875,-5.44602734375,-1.0604453125,3.9707421875,3.9538359375,-6.20852734375,-10.74691796875,3.32491796875,2.52462109375,0.59823046875,-4.9086328125
4.2595,2.73223046875,-0.428953125,6.7379375,7.28309375,9.8851953125,6.11445703125,-6.42355859375,6.54514453125,8.9804375,14.4398359375,1.54019921875,7.8403203125,6.29858203125,9.81537890625,1.21469140625,3.07650390625,3.8322109375,6.541703125,1.29001171875,-4.33902734375,-1.9844453125,4.1397421875,5.3548359375,-5.13252734375,-10.49791796875,3.49591796875,0.68462109375,-0.44476953125,-5.7746328125
2.9945,2.07623046875,0.789046875,4.4899375,5.92409375,8.5111953125,5.90545703125,-5.78655859375,5.51314453125,7.5134375,14.1318359375,3.44219921875,8.5803203125,4.96258203125,10.09137890625,3.23569140625,-0.13249609375,2.2882109375,6.759703125,2.29401171875,-2.95502734375,-3.3724453125,3.7067421875,6.3898359375,-3.83352734375,-9.56791796875,3.49391796875,-1.56437890625,-1.54476953125,-6.4486328125
1.4505,1.04923046875,2.047046875,2.5759375,4.12709375,6.5051953125,5.41445703125,-4.93455859375,4.14814453125,5.4664375,13.4638359375,5.62919921875,7.2043203125,3.38058203125,9.69837890625,5.01369140625,-3.24449609375,0.514210937500001,6.473703125,3.05401171875,-1.31502734375,-5.0594453125,2.7887421875,6.9998359375,-2.39052734375,-7.99091796875,3.22091796875,-4.03937890625,-2.68076953125,-6.8056328125
0.1135,-0.0327695312500005,2.998046875,1.5829375,2.22609375,4.3161953125,4.89845703125,-3.89155859375,2.59114453125,3.2524375,12.3888359375,7.52419921875,4.2193203125,1.81858203125,8.54637890625,6.19969140625,-4.49349609375,-1.1007890625,5.656703125,3.41701171875,0.40897265625,-6.8244453125,1.4777421875,7.0498359375,-0.98952734375,-6.01291796875,2.45391796875,-6.61137890625,-3.94376953125,-6.8496328125
-0.6025,-0.79076953125,3.396046875,1.6419375,0.52209375,2.3761953125,4.63345703125,-2.64455859375,1.05014453125,1.2344375,10.8968359375,8.62219921875,0.8363203125,0.41958203125,6.60137890625,6.52169140625,-2.97649609375,-2.3147890625,4.214703125,3.18001171875,1.92297265625,-8.4104453125,-0.1872578125,6.3428359375,0.0894726562499999,-4.02391796875,0.967917968749999,-9.18637890625,-5.42276953125,-6.6746328125
-0.5385,-0.979769531250001,3.094046875,2.3799375,-0.84390625,0.9011953125,4.64045703125,-1.24355859375,-0.307855468750001,-0.4445625,8.9648359375,8.59619921875,-1.7216796875,-0.84341796875,3.87037890625,5.78869140625,0.95850390625,-3.1617890625,1.997703125,2.09401171875,2.87997265625,-9.6164453125,-2.2382578125,4.6358359375,0.48947265625,-2.45191796875,-1.37508203125,-11.69437890625,-7.15576953125,-6.4476328125
0.116499999999999,-0.65476953125,2.040046875,3.1219375,-1.95190625,-0.2028046875,4.58845703125,0.0974414062500002,-1.44585546875,-1.9375625,6.5418359375,7.35219921875,-2.8986796875,-2.16541796875,0.374378906250001,3.87969140625,5.94650390625,-3.9427890625,-1.148296875,-0.0849882812499994,2.98997265625,-10.4004453125,-4.7772578125,1.6978359375,-0.14652734375,-1.63691796875,-4.57708203125,-14.10237890625,-9.13776953125,-6.3946328125
0.8955,-0.15376953125,0.312046875,3.2349375,-3.02090625,-1.2418046875,3.99445703125,1.01444140625,-2.44085546875,-3.5925625,3.6188359375,5.08219921875,-3.0166796875,-3.80541796875,-3.80862109375,0.824691406249999,10.22750390625,-5.0617890625,-5.255296875,-3.46798828125,2.13697265625,-10.9304453125,-7.8832578125,-2.5681640625,-2.03052734375,-1.71491796875,-8.47608203125,-16.42637890625,-11.33676953125,-6.7536328125
1.2825,0.0842304687499995,-1.822953125,2.4509375,-4.24790625,-2.5118046875,2.59745703125,1.16444140625,-3.37985546875,-5.7045625,0.3528359375,2.30419921875,-2.9076796875,-5.91841796875,-8.42762109375,-3.05930859375,12.31050390625,-6.7627890625,-10.075296875,-7.84598828125,0.460972656249999,-11.4994453125,-11.4722578125,-7.9611640625,-5.05252734375,-2.55291796875,-12.71508203125,-18.67037890625,-13.65076953125,-7.6726328125
0.962499999999999,-0.24376953125,-3.879953125,1.0029375,-5.66490625,-4.0868046875,0.57945703125,0.49644140625,-4.25885546875,-8.2955625,-2.8801640625,-0.21380078125,-3.2716796875,-8.40441796875,-12.98462109375,-7.09330859375,11.47550390625,-8.9317890625,-15.033296875,-12.62998828125,-1.64702734375,-12.3674453125,-15.2182578125,-13.9001640625,-8.72452734375,-3.78891796875,-16.76708203125,-20.74937890625,-15.86776953125,-9.1116328125
-0.0325000000000002,-1.16176953125,-5.256953125,-0.5000625,-7.11490625,-5.7718046875,-1.50954296875,-0.61355859375,-4.97285546875,-11.0475625,-5.5781640625,-1.69480078125,-4.2606796875,-10.88741796875,-16.81162109375,-10.38430859375,8.05450390625,-11.1077890625,-19.339296875,-16.97898828125,-3.66202734375,-13.5974453125,-18.5972578125,-19.5071640625,-12.30752734375,-4.99591796875,-20.02708203125,-22.43337890625,-17.67576953125,-10.8336328125
-1.3565,-2.40676953125,-5.473953125,-1.4160625,-8.31790625,-7.2098046875,-3.05854296875,-1.49255859375,-5.39085546875,-13.4175625,-7.3021640625,-1.67780078125,-5.4786796875,-12.83441796875,-19.26862109375,-12.15930859375,3.36650390625,-12.6977890625,-22.239296875,-20.08198828125,-5.11202734375,-14.9904453125,-21.0512578125,-23.8441640625,-15.06952734375,-5.87991796875,-21.98608203125,-23.41037890625,-18.76676953125,-12.5036328125
-2.4995,-3.54576953125,-4.456953125,-1.4240625,-8.99290625,-8.0688046875,-3.69154296875,-1.54655859375,-5.44385546875,-14.8765625,-7.8701640625,-0.25780078125,-6.3246796875,-13.79341796875,-20.00462109375,-12.12930859375,-0.82349609375,-13.2807890625,-23.286296875,-21.46498828125,-5.75402734375,-16.1644453125,-22.1982578125,-26.2331640625,-16.56452734375,-6.39391796875,-22.42108203125,-23.44237890625,-18.96476953125,-13.8296328125
-3.0245,-4.17876953125,-2.675953125,-0.7010625,-8.99390625,-8.1968046875,-3.40054296875,-0.63055859375,-5.18985546875,-15.1575625,-7.4591640625,1.91619921875,-6.4276796875,-13.61641796875,-19.13962109375,-10.65030859375,-3.13649609375,-12.8287890625,-22.531296875,-21.17998828125,-5.66602734375,-16.7744453125,-22.0102578125,-26.5181640625,-16.80752734375,-6.71891796875,-21.52608203125,-22.55237890625,-18.35576953125,-14.6916328125
-2.7805,-4.13676953125,-0.997953125,0.1799375,-8.40690625,-7.7078046875,-2.50854296875,0.81744140625,-4.82085546875,-14.4195625,-6.5621640625,3.89319921875,-5.9616796875,-12.58741796875,-17.25462109375,-8.57230859375,-3.23749609375,-11.7637890625,-20.557296875,-19.78198828125,-5.21902734375,-16.7534453125,-20.8872578125,-25.1551640625,-16.26952734375,-7.13191796875,-19.88308203125,-21.10537890625,-17.30576953125,-15.1806328125
-1.9925,-3.58576953125,-0.310953125,0.5389375,-7.54690625,-6.9438046875,-1.49354296875,1.95344140625,-4.59485546875,-13.1925625,-5.7891640625,4.80419921875,-5.6346796875,-11.33041796875,-15.17362109375,-6.84330859375,-1.90249609375,-10.7747890625,-18.269296875,-18.07198828125,-4.90602734375,-16.3694453125,-19.5232578125,-23.0231640625,-15.64552734375,-7.84191796875,-18.24008203125,-19.68537890625,-16.32576953125,-15.5276328125
-1.1445,-2.94376953125,-1.079953125,-0.0640624999999999,-6.81790625,-6.3208046875,-0.78554296875,1.95644140625,-4.70085546875,-12.1235625,-5.6051640625,4.21519921875,-6.2626796875,-10.52841796875,-13.61062109375,-6.08930859375,-0.49149609375,-10.4947890625,-16.523296875,-16.72898828125,-5.11302734375,-16.0254453125,-18.5932578125,-21.0441640625,-15.51452734375,-8.86591796875,-17.17108203125,-18.78137890625,-15.80776953125,-15.9486328125
-0.7405,-2.67276953125,-3.109953125,-1.5950625,-6.51590625,-6.1348046875,-0.616542968749999,0.47944140625,-5.15285546875,-11.6825625,-6.1321640625,2.25719921875,-8.1436796875,-10.60141796875,-12.88162109375,-6.39530859375,-0.21549609375,-11.1947890625,-15.783296875,-16.04398828125,-5.92202734375,-15.9274453125,-18.4342578125,-19.7881640625,-16.07352734375,-9.99091796875,-16.81908203125,-18.47537890625,-15.79376953125,-16.4876328125
-1.0785,-3.05676953125,-5.624953125,-3.5280625,-6.73090625,-6.4308046875,-1.00754296875,-2.13855859375,-5.80185546875,-12.0105625,-7.1461640625,-0.48880078125,-10.6866796875,-11.53841796875,-12.85362109375,-7.38530859375,-1.56149609375,-12.6527890625,-15.997296875,-15.88698828125,-7.07502734375,-15.8784453125,-18.8992578125,-19.2881640625,-17.09252734375,-10.84791796875,-16.85208203125,-18.34937890625,-15.92576953125,-16.9706328125
-2.1615,-4.09876953125,-7.654953125,-5.1110625,-7.38090625,-7.0398046875,-1.87854296875,-5.04155859375,-6.44685546875,-12.9595625,-8.2541640625,-3.28480078125,-12.6196796875,-12.97241796875,-13.12062109375,-8.51530859375,-4.13749609375,-14.2927890625,-16.713296875,-15.89698828125,-8.13002734375,-15.3674453125,-19.4772578125,-19.1411640625,-18.09852734375,-11.10391796875,-16.68108203125,-17.70337890625,-15.65076953125,-17.1136328125
-3.7615,-5.55876953125,-8.524953125,-5.7570625,-8.33090625,-7.7318046875,-3.16554296875,-7.31655859375,-6.96885546875,-14.2315625,-9.1191640625,-5.53280078125,-12.6906796875,-14.41841796875,-13.28162109375,-9.38430859375,-6.95649609375,-15.4837890625,-17.357296875,-15.73698828125,-8.73202734375,-13.9094453125,-19.6012578125,-18.8251640625,-18.62952734375,-10.66791796875,-15.80608203125,-15.99137890625,-14.54376953125,-16.7116328125
-5.5315,-7.06876953125,-8.143953125,-5.3700625,-9.47090625,-8.3418046875,-4.80154296875,-8.43455859375,-7.36185546875,-15.5125625,-9.6031640625,-6.93180078125,-10.4036796875,-15.49541796875,-13.12662109375,-9.87130859375,-9.01849609375,-15.8367890625,-17.486296875,-15.24798828125,-8.80502734375,-11.4324453125,-18.9472578125,-17.9991640625,-18.43952734375,-9.78291796875,-14.08608203125,-13.19437890625,-12.56376953125,-15.7656328125
-7.1285,-8.27376953125,-6.939953125,-4.3650625,-10.68890625,-8.7868046875,-6.58054296875,-8.40255859375,-7.67185546875,-16.5235625,-9.7491640625,-7.48580078125,-6.3716796875,-16.00441796875,-12.65362109375,-10.06030859375,-9.78649609375,-15.3357890625,-16.909296875,-14.45498828125,-8.53502734375,-8.4164453125,-17.5522578125,-16.6261640625,-17.54052734375,-8.90091796875,-11.79708203125,-9.89037890625,-10.08976953125,-14.4536328125
-8.2875,-8.92876953125,-5.541953125,-3.4060625,-11.81090625,-8.9968046875,-8.10554296875,-7.61955859375,-7.92085546875,-17.0145625,-9.6631640625,-7.40780078125,-2.0446796875,-15.88141796875,-11.94462109375,-10.05330859375,-9.29649609375,-14.2397890625,-15.651296875,-13.44598828125,-8.19002734375,-5.6884453125,-15.7002578125,-14.8671640625,-16.09652734375,-8.39491796875,-9.44008203125,-6.96737890625,-7.69776953125,-12.9606328125
-8.8605,-8.96976953125,-4.440953125,-3.0310625,-12.58590625,-8.8918046875,-8.93354296875,-6.61455859375,-8.05885546875,-16.7705625,-9.4011640625,-7.00480078125,1.0053203125,-15.11741796875,-11.03062109375,-9.85930859375,-7.92949609375,-12.8597890625,-13.835296875,-12.24298828125,-7.90702734375,-3.9784453125,-13.6972578125,-12.8881640625,-14.27152734375,-8.32391796875,-7.43708203125,-5.13937890625,-5.83176953125,-11.3376328125
-8.8425,-8.53576953125,-3.833953125,-3.3850625,-12.77090625,-8.4218046875,-8.85454296875,-5.82255859375,-7.97885546875,-15.6735625,-8.9381640625,-6.56780078125,1.8643203125,-13.73341796875,-9.86562109375,-9.40030859375,-6.18449609375,-11.3837890625,-11.597296875,-10.78998828125,-7.62402734375,-3.5224453125,-11.7052578125,-10.7511640625,-12.14752734375,-8.40591796875,-5.92908203125,-4.60137890625,-4.60276953125,-9.4936328125
-8.3635,-7.90976953125,-3.637953125,-4.2010625,-12.26790625,-7.6288046875,-8.04054296875,-5.46255859375,-7.56985546875,-13.8065625,-8.2181640625,-6.27980078125,0.6823203125,-11.83741796875,-8.40962109375,-8.60830859375,-4.61049609375,-9.8647890625,-9.130296875,-9.06098828125,-7.16402734375,-3.9914453125,-9.7752578125,-8.4761640625,-9.78152734375,-8.22991796875,-4.80208203125,-5.01637890625,-3.84076953125,-7.3626328125
-7.6585,-7.38976953125,-3.607953125,-4.9880625,-11.22090625,-6.6648046875,-6.92254296875,-5.50155859375,-6.80785546875,-11.5095625,-7.2331640625,-6.15980078125,-1.4986796875,-9.69141796875,-6.76162109375,-7.51330859375,-3.70649609375,-8.3657890625,-6.765296875,-7.19898828125,-6.39502734375,-4.7634453125,-7.9972578125,-6.1961640625,-7.31952734375,-7.55791796875,-3.89908203125,-5.82937890625,-3.34576953125,-5.0896328125
-6.9705,-7.12976953125,-3.480953125,-5.3270625,-9.97490625,-5.7428046875,-5.90554296875,-5.71855859375,-5.82485546875,-9.3115625,-6.0631640625,-6.06880078125,-3.3336796875,-7.71541796875,-5.20762109375,-6.26830859375,-3.69249609375,-7.1007890625,-4.972296875,-5.54398828125,-5.33102734375,-5.3124453125,-6.6002578125,-4.2431640625,-5.05652734375,-6.49491796875,-3.20708203125,-6.64337890625,-3.07976953125,-3.0726328125
-6.4625,-7.05876953125,-3.084953125,-5.0980625,-8.91890625,-5.0418046875,-5.15854296875,-5.82655859375,-4.89885546875,-7.7405625,-4.8721640625,-5.80380078125,-3.8206796875,-6.36841796875,-4.12962109375,-5.10430859375,-4.26949609375,-6.3977890625,-4.222296875,-4.51698828125,-4.12202734375,-5.4574453125,-5.8832578125,-3.0671640625,-3.35752734375,-5.39591796875,-2.87608203125,-7.37537890625,-3.15976953125,-1.7796328125
-6.1695,-6.94476953125,-2.399953125,-4.5260625,-8.31890625,-4.6508046875,-4.64354296875,-5.59555859375,-4.34885546875,-7.1295625,-3.8581640625,-5.22380078125,-2.7126796875,-5.96841796875,-3.83662109375,-4.25030859375,-4.69149609375,-6.5167890625,-4.766296875,-4.43298828125,-2.96402734375,-5.3344453125,-6.0292578125,-3.0191640625,-2.49352734375,-4.61291796875,-3.06908203125,-8.11037890625,-3.66476953125,-1.4576328125
-6.0395,-6.57876953125,-1.564953125,-4.0380625,-8.24390625,-4.5528046875,-4.30954296875,-4.96655859375,-4.37185546875,-7.5315625,-3.2141640625,-4.36680078125,-0.5806796875,-6.54641796875,-4.43962109375,-3.87630859375,-4.19149609375,-7.4437890625,-6.510296875,-5.37498828125,-2.02702734375,-5.2054453125,-6.9552578125,-4.1621640625,-2.52752734375,-4.26491796875,-3.78008203125,-8.83737890625,-4.46676953125,-1.9566328125
-6.0055,-5.93876953125,-0.842953125,-4.0310625,-8.58590625,-4.6768046875,-4.22554296875,-4.10755859375,-4.92785546875,-8.7265625,-3.0861640625,-3.47980078125,1.4503203125,-7.81841796875,-5.82562109375,-4.06230859375,-2.49349609375,-8.8177890625,-9.019296875,-7.16198828125,-1.45502734375,-5.2564453125,-8.3052578125,-6.2041640625,-3.29552734375,-4.20391796875,-4.76808203125,-9.31937890625,-5.21476953125,-2.7936328125
-6.0335,-5.20576953125,-0.543953125,-4.6660625,-9.12090625,-4.9408046875,-4.50254296875,-3.37455859375,-5.71485546875,-10.3015625,-3.5421640625,-2.91280078125,2.2333203125,-9.26341796875,-7.70662109375,-4.78730859375,-0.06349609375,-10.0297890625,-11.654296875,-9.40898828125,-1.38302734375,-5.4964453125,-9.5682578125,-8.5871640625,-4.46452734375,-4.16891796875,-5.62908203125,-9.21037890625,-5.49176953125,-3.4026328125
-6.1045,-4.62876953125,-0.853953125,-5.7750625,-9.55690625,-5.2558046875,-5.11154296875,-3.15355859375,-6.25685546875,-11.7415625,-4.5221640625,-2.91180078125,1.1803203125,-10.25941796875,-9.69462109375,-5.91130859375,2.06050390625,-10.4367890625,-13.739296875,-11.62298828125,-1.91102734375,-5.7824453125,-10.2492578125,-10.6471640625,-5.64252734375,-3.97091796875,-5.95608203125,-8.28937890625,-5.03676953125,-3.4106328125
-6.1865,-4.36176953125,-1.681953125,-6.9070625,-9.58890625,-5.4868046875,-5.78154296875,-3.64355859375,-6.08285546875,-12.5485625,-5.7901640625,-3.43980078125,-1.3546796875,-10.25341796875,-11.34362109375,-7.17030859375,2.76150390625,-9.5757890625,-14.715296875,-13.30498828125,-2.99702734375,-5.8864453125,-10.0082578125,-11.7951640625,-6.46552734375,-3.57691796875,-5.49008203125,-6.63637890625,-3.87376953125,-2.7686328125
-6.2125,-4.35376953125,-2.610953125,-7.5030625,-8.95590625,-5.4368046875,-6.10354296875,-4.74355859375,-4.91585546875,-12.3375625,-6.9261640625,-4.13780078125,-4.1286796875,-8.90941796875,-12.17962109375,-8.18930859375,1.42750390625,-7.3117890625,-14.217296875,-14.01098828125,-4.35402734375,-5.5544453125,-8.7132578125,-11.6331640625,-6.64052734375,-3.04391796875,-4.17208203125,-4.59337890625,-2.25776953125,-1.6946328125
-6.0725,-4.36676953125,-3.042953125,-7.1230625,-7.49690625,-4.8638046875,-5.74554296875,-6.09055859375,-2.78085546875,-10.8995625,-7.3851640625,-4.45780078125,-5.4826796875,-6.20441796875,-11.74662109375,-8.52730859375,-1.65849609375,-3.8587890625,-12.104296875,-13.38198828125,-5.44502734375,-4.5444453125,-6.4082578125,-10.0071640625,-5.94452734375,-2.38691796875,-2.10008203125,-2.57137890625,-0.47976953125,-0.467632812499999
-5.6095,-4.06976953125,-2.468953125,-5.6050625,-5.19090625,-3.5388046875,-4.58854296875,-7.21855859375,0.0221445312499995,-8.2135625,-6.6351640625,-3.90380078125,-4.0986796875,-2.43041796875,-9.69962109375,-7.76730859375,-5.36249609375,0.308210937500001,-8.458296875,-11.19798828125,-5.65302734375,-2.6914453125,-3.2732578125,-6.9971640625,-4.25352734375,-1.53591796875,0.547917968749999,-0.84737890625,1.28023046875,0.7323671875
-4.6405,-3.17576953125,-0.720953125,-3.0980625,-2.16190625,-1.3078046875,-2.69754296875,-7.70855859375,3.05414453125,-4.4415625,-4.3331640625,-2.26080078125,0.287320312499999,1.88758203125,-5.96162109375,-5.66230859375,-8.21549609375,4.5882109375,-3.621296875,-7.48698828125,-4.57602734375,-0.0204453124999997,0.386742187499999,-2.9071640625,-1.63252734375,-0.44591796875,3.52491796875,0.49362109375,2.95623046875,1.8493671875
-3.0255,-1.53876953125,1.907046875,0.00593749999999993,1.33209375,1.8211953125,-0.217542968749999,-7.31255859375,5.89714453125,0.0774375000000003,-0.5051640625,0.29719921875,6.6093203125,6.13358203125,-0.843621093749999,-2.29430859375,-9.11849609375,8.4052109375,1.795703125,-2.64298828125,-2.28702734375,3.1525546875,4.1257421875,1.7518359375,1.57147265625,0.73508203125,6.48691796875,1.46962109375,4.46123046875,2.8393671875
-0.7525,0.77623046875,4.757046875,3.1869375,4.93309375,5.6131953125,2.71345703125,-6.04655859375,8.27414453125,4.8644375,4.3818359375,3.24719921875,12.8553203125,9.74558203125,4.94637890625,1.84169140625,-7.80349609375,11.3232109375,6.995703125,2.58601171875,0.63797265625,6.2465546875,7.3917421875,6.3108359375,4.74647265625,1.62708203125,8.98891796875,2.07662109375,5.60423046875,3.5753671875
1.9755,3.48923046875,7.067046875,5.9239375,8.23809375,9.5781953125,5.94245703125,-4.21455859375,10.08514453125,9.3574375,9.4788359375,5.90519921875,16.9713203125,12.33558203125,10.46137890625,5.92169140625,-4.80449609375,13.1232109375,11.170703125,7.27201171875,3.36697265625,8.5595546875,9.6267421875,10.0488359375,7.18247265625,1.78708203125,10.55091796875,2.23162109375,6.12423046875,3.8633671875
4.7215,6.14523046875,8.303046875,7.8169375,10.83409375,13.0371953125,9.20545703125,-2.33155859375,11.35914453125,12.9824375,13.7528359375,7.66219921875,17.8023203125,13.73758203125,14.74837890625,9.04469140625,-1.07549609375,13.7792109375,13.675703125,10.56701171875,5.18097265625,9.5045546875,10.3887421875,12.3228359375,8.30247265625,0.97408203125,10.78991796875,1.80662109375,5.81123046875,3.5383671875
6.8735,8.20723046875,8.360046875,8.6729375,12.34009375,15.2741953125,12.01945703125,-0.94655859375,12.15414453125,15.2274375,16.2508359375,8.15419921875,15.6113203125,13.96758203125,17.07837890625,10.51569140625,2.43150390625,13.3802109375,14.154703125,11.91801171875,5.73797265625,8.8195546875,9.4607421875,12.7058359375,7.84547265625,-0.69191796875,9.54691796875,0.71762109375,4.60823046875,2.5673671875
7.8255,9.20923046875,7.540046875,8.5329375,12.48209375,15.7451953125,13.71645703125,-0.46555859375,12.48614453125,15.7594375,16.3788359375,7.32619921875,11.9773203125,13.16358203125,17.11637890625,10.04869140625,4.99750390625,12.0422109375,12.595703125,11.19601171875,5.10597265625,6.7075546875,6.9307421875,11.0948359375,5.93747265625,-2.76491796875,6.98291796875,-0.99637890625,2.67423046875,1.0763671875
7.2405,8.92323046875,6.339046875,7.6259375,11.22409375,14.2981953125,13.67445703125,-1.02955859375,12.34214453125,14.5694375,14.1138359375,5.42319921875,9.0603203125,11.54858203125,15.01937890625,7.83769140625,6.22650390625,9.9192109375,9.356703125,8.71901171875,3.62297265625,3.8295546875,3.2487421875,7.7878359375,3.05247265625,-4.65891796875,3.60391796875,-3.11037890625,0.39023046875,-0.656632812499999
5.2715,7.48523046875,5.201046875,6.2819375,8.87809375,11.3111953125,11.65245703125,-2.47555859375,11.75714453125,12.0544375,10.0728359375,2.93919921875,8.5313203125,9.43658203125,11.42737890625,4.48369140625,6.12550390625,7.2872109375,5.140703125,5.17701171875,1.71597265625,1.0975546875,-0.816257812500001,3.4738359375,-0.11952734375,-5.87191796875,0.167917968749999,-5.24037890625,-1.72676953125,-2.2656328125
2.5795,5.38523046875,4.381046875,4.8139375,6.08709375,7.6431953125,8.02745703125,-4.36055859375,10.85414453125,8.9524375,5.3718359375,0.50919921875,10.6883203125,7.22758203125,7.31937890625,0.84169140625,5.15450390625,4.6192109375,0.860703124999999,1.46201171875,-0.23702734375,-0.6874453125,-4.3292578125,-0.913164062500001,-2.86152734375,-6.15391796875,-2.52008203125,-6.93937890625,-3.17576953125,-3.3806328125
0.0865,3.30523046875,3.941046875,3.3989375,3.63709375,4.3611953125,3.75245703125,-6.09155859375,9.81814453125,6.1184375,1.2908359375,-1.26780078125,14.3153203125,5.36258203125,3.73637890625,-2.20130859375,4.06150390625,2.5412109375,-2.552296875,-1.54198828125,-1.94702734375,-1.1374453125,-6.4412578125,-4.4271640625,-4.60052734375,-5.58591796875,-3.85808203125,-7.85137890625,-3.65076953125,-3.7416328125
-1.4245,1.86923046875,3.833046875,2.0489375,2.16209375,2.3521953125,0.0474570312500004,-7.13455859375,8.81814453125,4.2534375,-1.1151640625,-2.01680078125,17.4023203125,4.23058203125,1.50037890625,-3.93230859375,3.47850390625,1.6632109375,-4.363296875,-3.14698828125,-3.18402734375,-0.3504453125,-6.6102578125,-6.3491640625,-4.99152734375,-4.49491796875,-3.61308203125,-7.80937890625,-3.12176953125,-3.2676328125
-1.6255,1.43823046875,4.001046875,0.6959375,1.92109375,2.0201953125,-2.01654296875,-7.18355859375,7.96114453125,3.7174375,-1.3071640625,-1.66580078125,18.2883203125,4.09558203125,1.02637890625,-3.93430859375,3.53150390625,2.3632109375,-4.184296875,-2.97398828125,-3.69302734375,1.2765546875,-4.7262578125,-6.3251640625,-3.92352734375,-3.24191796875,-1.91608203125,-6.83937890625,-1.78576953125,-2.0286328125
-0.7045,2.04023046875,4.463046875,-0.6360625,2.75609375,3.2391953125,-1.84654296875,-6.20455859375,7.30014453125,4.4794375,0.6618359375,-0.38680078125,16.4843203125,5.04458203125,2.29437890625,-2.11530859375,3.80950390625,4.6302109375,-2.036296875,-0.97398828125,-3.15002734375,3.3405546875,-1.0942578125,-4.3611640625,-1.44952734375,-1.96691796875,0.861917968749999,-5.04937890625,0.10323046875,-0.141632812499999
0.8065,3.43023046875,5.320046875,-1.7150625,4.24609375,5.4991953125,0.509457031250001,-4.38255859375,6.87014453125,6.2074375,4.2558359375,1.55419921875,12.7553203125,6.97158203125,4.93837890625,1.29769140625,3.72650390625,8.0392109375,1.688703125,2.58301171875,-1.23902734375,5.6385546875,3.6777421875,-0.751164062500001,2.24147265625,-0.47991796875,4.28691796875,-2.54237890625,2.38723046875,2.3043671875
2.3085,5.21723046875,6.663046875,-2.1900625,5.91909375,8.1351953125,4.39045703125,-2.05355859375,6.69114453125,8.4124375,8.6388359375,3.87819921875,8.5793203125,9.54858203125,8.37337890625,5.76169140625,3.02150390625,11.8552109375,6.323703125,7.15901171875,2.14797265625,8.1625546875,8.8217421875,3.9988359375,6.81747265625,1.59508203125,7.95491796875,0.56862109375,5.02423046875,5.2243671875
3.3575,6.97923046875,8.432046875,-1.8650625,7.39509375,10.4951953125,8.70845703125,0.34744140625,6.70814453125,10.5674375,12.8418359375,6.29019921875,5.3873203125,12.23358203125,11.90037890625,10.42469140625,2.06650390625,15.2152109375,11.038703125,11.97901171875,6.67097265625,10.8735546875,13.5157421875,9.1928359375,11.73747265625,4.49008203125,11.46891796875,4.02262109375,7.93723046875,8.3963671875
3.7585,8.33123046875,10.316046875,-0.9550625,8.39009375,12.0471953125,12.25845703125,2.37244140625,6.72314453125,12.1794375,15.9178359375,8.41519921875,4.0093203125,14.33558203125,14.79337890625,14.23569140625,1.71750390625,17.3222109375,14.953703125,16.10401171875,11.46397265625,13.4305546875,16.9677421875,13.9688359375,16.22147265625,7.97508203125,14.36891796875,7.26362109375,10.78823046875,11.3383671875
3.5495,8.98923046875,11.781046875,-0.0930624999999998,8.68309375,12.4451953125,14.06945703125,3.66844140625,6.40814453125,12.8544375,17.1108359375,9.80819921875,4.4693203125,15.18858203125,16.40237890625,16.17969140625,2.74750390625,17.6142109375,17.282703125,18.59501171875,15.31897265625,15.0875546875,18.5117421875,17.4168359375,19.36147265625,11.31108203125,16.12491796875,9.46062109375,12.90623046875,13.3473671875
2.9145,8.83023046875,12.248046875,-0.0470625,8.14509375,11.5941953125,13.69045703125,4.09744140625,5.45614453125,12.3994375,16.0608359375,10.07419921875,6.1073203125,14.40058203125,16.31937890625,15.60069140625,5.25750390625,15.8892109375,17.552703125,18.79201171875,17.12697265625,14.9345546875,17.7797421875,18.8228359375,20.39847265625,13.54308203125,16.28891796875,9.77662109375,13.50023046875,13.7573671875
2.1205,7.97423046875,11.400046875,-1.2730625,6.86109375,9.7331953125,11.35745703125,3.83244140625,3.80414453125,10.9524375,12.9888359375,9.07219921875,7.9213203125,12.09058203125,14.57637890625,12.50269140625,8.54850390625,12.4072109375,15.819703125,16.61201171875,16.35997265625,12.3815546875,14.9077421875,17.9748359375,19.06147265625,13.99808203125,14.74291796875,7.80662109375,12.10523046875,12.3093671875
1.4715,6.81823046875,9.449046875,-3.5970625,5.23009375,7.4611953125,7.93845703125,3.38144140625,1.78114453125,9.0264375,8.7638359375,7.08419921875,8.9853203125,8.97658203125,11.75837890625,7.65569140625,11.58650390625,7.9162109375,12.775703125,12.70701171875,13.33797265625,7.5875546875,10.6247421875,15.3488359375,15.77647265625,12.64808203125,11.89691796875,3.92062109375,8.95423046875,9.3923671875
1.2555,5.94323046875,7.196046875,-6.2490625,3.90909375,5.6461953125,4.67245703125,3.46844140625,0.0271445312499994,7.4184375,4.7408359375,4.79819921875,8.7783203125,6.19658203125,8.92937890625,2.43969140625,13.60950390625,3.5112109375,9.602703125,8.34001171875,9.10697265625,1.5405546875,6.1227421875,12.0238359375,11.57247265625,10.12608203125,8.64991796875,-0.73537890625,5.01923046875,5.9593671875
1.6485,5.88723046875,5.761046875,-8.2340625,3.58609375,5.1571953125,2.74545703125,4.73144140625,-0.79285546875,6.9634375,2.3598359375,3.08519921875,7.3043203125,4.89258203125,7.31337890625,-1.57030859375,14.40250390625,0.2792109375,7.603703125,5.00301171875,5.01397265625,-4.2724453125,2.6947421875,9.3308359375,7.75047265625,7.39008203125,6.10891796875,-4.65037890625,1.66223046875,3.1453671875
2.6605,6.91923046875,6.090046875,-8.8280625,4.71809375,6.5471953125,2.92045703125,7.38044140625,-0.307855468750001,8.2464375,2.6658359375,2.67519921875,4.9633203125,5.74058203125,7.86537890625,-3.11030859375,14.11550390625,-1.0937890625,7.741703125,3.93301171875,2.20697265625,-8.4274453125,1.3067421875,8.3888359375,5.43347265625,5.28208203125,5.20091796875,-6.55137890625,0.0932304687500003,1.8153671875
4.1685,8.94123046875,8.507046875,-7.8780625,7.36309375,9.8521953125,5.36545703125,11.04344140625,1.40414453125,11.3934375,5.9498359375,3.91119921875,2.3383203125,8.70058203125,10.90337890625,-1.60530859375,12.91550390625,-0.546789062499999,10.295703125,5.70701171875,1.30497265625,-10.0714453125,2.2817421875,9.7208359375,5.22847265625,4.22608203125,6.35791796875,-5.87137890625,0.89723046875,2.2713671875
6.0165,11.57523046875,12.562046875,-5.8020625,11.18509375,14.6171953125,9.72645703125,14.91844140625,3.89014453125,16.0254375,11.6878359375,6.67319921875,0.0133203124999994,13.09058203125,15.98037890625,2.70969140625,10.81450390625,1.4422109375,14.790703125,10.08601171875,2.33297265625,-9.1574453125,5.2487421875,13.1238359375,7.08447265625,4.19708203125,9.39291796875,-2.87337890625,3.84823046875,4.2223671875
8.0895,14.36823046875,17.257046875,-3.3630625,15.59709375,20.0901953125,15.29945703125,18.12544140625,6.55014453125,21.3924375,18.7688359375,10.47019921875,-1.5136796875,17.90858203125,22.07637890625,8.92969140625,7.85850390625,4.1812109375,20.217703125,16.14401171875,4.87197265625,-6.3374453125,9.3577421875,17.8068359375,10.41647265625,4.91208203125,13.61891796875,1.56862109375,8.06023046875,6.9973671875
10.3185,16.98923046875,21.478046875,-1.3360625,19.95109375,25.4671953125,21.20745703125,20.08244140625,8.88314453125,26.6284375,25.8888359375,14.61119921875,-1.8746796875,22.22658203125,27.99037890625,15.80169140625,4.51050390625,7.1082109375,25.447703125,22.62601171875,8.31697265625,-2.6144453125,13.6267421875,22.7348359375,14.39647265625,6.09708203125,18.11991796875,6.35862109375,12.40123046875,9.8593671875
12.6455,19.32023046875,24.431046875,-0.2020625,23.71709375,30.0981953125,26.54845703125,20.72944140625,10.67614453125,30.9954375,31.9168359375,18.39419921875,-0.8736796875,25.46258203125,32.74537890625,22.06069140625,1.84850390625,9.9582109375,29.605703125,28.33401171875,12.08097265625,1.0765546875,17.2777421875,26.9838359375,18.24647265625,7.63908203125,22.04991796875,10.55762109375,15.92823046875,12.2673671875
14.9665,21.40323046875,25.842046875,0.0349375000000003,26.56509375,33.5801953125,30.55845703125,20.49344140625,12.02214453125,34.0244375,36.1118359375,21.26219921875,1.4583203125,27.43258203125,35.81937890625,26.69169140625,1.21950390625,12.6752109375,32.238703125,32.39801171875,15.68197265625,4.1515546875,19.8827421875,29.9498359375,21.40047265625,9.51508203125,24.81891796875,13.58562109375,18.13323046875,13.9623671875
17.0725,23.27623046875,25.899046875,-0.2040625,28.34409375,35.7131953125,32.74345703125,20.00644140625,13.17814453125,35.4994375,38.1498359375,22.90919921875,4.8233203125,28.20958203125,37.11837890625,29.09169140625,3.44850390625,15.1762109375,33.263703125,34.37301171875,18.72197265625,6.4475546875,21.3257421875,31.3728359375,23.50847265625,11.59508203125,26.12491796875,15.22562109375,18.93023046875,14.8713671875
18.6375,24.79723046875,25.002046875,-0.3500625,28.97309375,36.3721953125,32.92645703125,19.71844140625,14.28914453125,35.3614375,38.0118359375,23.30519921875,8.6353203125,27.90258203125,36.79737890625,29.12369140625,8.14350390625,17.1402109375,32.785703125,34.20201171875,20.83897265625,8.0825546875,21.6327421875,31.2268359375,24.37847265625,13.49408203125,25.89791796875,15.48462109375,18.48123046875,14.9573671875
19.2685,25.59723046875,23.503046875,-0.0640624999999999,28.34909375,35.4041953125,31.17445703125,19.66544140625,15.15214453125,33.5994375,35.8258359375,22.62619921875,12.0483203125,26.48858203125,35.04537890625,27.06769140625,13.66150390625,18.0102109375,30.921703125,32.10401171875,21.71697265625,9.2015546875,20.8017421875,29.5868359375,23.91547265625,14.64108203125,24.21091796875,14.43762109375,16.98923046875,14.1433671875
18.6235,25.19223046875,21.556046875,0.5199375,26.33009375,32.6461953125,27.66445703125,19.50044140625,15.20014453125,30.2104375,31.7498359375,21.10519921875,14.0803203125,23.81958203125,31.96937890625,23.46969140625,17.80250390625,17.2122109375,27.716703125,28.41901171875,21.14097265625,9.7675546875,18.7377421875,26.5418359375,22.09047265625,14.49108203125,21.21591796875,12.15462109375,14.57523046875,12.3353671875
16.5495,23.20023046875,19.114046875,0.8009375,22.82009375,28.0511953125,22.58345703125,18.72044140625,13.74514453125,25.2674375,25.9458359375,18.87019921875,13.9173203125,19.78458203125,27.60637890625,18.93569140625,18.78650390625,14.4932109375,23.200703125,23.50801171875,19.07497265625,9.5315546875,15.3357421875,22.2138359375,18.94547265625,12.78608203125,17.13591796875,8.73962109375,11.30023046875,9.5393671875
13.1765,19.56823046875,16.055046875,0.0229375000000003,17.92509375,21.8521953125,16.15445703125,16.91044140625,10.40014453125,19.0634375,18.6968359375,15.89619921875,11.3323203125,14.53758203125,22.07237890625,13.98369140625,15.96250390625,10.1492109375,17.550703125,17.75901171875,15.71797265625,8.2385546875,10.7017421875,16.8528359375,14.67447265625,9.71208203125,12.31691796875,4.46162109375,7.31323046875,5.9813671875
8.9405,14.69523046875,12.345046875,-2.2730625,12.09409375,14.6531953125,8.79345703125,13.93244140625,5.43714453125,12.2284375,10.5638359375,12.11419921875,6.9993203125,8.64958203125,15.73137890625,9.01969140625,9.99750390625,5.0432109375,11.256703125,11.68201171875,11.52497265625,5.9215546875,5.3307421875,10.9478359375,9.72647265625,5.88308203125,7.30191796875,-0.13637890625,3.01323046875,2.1633671875
4.5195,9.39623046875,8.193046875,-5.8860625,6.11409375,7.4001953125,1.27245703125,10.05044140625,-0.150855468750001,5.6794375,2.4508359375,7.60919921875,2.4133203125,3.05158203125,9.27537890625,4.39869140625,2.59750390625,0.344210937500001,5.117703125,5.94701171875,7.14497265625,3.0615546875,0.104742187499999,5.2348359375,4.81347265625,2.15608203125,2.81791796875,-4.25337890625,-0.91576953125,-1.2096328125
0.6665,4.67523046875,4.106046875,-9.9620625,0.921093750000001,1.1671953125,-5.30154296875,5.93344140625,-4.98285546875,0.3694375,-4.5291640625,2.76219921875,-0.686679687500001,-1.25541796875,3.60237890625,0.47669140625,-4.07649609375,-2.8807890625,0.0417031249999997,1.28101171875,3.24797265625,0.4705546875,-3.9772578125,0.5348359375,0.75247265625,-0.68891796875,-0.372082031250001,-7.03037890625,-3.67876953125,-3.4406328125
-2.0265,1.38723046875,0.751046875,-13.3620625,-2.71990625,-3.1648046875,-9.75954296875,2.45644140625,-7.87285546875,-3.0315625,-9.3871640625,-1.80780078125,-1.1356796875,-3.59141796875,-0.46362109375,-2.44330859375,-8.18649609375,-4.0787890625,-3.273296875,-1.76298828125,0.314972656249999,-1.0394453125,-6.1882578125,-2.5141640625,-1.81152734375,-2.23491796875,-1.72408203125,-7.85037890625,-4.67176953125,-4.1016328125
-3.3265,-0.0727695312500005,-1.329953125,-15.1660625,-4.47490625,-5.2148046875,-11.32254296875,0.32744140625,-8.31585546875,-4.3615625,-11.6081640625,-5.45180078125,1.0683203125,-3.87041796875,-2.47562109375,-4.20330859375,-8.98249609375,-3.3947890625,-4.583296875,-3.00598828125,-1.52002734375,-1.0064453125,-6.3692578125,-3.7041640625,-2.64252734375,-2.57291796875,-1.14708203125,-6.60837890625,-3.75176953125,-3.2206328125
-3.3915,0.11523046875,-1.972953125,-15.0000625,-4.51890625,-5.1878046875,-9.94554296875,-0.21255859375,-6.63585546875,-3.9685625,-11.3101640625,-7.71280078125,4.7983203125,-2.60541796875,-2.51762109375,-4.83130859375,-7.13949609375,-1.5467890625,-4.164296875,-2.69498828125,-2.44302734375,0.5035546875,-4.9672578125,-3.3221640625,-1.99652734375,-2.19491796875,0.911917968749999,-3.77037890625,-1.33376953125,-1.2876328125
-2.6325,1.35023046875,-1.431953125,-13.1000625,-3.40190625,-3.7078046875,-6.37254296875,0.55544140625,-3.76885546875,-2.5215625,-9.1361640625,-8.42980078125,8.4403203125,-0.649417968749999,-1.13062109375,-4.48430859375,-4.32849609375,0.557210937500001,-2.654296875,-1.35798828125,-2.76402734375,2.9605546875,-2.7902578125,-1.9881640625,-0.47052734375,-1.71691796875,3.61391796875,-0.22737890625,1.74723046875,0.9283671875
-1.4915,2.93423046875,-0.194953125,-10.1670625,-1.78490625,-1.5158046875,-1.83254296875,2.02044140625,-0.83085546875,-0.7305625,-5.9391640625,-7.69480078125,10.7343203125,1.18258203125,0.958378906250001,-3.35530859375,-2.22249609375,2.2382109375,-0.761296875000001,0.45401171875,-2.67402734375,5.6245546875,-0.6182578125,-0.362164062500001,1.28247265625,-1.56591796875,6.05391796875,3.02962109375,4.55723046875,2.6763671875
-0.2785,4.37323046875,1.291046875,-7.1190625,-0.187906249999999,0.815195312499999,2.47245703125,3.54344140625,1.30414453125,0.9014375,-2.4551640625,-5.75380078125,11.3093203125,2.41758203125,3.13737890625,-1.59630859375,-1.56649609375,3.2892109375,1.035703125,2.40501171875,-2.12302734375,7.8445546875,1.1347421875,1.1388359375,2.84747265625,-1.79591796875,7.62591796875,5.26762109375,6.44623046875,3.5233671875
0.8735,5.51723046875,2.810046875,-4.7980625,1.13709375,2.9931953125,5.80145703125,4.71744140625,2.25414453125,2.1844375,0.8608359375,-2.91180078125,10.6443203125,3.03358203125,5.09737890625,0.691691406249999,-1.94349609375,3.9632109375,2.609703125,4.43201171875,-0.87802734375,9.2845546875,2.5067421875,2.4378359375,4.18547265625,-2.10191796875,8.22891796875,6.26362109375,7.28823046875,3.5183671875
1.9495,6.46923046875,4.372046875,-3.6930625,2.17209375,4.9601953125,8.01645703125,5.48344140625,2.12614453125,3.1804375,3.7948359375,0.48219921875,9.5573203125,3.33858203125,6.79537890625,3.39869140625,-2.30549609375,4.7292109375,4.087703125,6.59701171875,1.25297265625,9.9695546875,3.8137421875,3.6768359375,5.51147265625,-2.02991796875,8.20291796875,6.33062109375,7.44923046875,3.1253671875
2.9365,7.37623046875,6.027046875,-3.7990625,2.99409375,6.7021953125,9.34845703125,6.03344140625,1.34914453125,4.0114375,6.1988359375,3.98119921875,8.6393203125,3.71158203125,8.24637890625,6.30869140625,-1.81949609375,5.9432109375,5.596703125,8.84201171875,4.18097265625,10.1925546875,5.3347421875,4.9668359375,7.02647265625,-1.27991796875,8.03691796875,6.09262109375,7.49423046875,2.9443671875
3.7375,8.22223046875,7.640046875,-4.6740625,3.64109375,8.0501953125,10.00445703125,6.54044140625,0.44514453125,4.6694375,7.8238359375,7.00119921875,8.0043203125,4.35958203125,9.32037890625,9.01069140625,-0.43649609375,7.6112109375,7.058703125,10.84801171875,7.41897265625,10.3395546875,7.0657421875,6.1938359375,8.66747265625,0.0770820312499998,8.04691796875,6.11162109375,7.83823046875,3.3683671875
4.1605,8.77323046875,8.832046875,-5.6950625,4.04509375,8.6331953125,9.90545703125,6.94944140625,-0.153855468750001,4.9554375,8.3008359375,8.89119921875,7.4393203125,5.20658203125,9.68637890625,10.92869140625,1.13250390625,9.3552109375,8.161703125,12.10201171875,10.19097265625,10.7055546875,8.7057421875,7.0238359375,10.06247265625,1.60308203125,8.22091796875,6.60062109375,8.52323046875,4.3663671875
4.0105,8.71723046875,9.163046875,-6.3630625,4.08809375,8.0531953125,8.78245703125,7.01744140625,-0.209855468750001,4.5884375,7.3078359375,9.18419921875,6.7103203125,5.99358203125,8.97537890625,11.53369140625,1.98350390625,10.6172109375,8.552703125,12.16901171875,11.75597265625,11.3515546875,9.8467421875,7.1038359375,10.71847265625,2.73408203125,8.31291796875,7.36562109375,9.25923046875,5.5293671875
3.2235,7.90923046875,8.453046875,-6.5170625,3.70109375,6.1901953125,6.50745703125,6.56144140625,0.28614453125,3.4334375,4.8288359375,7.85719921875,5.7503203125,6.48458203125,7.08137890625,10.63369140625,1.69550390625,10.9602109375,8.108703125,10.99201171875,11.77497265625,12.0925546875,10.2587421875,6.3608359375,10.35547265625,3.13608203125,8.09991796875,8.00362109375,9.67323046875,6.3583671875
1.9395,6.54323046875,6.959046875,-6.3330625,2.97709375,3.4081953125,3.37045703125,5.66044140625,1.16414453125,1.6944375,1.3218359375,5.41819921875,4.6663203125,6.66158203125,4.37137890625,8.55469140625,0.61450390625,10.3232109375,7.122703125,9.03301171875,10.49797265625,12.6225546875,10.0747421875,5.1638359375,9.15747265625,2.91708203125,7.61991796875,8.19462109375,9.59523046875,6.6023671875
0.4775,5.09623046875,5.232046875,-6.1050625,2.18909375,0.485195312499999,0.062457031250001,4.60444140625,2.18514453125,-0.0695625,-2.3551640625,2.68419921875,3.6453203125,6.76158203125,1.65037890625,6.05069140625,-0.47549609375,9.0572109375,6.240703125,7.12401171875,8.62797265625,12.7145546875,9.7527421875,4.2258359375,7.75447265625,2.56308203125,7.20491796875,7.88762109375,9.18423046875,6.4173671875
-0.7925,4.07323046875,3.779046875,-5.9930625,1.68309375,-1.7098046875,-2.61054296875,3.66344140625,3.13514453125,-1.1835625,-5.2621640625,0.39019921875,2.8673203125,7.12558203125,-0.163621093749999,3.94769140625,-0.98749609375,7.7612109375,6.152703125,6.07801171875,6.95197265625,12.3355546875,9.8217421875,4.2448359375,6.90947265625,2.61408203125,7.27591796875,7.26662109375,8.78723046875,6.2303671875
-1.6015,3.73823046875,2.786046875,-5.9490625,1.70609375,-2.5988046875,-4.07454296875,2.88844140625,3.84414453125,-1.1795625,-6.7671640625,-1.13880078125,2.4603203125,7.95858203125,-0.471621093749999,2.74869140625,-0.94549609375,6.9882109375,7.217703125,6.28601171875,5.94697265625,11.6365546875,10.5757421875,5.5258359375,7.08447265625,3.30908203125,8.05191796875,6.57962109375,8.66123046875,6.4113671875
-1.8745,3.99423046875,2.091046875,-5.8630625,2.27409375,-2.1098046875,-4.19054296875,2.07644140625,4.15914453125,-0.0175625000000004,-6.7831640625,-2.05180078125,2.5273203125,9.15658203125,0.745378906250002,2.42769140625,-0.88749609375,7.0022109375,9.270703125,7.54801171875,5.60897265625,10.8445546875,11.9187421875,7.8058359375,8.19347265625,4.42408203125,9.38791796875,5.96162109375,8.77423046875,6.9803671875
-1.7225,4.49123046875,1.379046875,-5.7230625,3.18609375,-0.639804687500001,-3.22354296875,0.93244140625,3.98014453125,1.9464375,-5.7291640625,-2.76680078125,3.1793203125,10.32858203125,2.94937890625,2.51869140625,-1.43849609375,7.7082109375,11.718703125,9.22801171875,5.56297265625,10.1585546875,13.4477421875,10.4118359375,9.67747265625,5.40608203125,10.84091796875,5.37962109375,8.82923046875,7.5763671875
-1.3505,4.84323046875,0.457046875000001,-5.6420625,4.14709375,1.1791953125,-1.65754296875,-0.68355859375,3.34014453125,4.1644375,-4.2861640625,-3.63880078125,4.4833203125,10.98458203125,5.32737890625,2.44169140625,-2.88749609375,8.7532109375,13.837703125,10.60701171875,5.36397265625,9.6825546875,14.6887421875,12.6088359375,10.83747265625,5.70108203125,11.91091796875,4.70162109375,8.47123046875,7.6893671875
-0.9795,4.82023046875,-0.569953125,-5.7710625,4.90009375,2.7461953125,0.0104570312500005,-2.58255859375,2.44414453125,6.1024375,-3.0971640625,-4.72180078125,6.2723203125,10.78858203125,7.12037890625,1.85169140625,-5.02649609375,9.7132109375,15.076703125,11.20601171875,4.77797265625,9.3965546875,15.3037421875,13.9098359375,11.20147265625,5.04108203125,12.28291796875,3.82262109375,7.51823046875,6.9833671875
-0.8075,4.41423046875,-1.322953125,-6.2260625,5.28309375,3.6521953125,1.37445703125,-4.28655859375,1.56514453125,7.3784375,-2.5631640625,-5.76180078125,7.9703203125,9.69558203125,7.86537890625,0.80669140625,-7.23849609375,10.2362109375,15.204703125,10.93401171875,3.90197265625,9.1695546875,15.1727421875,14.2018359375,10.70047265625,3.53408203125,11.91391796875,2.74362109375,6.07323046875,5.4833671875
-0.9875,3.77223046875,-1.357953125,-7.0740625,5.23409375,3.7231953125,2.12045703125,-5.26455859375,0.89914453125,7.8064375,-2.7671640625,-6.38080078125,8.6373203125,7.95258203125,7.48037890625,-0.30730859375,-8.75749609375,10.1152109375,14.308703125,10.03901171875,3.06097265625,8.8245546875,14.3607421875,13.6618359375,9.63447265625,1.57408203125,10.98391796875,1.57162109375,4.47423046875,3.5493671875
-1.5725,3.09923046875,-0.424953125,-8.2790625,4.78909375,3.0041953125,2.01745703125,-5.19455859375,0.50014453125,7.4114375,-3.5131640625,-6.28680078125,7.3493203125,5.99058203125,6.22137890625,-1.00930859375,-8.97949609375,9.3052109375,12.679703125,8.93301171875,2.59597265625,8.2475546875,13.0347421875,12.5978359375,8.46147265625,-0.33291796875,9.76291796875,0.48962109375,3.13623046875,1.7023671875
-2.4575,2.56723046875,1.386046875,-9.6150625,4.09609375,1.7371953125,0.971457031250001,-4.09155859375,0.35614453125,6.4094375,-4.4301640625,-5.39280078125,3.7393203125,4.27458203125,4.53837890625,-0.965308593750001,-7.72849609375,7.9442109375,10.691703125,7.98801171875,2.67897265625,7.4815546875,11.4047421875,11.3088359375,7.56147265625,-1.73791796875,8.50791796875,-0.29237890625,2.37423046875,0.4073671875
-3.3665,2.29123046875,3.670046875,-10.6420625,3.39809375,0.2971953125,-0.877542968749999,-2.25755859375,0.50414453125,5.1334375,-5.1281640625,-3.80880078125,-1.5826796875,3.18458203125,2.89937890625,-0.134308593750001,-5.37349609375,6.3432109375,8.705703125,7.38801171875,3.22297265625,6.7265546875,9.7047421875,10.0098359375,7.07547265625,-2.37491796875,7.41491796875,-0.58237890625,2.29223046875,-0.0866328124999995
-3.9345,2.33923046875,5.854046875,-10.8540625,2.97709375,-0.9088046875,-3.08654296875,-0.14155859375,1.05714453125,3.9444375,-5.3331640625,-1.78880078125,-7.0396796875,2.91658203125,1.64537890625,1.22569140625,-2.71649609375,4.9022109375,7.020703125,7.10801171875,3.94097265625,6.2525546875,8.1767421875,8.8398359375,6.91147265625,-2.23591796875,6.61591796875,-0.26437890625,2.77623046875,0.189367187500001
-3.8635,2.73623046875,7.388046875,-9.9430625,3.04509375,-1.5828046875,-4.98154296875,1.79144140625,2.10414453125,3.1294375,-4.9791640625,0.33219921875,-10.6196796875,3.43258203125,0.922378906250001,2.68069140625,-0.66549609375,3.9612109375,5.857703125,6.99901171875,4.48697265625,6.2545546875,7.0467421875,7.8978359375,6.86547265625,-1.55291796875,6.20891796875,0.63362109375,3.58023046875,0.972367187500001
-3.0665,3.45523046875,7.930046875,-8.0030625,3.62009375,-1.6248046875,-5.87654296875,3.21044140625,3.55414453125,2.8144375,-4.2041640625,2.20319921875,-10.7526796875,4.45258203125,0.699378906250001,3.81869140625,0.15450390625,3.6492109375,5.327703125,6.92501171875,4.62197265625,6.7355546875,6.4667421875,7.2828359375,6.78847265625,-0.66791796875,6.25491796875,1.92562109375,4.45923046875,1.9123671875
-1.7375,4.40123046875,7.461046875,-5.5720625,4.46109375,-1.1518046875,-5.36854296875,4.01944140625,5.04214453125,2.9224375,-3.2731640625,3.55219921875,-7.0976796875,5.53458203125,0.833378906250001,4.41669140625,-0.34049609375,3.8342109375,5.406703125,6.86001171875,4.31897265625,7.5015546875,6.4597421875,7.0908359375,6.67447265625,0.13908203125,6.77891796875,3.32662109375,5.27123046875,2.7333671875
-0.2785,5.42023046875,6.269046875,-3.4290625,5.13109375,-0.4438046875,-3.52854296875,4.38244140625,6.01514453125,3.2114375,-2.4631640625,4.27419921875,-0.824679687500001,6.21058203125,1.15337890625,4.49469140625,-1.73149609375,4.1832109375,5.950703125,6.89001171875,3.75997265625,8.2545546875,6.9097421875,7.3888359375,6.65047265625,0.76308203125,7.73491796875,4.58562109375,6.02223046875,3.3483671875
0.8475,6.33023046875,4.801046875,-2.2740625,5.17509375,0.1521953125,-0.88654296875,4.60744140625,5.96114453125,3.3874375,-1.9871640625,4.43819921875,5.7973203125,6.15758203125,1.51037890625,4.22269140625,-3.35549609375,4.3052109375,6.720703125,7.13001171875,3.21097265625,8.7285546875,7.5897421875,8.1518359375,6.86247265625,1.25008203125,8.96491796875,5.58762109375,6.82323046875,3.8413671875
1.2835,6.95223046875,3.476046875,-2.4350625,4.32709375,0.318195312499999,1.77245703125,4.97744140625,4.66514453125,3.1974375,-1.9821640625,4.20419921875,10.3403203125,5.29258203125,1.77737890625,3.75369140625,-4.58649609375,3.8932109375,7.416703125,7.57501171875,2.83897265625,8.7765546875,8.2057421875,9.1978359375,7.31347265625,1.67108203125,10.16191796875,6.37862109375,7.75023046875,4.3423671875
0.8875,7.12323046875,2.539046875,-3.7800625,2.63209375,-0.1648046875,3.67445703125,5.59144140625,2.32814453125,2.4844375,-2.5441640625,3.68719921875,11.2473203125,3.77958203125,1.81037890625,3.10669140625,-5.03249609375,2.8352109375,7.714703125,8.01301171875,2.59297265625,8.3765546875,8.4637421875,10.1738359375,7.79047265625,2.00308203125,10.91091796875,7.09062109375,8.73723046875,4.8983671875
-0.2355,6.72723046875,1.997046875,-5.8380625,0.43509375,-1.3758046875,4.25645703125,6.30944140625,-0.47885546875,1.2154375,-3.7381640625,2.87419921875,8.4833203125,1.95458203125,1.44737890625,2.18969140625,-4.60549609375,1.2682109375,7.360703125,8.09301171875,2.25497265625,7.6125546875,8.1647421875,10.6498359375,7.96547265625,2.14808203125,10.83691796875,7.83862109375,9.58123046875,5.4353671875
-1.7715,5.73623046875,1.643046875,-8.0080625,-1.73890625,-3.2198046875,3.25745703125,6.81444140625,-2.99485546875,-0.4965625,-5.5371640625,1.66919921875,3.4933203125,0.23458203125,0.580378906250001,0.940691406249999,-3.50749609375,-0.429789062499999,6.292703125,7.54101171875,1.62697265625,6.6555546875,7.3077421875,10.3068359375,7.63447265625,2.06608203125,9.82291796875,8.67162109375,10.08123046875,5.8593671875
-3.2725,4.26423046875,1.180046875,-9.6810625,-3.34590625,-5.4078046875,0.763457031250001,6.80044140625,-4.47485546875,-2.3695625,-7.7481640625,0.0361992187500002,-1.4676796875,-0.953417968749999,-0.734621093749999,-0.513308593750001,-2.12349609375,-1.7417890625,4.736703125,6.37601171875,0.72597265625,5.7315546875,6.1477421875,9.1318359375,6.91347265625,1.90908203125,8.14591796875,9.58762109375,10.20623046875,6.2053671875
-4.2895,2.58723046875,0.402046875,-10.3020625,-3.98890625,-7.4808046875,-2.78654296875,6.19844140625,-4.40185546875,-3.9925625,-9.9751640625,-1.88080078125,-4.3456796875,-1.24941796875,-2.21962109375,-1.81930859375,-0.89149609375,-2.1757890625,3.169703125,4.96501171875,-0.171027343750001,5.0775546875,5.1307421875,7.4928359375,6.23647265625,2.03808203125,6.41391796875,10.58262109375,10.14323046875,6.6873671875
-4.5315,1.07423046875,-0.674953125,-9.4670625,-3.51990625,-8.9238046875,-6.65554296875,5.25744140625,-2.67085546875,-4.9345625,-11.7051640625,-3.75180078125,-4.1886796875,-0.469417968749999,-3.42862109375,-2.53030859375,-0.20949609375,-1.4777890625,2.163703125,3.87501171875,-0.65502734375,4.8625546875,4.7307421875,6.0158359375,6.13647265625,2.87708203125,5.31191796875,11.65362109375,10.19723046875,7.6043671875
-3.9825,0.0402304687499999,-1.821953125,-7.1270625,-2.07890625,-9.3748046875,-9.97854296875,4.40544140625,0.32014453125,-4.8825625,-12.4721640625,-5.19580078125,-1.5526796875,1.30958203125,-3.92062109375,-2.32930859375,-0.39649609375,0.217210937500001,2.155703125,3.59801171875,-0.433027343750001,5.1105546875,5.2317421875,5.3098359375,6.93047265625,4.68008203125,5.27091796875,12.73962109375,10.57723046875,9.1143671875
-2.8995,-0.39176953125,-2.731953125,-3.7340625,-0.0339062499999994,-8.7868046875,-11.98954296875,3.97344140625,3.74214453125,-3.7575625,-12.0281640625,-5.95480078125,1.8033203125,3.73658203125,-3.44362109375,-1.21030859375,-1.60949609375,2.3902109375,3.250703125,4.30101171875,0.47597265625,5.6455546875,6.5577421875,5.6608359375,8.49647265625,7.29108203125,6.23991796875,13.62762109375,11.19623046875,11.0223671875
-1.6685,-0.31976953125,-3.176953125,-0.1530625,2.14109375,-7.4308046875,-12.24854296875,4.01744140625,6.60414453125,-1.7515625,-10.4311640625,-5.99880078125,3.8183203125,6.28658203125,-2.06462109375,0.504691406249999,-3.68849609375,4.3382109375,5.148703125,5.72001171875,1.67897265625,6.1075546875,8.2607421875,6.8598359375,10.24247265625,10.06908203125,7.66391796875,13.93262109375,11.59923046875,12.7213671875
-0.6115,0.0202304687499995,-3.118953125,2.6769375,4.00609375,-5.7558046875,-10.77354296875,4.32444140625,8.12514453125,0.724437500000001,-8.0201640625,-5.51980078125,3.2133203125,8.43158203125,-0.157621093749999,2.28169140625,-6.06349609375,5.4802109375,7.234703125,7.24901171875,2.54397265625,6.0775546875,9.6857421875,8.2588359375,11.31447265625,12.02808203125,8.71291796875,13.20862109375,11.12823046875,13.3693671875
0.1355,0.384230468749999,-2.719953125,4.1699375,5.27109375,-4.1908046875,-8.03754296875,4.55744140625,8.04614453125,3.1624375,-5.3061640625,-4.84480078125,0.138320312499999,9.80358203125,1.72237890625,3.56669140625,-7.94149609375,5.6042109375,8.823703125,8.19701171875,2.45897265625,5.2695546875,10.2607421875,9.0508359375,10.96247265625,12.22908203125,8.63491796875,11.15062109375,9.24623046875,12.2533671875
0.6125,0.610230468749999,-2.277953125,4.3389375,5.84309375,-3.0208046875,-4.79154296875,4.43944140625,6.71214453125,5.1024375,-2.8291640625,-4.31780078125,-3.9706796875,10.26558203125,3.04737890625,3.96169140625,-8.73349609375,4.9032109375,9.422703125,8.07601171875,1.12997265625,3.6865546875,9.7387421875,8.6278359375,8.88847265625,10.23508203125,7.08391796875,7.80162109375,5.86323046875,9.1603671875
0.9335,0.63823046875,-2.078953125,3.7229375,5.79609375,-2.3458046875,-1.79454296875,3.89144140625,4.87514453125,6.2354375,-1.0271640625,-4.16380078125,-7.2216796875,9.89358203125,3.49737890625,3.35569140625,-8.37749609375,3.8132109375,8.893703125,6.78601171875,-1.23402734375,1.6455546875,8.2857421875,6.8358359375,5.39447265625,6.42508203125,4.26691796875,3.62462109375,1.45423046875,4.5603671875
1.1765,0.49723046875,-2.237953125,3.0439375,5.31409375,-2.1118046875,0.44045703125,3.07044140625,3.30814453125,6.4504375,-0.1411640625,-4.40580078125,-8.2636796875,8.89158203125,3.05637890625,1.96569140625,-7.26949609375,2.7542109375,7.452703125,4.61401171875,-3.95102734375,-0.3614453125,6.3517421875,4.0228359375,1.26747265625,1.92408203125,0.827917968749999,-0.60637890625,-3.09876953125,-0.5256328125
1.3515,0.28723046875,-2.624953125,2.8009375,4.63209375,-2.1768046875,1.74345703125,2.27944140625,2.48214453125,5.8684375,-0.153164062499999,-4.86180078125,-6.8716796875,7.51458203125,1.98837890625,0.26669140625,-5.89849609375,1.9612109375,5.549703125,2.10101171875,-6.13902734375,-1.8874453125,4.4527421875,0.8678359375,-2.54252734375,-1.85191796875,-2.42808203125,-4.07537890625,-6.86176953125,-4.9366328125
1.4275,0.14623046875,-2.910953125,3.0519375,4.01109375,-2.3658046875,2.23045703125,1.81444140625,2.46014453125,4.8244375,-0.8121640625,-5.21080078125,-3.8826796875,6.03058203125,0.723378906250002,-1.18730859375,-4.52049609375,1.4512109375,3.695703125,-0.17198828125,-7.10102734375,-2.7054453125,2.9667421875,-1.9001640625,-5.28252734375,-3.82891796875,-4.86208203125,-6.23337890625,-9.20776953125,-7.8416328125
1.4075,0.211230468749999,-2.716953125,3.4789375,3.69209375,-2.5008046875,2.16945703125,1.86944140625,3.01114453125,3.7944375,-1.7321640625,-5.13180078125,-0.641679687500001,4.70558203125,-0.304621093749999,-1.96030859375,-3.11149609375,1.1232109375,2.296703125,-1.77498828125,-6.62102734375,-2.8844453125,2.0337421875,-3.7691640625,-6.65152734375,-3.73391796875,-6.20408203125,-6.98037890625,-10.02476953125,-9.0426328125
1.3675,0.57723046875,-1.788953125,3.6489375,3.82809375,-2.4388046875,1.84945703125,2.52544140625,3.80814453125,3.2254375,-2.5531640625,-4.42480078125,1.6973203125,3.76558203125,-0.809621093749998,-1.88130859375,-1.54249609375,0.8672109375,1.520703125,-2.55198828125,-5.01502734375,-2.7084453125,1.5657421875,-4.5891640625,-6.83252734375,-2.13491796875,-6.57708203125,-6.65037890625,-9.68076953125,-8.9566328125
1.4345,1.25823046875,-0.158953125,3.2799375,4.42009375,-2.1148046875,1.46345703125,3.73844140625,4.58114453125,3.3624375,-3.0731640625,-3.11180078125,2.6463203125,3.33358203125,-0.717621093749999,-1.06630859375,0.19850390625,0.6122109375,1.279703125,-2.60698828125,-2.92602734375,-2.4924453125,1.3677421875,-4.5331640625,-6.29452734375,-0.0539179687500004,-6.32308203125,-5.78337890625,-8.76676953125,-8.2976328125
1.7115,2.16523046875,1.787046875,2.3929375,5.31109375,-1.5958046875,1.04045703125,5.29944140625,5.18414453125,4.1514375,-3.3051640625,-1.46380078125,2.4713203125,3.36558203125,-0.146621093749999,0.163691406249999,1.87650390625,0.3352109375,1.336703125,-2.18698828125,-1.01302734375,-2.3954453125,1.2717421875,-3.9271640625,-5.49552734375,1.58708203125,-5.75908203125,-4.85037890625,-7.75376953125,-7.6606328125
2.1815,3.09123046875,3.388046875,1.2859375,6.21509375,-1.0858046875,0.426457031250001,6.82044140625,5.59214453125,5.2494375,-3.4311640625,0.0331992187500001,1.8803203125,3.65358203125,0.656378906250001,1.41369140625,3.04650390625,0.0352109375000005,1.443703125,-1.55098828125,0.28997265625,-2.3644453125,1.2277421875,-3.0651640625,-4.67752734375,2.35208203125,-5.03808203125,-4.07037890625,-6.81276953125,-7.2706328125
2.6645,3.72523046875,3.948046875,0.3929375,6.76909375,-0.8778046875,-0.619542968749999,7.80744140625,5.83214453125,6.1224375,-3.7201640625,0.801199218750001,1.5073203125,3.88358203125,1.36637890625,2.30969140625,3.26450390625,-0.2707890625,1.423703125,-0.91798828125,0.835972656249999,-2.2464453125,1.2627421875,-2.1281640625,-3.88952734375,2.29408203125,-4.18408203125,-3.41637890625,-5.88676953125,-7.0306328125
2.8595,3.71923046875,3.022046875,0.0859375,6.61409375,-1.2408046875,-2.25554296875,7.82644140625,5.92614453125,6.2284375,-4.4131640625,0.35019921875,1.4903203125,3.75358203125,1.63537890625,2.56869140625,2.35350390625,-0.537789062499999,1.189703125,-0.46698828125,0.69097265625,-1.9544453125,1.3967421875,-1.2081640625,-3.13852734375,1.68108203125,-3.23208203125,-2.76837890625,-4.90876953125,-6.7646328125
2.4935,2.85323046875,0.631046875,0.5259375,5.53909375,-2.2998046875,-4.36254296875,6.67144140625,5.89014453125,5.2574375,-5.6051640625,-1.48780078125,1.4213203125,3.11958203125,1.21237890625,2.09069140625,0.56750390625,-0.650789062499999,0.750703124999999,-0.28798828125,0.0489726562499992,-1.5354453125,1.6157421875,-0.341164062500001,-2.47752734375,0.74308203125,-2.28408203125,-2.04037890625,-3.93876953125,-6.4196328125
1.5075,1.20523046875,-2.685953125,1.6149375,3.64709375,-3.9198046875,-6.45254296875,4.49844140625,5.76814453125,3.3374375,-7.1451640625,-4.38580078125,0.749320312499999,2.11958203125,0.11637890625,1.05069140625,-1.46049609375,-0.408789062499999,0.255703124999998,-0.30198828125,-0.770027343750001,-1.0914453125,1.9347421875,0.514835937499999,-1.92552734375,-0.36891796875,-1.41608203125,-1.20837890625,-3.10176953125,-6.0326328125
0.1505,-0.785769531250001,-5.986953125,3.0489375,1.41509375,-5.6898046875,-7.80354296875,1.84744140625,5.65314453125,1.0534375,-8.6371640625,-7.51980078125,-0.6616796875,1.16358203125,-1.28562109375,-0.0673085937500009,-3.00349609375,0.427210937500001,-0.00229687500000075,-0.212988281249999,-1.32602734375,-0.6344453125,2.4657421875,1.5158359375,-1.33752734375,-1.44491796875,-0.526082031250001,-0.23537890625,-2.40976953125,-5.5646328125
-1.1165,-2.46376953125,-8.216953125,4.4329375,-0.43690625,-7.0548046875,-7.78754296875,-0.49755859375,5.64514453125,-0.7775625,-9.5671640625,-9.82980078125,-2.2486796875,0.78458203125,-2.38062109375,-0.60030859375,-3.57749609375,2.0062109375,0.330703124999999,0.39701171875,-1.13702734375,-0.00644531249999947,3.4017421875,2.9018359375,-0.38252734375,-2.13591796875,0.700917968749999,0.98962109375,-1.66776953125,-4.7836328125
-1.8385,-3.24276953125,-8.570953125,5.4379375,-1.22090625,-7.5508046875,-6.24454296875,-1.80455859375,5.81414453125,-1.4475625,-9.5251640625,-10.43580078125,-3.0076796875,1.39858203125,-2.56762109375,0.0106914062499994,-3.10949609375,4.2202109375,1.523703125,1.86701171875,0.122972656249999,1.0575546875,4.8937421875,4.8918359375,1.30447265625,-2.05091796875,2.63991796875,2.61062109375,-0.56376953125,-3.3546328125
-1.7705,-2.86776953125,-6.817953125,5.9459375,-0.55490625,-6.9938046875,-3.62554296875,-1.68455859375,6.19314453125,-0.628562499999999,-8.3931640625,-9.02880078125,-2.1026796875,3.13158203125,-1.52062109375,1.94369140625,-1.86249609375,6.6392109375,3.612703125,4.26901171875,2.41797265625,2.7315546875,6.9137421875,7.5308359375,3.87747265625,-1.00091796875,5.45691796875,4.65262109375,1.10623046875,-1.0906328125
-0.9295,-1.48076953125,-3.428953125,6.0989375,1.49309375,-5.5188046875,-0.80354296875,-0.21255859375,6.80214453125,1.5354375,-6.3991640625,-6.00080078125,0.603320312499999,5.77258203125,0.687378906250002,4.86469140625,-0.19049609375,8.6172109375,6.350703125,7.31401171875,5.29397265625,4.8835546875,9.1877421875,10.5958359375,7.10047265625,0.81108203125,8.89791796875,6.88462109375,3.21423046875,1.8163671875
0.4815,0.51123046875,0.578046875,6.1979375,4.44909375,-3.4708046875,1.33845703125,2.15444140625,7.62114453125,4.5344375,-4.0221640625,-2.26980078125,4.4333203125,8.83958203125,3.63237890625,8.04669140625,1.65950390625,9.5362109375,9.270703125,10.43801171875,8.02997265625,7.0275546875,11.2647421875,13.6138359375,10.36647265625,2.81308203125,12.28591796875,8.81262109375,5.26623046875,4.7723671875
2.1865,2.66423046875,4.008046875,6.4829375,7.62409375,-1.2468046875,2.32045703125,4.76744140625,8.54514453125,7.7024375,-1.7861640625,1.12219921875,8.2153203125,11.72258203125,6.72437890625,10.66669140625,3.56450390625,9.0832109375,11.861703125,13.01701171875,9.93697265625,8.5225546875,12.7047421875,16.0228359375,12.93347265625,4.30108203125,14.76491796875,9.85862109375,6.59423046875,6.9943671875
3.9315,4.68023046875,5.964046875,6.9809375,10.38209375,0.842195312499999,2.25445703125,7.00844140625,9.40014453125,10.4684375,-0.0341640624999995,3.44619921875,10.8503203125,13.88058203125,9.45437890625,12.17069140625,5.38150390625,7.4082109375,13.772703125,14.64701171875,10.66697265625,8.9205546875,13.2897421875,17.4088359375,14.27147265625,4.77608203125,15.69091796875,9.64462109375,6.70923046875,7.8793671875
5.5345,6.46723046875,6.190046875,7.5399375,12.35109375,2.6491953125,1.75545703125,8.49344140625,10.02014453125,12.5224375,1.2018359375,4.56519921875,11.8043203125,15.02558203125,11.56837890625,12.51169140625,6.82350390625,5.0812109375,14.928703125,15.30901171875,10.34697265625,8.2075546875,13.1157421875,17.6738359375,14.30747265625,4.19008203125,14.92791796875,8.20062109375,5.56523046875,7.3023671875
6.8845,8.05323046875,5.137046875,7.9859375,13.47709375,4.1821953125,1.62545703125,9.18644140625,10.31714453125,13.8284375,2.1508359375,4.89919921875,11.2583203125,15.18658203125,13.06737890625,12.11469140625,7.46950390625,2.8412109375,15.470703125,15.29501171875,9.47197265625,6.7665546875,12.4817421875,17.0208359375,13.40247265625,2.96008203125,12.87391796875,5.97362109375,3.58023046875,5.6763671875
7.8855,9.42423046875,3.680046875,8.2189375,13.89909375,5.4911953125,2.44545703125,9.33244140625,10.26214453125,14.5084375,3.0728359375,5.08619921875,9.7863203125,14.60258203125,14.04437890625,11.55169140625,6.95450390625,1.2482109375,15.547703125,14.94401171875,8.60497265625,5.1175546875,11.6547421875,15.7608359375,12.08747265625,1.75508203125,10.20191796875,3.60862109375,1.40423046875,3.7233671875
8.3925,10.40623046875,2.652046875,8.1619375,13.76909375,6.5051953125,4.24645703125,9.23144140625,9.81014453125,14.6734375,3.9928359375,5.52819921875,7.7693203125,13.51158203125,14.46137890625,11.13069140625,5.22050390625,0.408210937500001,15.121703125,14.35101171875,8.05597265625,3.6145546875,10.6667421875,14.0558359375,10.72147265625,1.16108203125,7.48491796875,1.65662109375,-0.41176953125,2.0923671875
8.2195,10.70523046875,2.463046875,7.6969375,13.14609375,6.9761953125,6.45845703125,9.04144140625,8.87214453125,14.3284375,4.5948359375,6.14019921875,5.0443203125,11.99958203125,14.06737890625,10.68769140625,2.69350390625,-0.0447890624999996,13.925703125,13.27501171875,7.74697265625,2.3025546875,9.2837421875,11.8148359375,9.30947265625,1.41208203125,4.94091796875,0.35262109375,-1.65776953125,1.0533671875
7.2435,10.08723046875,3.032046875,6.7039375,12.03709375,6.6031953125,8.20345703125,8.76044140625,7.38614453125,13.4144375,4.3848359375,6.46619921875,1.1313203125,10.02958203125,12.54037890625,9.74869140625,0.23650390625,-0.700789062499999,11.642703125,11.31701171875,7.35397265625,0.9865546875,7.1997421875,8.8138359375,7.58147265625,2.33208203125,2.45891796875,-0.39637890625,-2.48076953125,0.4583671875
5.5585,8.60423046875,3.994046875,5.2119375,10.52209375,5.2961953125,8.79645703125,8.38244140625,5.46014453125,11.9504375,3.0438359375,6.07719921875,-4.0556796875,7.61558203125,9.80137890625,7.95869140625,-1.19549609375,-1.9797890625,8.235703125,8.28001171875,6.60097265625,-0.5224453125,4.3357421875,5.0058359375,5.30747265625,3.50208203125,-0.132082031250001,-0.82737890625,-3.17076953125,-0.0256328124999996
3.5645,6.67923046875,4.989046875,3.5209375,8.87309375,3.3671953125,8.14645703125,8.03844140625,3.45814453125,10.1524375,0.7578359375,4.95219921875,-9.5776796875,5.01158203125,6.26137890625,5.45469140625,-1.03749609375,-3.8307890625,4.180703125,4.47601171875,5.52097265625,-2.1424453125,1.0727421875,0.7928359375,2.62247265625,4.53408203125,-2.73908203125,-1.06937890625,-3.86776953125,-0.5946328125
1.9015,4.99023046875,5.844046875,2.1889375,7.55009375,1.5101953125,6.83645703125,8.01344140625,1.96114453125,8.4454375,-1.7421640625,3.57019921875,-13.4976796875,2.73958203125,2.82037890625,2.92169140625,0.62250390625,-5.7127890625,0.426703125,0.72501171875,4.48197265625,-3.4414453125,-1.7862578125,-2.9601640625,0.0964726562499996,5.25208203125,-4.89308203125,-1.02037890625,-4.40576953125,-1.1316328125
1.2475,4.19423046875,6.599046875,1.8669375,7.04409375,0.5501953125,5.83045703125,8.65344140625,1.58614453125,7.3144375,-3.4681640625,2.68319921875,-13.6496796875,1.43358203125,0.550378906250002,1.28569140625,3.19750390625,-6.8607890625,-1.967296875,-1.96698828125,4.00097265625,-3.8074453125,-3.3282578125,-5.2351640625,-1.51552734375,5.69208203125,-5.94408203125,-0.40937890625,-4.41776953125,-1.2946328125
2.0375,4.66023046875,7.412046875,3.0259375,7.66309375,1.0831953125,5.97945703125,10.21444140625,2.72714453125,7.0824375,-3.6511640625,2.90819921875,-8.6966796875,1.53858203125,0.216378906250002,1.24869140625,6.02150390625,-6.6847890625,-2.321296875,-2.89198828125,4.45697265625,-2.7944453125,-2.9672578125,-5.3471640625,-1.67852734375,5.98508203125,-5.42908203125,0.99362109375,-3.60876953125,-0.768632812499999
4.2435,6.31823046875,8.420046875,5.6839375,9.36109375,3.1671953125,7.56845703125,12.70544140625,5.33014453125,7.7524375,-2.1471640625,4.40119921875,1.1093203125,3.05558203125,1.87937890625,2.90969140625,8.69950390625,-5.0907890625,-0.671296875000001,-2.00498828125,5.88997265625,-0.4034453125,-0.7532578125,-3.3221640625,-0.37852734375,6.24408203125,-3.36808203125,3.19262109375,-1.95676953125,0.510367187500001
7.3195,8.69123046875,9.625046875,9.2879375,11.71509375,6.2351953125,10.16345703125,15.79644140625,8.83114453125,8.9784375,0.457835937500001,6.74719921875,13.8763203125,5.45858203125,4.80037890625,5.67469140625,11.16950390625,-2.5627890625,2.207703125,0.0260117187500004,7.95997265625,2.8615546875,2.6047421875,0.0318359374999995,1.84447265625,6.53308203125,-0.332082031250001,5.91362109375,0.24223046875,2.2983671875
7.3195,8.69123046875,9.625046875,9.2879375,11.71509375,6.2351953125,10.16345703125,15.79644140625,8.83114453125,8.9784375,0.457835937500001,6.74719921875,13.8763203125,5.45858203125,4.80037890625,5.67469140625,11.16950390625,-2.5627890625,2.207703125,0.0260117187500004,7.95997265625,2.8615546875,2.6047421875,0.0318359374999995,1.84447265625,6.53308203125,-0.332082031250001,5.91362109375,0.24223046875,2.2983671875
