"Fp1","Fpz","Fp2","F7","F3","Fz","F4","F8","FC5","FC1","FC2","FC6","T7","C3","Cz","C4","T8","CP5","CP1","CP2","CP6","P7","P3","Pz","P4","P8","POz","O1","Oz","O2"
0.950292968749999,-1.356703125,-0.5451484375,-4.150484375,0.23882421875,-4.00609765625,-3.5549765625,-9.5608125,-10.6094609375,-1.95270703125,-2.4832421875,-3.959203125,-4.4565859375,-1.89888671875,-8.326109375,-1.34987109375,-0.9632265625,-3.3645703125,-1.2073671875,2.777625,-1.557953125,5.80788671875,-2.057640625,-3.6089765625,-1.67653125,1.49784765625,-2.53336328125,-0.83105859375,-0.6966171875,2.37003515625
9.60429296875,5.924296875,7.4148515625,-1.662484375,1.72582421875,-0.34709765625,1.8070234375,-4.9278125,-11.6664609375,1.67029296875,2.7747578125,2.085796875,-4.0045859375,1.20811328125,-3.759109375,4.33012890625,3.3407734375,-0.7805703125,3.3496328125,7.885625,3.466046875,8.09888671875,2.063359375,1.3000234375,4.32346875,5.58684765625,2.25363671875,2.76694140625,3.0763828125,5.71603515625
14.81829296875,10.658296875,12.8758515625,0.275515624999999,2.96982421875,2.76290234375,6.0880234375,-0.8688125,-11.8484609375,4.59829296875,7.0567578125,6.776796875,-3.8915859375,3.74711328125,-0.0611093750000009,8.45012890625,6.3707734375,0.9454296875,6.7926328125,11.484625,7.113046875,9.00488671875,5.013359375,4.8160234375,8.32746875,7.90284765625,5.61963671875,5.26594140625,5.5033828125,7.56803515625
16.28329296875,12.526296875,15.3128515625,1.504515625,3.95282421875,5.01690234375,8.8210234375,2.1721875,-11.0414609375,6.62629296875,9.8867578125,9.503796875,-4.0835859375,5.57811328125,2.363890625,10.40712890625,7.7747734375,1.8414296875,8.8676328125,13.085625,8.788046875,8.59088671875,6.626359375,6.6510234375,9.83146875,8.10484765625,7.25563671875,6.35094140625,6.2273828125,7.54503515625
14.65529296875,11.933296875,14.8478515625,2.022515625,4.72182421875,6.17890234375,9.7220234375,3.7431875,-9.3864609375,7.69529296875,10.9557578125,9.883796875,-4.4495859375,6.68611328125,3.254890625,9.91912890625,7.5137734375,2.2304296875,9.5996328125,12.571625,8.177046875,7.40288671875,7.051359375,6.8870234375,8.87646875,6.37784765625,7.24363671875,6.02094140625,5.2943828125,5.74303515625
11.12729296875,9.697296875,12.1058515625,2.055515625,5.35082421875,6.17690234375,8.8030234375,3.5391875,-7.2114609375,7.87429296875,10.2537578125,7.929796875,-4.8325859375,7.13911328125,2.588890625,7.15212890625,5.8507734375,2.5334296875,9.2476328125,10.247625,5.408046875,6.18188671875,6.614359375,5.8840234375,6.03246875,3.33584765625,5.97563671875,4.56994140625,3.1433828125,2.71103515625
6.93129296875,6.640296875,7.9428515625,2.066515625,5.88982421875,5.14690234375,6.4320234375,1.5511875,-4.9064609375,7.32229296875,8.1407578125,4.136796875,-5.1035859375,7.03711328125,0.624890624999999,2.74812890625,3.2557734375,3.0264296875,8.1736328125,6.770625,1.086046875,5.50788671875,5.646359375,4.1220234375,2.21646875,-0.22715234375,3.98163671875,2.44794140625,0.4153828125,-0.76896484375
3.00329296875,3.342296875,3.2168515625,2.606515625,6.31282421875,3.41890234375,3.2670234375,-1.8668125,-2.8164609375,6.25429296875,5.2707578125,-0.586203125,-5.1655859375,6.48011328125,-2.149109375,-2.28287109375,0.2637734375,3.6944296875,6.7006328125,2.966625,-3.832953125,5.54688671875,4.383359375,2.0480234375,-1.59353125,-3.61315234375,1.76563671875,0.09394140625,-2.2736171875,-3.96896484375
-0.117707031250001,0.161296875,-1.3051484375,4.063515625,6.52082421875,1.44290234375,0.0920234375000002,-6.0178125,-1.1754609375,4.93029296875,2.4117578125,-5.136203125,-4.9255859375,5.57111328125,-5.108109375,-6.79887109375,-2.6122265625,4.2724296875,5.0646328125,-0.361375,-8.274953125,6.01388671875,2.976359375,0.0130234375000001,-4.59853125,-6.34715234375,-0.27236328125,-2.13405859375,-4.4676171875,-6.38296484375
-2.23470703125,-2.574703125,-4.9281484375,6.437515625,6.44482421875,-0.30109765625,-2.3669765625,-9.9648125,-0.0644609375000007,3.63329296875,0.2437578125,-8.506203125,-4.2815859375,4.46111328125,-7.631109375,-9.81287109375,-4.9152265625,4.4534296875,3.4506328125,-2.590375,-11.326953125,6.37188671875,1.576359375,-1.7079765625,-6.32153125,-8.17815234375,-1.82436328125,-3.91705859375,-5.8686171875,-7.73796484375
-3.35570703125,-4.446703125,-7.0631484375,9.301515625,6.17282421875,-1.41509765625,-3.5959765625,-12.7568125,0.5825390625,2.62029296875,-0.8122421875,-10.050203125,-3.1735859375,3.36211328125,-9.234109375,-10.75787109375,-6.2662265625,4.1214296875,2.0626328125,-3.388375,-12.473953125,6.16488671875,0.390359375,-2.8979765625,-6.62853125,-9.00615234375,-2.66936328125,-4.93105859375,-6.3026171875,-7.94096484375
-3.56070703125,-5.034703125,-7.3611484375,11.964515625,5.93782421875,-1.69909765625,-3.4279765625,-13.7228125,0.8995390625,2.06229296875,-0.6922421875,-9.643203125,-1.6495859375,2.49411328125,-9.704109375,-9.63087109375,-6.4492265625,3.4304296875,1.1186328125,-2.781375,-11.743953125,5.27888671875,-0.359640625,-3.4309765625,-5.69753125,-8.86715234375,-2.70736328125,-4.90905859375,-5.7406171875,-7.06996484375
-2.92670703125,-4.149703125,-5.9031484375,13.726515625,5.95782421875,-1.23209765625,-2.1199765625,-12.7348125,0.964539062499999,1.97529296875,0.3117578125,-7.698203125,0.0944140624999998,1.96511328125,-9.168109375,-6.99187109375,-5.5192265625,2.6694296875,0.7376328125,-1.161375,-9.693953125,3.95688671875,-0.557640625,-3.3489765625,-3.95853125,-7.97015234375,-2.05036328125,-3.82905859375,-4.3966171875,-5.41196484375
-1.53870703125,-2.025703125,-3.2351484375,14.106515625,6.26482421875,-0.38209765625,-0.2719765625,-10.2598125,0.720539062499999,2.18429296875,1.6397578125,-5.021203125,1.7494140625,1.67011328125,-8.054109375,-3.78387109375,-3.8432265625,2.0314296875,0.8056328125,0.795625,-7.203953125,2.57188671875,-0.333640625,-2.8909765625,-1.99953125,-6.70915234375,-1.07436328125,-2.08005859375,-2.7926171875,-3.48496484375
0.441292968749999,0.714296875,-0.1941484375,12.960515625,6.65482421875,0.32190234375,1.4140234375,-7.1578125,0.0235390624999994,2.35129296875,2.6677578125,-2.509203125,2.9294140625,1.30711328125,-6.947109375,-1.01087109375,-1.9872265625,1.4694296875,0.9616328125,2.340625,-5.147953125,1.31788671875,-0.078640625,-2.4299765625,-0.42053125,-5.56015234375,-0.32636328125,-0.40905859375,-1.6306171875,-1.91996484375
2.75329296875,3.313296875,2.4138515625,10.517515625,6.80082421875,0.41490234375,2.4070234375,-4.3338125,-1.2084609375,2.12329296875,2.9377578125,-0.828203125,3.2564140625,0.55311328125,-6.368109375,0.60912890625,-0.4732265625,0.7404296875,0.7626328125,2.917625,-4.056953125,0.0998867187500001,-0.258640625,-2.2919765625,0.36246875,-4.86515234375,-0.27736328125,0.41394140625,-1.4776171875,-1.20296484375
5.10529296875,5.188296875,4.0888515625,7.323515625,6.43282421875,-0.28109765625,2.5380234375,-2.4018125,-2.8404609375,1.32529296875,2.3537578125,-0.193203125,2.4954140625,-0.70488671875,-6.554109375,0.90412890625,0.4537734375,-0.3615703125,-0.0593671874999999,2.404625,-3.934953125,-1.28511328125,-1.118640625,-2.5739765625,0.28746875,-4.61615234375,-1.04236328125,0.01994140625,-2.4126171875,-1.38396484375
7.26529296875,6.117296875,4.7588515625,4.112515625,5.51282421875,-1.54609765625,2.0260234375,-1.4998125,-4.4884609375,0.0832929687499999,1.2267578125,-0.360203125,0.7404140625,-2.22688671875,-7.363109375,0.27212890625,0.9037734375,-1.7815703125,-1.3993671875,1.167625,-4.301953125,-2.83511328125,-2.473640625,-3.0599765625,-0.32453125,-4.43315234375,-2.26636328125,-1.30705859375,-3.8846171875,-1.96596484375
9.06829296875,6.230296875,4.7078515625,1.598515625,4.28782421875,-2.85809765625,1.3640234375,-1.2918125,-5.6814609375,-1.23370703125,0.1477578125,-0.804203125,-1.5395859375,-3.50688671875,-8.338109375,-0.55187109375,1.2037734375,-3.1545703125,-2.8053671875,-0.104375,-4.468953125,-4.19511328125,-3.767640625,-3.3349765625,-0.92553125,-3.78815234375,-3.29736328125,-2.77705859375,-4.9686171875,-2.15896484375
10.33529296875,5.874296875,4.3938515625,0.211515625,3.15582421875,-3.66009765625,1.0680234375,-1.1738125,-6.1424609375,-2.21170703125,-0.3042421875,-1.015203125,-3.6765859375,-4.06388671875,-8.940109375,-0.87287109375,1.6487734375,-4.0275703125,-3.7233671875,-0.733375,-3.912953125,-4.85711328125,-4.391640625,-3.0329765625,-1.03053125,-2.35715234375,-3.55936328125,-3.55905859375,-4.8996171875,-1.35896484375
10.84629296875,5.444296875,4.2418515625,-0.0744843750000004,2.40282421875,-3.63009765625,1.4070234375,-0.5938125,-6.0144609375,-2.59570703125,0.1547578125,-0.737203125,-5.1155859375,-3.74888671875,-8.791109375,-0.36587109375,2.3037734375,-4.1715703125,-3.8033671875,-0.364374999999999,-2.546953125,-4.53611328125,-4.027640625,-2.0679765625,-0.45553125,-0.24915234375,-2.86936328125,-3.26005859375,-3.5426171875,0.44503515625
10.47029296875,5.241296875,4.5008515625,0.289515624999999,2.03682421875,-2.81709765625,2.2800234375,0.6801875,-5.7964609375,-2.37870703125,1.3897578125,-0.052203125,-5.6335859375,-2.83888671875,-7.801109375,0.82812890625,2.9787734375,-3.7315703125,-3.0493671875,0.922625,-0.712953125,-3.39411328125,-2.809640625,-0.6679765625,0.64646875,2.05584765625,-1.48436328125,-2.08405859375,-1.4486171875,2.68003515625
9.37729296875,5.393296875,5.2128515625,0.709515624999999,1.85282421875,-1.55309765625,3.3300234375,2.4771875,-6.0204609375,-1.73370703125,2.9667578125,0.729796875,-5.3485859375,-1.85188671875,-6.112109375,2.26912890625,3.3977734375,-3.1025703125,-1.7333671875,2.743625,1.073046875,-1.94111328125,-1.189640625,0.7990234375,1.94246875,3.99384765625,0.12863671875,-0.59005859375,0.5383828125,4.59503515625
8.11629296875,5.882296875,6.2688515625,0.800515625,1.64982421875,-0.23009765625,4.1960234375,4.3501875,-6.8654609375,-0.87870703125,4.4017578125,1.290796875,-4.5375859375,-1.22288671875,-3.968109375,3.50112890625,3.4057734375,-2.6435703125,-0.1883671875,4.655625,2.440046875,-0.72111328125,0.341359375,2.0650234375,3.15146875,5.21884765625,1.60863671875,0.70694140625,1.8013828125,5.74103515625
7.38129296875,6.621296875,7.4568515625,0.609515624999999,1.39582421875,0.89290234375,4.7030234375,5.8021875,-8.0234609375,0.0452929687499999,5.3897578125,1.481796875,-3.4545859375,-1.07388671875,-1.610109375,4.28712890625,3.0927734375,-2.4715703125,1.3516328125,6.347625,3.305046875,-0.03611328125,1.502359375,3.0960234375,4.16046875,5.70884765625,2.85463671875,1.59994140625,2.2293828125,6.14803515625
7.58629296875,7.499296875,8.4628515625,0.539515624999999,1.20882421875,1.74390234375,4.8780234375,6.4861875,-8.8824609375,0.98029296875,5.8567578125,1.362796875,-2.2545859375,-1.21288671875,0.709890624999999,4.65212890625,2.7197734375,-2.4525703125,2.7556328125,7.660625,3.779046875,0.12288671875,2.279359375,4.0160234375,4.96546875,5.62884765625,3.94963671875,2.17494140625,2.1163828125,6.12103515625
8.53129296875,8.337296875,8.8738515625,1.056515625,1.22882421875,2.35490234375,4.8370234375,6.3091875,-8.8844609375,1.86829296875,5.8667578125,1.114796875,-1.0615859375,-1.33388671875,2.666890625,4.74712890625,2.5327734375,-2.3495703125,3.9016328125,8.468625,3.938046875,-0.0391132812500001,2.815359375,4.9220234375,5.51346875,5.09084765625,4.94463671875,2.59594140625,1.8273828125,5.88403515625
9.43829296875,8.825296875,8.2698515625,2.340515625,1.47382421875,2.71990234375,4.6690234375,5.4161875,-7.8174609375,2.55329296875,5.4847578125,0.902796875,-0.0675859375000001,-1.24388671875,3.841890625,4.67312890625,2.5997734375,-2.0105703125,4.6126328125,8.581625,3.685046875,-0.29011328125,3.229359375,5.7150234375,5.61146875,4.02284765625,5.70763671875,2.91794140625,1.5293828125,5.36003515625
9.35529296875,8.554296875,6.4288515625,4.129515625,1.78782421875,2.74390234375,4.3830234375,4.0811875,-5.8944609375,2.79629296875,4.7247578125,0.799796875,0.4524140625,-0.96588671875,3.831890625,4.40512890625,2.7957734375,-1.4665703125,4.6906328125,7.788625,2.807046875,-0.48311328125,3.526359375,6.1160234375,5.01246875,2.25884765625,5.97763671875,3.03394140625,1.1463828125,4.27403515625
7.71429296875,7.211296875,3.5368515625,5.853515625,1.91582421875,2.31790234375,3.9540234375,2.6031875,-3.5944609375,2.41029296875,3.6107578125,0.796796875,0.2904140625,-0.66588671875,2.467890625,3.86212890625,2.9337734375,-0.8985703125,4.0516328125,6.036625,1.195046875,-0.56511328125,3.642359375,5.8450234375,3.62646875,-0.22515234375,5.56863671875,2.78694140625,0.5213828125,2.45403515625
4.70729296875,4.853296875,0.258851562499999,6.967515625,1.68982421875,1.45890234375,3.4150234375,1.2551875,-1.3914609375,1.41729296875,2.2937578125,0.870796875,-0.4815859375,-0.47888671875,-0.00610937500000119,3.05512890625,2.9117734375,-0.4955703125,2.8386328125,3.611625,-0.949953125,-0.50411328125,3.558359375,4.8600234375,1.70246875,-3.12615234375,4.56563671875,2.14894140625,-0.3606171875,0.10803515625
1.23129296875,2.018296875,-2.4441484375,7.228515625,1.15382421875,0.36790234375,2.9020234375,0.2531875,0.406539062499999,0.08029296875,1.0667578125,1.016796875,-1.4275859375,-0.42288671875,-2.969109375,2.14812890625,2.7647734375,-0.3575703125,1.4046328125,1.111625,-3.100953125,-0.26311328125,3.345359375,3.4440234375,-0.20853125,-5.82115234375,3.33163671875,1.28694140625,-1.2986171875,-2.16196484375
-1.62070703125,-0.482703125,-3.7521484375,6.702515625,0.48082421875,-0.68709765625,2.5390234375,-0.3338125,1.6055390625,-1.24770703125,0.2127578125,1.187796875,-1.9335859375,-0.47288671875,-5.691109375,1.36212890625,2.5977734375,-0.5145703125,0.1146328125,-0.812375,-4.653953125,0.12088671875,3.085359375,2.0520234375,-1.51153125,-7.60515234375,2.29363671875,0.46394140625,-2.0196171875,-3.66196484375
-3.17970703125,-2.035703125,-3.4501484375,5.583515625,-0.27017578125,-1.57809765625,2.2630234375,-0.6788125,1.9645390625,-2.34670703125,-0.2102421875,1.208796875,-1.5835859375,-0.70888671875,-7.690109375,0.80712890625,2.4667734375,-1.0305703125,-0.8833671875,-1.808375,-5.254953125,0.45488671875,2.746359375,1.0160234375,-1.88153125,-8.00115234375,1.67763671875,-0.15105859375,-2.4046171875,-4.00696484375
-3.52270703125,-2.600703125,-2.1091484375,4.049515625,-1.26717578125,-2.40509765625,1.7900234375,-1.1558125,1.1975390625,-3.24170703125,-0.4512421875,0.784796875,-0.4285859375,-1.33588671875,-8.904109375,0.39412890625,2.3217734375,-2.0215703125,-1.7223671875,-1.992375,-4.975953125,0.44688671875,2.176359375,0.3650234375,-1.41953125,-6.96715234375,1.39563671875,-0.56005859375,-2.5636171875,-3.30396484375
-3.26370703125,-2.704703125,-0.789148437500001,2.274515625,-2.72917578125,-3.38209765625,0.8080234375,-2.1138125,-0.8074609375,-4.10770703125,-0.899242187500001,-0.331203125,1.0644140625,-2.52088671875,-9.593109375,-0.06687109375,2.0447734375,-3.5135703125,-2.6473671875,-1.824375,-4.213953125,-0.06811328125,1.244359375,-0.1129765625,-0.52853125,-4.88615234375,1.18963671875,-0.83505859375,-2.6956171875,-2.00596484375
-3.06370703125,-3.050703125,-0.463148437500001,0.509515624999999,-4.65217578125,-4.63009765625,-0.7639765625,-3.6198125,-3.7444609375,-5.07270703125,-1.8112421875,-2.136203125,2.3084140625,-4.20188671875,-10.079109375,-0.71387109375,1.5317734375,-5.3185703125,-3.7893671875,-1.809375,-3.450953125,-0.97511328125,-0.00964062499999996,-0.6649765625,0.32346875,-2.38115234375,0.84563671875,-0.98105859375,-2.8876171875,-0.60696484375
-3.24770703125,-4.069703125,-1.5221484375,-0.943484375,-6.71617578125,-6.06509765625,-2.6939765625,-5.4188125,-6.9034609375,-6.09070703125,-3.1692421875,-4.316203125,2.8944140625,-6.05688671875,-10.565109375,-1.54787109375,0.7447734375,-7.0485703125,-5.0653671875,-2.258375,-3.070953125,-1.94611328125,-1.365640625,-1.4099765625,0.77946875,-0.11415234375,0.30663671875,-0.93305859375,-3.0696171875,0.54303515625
-3.76370703125,-5.717703125,-3.6431484375,-1.836484375,-8.43017578125,-7.44909765625,-4.5809765625,-7.0968125,-9.4544609375,-6.96770703125,-4.7352421875,-6.388203125,2.7264140625,-7.65488671875,-11.091109375,-2.48087109375,-0.2982265625,-8.2805703125,-6.2653671875,-3.214375,-3.305953125,-2.64811328125,-2.553640625,-2.3279765625,0.63646875,1.36684765625,-0.38336328125,-0.68505859375,-3.1476171875,1.23303515625
-4.40470703125,-7.555703125,-5.9981484375,-2.068484375,-9.36217578125,-8.52209765625,-6.0629765625,-8.2928125,-10.7784609375,-7.49470703125,-6.2022421875,-7.949203125,1.9954140625,-8.63488671875,-11.588109375,-3.41487109375,-1.5262265625,-8.7145703125,-7.1703671875,-4.511375,-4.233953125,-2.88111328125,-3.382640625,-3.3099765625,-0.16653125,1.74784765625,-1.18336328125,-0.36605859375,-3.1256171875,1.31703515625
-5.01370703125,-8.998703125,-7.6351484375,-1.727484375,-9.30417578125,-9.12609765625,-6.9839765625,-8.8168125,-10.6734609375,-7.58070703125,-7.3352421875,-8.855203125,1.0884140625,-8.82288671875,-11.954109375,-4.29387109375,-2.7882265625,-8.2595703125,-7.6363671875,-5.885375,-5.745953125,-2.58711328125,-3.785640625,-4.2159765625,-1.53953125,1.05084765625,-2.08236328125,-0.19705859375,-3.1036171875,0.73703515625
-5.54370703125,-9.564703125,-7.8641484375,-1.113484375,-8.37817578125,-9.27609765625,-7.4559765625,-8.6838125,-9.4184609375,-7.32570703125,-8.0662421875,-9.245203125,0.4034140625,-8.28488671875,-12.155109375,-5.10387109375,-3.8392265625,-7.0965703125,-7.6483671875,-7.097375,-7.542953125,-1.85011328125,-3.821640625,-4.9419765625,-3.24353125,-0.34715234375,-3.06436328125,-0.36205859375,-3.1866171875,-0.38696484375
-5.95670703125,-9.074703125,-6.5391484375,-0.714484375000001,-7.03817578125,-9.19109765625,-7.8319765625,-8.1048125,-7.6814609375,-7.02070703125,-8.5312421875,-9.438203125,0.1424140625,-7.34688671875,-12.288109375,-5.86687109375,-4.4282265625,-5.6985703125,-7.3713671875,-8.046375,-9.211953125,-0.94411328125,-3.674640625,-5.4879765625,-4.95753125,-1.85715234375,-4.08336328125,-0.93505859375,-3.4166171875,-1.75296484375
-6.12170703125,-7.728703125,-4.1141484375,-0.997484375,-5.88617578125,-9.21509765625,-8.5389765625,-7.4248125,-6.2434609375,-7.03270703125,-9.0022421875,-9.756203125,0.1964140625,-6.50188671875,-12.553109375,-6.60687109375,-4.4352265625,-4.7165703125,-7.1263671875,-8.775375,-10.368953125,-0.31611328125,-3.634640625,-5.9639765625,-6.39953125,-2.94715234375,-5.09036328125,-1.85705859375,-3.7766171875,-2.99196484375
-5.80970703125,-6.044703125,-1.4481484375,-2.078484375,-5.34717578125,-9.59409765625,-9.7969765625,-6.9708125,-5.6144609375,-7.56470703125,-9.6892421875,-10.329203125,0.2484140625,-6.17288671875,-13.082109375,-7.27487109375,-3.9432265625,-4.6855703125,-7.2273671875,-9.373375,-10.774953125,-0.38911328125,-3.975640625,-6.4979765625,-7.40153125,-3.37315234375,-6.03336328125,-2.95705859375,-4.2426171875,-3.85696484375
-4.82370703125,-4.618703125,0.5748515625,-3.484484375,-5.38417578125,-10.23409765625,-11.4039765625,-6.8778125,-5.7364609375,-8.42370703125,-10.4972421875,-10.968203125,0.0634140625000001,-6.43588671875,-13.719109375,-7.67187109375,-3.1702265625,-5.6755703125,-7.7563671875,-9.804375,-10.372953125,-1.29011328125,-4.754640625,-7.0769765625,-7.88753125,-3.22515234375,-6.83336328125,-3.98805859375,-4.8096171875,-4.33696484375
-3.15770703125,-3.830703125,1.4238515625,-4.250484375,-5.48017578125,-10.60409765625,-12.7059765625,-6.9688125,-5.9784609375,-8.96670703125,-10.9212421875,-11.176203125,-0.2595859375,-6.88388671875,-13.951109375,-7.44187109375,-2.2832265625,-7.1535703125,-8.4103671875,-9.822375,-9.238953125,-2.69711328125,-5.684640625,-7.4479765625,-7.79553125,-2.78515234375,-7.33836328125,-4.69905859375,-5.4836171875,-4.62996484375
-1.09970703125,-3.644703125,1.1138515625,-3.352484375,-4.87917578125,-9.91209765625,-12.8179765625,-6.7848125,-5.4564609375,-8.33570703125,-10.1952421875,-10.325203125,-0.2705859375,-6.76688671875,-13.067109375,-6.20187109375,-1.2832265625,-8.1615703125,-8.5703671875,-9.050375,-7.512953125,-3.93111328125,-6.190640625,-7.1749765625,-7.04353125,-2.31015234375,-7.33136328125,-4.90205859375,-6.2176171875,-4.96696484375
0.82829296875,-3.666703125,0.1238515625,-0.260484375000001,-2.96217578125,-7.49209765625,-10.9849765625,-5.7728125,-3.5094609375,-5.88870703125,-7.6552421875,-7.958203125,0.5544140625,-5.35588671875,-10.505109375,-3.74687109375,-0.0402265624999998,-7.7665703125,-7.5663671875,-7.186375,-5.361953125,-4.26611328125,-5.662640625,-5.8409765625,-5.55953125,-1.89515234375,-6.60236328125,-4.50005859375,-6.8426171875,-5.40296484375
2.06229296875,-3.420703125,-0.9051484375,4.714515625,0.38482421875,-3.21909765625,-6.9929765625,-3.5768125,-0.094460937500001,-1.58570703125,-3.1602421875,-4.071203125,2.4314140625,-2.35888671875,-6.197109375,-0.23087109375,1.5377734375,-5.5275703125,-5.0293671875,-4.233375,-2.983953125,-3.26611328125,-3.763640625,-3.2839765625,-3.37653125,-1.47615234375,-5.05536328125,-3.48605859375,-7.0636171875,-5.72696484375
2.24429296875,-2.672703125,-1.5011484375,10.434515625,4.60382421875,2.28690234375,-1.4099765625,-0.3128125,4.1165390625,3.88729296875,2.6567578125,0.748796875,5.0504140625,1.86011328125,-0.736109375000001,3.77512890625,3.3277734375,-1.7505703125,-1.1543671875,-0.601375,-0.651953125,-1.02111328125,-0.637640625,0.2420234375,-0.73353125,-0.95915234375,-2.81236328125,-1.97505859375,-6.6116171875,-5.59596484375
1.40029296875,-1.568703125,-1.5331484375,15.343515625,8.61982421875,7.79690234375,4.4770234375,3.3491875,8.0155390625,9.31929296875,8.4947578125,5.425796875,7.6884140625,6.37011328125,4.753890625,7.39812890625,4.9327734375,2.6174296875,3.2866328125,2.951625,1.270046875,1.84888671875,3.079359375,4.0720234375,1.89846875,-0.38015234375,-0.27636328125,-0.26805859375,-5.4706171875,-4.83796484375
-0.0127070312500006,-0.484703125,-1.1231484375,18.074515625,11.28882421875,11.90690234375,9.0970234375,6.4061875,10.5505390625,13.39929296875,12.8197578125,8.731796875,9.5514140625,10.04711328125,8.999890625,9.73312890625,5.8087734375,6.3814296875,7.2146328125,5.577625,2.403046875,4.39388671875,6.457359375,7.3300234375,3.93546875,0.03484765625,1.94063671875,1.12894140625,-4.0256171875,-3.67796484375
-1.21870703125,0.292296875,-0.4251484375,17.995515625,11.89982421875,13.57490234375,11.1920234375,7.9501875,11.1775390625,15.19329296875,14.4687578125,9.745796875,10.1214140625,12.03011328125,11.052890625,10.18512890625,5.5497734375,8.5814296875,9.6716328125,6.660625,2.530046875,5.68288671875,8.619359375,9.2710234375,4.92346875,-0.00815234374999996,3.23163671875,1.64694140625,-2.9426171875,-2.67296484375
-1.37570703125,0.821296875,0.5428515625,15.460515625,10.44182421875,12.54290234375,10.3130234375,7.5841875,10.0355390625,14.49729296875,13.1317578125,8.241796875,9.3274140625,12.06111328125,10.660890625,8.74512890625,4.1627734375,8.8414296875,10.2226328125,6.105625,1.773046875,5.18588671875,9.115359375,9.6120234375,4.79546875,-0.63415234375,3.30463671875,0.94694140625,-2.8056171875,-2.34796484375
0.0932929687499993,1.490296875,1.8678515625,11.678515625,7.58382421875,9.43890234375,6.9980234375,5.6251875,7.8565390625,11.91029296875,9.4997578125,4.841796875,7.5274140625,10.55711328125,8.360890625,6.06512890625,2.1797734375,7.4774296875,9.1146328125,4.405625,0.638046875,3.02588671875,8.138359375,8.6800234375,3.96846875,-1.61815234375,2.39863671875,-0.80305859375,-3.7186171875,-2.78796484375
3.20629296875,2.726296875,3.5718515625,8.266515625,4.42482421875,5.54790234375,2.5820234375,2.9861875,5.6925390625,8.60129296875,5.0147578125,0.829796875,5.3404140625,8.41611328125,5.256890625,3.26512890625,0.4787734375,5.3514296875,7.1496328125,2.463625,-0.118953125,-0.0261132812500002,6.453359375,7.2980234375,3.19746875,-2.39815234375,1.23463671875,-2.86905859375,-5.1416171875,-3.46796484375
7.31129296875,4.618296875,5.4518515625,6.614515625,2.10982421875,2.31190234375,-1.2999765625,0.7851875,4.5405390625,5.83729296875,1.3057578125,-2.320203125,3.4344140625,6.63311328125,2.574890625,1.51612890625,-0.1172265625,3.5184296875,5.3086328125,1.210625,0.201046875,-2.81611328125,5.045359375,6.4130234375,3.22746875,-2.32115234375,0.70163671875,-4.20605859375,-6.0996171875,-3.48396484375
11.23929296875,6.738296875,7.0568515625,7.303515625,1.39582421875,0.76290234375,-3.3519765625,-0.1578125,4.9455390625,4.48129296875,-0.4422421875,-3.518203125,2.3134140625,5.85911328125,1.152890625,1.55412890625,0.7277734375,2.7904296875,4.2886328125,1.183625,1.892046875,-4.24811328125,4.659359375,6.6410234375,4.39746875,-1.01815234375,1.39863671875,-3.94205859375,-5.6796171875,-2.07096484375
13.67729296875,8.261296875,7.8118515625,9.802515625,2.30582421875,1.11790234375,-3.1279765625,0.2911875,6.7095390625,4.65229296875,0.0617578124999998,-2.494203125,2.1884140625,6.11011328125,1.109890625,3.33612890625,2.6407734375,3.3904296875,4.1826328125,2.268625,4.625046875,-3.71411328125,5.439359375,7.9430234375,6.40346875,1.33784765625,3.29363671875,-1.83905859375,-3.5496171875,0.90603515625
13.61729296875,8.332296875,7.2188515625,12.652515625,4.09682421875,2.72790234375,-1.1489765625,1.5381875,8.9095390625,5.70529296875,2.1597578125,0.109796875,2.9164140625,6.75811328125,1.835890625,6.02812890625,4.6927734375,4.8684296875,4.4596328125,3.738625,7.513046875,-1.33611328125,6.848359375,9.6190234375,8.37046875,4.02784765625,5.66963671875,1.54994140625,-0.1846171875,4.79603515625
10.70529296875,6.466296875,5.0438515625,14.076515625,5.55882421875,4.41190234375,1.4040234375,2.5761875,10.2485390625,6.55129296875,4.5947578125,3.025796875,4.0494140625,6.84511328125,2.316890625,8.35612890625,5.8407734375,6.3204296875,4.2766328125,4.587625,9.455046875,2.08288671875,7.937359375,10.6450234375,9.22546875,6.08284765625,7.44063671875,5.11794140625,3.3363828125,8.43503515625
5.35629296875,2.763296875,1.4218515625,12.734515625,5.51782421875,4.99790234375,3.2300234375,2.4741875,9.5855390625,6.16929296875,6.0737578125,4.894796875,4.9614140625,5.56211328125,1.646890625,9.15812890625,5.4317734375,6.8154296875,2.9466328125,3.991625,9.592046875,5.35888671875,7.819359375,10.1720234375,8.19546875,6.69684765625,7.66663671875,7.69694140625,5.8163828125,10.65103515625
-1.38270703125,-2.133703125,-3.1341484375,8.299515625,3.30182421875,3.82190234375,3.4090234375,0.8081875,6.4025390625,4.07429296875,5.7697578125,4.783796875,5.0694140625,2.65011328125,-0.531109375000002,7.86412890625,3.4937734375,5.7834296875,0.2996328125,1.683625,7.655046875,7.33488671875,6.101359375,7.9150234375,5.16746875,5.54384765625,5.99263671875,8.50094140625,6.4213828125,10.69303515625
-8.12970703125,-7.250703125,-7.8111484375,1.636515625,-0.94917578125,0.98190234375,1.7100234375,-2.1368125,1.0505390625,0.52929296875,3.5897578125,2.536796875,4.0854140625,-1.45988671875,-3.848109375,4.70112890625,0.6877734375,3.2344296875,-3.2073671875,-1.919375,4.073046875,7.26788671875,3.056359375,4.2830234375,0.75646875,2.88584765625,2.80363671875,7.35694140625,4.9403828125,8.43603515625
-13.48470703125,-11.517703125,-11.6261484375,-5.446484375,-6.24017578125,-2.71209765625,-1.3259765625,-5.4198125,-5.2834609375,-3.55370703125,0.1847578125,-1.174203125,2.1764140625,-5.79088671875,-7.335109375,0.58512890625,-1.9882265625,-0.2475703125,-6.6633671875,-5.851375,-0.162953125,5.07788671875,-0.501640625,0.2410234375,-3.89153125,-0.53115234375,-0.92736328125,4.71994140625,1.8623828125,4.41403515625
-16.28770703125,-13.966703125,-13.6271484375,-10.832484375,-11.01017578125,-6.03109765625,-4.5719765625,-7.7678125,-10.9094609375,-6.93870703125,-3.2842421875,-5.073203125,-0.0665859374999997,-9.15988671875,-9.791109375,-3.19387109375,-3.5802265625,-3.7055703125,-9.0183671875,-8.920375,-3.791953125,1.40588671875,-3.518640625,-2.9959765625,-7.45453125,-3.67915234375,-3.96736328125,1.54794140625,-1.7346171875,-0.25796484375
-15.90270703125,-13.959703125,-13.2061484375,-12.884484375,-13.74017578125,-7.79509765625,-6.7499765625,-8.0818125,-14.2204609375,-8.50870703125,-5.5642421875,-7.753203125,-1.8935859375,-10.60788671875,-10.258109375,-5.41687109375,-3.5042265625,-6.1515703125,-9.4803671875,-10.130375,-5.676953125,-2.60311328125,-5.074640625,-4.3739765625,-8.85953125,-5.53715234375,-5.24036328125,-0.98305859375,-4.4736171875,-4.12896484375
-12.56070703125,-11.473703125,-10.4601484375,-11.103484375,-13.62817578125,-7.35509765625,-6.9709765625,-5.9538125,-14.3514609375,-7.72970703125,-5.8242421875,-8.228203125,-2.7595859375,-9.79388671875,-8.441109375,-5.38387109375,-1.7202265625,-6.9935703125,-7.8673671875,-9.098375,-5.218953125,-5.78711328125,-4.754640625,-3.4209765625,-7.68853125,-5.45715234375,-4.24636328125,-1.94005859375,-5.2226171875,-5.91196484375
-7.55570703125,-7.305703125,-6.3651484375,-6.353484375,-10.97617578125,-4.90109765625,-5.1239765625,-1.9238125,-11.5934609375,-4.92670703125,-4.0272421875,-6.326203125,-2.5935859375,-7.19288671875,-4.903109375,-3.21087109375,1.2787734375,-6.3225703125,-4.7653671875,-6.282375,-2.622953125,-7.50411328125,-2.878640625,-0.5089765625,-4.42253125,-3.48815234375,-1.35936328125,-1.12205859375,-3.6616171875,-5.08696484375
-2.95470703125,-2.937703125,-2.5251484375,-0.498484375000001,-7.04017578125,-1.39109765625,-1.9009765625,2.6861875,-7.2954609375,-1.19070703125,-0.9462421875,-2.730203125,-1.8155859375,-3.93888671875,-0.872109375000001,0.21112890625,4.6687734375,-4.8825703125,-1.3483671875,-2.848375,1.143046875,-7.90311328125,-0.415640625,3.2330234375,-0.31753125,-0.45115234375,2.24763671875,0.79294140625,-0.5226171875,-2.23096484375
-0.746707031250001,0.0122968750000001,-0.4971484375,4.385515625,-3.41717578125,1.89590234375,1.5490234375,6.3291875,-3.2524609375,2.11229296875,2.2327578125,1.368796875,-1.0665859375,-1.32588671875,2.276890625,3.63012890625,7.5997734375,-3.6745703125,1.1146328125,-0.169375,4.750046875,-7.71811328125,1.457359375,6.4050234375,3.10646875,2.39284765625,5.10363671875,2.58594140625,2.7353828125,1.22103515625
-1.84970703125,0.507296875,-1.0641484375,6.858515625,-1.30817578125,3.94090234375,4.1570234375,7.9081875,-0.891460937500001,3.95929296875,4.4827578125,4.786796875,-0.8375859375,-0.23588671875,3.617890625,6.00912890625,9.4817734375,-3.4215703125,1.8096328125,0.798625,7.091046875,-7.73811328125,1.919359375,7.9600234375,4.73546875,3.94784765625,6.11263671875,3.14994140625,4.6433828125,3.66603515625
-5.62070703125,-1.419703125,-3.8661484375,6.626515625,-1.02717578125,4.37390234375,5.3730234375,7.2321875,-0.6984609375,4.04929296875,5.3527578125,6.793796875,-1.2345859375,-0.80288671875,3.001890625,6.93612890625,10.1237734375,-4.2295703125,0.6846328125,-0.0933749999999995,7.714046875,-8.31311328125,0.851359375,7.6190234375,4.30046875,3.80984765625,5.02163671875,2.03094140625,4.4043828125,4.08303515625
-10.20370703125,-4.697703125,-7.6131484375,4.473515625,-2.00517578125,3.49990234375,5.2870234375,5.0221875,-2.1524609375,2.79229296875,5.0257578125,7.269796875,-1.9775859375,-2.47888671875,0.998890624999999,6.66312890625,9.7017734375,-5.6075703125,-1.6323671875,-2.233375,6.900046875,-9.18411328125,-1.203640625,5.8720234375,2.39346875,2.40684765625,2.42863671875,-0.40405859375,2.1943828125,2.44703515625
-13.50170703125,-7.737703125,-10.7151484375,1.741515625,-3.22617578125,2.01590234375,4.4190234375,2.4921875,-4.1474609375,0.99829296875,4.0707578125,6.573796875,-2.5905859375,-4.39488671875,-1.459109375,5.82112890625,8.6227734375,-6.8015703125,-4.1943671875,-4.622375,5.392046875,-9.67011328125,-3.365640625,3.6310234375,0.09346875,0.70884765625,-0.57036328125,-3.18205859375,-0.9966171875,-0.34496484375
-14.19770703125,-9.171703125,-12.0021484375,-0.348484375,-3.82517578125,0.63090234375,3.3350234375,0.7451875,-5.6174609375,-0.52870703125,3.0687578125,5.250796875,-2.6185859375,-5.77888671875,-3.501109375,5.02012890625,7.3227734375,-7.1995703125,-6.1713671875,-6.369375,3.955046875,-9.08911328125,-4.824640625,1.7720234375,-1.56953125,-0.31515234375,-2.88936328125,-5.17005859375,-3.8396171875,-2.96196484375
-12.25670703125,-8.430703125,-11.1581484375,-1.146484375,-3.47917578125,-0.23709765625,2.3470234375,0.3181875,-6.0184609375,-1.30670703125,2.3337578125,3.738796875,-1.7915859375,-6.24988671875,-4.613109375,4.54812890625,6.0927734375,-6.6005703125,-7.1373671875,-7.054375,3.017046875,-7.17711328125,-5.144640625,0.7880234375,-2.04553125,-0.17415234375,-3.87636328125,-5.56505859375,-5.2596171875,-4.27896484375
-8.70070703125,-5.904703125,-8.7251484375,-0.626484375000001,-2.42617578125,-0.56209765625,1.4560234375,1.0681875,-5.4404609375,-1.29970703125,1.8457578125,2.229796875,-0.1045859375,-5.87088671875,-4.733109375,4.29112890625,5.0137734375,-5.2495703125,-7.1303671875,-6.822375,2.553046875,-4.27611328125,-4.385640625,0.6770234375,-1.42053125,0.96984765625,-3.49736328125,-4.23905859375,-4.8606171875,-3.87196484375
-4.89470703125,-2.643703125,-5.7211484375,0.831515624999999,-1.21617578125,-0.61609765625,0.4790234375,2.3811875,-4.3914609375,-0.82770703125,1.3657578125,0.702796875,2.1954140625,-5.00888671875,-4.169109375,3.87512890625,4.0007734375,-3.6505703125,-6.5083671875,-6.206375,2.224046875,-1.20111328125,-2.990640625,1.0590234375,-0.26553125,2.47684765625,-2.24036328125,-1.77805859375,-3.0456171875,-2.13296484375
-1.84370703125,0.180296875,-3.1381484375,2.735515625,-0.38517578125,-0.75809765625,-0.7569765625,3.5381875,-3.4224609375,-0.32270703125,0.6427578125,-0.913203125,4.6874140625,-4.08888671875,-3.386109375,2.92412890625,2.9217734375,-2.3035703125,-5.7043671875,-5.791375,1.642046875,1.16188671875,-1.522640625,1.4340234375,0.69346875,3.59784765625,-0.81036328125,0.82994140625,-0.7566171875,0.01003515625
0.13129296875,1.757296875,-1.5691484375,4.684515625,-0.21217578125,-1.20909765625,-2.2559765625,4.0421875,-2.8404609375,-0.08070703125,-0.4162421875,-2.588203125,6.9134140625,-3.38288671875,-2.780109375,1.29712890625,1.6887734375,-1.4725703125,-5.0113671875,-5.908375,0.621046875,2.25988671875,-0.383640625,1.4680234375,0.92946875,3.85284765625,0.22863671875,2.68594140625,1.0293828125,1.61903515625
1.23629296875,1.837296875,-1.1111484375,6.406515625,-0.633175781249999,-1.97109765625,-3.8259765625,3.7711875,-2.6364609375,-0.16370703125,-1.7012421875,-4.145203125,8.4944140625,-2.92888671875,-2.545109375,-0.83287109375,0.3077734375,-1.1165703125,-4.5063671875,-6.531375,-0.734953125,2.05088671875,0.319359375,1.1440234375,0.30646875,3.21384765625,0.67163671875,3.38394140625,1.7733828125,2.22903515625
1.79129296875,0.641296875,-1.5081484375,7.656515625,-1.38917578125,-2.90509765625,-5.2049765625,2.9011875,-2.6784609375,-0.48770703125,-3.0122421875,-5.370203125,9.1674140625,-2.64088671875,-2.700109375,-3.09987109375,-1.1342265625,-1.0265703125,-4.1473671875,-7.418375,-2.146953125,0.88188671875,0.697359375,0.6910234375,-0.96753125,2.03084765625,0.62963671875,3.05294140625,1.5063828125,1.95803515625
1.90629296875,-1.362703125,-2.3971484375,8.103515625,-2.28817578125,-3.90909765625,-6.2799765625,1.6741875,-2.9724609375,-0.99670703125,-4.2302421875,-6.177203125,8.7474140625,-2.50388671875,-3.228109375,-5.17087109375,-2.5112265625,-1.0685703125,-3.9603671875,-8.366375,-3.376953125,-0.80511328125,0.862359375,0.3460234375,-2.56253125,0.75484765625,0.30163671875,2.07294140625,0.5923828125,1.22203515625
1.44529296875,-3.650703125,-3.4851484375,7.377515625,-3.34417578125,-4.99709765625,-7.1669765625,0.2431875,-3.7404609375,-1.74170703125,-5.3802421875,-6.667203125,7.1234140625,-2.66488671875,-4.146109375,-6.87087109375,-3.6942265625,-1.3245703125,-4.1123671875,-9.349375,-4.356953125,-2.68911328125,0.780359375,0.1370234375,-4.22053125,-0.32215234375,-0.23636328125,0.73294140625,-0.6406171875,0.32603515625
0.28029296875,-5.714703125,-4.5621484375,5.327515625,-4.65017578125,-6.19009765625,-8.0429765625,-1.2908125,-5.2054609375,-2.78670703125,-6.5002421875,-6.972203125,4.3624140625,-3.31288671875,-5.422109375,-8.09987109375,-4.5272265625,-1.9865703125,-4.7703671875,-10.411375,-5.092953125,-4.56711328125,0.329359375,-0.0949765624999999,-5.76053125,-1.11015234375,-1.01336328125,-0.85905859375,-2.0356171875,-0.68596484375
-1.39170703125,-7.055703125,-5.3761484375,2.309515625,-6.08817578125,-7.29009765625,-8.8369765625,-2.7038125,-7.2474609375,-3.97870703125,-7.4062421875,-6.994203125,0.8674140625,-4.40588671875,-6.789109375,-8.62587109375,-4.7822265625,-3.0885703125,-5.8203671875,-11.392375,-5.436953125,-6.20511328125,-0.474640625,-0.4479765625,-6.90753125,-1.55415234375,-1.93036328125,-2.57505859375,-3.4486171875,-1.80796484375
-2.91570703125,-7.200703125,-5.5331484375,-0.747484375,-7.17517578125,-7.75609765625,-9.0529765625,-3.5178125,-9.2194609375,-4.80170703125,-7.5622421875,-6.257203125,-2.5585859375,-5.49288671875,-7.650109375,-7.95487109375,-4.1552265625,-4.2855703125,-6.7043671875,-11.757375,-4.955953125,-7.21511328125,-1.272640625,-0.7019765625,-7.15653125,-1.44715234375,-2.53436328125,-3.99305859375,-4.4646171875,-2.71996484375
-3.35770703125,-5.797703125,-4.5671484375,-2.625484375,-7.18917578125,-6.84309765625,-7.9219765625,-3.1118125,-10.1384609375,-4.47770703125,-6.2212421875,-4.063203125,-4.8675859375,-5.79888671875,-7.219109375,-5.47087109375,-2.3512265625,-4.9075703125,-6.5593671875,-10.730375,-3.056953125,-7.10411328125,-1.384640625,-0.2779765625,-5.86253125,-0.40615234375,-2.05136328125,-4.35305859375,-4.3456171875,-2.65696484375
-1.96870703125,-2.801703125,-2.2051484375,-2.350484375,-5.54417578125,-4.00009765625,-4.8289765625,-1.0538125,-9.1694609375,-2.36570703125,-2.8352421875,0.063796875,-5.1995859375,-4.62188671875,-4.900109375,-0.83987109375,0.7157734375,-4.2805703125,-4.6593671875,-7.723375,0.636046875,-5.53611328125,-0.162640625,1.4480234375,-2.59453125,1.88984765625,0.21363671875,-2.90305859375,-2.3506171875,-0.74196484375
1.29629296875,1.325296875,1.2928515625,0.290515624999999,-2.20117578125,0.66190234375,0.1790234375,2.5061875,-6.1734609375,1.54829296875,2.4757578125,5.882796875,-3.3885859375,-1.82788671875,-0.730109375000001,5.54612890625,4.7267734375,-2.1875703125,-0.9453671875,-2.858375,5.857046875,-2.66711328125,2.531359375,4.6470234375,2.42146875,5.34284765625,4.30963671875,0.52394140625,1.6673828125,3.35003515625
5.54329296875,5.564296875,4.9888515625,4.520515625,2.09782421875,6.17090234375,6.1420234375,6.6661875,-1.9534609375,6.41829296875,8.6957578125,12.241796875,-0.2155859375,1.89911328125,4.401890625,12.39812890625,8.8837734375,0.8574296875,3.7256328125,2.794625,11.494046875,0.69688671875,6.035359375,8.6990234375,8.09746875,9.20884765625,9.31363671875,5.10194140625,6.8183828125,8.83103515625
9.20829296875,8.587296875,7.5238515625,8.843515625,6.03582421875,10.97490234375,11.4250234375,10.0561875,2.0235390625,10.78829296875,14.1757578125,17.411796875,2.8904140625,5.28011328125,9.005890625,17.87112890625,12.0917734375,3.7544296875,7.8526328125,7.523625,15.870046875,3.33088671875,9.092359375,12.3200234375,12.76646875,12.24384765625,13.57163671875,9.18694140625,11.3293828125,13.86903515625
10.77729296875,9.299296875,7.7658515625,11.757515625,8.34582421875,13.63590234375,14.4510234375,11.4841875,4.3755390625,13.27929296875,17.3337578125,19.851796875,4.6124140625,7.09211328125,11.657890625,20.34312890625,13.3857734375,5.3754296875,10.0036328125,9.742625,17.434046875,4.16288671875,10.483359375,14.1680234375,14.88946875,13.23684765625,15.46863671875,11.08894140625,13.3433828125,16.39903515625
9.59629296875,7.433296875,5.5118515625,12.517515625,8.53882421875,13.56690234375,14.5320234375,10.6051875,4.5985390625,13.30129296875,17.4377578125,19.004796875,4.5044140625,6.87311328125,11.727890625,19.20112890625,12.3987734375,5.2324296875,9.5966328125,8.812625,15.535046875,2.86888671875,9.737359375,13.5820234375,13.81646875,11.63984765625,14.30163671875,9.99894140625,11.9323828125,15.22603515625
6.29629296875,3.845296875,1.7858515625,11.501515625,7.22982421875,11.35090234375,12.2610234375,8.1621875,3.3675390625,11.38629296875,14.9807578125,15.621796875,3.2604140625,5.21711328125,9.733890625,15.19612890625,9.6007734375,3.8174296875,7.2396328125,5.418625,10.813046875,0.11988671875,7.452359375,10.9940234375,10.14846875,7.91884765625,10.70963671875,6.48694140625,7.6613828125,10.70103515625
2.54429296875,0.235296875,-1.5521484375,9.938515625,5.78282421875,8.44290234375,9.1860234375,5.6111875,2.1165390625,8.91529296875,11.4287578125,11.393796875,2.2754140625,3.46111328125,7.076890625,10.10312890625,6.1387734375,2.3464296875,4.4376328125,1.255625,4.950046875,-2.72911328125,5.024359375,7.7420234375,5.46746875,3.39284765625,6.38863671875,2.21894140625,2.3443828125,4.57503515625
0.234292968749999,-1.624703125,-2.7411484375,9.173515625,5.51582421875,6.40890234375,6.9710234375,4.3361875,2.1695390625,7.37329296875,8.4757578125,8.111796875,2.7844140625,2.93311328125,5.295890625,5.88912890625,3.3317734375,2.0564296875,2.7986328125,-1.811375,-0.0729531250000002,-4.36411328125,3.901359375,5.3960234375,1.58546875,-0.32515234375,3.24863671875,-0.92105859375,-1.8576171875,-0.86796484375
0.577292968749999,-0.758703125,-1.0411484375,9.920515625,6.97882421875,6.15590234375,6.5720234375,4.9281875,3.9735390625,7.58629296875,7.2507578125,6.838796875,5.1004140625,4.21611328125,5.304890625,3.84112890625,2.0917734375,3.4824296875,3.2326328125,-2.610375,-2.788953125,-4.18911328125,4.819359375,4.9950234375,-0.24653125,-2.00515234375,2.50263671875,-1.78405859375,-3.4626171875,-3.83796484375
3.61029296875,2.584296875,2.9158515625,11.904515625,9.71882421875,7.59490234375,7.8790234375,6.9171875,6.9095390625,9.38029296875,7.9127578125,7.554796875,8.4474140625,6.88211328125,7.028890625,4.11912890625,2.5937734375,6.1854296875,5.5926328125,-1.100375,-2.746953125,-2.53811328125,7.471359375,6.6320234375,0.22046875,-1.24515234375,4.19163671875,-0.41505859375,-2.2436171875,-3.70296484375
8.31029296875,7.148296875,7.5328515625,14.074515625,12.60982421875,9.86690234375,9.9530234375,9.1041875,9.7225390625,11.83629296875,9.7867578125,9.383796875,11.4374140625,9.81211328125,9.617890625,5.93012890625,4.3107734375,9.0614296875,8.8896328125,1.821625,-0.502953125,-0.35311328125,10.765359375,9.5610234375,2.33346875,1.45384765625,7.34463671875,2.14194140625,0.8243828125,-1.09696484375
13.15429296875,11.347296875,11.1278515625,15.237515625,14.48982421875,11.91890234375,11.6410234375,10.2651875,11.2625390625,13.88329296875,11.8617578125,11.189796875,12.8694140625,11.84711328125,12.012890625,8.10112890625,6.3567734375,10.9694296875,11.8766328125,4.897625,2.772046875,1.37388671875,13.432359375,12.6580234375,4.98646875,4.95384765625,10.55663671875,4.47794140625,4.1443828125,2.49103515625
16.77029296875,13.955296875,12.7328515625,14.708515625,14.72682421875,13.01990234375,12.1970234375,9.8171875,11.0515390625,14.82529296875,13.3077578125,12.160796875,12.3114140625,12.33111328125,13.448890625,9.68712890625,7.9157734375,11.2644296875,13.6056328125,7.093625,5.827046875,2.01288671875,14.569359375,14.9190234375,7.15646875,7.96584765625,12.62663671875,5.47294140625,6.2343828125,5.41103515625
18.38829296875,14.499296875,12.3828515625,12.612515625,13.40582421875,12.95890234375,11.5500234375,8.0711875,9.3895390625,14.52329296875,13.7387578125,12.079796875,10.1924140625,11.28911328125,13.650890625,10.28712890625,8.5657734375,9.9734296875,13.7016328125,7.910625,7.774046875,1.43088671875,13.908359375,15.7620234375,8.25446875,9.55484765625,12.95163671875,4.70294140625,6.3203828125,6.53803515625
17.95729296875,13.239296875,10.8198515625,9.699515625,11.08282421875,11.91790234375,10.1350234375,5.9601875,7.0065390625,13.24729296875,13.1597578125,11.238796875,7.4574140625,9.23111328125,12.723890625,10.00312890625,8.3657734375,7.6174296875,12.3236328125,7.375625,8.292046875,-0.0841132812500001,11.773359375,15.0700234375,8.19546875,9.47184765625,11.61863671875,2.49394140625,4.5463828125,5.67803515625
15.93929296875,10.844296875,8.8938515625,6.880515625,8.36782421875,10.20890234375,8.4980234375,4.4481875,4.5655390625,11.39429296875,11.7577578125,10.124796875,5.0574140625,6.79711328125,10.931890625,9.18312890625,7.6917734375,4.8794296875,9.9326328125,5.841625,7.583046875,-1.99711328125,8.850359375,13.0860234375,7.24346875,8.15184765625,9.22363671875,-0.31205859375,1.7783828125,3.52103515625
12.95829296875,7.979296875,7.0578515625,4.778515625,5.63882421875,8.08990234375,6.9680234375,4.0191875,2.3635390625,9.25529296875,9.7237578125,9.114796875,3.5424140625,4.46611328125,8.541890625,8.13212890625,6.9507734375,2.3214296875,7.0526328125,3.742625,6.149046875,-3.74611328125,5.884359375,10.2500234375,5.75546875,6.39784765625,6.55263671875,-2.74805859375,-0.8606171875,1.19703515625
9.49929296875,5.041296875,5.2428515625,3.516515625,3.02682421875,5.71790234375,5.5830234375,4.4931875,0.353539062499999,6.94429296875,7.2167578125,8.327796875,2.9154140625,2.44411328125,5.791890625,6.97112890625,6.3297734375,0.2444296875,4.1106328125,1.439625,4.517046875,-4.93911328125,3.426359375,7.0590234375,3.99646875,4.95284765625,4.26963671875,-4.08705859375,-2.4776171875,-0.28896484375
5.82429296875,2.131296875,3.1208515625,2.782515625,0.55282421875,3.22390234375,4.2020234375,5.2201875,-1.6174609375,4.48029296875,4.4227578125,7.663796875,2.7494140625,0.72411328125,2.925890625,5.66712890625,5.7447734375,-1.2835703125,1.3966328125,-0.825375,3.061046875,-5.44311328125,1.713359375,3.9620234375,2.11046875,4.19184765625,2.73463671875,-4.05605859375,-2.7156171875,-0.46996484375
2.07629296875,-0.774703125,0.4998515625,2.060515625,-1.74017578125,0.79290234375,2.6960234375,5.4871875,-3.5914609375,1.92529296875,1.6307578125,6.950796875,2.4784140625,-0.77788671875,0.236890624999999,4.17812890625,4.9697734375,-2.3185703125,-0.9133671875,-2.880375,1.956046875,-5.33611328125,0.711359375,1.2900234375,0.20346875,4.07084765625,1.98463671875,-2.86905859375,-1.7856171875,0.48903515625
-1.56770703125,-3.630703125,-2.4161484375,0.923515624999999,-3.72317578125,-1.32509765625,1.0850234375,4.9021875,-5.4424609375,-0.54070703125,-0.7842421875,6.086796875,1.6904140625,-2.10888671875,-1.958109375,2.57012890625,3.8227734375,-2.9345703125,-2.7103671875,-4.573375,1.234046875,-4.79111328125,0.226359375,-0.7689765625,-1.55453125,4.27384765625,1.81763671875,-1.09605859375,-0.2936171875,1.96403515625
-4.84470703125,-6.247703125,-5.0731484375,-0.780484375000001,-5.22017578125,-2.89609765625,-0.4309765625,3.5411875,-6.9684609375,-2.67570703125,-2.4752421875,5.074796875,0.2674140625,-3.27588671875,-3.407109375,1.00512890625,2.2607734375,-3.1995703125,-3.9453671875,-5.783375,0.837046875,-3.99411328125,0.00235937500000005,-2.1849765625,-2.95753125,4.41284765625,1.90563671875,0.54794140625,1.0313828125,3.17903515625
-7.52770703125,-8.396703125,-6.8801484375,-2.927484375,-6.12217578125,-3.83609765625,-1.6019765625,1.8111875,-8.0494609375,-4.29570703125,-3.2902421875,3.952796875,-1.6315859375,-4.31088671875,-4.057109375,-0.39687109375,0.3627734375,-3.2445703125,-4.6713671875,-6.493375,0.627046875,-3.14611328125,-0.226640625,-3.0859765625,-3.86653125,4.16684765625,1.89763671875,1.41794140625,1.5743828125,3.49503515625
-9.58770703125,-9.981703125,-7.5671484375,-5.255484375,-6.52117578125,-4.28509765625,-2.3219765625,0.1491875,-8.7384609375,-5.37870703125,-3.3862421875,2.706796875,-3.7005859375,-5.32688671875,-4.117109375,-1.66787109375,-1.7432265625,-3.3305703125,-5.0723671875,-6.849375,0.381046875,-2.50311328125,-0.701640625,-3.7229765625,-4.32553125,3.34784765625,1.50163671875,1.12294140625,0.9953828125,2.60903515625
-11.20070703125,-11.101703125,-7.3481484375,-7.485484375,-6.70217578125,-4.53909765625,-2.7159765625,-1.2028125,-9.2154609375,-6.05070703125,-3.1712421875,1.261796875,-5.6095859375,-6.48588671875,-3.980109375,-2.97787109375,-3.9072265625,-3.7815703125,-5.4103671875,-7.110375,-0.148953125,-2.32811328125,-1.563640625,-4.3589765625,-4.54453125,1.93784765625,0.58763671875,-0.34105859375,-0.6736171875,0.62903515625
-12.52670703125,-11.918703125,-6.7321484375,-9.363484375,-6.95417578125,-4.87909765625,-3.0289765625,-2.1928125,-9.6264609375,-6.48170703125,-3.0862421875,-0.395203125,-7.0735859375,-7.85388671875,-4.009109375,-4.45687109375,-5.9182265625,-4.7815703125,-5.8793671875,-7.495375,-1.086953125,-2.75811328125,-2.766640625,-5.1209765625,-4.75753125,0.11684765625,-0.74936328125,-2.55105859375,-3.0086171875,-1.96496484375
-13.43170703125,-12.411703125,-6.1481484375,-10.630484375,-7.36917578125,-5.39709765625,-3.4139765625,-2.8128125,-9.9614609375,-6.76970703125,-3.3632421875,-2.067203125,-7.8835859375,-9.29388671875,-4.335109375,-6.00887109375,-7.4792265625,-6.1945703125,-6.4703671875,-8.032375,-2.300953125,-3.64811328125,-4.039640625,-5.9069765625,-5.03653125,-1.72015234375,-2.17336328125,-4.75505859375,-5.2796171875,-4.45396484375
-13.41770703125,-12.253703125,-5.6241484375,-11.061484375,-7.78817578125,-5.93909765625,-3.8069765625,-2.9708125,-10.0734609375,-6.87570703125,-3.9032421875,-3.323203125,-7.9035859375,-10.46088671875,-4.785109375,-7.25787109375,-8.2372265625,-7.5475703125,-6.9423671875,-8.497375,-3.374953125,-4.56511328125,-4.948640625,-6.4129765625,-5.20653125,-3.01915234375,-3.19336328125,-6.13405859375,-6.6726171875,-6.06696484375
-11.86370703125,-10.943703125,-4.7761484375,-10.540484375,-7.90817578125,-6.19409765625,-3.9529765625,-2.4828125,-9.8004609375,-6.65470703125,-4.3472421875,-3.648203125,-7.0725859375,-10.93788671875,-4.982109375,-7.68287109375,-7.9222265625,-8.2085703125,-6.9293671875,-8.497375,-3.749953125,-4.94211328125,-5.056640625,-6.2909765625,-4.91653125,-3.22115234375,-3.33936328125,-6.10205859375,-6.5636171875,-6.19096484375
-8.46370703125,-8.169703125,-3.1131484375,-9.174484375,-7.45317578125,-5.86709765625,-3.5569765625,-1.1948125,-9.0744609375,-5.96970703125,-4.2812421875,-2.715203125,-5.4645859375,-10.43088671875,-4.563109375,-6.89087109375,-6.5022265625,-7.6645703125,-6.1423671875,-7.678375,-2.991953125,-4.35111328125,-4.133640625,-5.3589765625,-3.86053125,-2.00715234375,-2.37036328125,-4.55005859375,-4.7686171875,-4.56696484375
-3.60670703125,-4.174703125,-0.483148437500001,-7.352484375,-6.33317578125,-4.89009765625,-2.4989765625,0.8341875,-7.9794609375,-4.84570703125,-3.5112421875,-0.623203125,-3.3965859375,-8.95488671875,-3.418109375,-4.90887109375,-4.3022265625,-5.7945703125,-4.5843671875,-5.990375,-1.078953125,-2.75011328125,-2.332640625,-3.7719765625,-2.05153125,0.46084765625,-0.47236328125,-1.93605859375,-1.7016171875,-1.46996484375
1.58329296875,0.126296875,2.6348515625,-5.734484375,-4.79017578125,-3.54809765625,-1.0199765625,3.1901875,-6.7844609375,-3.58070703125,-2.2572421875,2.022796875,-1.4725859375,-6.92188671875,-1.854109375,-2.31987109375,-1.9662265625,-3.0165703125,-2.6763671875,-3.860375,1.447046875,-0.58311328125,-0.229640625,-2.0899765625,0.00546875000000002,3.45284765625,1.67863671875,0.81694140625,1.6533828125,2.21003515625
5.62529296875,3.433296875,5.2408515625,-5.045484375,-3.38317578125,-2.42309765625,0.2980234375,5.1651875,-5.8984609375,-2.68270703125,-1.1072421875,4.309796875,-0.3985859375,-5.04188671875,-0.532109375000001,-0.09087109375,-0.2332265625,-0.1905703125,-1.1653671875,-2.098375,3.636046875,1.37488671875,1.340359375,-1.1129765625,1.43946875,5.88684765625,3.10363671875,2.62894140625,4.0423828125,5.16503515625
7.32429296875,4.635296875,6.3018515625,-5.712484375,-2.73417578125,-2.10909765625,0.8110234375,6.0661875,-5.6894609375,-2.64370703125,-0.7272421875,5.410796875,-0.5805859375,-4.02288671875,-0.151109375000001,0.86312890625,0.3917734375,1.7534296875,-0.7763671875,-1.513375,4.571046875,2.39488671875,1.649359375,-1.5099765625,1.43346875,6.81984765625,2.95763671875,2.72494140625,4.4753828125,6.19203515625
6.27529296875,3.343296875,5.3018515625,-7.573484375,-3.16717578125,-2.88209765625,0.1860234375,5.5601875,-6.2484609375,-3.65470703125,-1.4722421875,4.974796875,-1.8085859375,-4.21888671875,-1.073109375,0.14912890625,-0.0922265624999998,2.2644296875,-1.8313671875,-2.476375,3.856046875,2.16388671875,0.427359375,-3.4349765625,-0.28353125,5.94784765625,0.97863671875,1.01094140625,2.7413828125,4.81103515625
2.92629296875,0.0582968750000004,2.4818515625,-9.925484375,-4.53317578125,-4.53609765625,-1.4399765625,3.8031875,-7.3084609375,-5.48470703125,-3.2102421875,3.255796875,-3.2945859375,-5.48388671875,-3.129109375,-1.93787109375,-1.2012265625,1.4014296875,-4.0753671875,-4.718375,1.806046875,0.91888671875,-2.005640625,-6.4129765625,-3.25653125,3.76584765625,-2.34936328125,-1.89605859375,-0.4746171875,1.52203515625
-1.74970703125,-4.132703125,-1.3521484375,-11.892484375,-6.32817578125,-6.51109765625,-3.6029765625,1.3071875,-8.3834609375,-7.59370703125,-5.4292421875,0.919796875,-4.0845859375,-7.28088671875,-5.736109375,-4.62287109375,-2.2712265625,-0.2705703125,-6.8373671875,-7.492375,-0.775953125,-0.70811328125,-4.918640625,-9.5789765625,-6.53853125,1.24084765625,-6.03936328125,-4.98905859375,-3.9596171875,-2.48296484375
-6.66570703125,-8.071703125,-5.2471484375,-12.821484375,-7.94017578125,-8.16009765625,-5.7679765625,-1.2978125,-9.0094609375,-9.35070703125,-7.4972421875,-1.304203125,-3.5325859375,-8.93288671875,-8.171109375,-7.04487109375,-2.8572265625,-1.9755703125,-9.3273671875,-9.949375,-3.030953125,-1.97511328125,-7.472640625,-12.0709765625,-9.17353125,-0.75115234375,-9.06436328125,-7.29705859375,-6.5416171875,-5.92496484375
-10.86470703125,-10.943703125,-8.4471484375,-12.460484375,-8.85417578125,-8.99409765625,-7.4869765625,-3.4528125,-8.8944609375,-10.25070703125,-8.8842421875,-2.909203125,-1.5395859375,-9.84488671875,-9.834109375,-8.59087109375,-2.9562265625,-3.0105703125,-10.9053671875,-11.454375,-4.415953125,-2.25311328125,-8.990640625,-13.3459765625,-10.58753125,-1.85215234375,-10.75336328125,-8.17805859375,-7.5286171875,-7.97596484375
-13.62770703125,-12.443703125,-10.5591484375,-10.950484375,-8.80917578125,-8.82109765625,-8.4759765625,-4.7928125,-7.9984609375,-10.05070703125,-9.2982421875,-3.738203125,1.4694140625,-9.66888671875,-10.411109375,-9.05887109375,-2.9392265625,-2.9475703125,-11.2313671875,-11.762375,-4.857953125,-1.19511328125,-9.123640625,-13.2889765625,-10.73453125,-2.28815234375,-10.96536328125,-7.44805859375,-6.8606171875,-8.46196484375
-14.60570703125,-12.738703125,-11.5751484375,-8.756484375,-7.93817578125,-7.81509765625,-8.6929765625,-5.2678125,-6.5744609375,-8.85670703125,-8.7692421875,-3.981203125,4.7024140625,-8.41888671875,-9.952109375,-8.68587109375,-3.2972265625,-1.7745703125,-10.3643671875,-11.065375,-4.725953125,1.10188671875,-7.949640625,-12.2199765625,-10.02953125,-2.63415234375,-10.08436328125,-5.45105859375,-5.0816171875,-7.82496484375
-13.95070703125,-12.320703125,-11.8101484375,-6.563484375,-6.78617578125,-6.48109765625,-8.3879765625,-5.1678125,-5.1214609375,-7.12870703125,-7.6692421875,-4.067203125,7.1984140625,-6.52388671875,-8.855109375,-8.05587109375,-4.3732265625,0.0604296875,-8.7843671875,-9.910375,-4.651953125,4.00888671875,-5.999640625,-10.7919765625,-9.15953125,-3.48115234375,-8.86136328125,-3.03205859375,-3.1716171875,-6.89796484375
-12.29970703125,-11.794703125,-11.7401484375,-5.069484375,-6.06517578125,-5.46709765625,-8.0139765625,-4.9718125,-4.1814609375,-5.54570703125,-6.5992421875,-4.453203125,8.1064140625,-4.68988671875,-7.710109375,-7.86387109375,-6.1982265625,1.8124296875,-7.2303671875,-8.993375,-5.245953125,6.49388671875,-4.114640625,-9.7699765625,-8.80553125,-5.13915234375,-8.13836328125,-1.29205859375,-2.1796171875,-6.56496484375
-10.50170703125,-11.637703125,-11.7761484375,-4.698484375,-6.26717578125,-5.26909765625,-7.9769765625,-5.0828125,-4.0554609375,-4.72270703125,-6.1132421875,-5.368203125,7.0224140625,-3.60588671875,-7.026109375,-8.57387109375,-8.4532265625,2.7714296875,-6.3763671875,-8.832375,-6.760953125,7.53088671875,-3.097640625,-9.6909765625,-9.31853125,-7.45215234375,-8.46536328125,-1.09305859375,-2.7406171875,-7.31796484375
-9.23770703125,-12.006703125,-12.0771484375,-5.403484375,-7.39217578125,-5.97109765625,-8.4059765625,-5.6008125,-4.6384609375,-4.90770703125,-6.4382421875,-6.654203125,4.2544140625,-3.61488671875,-6.982109375,-10.12787109375,-10.5502265625,2.6054296875,-6.4983671875,-9.477375,-8.880953125,6.60088671875,-3.322640625,-10.5719765625,-10.51053125,-9.76415234375,-9.78936328125,-2.57105859375,-4.6736171875,-8.92296484375
-8.76770703125,-12.698703125,-12.4981484375,-6.675484375,-8.96817578125,-7.18809765625,-9.0759765625,-6.2818125,-5.5034609375,-5.86070703125,-7.3472421875,-7.808203125,0.7884140625,-4.56788671875,-7.368109375,-11.92087109375,-11.8162265625,1.5004296875,-7.3583671875,-10.459375,-10.794953125,3.99588671875,-4.555640625,-11.8509765625,-11.69353125,-11.10915234375,-11.42536328125,-4.98005859375,-6.9826171875,-10.45796484375
-8.98370703125,-13.313703125,-12.7461484375,-7.838484375,-10.34017578125,-8.28509765625,-9.5559765625,-6.6988125,-6.1654609375,-7.03070703125,-8.3182421875,-8.247203125,-2.1075859375,-5.96988671875,-7.772109375,-13.09387109375,-11.7552265625,0.00442968750000002,-8.4023671875,-11.064375,-11.587953125,0.68788671875,-6.136640625,-12.6999765625,-12.05653125,-10.65715234375,-12.42336328125,-7.07405859375,-8.3626171875,-10.80296484375
-9.68870703125,-13.563703125,-12.6501484375,-8.439484375,-11.06317578125,-8.77409765625,-9.5219765625,-6.5418125,-6.3954609375,-7.94270703125,-8.8812421875,-7.685203125,-3.5225859375,-7.32088671875,-7.910109375,-13.04387109375,-10.2952265625,-1.3385703125,-9.1583671875,-10.799375,-10.780953125,-2.20311328125,-7.445640625,-12.5419765625,-11.18253125,-8.24015234375,-12.15136328125,-7.85205859375,-7.9776171875,-9.38996484375
-10.80670703125,-13.502703125,-12.3661484375,-8.513484375,-11.15817578125,-8.60909765625,-9.0099765625,-5.8558125,-6.3654609375,-8.49370703125,-8.9322421875,-6.358203125,-3.3735859375,-8.41788671875,-7.856109375,-11.78487109375,-7.8852265625,-2.3125703125,-9.5423671875,-9.724375,-8.654953125,-4.00811328125,-8.274640625,-11.4269765625,-9.35353125,-4.62715234375,-10.72136328125,-7.17705859375,-6.0136171875,-6.67396484375
-12.31370703125,-13.463703125,-12.2811484375,-8.458484375,-11.04517578125,-8.15209765625,-8.4149765625,-5.0408125,-6.4814609375,-8.91870703125,-8.7372421875,-4.915203125,-2.3825859375,-9.35088671875,-7.939109375,-9.91887109375,-5.3432265625,-3.0405703125,-9.8103671875,-8.374375,-6.121953125,-4.72011328125,-8.826640625,-9.9579765625,-7.38753125,-1.24915234375,-8.87936328125,-5.77905859375,-3.5536171875,-3.92596484375
-13.90270703125,-13.689703125,-12.6111484375,-8.617484375,-11.13417578125,-7.81809765625,-8.1579765625,-4.5538125,-6.9764609375,-9.44570703125,-8.6262421875,-4.002203125,-1.5185859375,-10.19588671875,-8.374109375,-8.21387109375,-3.4702265625,-3.6815703125,-10.1763671875,-7.307375,-4.175953125,-4.69411328125,-9.332640625,-8.7959765625,-6.07153125,0.55484765625,-7.42936328125,-4.63305859375,-1.8216171875,-2.40896484375
-14.75870703125,-13.949703125,-13.0271484375,-8.916484375,-11.38717578125,-7.68109765625,-8.2919765625,-4.5298125,-7.5764609375,-9.95470703125,-8.6202421875,-3.834203125,-1.3185859375,-10.70788671875,-8.946109375,-7.10987109375,-2.6712265625,-4.0875703125,-10.4303671875,-6.641375,-3.312953125,-4.15411328125,-9.663640625,-8.1229765625,-5.61653125,0.28684765625,-6.63036328125,-4.22205859375,-1.3686171875,-2.54396484375
-13.76570703125,-13.518703125,-12.6671484375,-8.884484375,-11.23917578125,-7.36809765625,-8.4009765625,-4.6508125,-7.5544609375,-9.92770703125,-8.3412421875,-4.086203125,-1.5615859375,-10.30188671875,-9.025109375,-6.51987109375,-2.8042265625,-3.7735703125,-9.9363671875,-5.960375,-3.323953125,-2.95711328125,-9.280640625,-7.5009765625,-5.54253125,-1.48215234375,-6.03136328125,-4.24105859375,-1.7846171875,-3.68596484375
-10.16470703125,-11.625703125,-10.6721484375,-8.025484375,-9.96617578125,-6.33109765625,-7.8959765625,-4.3808125,-6.1744609375,-8.76370703125,-7.2832421875,-4.146203125,-1.4875859375,-8.40888671875,-7.963109375,-6.01487109375,-3.3502265625,-2.2355703125,-8.0373671875,-4.650375,-3.567953125,-0.80511328125,-7.586640625,-6.2079765625,-5.05453125,-3.53415234375,-4.85536328125,-3.92305859375,-2.0986171875,-4.62396484375
-4.22970703125,-8.080703125,-6.8671484375,-6.223484375,-7.21917578125,-4.27109765625,-6.4539765625,-3.3758125,-3.2124609375,-6.20770703125,-5.2302421875,-3.548203125,-0.3655859375,-4.91088671875,-5.562109375,-5.20987109375,-3.7552265625,0.6334296875,-4.5703671875,-2.401375,-3.442953125,2.32488671875,-4.409640625,-3.7889765625,-3.61753125,-4.72815234375,-2.60036328125,-2.64505859375,-1.4806171875,-4.37296484375
2.51129296875,-3.623703125,-2.1101484375,-3.862484375,-3.31817578125,-1.41309765625,-4.2629765625,-1.7598125,0.829539062499999,-2.62370703125,-2.4992421875,-2.256203125,1.9574140625,-0.36888671875,-2.297109375,-4.06087109375,-3.7362265625,4.3404296875,-0.1263671875,0.515625,-2.731953125,5.90688671875,-0.257640625,-0.4399765625,-1.30753125,-4.54115234375,0.56363671875,-0.37405859375,0.2683828125,-2.69696484375
7.75629296875,0.304296875,2.0028515625,-1.646484375,0.81982421875,1.54390234375,-1.9559765625,-0.0908124999999997,4.9185390625,1.09829296875,0.1567578125,-0.664203125,4.8694140625,4.12811328125,0.843890624999998,-2.87687109375,-3.3772265625,7.9354296875,4.1396328125,3.341625,-1.634953125,8.98188671875,3.814359375,3.0260234375,1.22846875,-3.16415234375,3.84763671875,2.29894140625,2.6633828125,-0.11596484375
9.45929296875,2.260296875,3.9018515625,-0.248484375000001,4.06382421875,3.75190234375,-0.2869765625,0.9411875,7.9475390625,3.91229296875,1.9097578125,0.650796875,7.2574140625,7.40011328125,2.816890625,-2.09687109375,-3.0032265625,10.4014296875,7.0006328125,5.233625,-0.550953125,10.58688671875,6.660359375,5.5600234375,3.15646875,-1.21915234375,6.24863671875,4.47494140625,4.8523828125,2.45503515625
6.86729296875,1.557296875,2.8478515625,0.0225156249999996,5.55582421875,4.61890234375,0.2430234375,0.9161875,9.2075390625,5.08729296875,2.2797578125,1.263796875,8.0694140625,8.66811328125,3.010890625,-1.98787109375,-2.9222265625,11.0844296875,7.7056328125,5.693625,0.210046875,10.23288671875,7.550359375,6.4050234375,3.90446875,0.65184765625,7.06663671875,5.42694140625,6.0773828125,4.18303515625
0.98529296875,-1.392703125,-0.6901484375,-0.642484375000001,5.08282421875,4.06990234375,-0.3559765625,-0.0448124999999999,8.6225390625,4.48829296875,1.3577578125,1.126796875,6.8504140625,7.85011328125,1.522890625,-2.46187109375,-3.1992265625,9.9554296875,6.2856328125,4.793625,0.591046875,8.14388671875,6.469359375,5.4630234375,3.44846875,2.08484765625,6.23163671875,4.96194140625,6.0323828125,4.66403515625
-5.85770703125,-5.323703125,-5.2621484375,-1.703484375,3.11682421875,2.52290234375,-1.5939765625,-1.3278125,6.6725390625,2.54929296875,-0.266242187500001,0.563796875,3.9414140625,5.51511328125,-0.933109375000001,-3.13087109375,-3.6022265625,7.5714296875,3.4766328125,3.100625,0.777046875,5.14488671875,4.051359375,3.3150234375,2.27646875,3.07784765625,4.29663671875,3.48894140625,4.9723828125,4.02603515625
-11.14870703125,-8.775703125,-9.1261484375,-2.640484375,0.51582421875,0.64090234375,-2.7969765625,-2.1588125,4.0755390625,0.0112929687499999,-1.8412421875,0.059796875,0.2564140625,2.55211328125,-3.394109375,-3.53287109375,-3.7322265625,4.7794296875,0.3426328125,1.369625,1.030046875,2.28688671875,1.246359375,0.9080234375,1.09746875,3.86984765625,2.12463671875,1.76794140625,3.5163828125,2.78003515625
-13.35470703125,-10.717703125,-10.9901484375,-3.274484375,-1.90117578125,-0.97209765625,-3.4539765625,-2.0158125,1.4895390625,-2.40670703125,-2.8112421875,0.00179687499999992,-3.1575859375,-0.21688671875,-5.073109375,-3.37087109375,-3.2392265625,2.3434296875,-2.1953671875,0.207625,1.526046875,0.41088671875,-1.106640625,-0.8929765625,0.48346875,4.73284765625,0.46563671875,0.47494140625,2.2843828125,1.53403515625
-12.46770703125,-10.836703125,-10.4341484375,-3.784484375,-3.59617578125,-1.96109765625,-3.3809765625,-0.8268125,-0.6114609375,-4.22270703125,-2.9992421875,0.531796875,-5.5395859375,-2.26888671875,-5.609109375,-2.61787109375,-1.9822265625,0.7134296875,-3.6503671875,-0.118374999999999,2.282046875,-0.13911328125,-2.563640625,-1.6349765625,0.64146875,5.79484765625,-0.34736328125,-0.12805859375,1.6053828125,0.73203515625
-9.71070703125,-9.447703125,-7.8951484375,-4.462484375,-4.34117578125,-2.23809765625,-2.6699765625,1.0971875,-1.9164609375,-5.23970703125,-2.5542421875,1.566796875,-6.6325859375,-3.40888671875,-5.076109375,-1.46587109375,-0.0842265624999998,-0.00757031249999998,-3.9983671875,0.318625,3.194046875,0.42588671875,-3.121640625,-1.3569765625,1.41646875,6.98784765625,-0.43536328125,-0.24105859375,1.4463828125,0.55503515625
-6.72170703125,-7.232703125,-4.3451484375,-5.420484375,-4.15717578125,-1.91209765625,-1.5569765625,3.2491875,-2.2494609375,-5.47570703125,-1.7812421875,2.889796875,-6.7065859375,-3.67488671875,-3.830109375,-0.19887109375,2.1047734375,0.0264296875,-3.5233671875,1.231625,4.091046875,1.50288671875,-3.063640625,-0.4569765625,2.44746875,8.09484765625,-0.18436328125,-0.30305859375,1.5573828125,0.94403515625
-4.74870703125,-4.981703125,-0.8971484375,-6.486484375,-3.27017578125,-1.20309765625,-0.3369765625,5.1091875,-1.6014609375,-5.06670703125,-0.9862421875,4.230796875,-6.3625859375,-3.23488671875,-2.315109375,0.90512890625,4.1077734375,0.5084296875,-2.6123671875,2.268625,4.792046875,2.39188671875,-2.751640625,0.5280234375,3.34846875,8.84384765625,0.0256367187499999,-0.66105859375,1.6823828125,1.70803515625
-4.24070703125,-3.405703125,1.5088515625,-7.279484375,-2.04717578125,-0.36509765625,0.6950234375,6.2751875,-0.171460937500001,-4.20270703125,-0.3942421875,5.317796875,-6.2145859375,-2.32188671875,-0.907109375000001,1.64112890625,5.4607734375,1.0734296875,-1.6083671875,3.132625,5.142046875,2.60388671875,-2.465640625,1.1480234375,3.84746875,9.00384765625,0.00463671874999991,-1.33105859375,1.7133828125,2.59703515625
-4.91870703125,-2.978703125,2.3168515625,-7.433484375,-0.89317578125,0.36890234375,1.3040234375,6.5541875,1.6475390625,-3.11670703125,-0.1292421875,5.913796875,-6.5545859375,-1.20288671875,0.151890624999999,1.88712890625,5.8587734375,1.3954296875,-0.7533671875,3.627625,5.045046875,2.05188671875,-2.365640625,1.1730234375,3.83546875,8.45584765625,-0.22036328125,-2.02005859375,1.6903828125,3.36803515625
-6.17670703125,-3.811703125,1.4238515625,-6.835484375,-0.17217578125,0.79990234375,1.3390234375,5.9541875,3.3295390625,-2.08970703125,-0.2572421875,5.847796875,-7.2345859375,-0.19488671875,0.733890624999999,1.59312890625,5.2277734375,1.2364296875,-0.2273671875,3.661625,4.470046875,1.01088671875,-2.530640625,0.6060234375,3.33546875,7.21284765625,-0.51336328125,-2.35105859375,1.7033828125,3.82503515625
-7.51870703125,-5.612703125,-0.858148437500001,-5.779484375,-0.17217578125,0.77190234375,0.7230234375,4.6131875,4.3185390625,-1.43770703125,-0.8212421875,5.044796875,-7.8135859375,0.36011328125,0.755890624999999,0.76912890625,3.7257734375,0.4854296875,-0.1773671875,3.218625,3.451046875,-0.0841132812500001,-2.990640625,-0.3959765625,2.45946875,5.42684765625,-0.74336328125,-2.12905859375,1.7963828125,3.88103515625
-8.75970703125,-7.775703125,-3.9261484375,-4.858484375,-1.04817578125,0.20690234375,-0.5159765625,2.7441875,4.2325390625,-1.42770703125,-1.8292421875,3.583796875,-7.8635859375,0.19811328125,0.181890624999999,-0.48587109375,1.6947734375,-0.8125703125,-0.6963671875,2.370625,2.110046875,-0.87111328125,-3.708640625,-1.6039765625,1.39046875,3.39084765625,-0.84136328125,-1.42005859375,1.9813828125,3.62703515625
-9.92370703125,-9.610703125,-7.0411484375,-4.634484375,-2.70217578125,-0.82509765625,-2.1629765625,0.6481875,3.0735390625,-2.15370703125,-3.1692421875,1.766796875,-7.2115859375,-0.70888671875,-0.915109375000001,-1.92887109375,-0.4022265625,-2.4055703125,-1.7183671875,1.314625,0.706046875,-1.16311328125,-4.518640625,-2.7459765625,0.39946875,1.50784765625,-0.76536328125,-0.43205859375,2.3163828125,3.32903515625
-11.00970703125,-10.593703125,-9.4941484375,-5.301484375,-4.74317578125,-2.07309765625,-3.7959765625,-1.2598125,1.2895390625,-3.45670703125,-4.5702421875,0.098796875,-5.9965859375,-2.07788671875,-2.299109375,-3.18187109375,-2.0682265625,-3.8675703125,-2.9703671875,0.360625,-0.379953125,-0.94611328125,-5.132640625,-3.5449765625,-0.18353125,0.19784765625,-0.47036328125,0.64294140625,2.9033828125,3.29703515625
-11.87270703125,-10.544703125,-10.7871484375,-6.609484375,-6.63817578125,-3.19909765625,-4.9439765625,-2.5418125,-0.4484609375,-4.98170703125,-5.6902421875,-0.890203125,-4.5795859375,-3.44688671875,-3.632109375,-3.86787109375,-2.9362265625,-4.7845703125,-4.0693671875,-0.185375,-0.794953125,-0.34411328125,-5.266640625,-3.8189765625,-0.10953125,-0.30515234375,0.0426367187499999,1.65094140625,3.7523828125,3.63403515625
-12.29270703125,-9.647703125,-10.7741484375,-8.060484375,-7.97717578125,-3.94509765625,-5.3339765625,-2.9098125,-1.6014609375,-6.34070703125,-6.2942421875,-0.937203125,-3.4005859375,-4.42988671875,-4.613109375,-3.82587109375,-2.9132265625,-4.9845703125,-4.7223671875,-0.187375,-0.427953125,0.37888671875,-4.836640625,-3.6109765625,0.61046875,-0.13915234375,0.62363671875,2.38294140625,4.6043828125,4.04803515625
-12.13770703125,-8.325703125,-9.6941484375,-9.200484375,-8.62317578125,-4.25509765625,-5.0359765625,-2.3638125,-2.0074609375,-7.27270703125,-6.3762421875,-0.210203125,-2.8435859375,-4.90088671875,-5.105109375,-3.22987109375,-2.2332265625,-4.6455703125,-4.8693671875,0.219625,0.463046875,0.85388671875,-4.058640625,-3.2179765625,1.62346875,0.15984765625,0.94263671875,2.51494140625,4.9323828125,3.90803515625
-11.48970703125,-7.064703125,-8.0721484375,-9.802484375,-8.68717578125,-4.25409765625,-4.3759765625,-1.2148125,-1.8414609375,-7.70070703125,-6.1302421875,0.776796875,-3.1245859375,-4.98688671875,-5.148109375,-2.50987109375,-1.3202265625,-4.1815703125,-4.6713671875,0.701625,1.357046875,0.71488671875,-3.357640625,-3.0659765625,2.37046875,-0.08115234375,0.61363671875,1.73894140625,4.2003828125,2.60603515625
-10.63970703125,-6.238703125,-6.5341484375,-9.900484375,-8.40517578125,-4.12809765625,-3.7429765625,0.0111875000000001,-1.4224609375,-7.67170703125,-5.8052421875,1.462796875,-4.2075859375,-4.90588671875,-4.884109375,-2.11487109375,-0.5772265625,-3.9875703125,-4.3753671875,0.925625,1.733046875,-0.21711328125,-3.130640625,-3.4779765625,2.38546875,-1.24715234375,-0.57336328125,-0.00405859374999995,2.2243828125,0.00903515624999998
-9.99070703125,-6.035703125,-5.6291484375,-9.685484375,-8.01917578125,-4.01309765625,-3.4219765625,0.7291875,-1.0064609375,-7.27770703125,-5.5822421875,1.522796875,-5.7855859375,-4.80588671875,-4.485109375,-2.28387109375,-0.2112265625,-4.2145703125,-4.1783671875,0.720625000000001,1.346046875,-1.79411328125,-3.533640625,-4.5169765625,1.54946875,-3.15715234375,-2.48636328125,-2.36505859375,-0.6266171875,-3.34096484375
-9.91270703125,-6.458703125,-5.6901484375,-9.342484375,-7.69717578125,-3.96309765625,-3.5209765625,0.4761875,-0.678460937500001,-6.64070703125,-5.5362421875,0.944796875,-7.3505859375,-4.71388671875,-4.107109375,-2.97887109375,-0.2302265625,-4.7225703125,-4.1763671875,0.125625,0.312046875,-3.55211328125,-4.437640625,-5.9819765625,0.12846875,-5.14915234375,-4.69836328125,-4.68205859375,-3.5776171875,-6.46496484375
-10.60770703125,-7.371703125,-6.7571484375,-8.933484375,-7.49217578125,-3.98809765625,-3.9859765625,-0.9298125,-0.367460937500001,-5.92470703125,-5.6722421875,-0.076203125,-8.3385859375,-4.57788671875,-3.882109375,-3.98287109375,-0.5482265625,-5.1875703125,-4.3773671875,-0.704375,-1.006953125,-4.92211328125,-5.544640625,-7.5489765625,-1.40953125,-6.49315234375,-6.70436328125,-6.28505859375,-5.8356171875,-8.48796484375
-12.02570703125,-8.548703125,-8.5711484375,-8.406484375,-7.36217578125,-4.09409765625,-4.6769765625,-3.3138125,0.0525390624999993,-5.31570703125,-5.9812421875,-1.328203125,-8.3295859375,-4.34088671875,-3.888109375,-5.06387109375,-1.1082265625,-5.3095703125,-4.7383671875,-1.603375,-2.220953125,-5.51911328125,-6.552640625,-8.9259765625,-2.65253125,-6.81915234375,-8.14936328125,-6.81005859375,-6.9556171875,-9.07796484375
-13.83870703125,-9.722703125,-10.6541484375,-7.716484375,-7.26417578125,-4.30609765625,-5.4599765625,-6.1978125,0.6205390625,-4.97070703125,-6.4722421875,-2.691203125,-7.2355859375,-3.99188671875,-4.123109375,-6.09687109375,-1.9162265625,-4.9775703125,-5.1983671875,-2.454375,-3.108953125,-5.30611328125,-7.267640625,-9.9479765625,-3.41753125,-6.26615234375,-8.92836328125,-6.32505859375,-6.9616171875,-8.51896484375
-15.49470703125,-10.635703125,-12.4471484375,-6.942484375,-7.20517578125,-4.66509765625,-6.2579765625,-8.9578125,1.2035390625,-4.97070703125,-7.1582421875,-4.149203125,-5.3915859375,-3.58488671875,-4.500109375,-7.06787109375,-3.0052265625,-4.3255703125,-5.6943671875,-3.176375,-3.667953125,-4.56111328125,-7.639640625,-10.5749765625,-3.76253125,-5.31915234375,-9.13736328125,-5.23105859375,-6.2226171875,-7.43596484375
-16.37570703125,-11.067703125,-13.4741484375,-6.266484375,-7.22717578125,-5.19209765625,-7.0289765625,-11.0268125,1.5315390625,-5.30670703125,-8.0142421875,-5.706203125,-3.4485859375,-3.22488671875,-4.877109375,-8.00087109375,-4.3692265625,-3.6475703125,-6.1593671875,-3.700375,-4.041953125,-3.68111328125,-7.741640625,-10.8299765625,-3.87753125,-4.49915234375,-8.97136328125,-4.06305859375,-5.2256171875,-6.41996484375
-16.00570703125,-10.848703125,-13.4581484375,-5.848484375,-7.34217578125,-5.83909765625,-7.7239765625,-12.0758125,1.3515390625,-5.87270703125,-8.9262421875,-7.295203125,-2.0715859375,-3.00488671875,-5.084109375,-8.84387109375,-5.9202265625,-3.2275703125,-6.5013671875,-3.937375,-4.388953125,-2.94611328125,-7.682640625,-10.7179765625,-3.91153125,-4.12215234375,-8.59636328125,-3.25905859375,-4.3596171875,-5.78496484375
-14.21770703125,-9.847703125,-12.3501484375,-5.675484375,-7.48317578125,-6.42409765625,-8.2409765625,-12.0768125,0.6205390625,-6.43970703125,-9.6622421875,-8.724203125,-1.5765859375,-2.91888671875,-4.938109375,-9.39987109375,-7.4742265625,-3.1435703125,-6.5523671875,-3.761375,-4.758953125,-2.36211328125,-7.482640625,-10.1489765625,-3.84653125,-4.20815234375,-8.03836328125,-2.95805859375,-3.7726171875,-5.49896484375
-11.15470703125,-7.980703125,-10.2801484375,-5.506484375,-7.46817578125,-6.63409765625,-8.3989765625,-11.2178125,-0.3504609375,-6.66870703125,-9.9012421875,-9.689203125,-1.7355859375,-2.77988671875,-4.238109375,-9.35987109375,-8.7792265625,-3.1705703125,-6.0573671875,-3.013375,-5.038953125,-1.65711328125,-6.980640625,-8.9339765625,-3.47753125,-4.54115234375,-7.13836328125,-2.92205859375,-3.3136171875,-5.27596484375
-7.14370703125,-5.247703125,-7.4771484375,-4.962484375,-7.03117578125,-6.13709765625,-7.9609765625,-9.7378125,-0.947460937500001,-6.22570703125,-9.3532421875,-9.870203125,-1.9215859375,-2.26488671875,-2.831109375,-8.45387109375,-9.5662265625,-2.8615703125,-4.7703671875,-1.583375,-5.011953125,-0.47611328125,-5.893640625,-6.8909765625,-2.55053125,-4.80915234375,-5.65036328125,-2.64505859375,-2.6216171875,-4.74496484375
-2.58570703125,-1.823703125,-4.2171484375,-3.743484375,-5.95117578125,-4.78309765625,-6.7529765625,-7.8118125,-0.5334609375,-4.96070703125,-7.9262421875,-9.107203125,-1.5215859375,-1.09888671875,-0.743109375000001,-6.66487109375,-9.6362265625,-1.8145703125,-2.6303671875,0.463625,-4.496953125,1.31388671875,-4.027640625,-4.0239765625,-0.97653125,-4.75515234375,-3.43736328125,-1.63905859375,-1.3546171875,-3.65196484375
2.02129296875,1.877296875,-0.8311484375,-1.876484375,-4.26217578125,-2.77809765625,-4.8489765625,-5.5898125,1.1675390625,-3.06270703125,-5.8692421875,-7.542203125,-0.3625859375,0.70911328125,1.697890625,-4.35187109375,-8.9332265625,0.0204296875,0.0746328125,2.783625,-3.494953125,3.40488671875,-1.499640625,-0.6769765625,1.01446875,-4.28415234375,-0.67636328125,0.24094140625,0.5603828125,-2.00096484375
5.99629296875,5.238296875,2.2678515625,0.215515625,-2.34717578125,-0.68809765625,-2.6589765625,-3.3038125,3.8535390625,-1.03870703125,-3.7622421875,-5.641203125,1.1484140625,2.76111328125,3.875890625,-2.18187109375,-7.5962265625,2.2104296875,2.7086328125,4.798625,-2.230953125,5.12688671875,1.188359375,2.4830234375,2.88546875,-3.50115234375,2.10963671875,2.64994140625,2.8093828125,-0.08196484375
8.53529296875,7.626296875,4.6248515625,1.900515625,-0.78917578125,0.80890234375,-0.7869765625,-1.2838125,6.7675390625,0.48629296875,-2.2862421875,-4.018203125,2.2814140625,4.43311328125,5.123890625,-0.84087109375,-5.9262265625,4.0234296875,4.5286328125,5.906625,-1.043953125,5.79888671875,3.318359375,4.7070234375,4.01846875,-2.65515234375,4.23063671875,4.90094140625,4.8233828125,1.65003515625
9.02429296875,8.653296875,5.8788515625,2.678515625,-0.0651757812499998,1.26390234375,0.2780234375,0.1401875,9.0825390625,1.08129296875,-1.8932421875,-3.129203125,2.4604140625,5.20511328125,5.066890625,-0.67387109375,-4.2682265625,4.8334296875,5.0526328125,5.792625,-0.187953125,5.14888671875,4.305359375,5.5170234375,4.04446875,-2.01815234375,5.16863671875,6.32394140625,6.0993828125,2.82103515625
7.42829296875,8.353296875,5.9028515625,2.415515625,-0.32317578125,0.69990234375,0.3930234375,0.7711875,10.2625390625,0.72729296875,-2.5632421875,-3.039203125,1.6304140625,4.94811328125,3.862890625,-1.49387109375,-2.8542265625,4.4594296875,4.3186328125,4.618625,0.307046875,3.48988671875,4.001359375,4.9420234375,3.08146875,-1.73115234375,4.86363671875,6.62494140625,6.4803828125,3.35703515625
4.42729296875,7.110296875,4.8378515625,1.343515625,-1.37717578125,-0.43809765625,-0.2269765625,0.6081875,10.2025390625,-0.19670703125,-3.8442421875,-3.422203125,0.2654140625,3.95611328125,2.149890625,-2.69487109375,-1.7192265625,3.2294296875,2.8406328125,2.972625,0.607046875,1.52888671875,2.757359375,3.4860234375,1.68346875,-1.73015234375,3.73663671875,5.99494140625,6.1913828125,3.49403515625
1.15429296875,5.406296875,3.0158515625,-0.0944843750000004,-2.83617578125,-1.54509765625,-1.1759765625,-0.1788125,9.1635390625,-1.14570703125,-5.1162421875,-3.784203125,-0.9575859375,2.75011328125,0.736890624999999,-3.59687109375,-0.7472265625,1.7574296875,1.3296328125,1.578625,0.927046875,-0.0071132812500001,1.200359375,1.8470234375,0.54146875,-1.78615234375,2.43663671875,4.91294140625,5.6153828125,3.58403515625
-1.30170703125,3.615296875,0.8808515625,-1.404484375,-4.23017578125,-2.14909765625,-2.0359765625,-1.3048125,7.6215390625,-1.68070703125,-5.8752421875,-3.731203125,-1.5595859375,1.82511328125,0.242890624999998,-3.77487109375,0.1887734375,0.6474296875,0.3666328125,0.982625000000001,1.396046875,-0.68011328125,-0.080640625,0.6080234375,0.12346875,-1.64415234375,1.49663671875,3.82294140625,5.0133828125,3.83803515625
-2.30770703125,1.970296875,-1.0781484375,-2.186484375,-5.12217578125,-2.05109765625,-2.4989765625,-2.4448125,6.1095390625,-1.60270703125,-5.8852421875,-3.138203125,-1.4695859375,1.47311328125,0.887890624999999,-3.16887109375,1.1127734375,0.2614296875,0.2146328125,1.361625,2.018046875,-0.45811328125,-0.761640625,0.0570234375000001,0.47946875,-1.16015234375,1.11363671875,2.90994140625,4.4023828125,4.20003515625
-1.82570703125,0.633296875,-2.4301484375,-2.236484375,-5.20517578125,-1.29909765625,-2.4219765625,-3.3218125,5.0815390625,-0.93370703125,-5.1682421875,-2.158203125,-0.9215859375,1.74611328125,2.491890625,-1.99587109375,1.9327734375,0.6464296875,0.8066328125,2.539625,2.708046875,0.34988671875,-0.831640625,0.1860234375,1.28546875,-0.38015234375,1.15563671875,2.07294140625,3.6413828125,4.42103515625
-0.316707031250001,-0.255703125,-2.9421484375,-1.602484375,-4.36317578125,-0.06809765625,-1.8009765625,-3.7618125,4.8215390625,0.18629296875,-3.8922421875,-1.090203125,-0.1655859375,2.51211328125,4.621890625,-0.56087109375,2.5127734375,1.5854296875,1.8596328125,4.123625,3.339046875,1.25788671875,-0.503640625,0.7760234375,2.05446875,0.47884765625,1.31863671875,1.08394140625,2.6143828125,4.23303515625
1.50629296875,-0.597703125,-2.6911484375,-0.529484375,-2.65917578125,1.46190234375,-0.6919765625,-3.6868125,5.4195390625,1.58829296875,-2.2552421875,-0.192203125,0.7654140625,3.55711328125,6.779890625,0.89512890625,2.7837734375,2.7264296875,3.0476328125,5.685625,3.800046875,1.84088671875,-0.054640625,1.5280234375,2.40146875,1.15184765625,1.32763671875,-0.16805859375,1.4003828125,3.53903515625
2.92829296875,-0.365703125,-2.0401484375,0.634515624999999,-0.30917578125,3.14590234375,0.8360234375,-3.1058125,6.7695390625,3.11529296875,-0.435242187500001,0.458796875,2.0404140625,4.67111328125,8.555890625,2.25212890625,2.7827734375,3.7144296875,4.1326328125,6.904625,4.024046875,1.94888671875,0.321359375,2.1830234375,2.21946875,1.47984765625,1.08363671875,-1.48605859375,0.3073828125,2.49803515625
3.44329296875,0.344296875,-1.4871484375,1.526515625,2.29282421875,4.82490234375,2.6500234375,-2.1518125,8.5565390625,4.60229296875,1.3717578125,0.939796875,3.7534140625,5.67411328125,9.684890625,3.45312890625,2.5937734375,4.2494296875,4.9956328125,7.612625,4.000046875,1.76288671875,0.579359375,2.5740234375,1.67546875,1.50284765625,0.67963671875,-2.39705859375,-0.2586171875,1.45603515625
2.84429296875,1.273296875,-1.4641484375,1.854515625,4.57582421875,6.24390234375,4.4600234375,-1.1198125,10.2815390625,5.82629296875,2.8887578125,1.333796875,5.6354140625,6.38911328125,10.028890625,4.39012890625,2.2207734375,4.0934296875,5.5586328125,7.748625,3.722046875,1.60788671875,0.751359375,2.6000234375,1.03446875,1.36884765625,0.27263671875,-2.42805859375,-0.0696171874999998,0.70603515625
1.23629296875,2.023296875,-2.1351484375,1.487515625,5.94082421875,7.05290234375,5.8270234375,-0.3978125,11.4065390625,6.50529296875,3.7607578125,1.582796875,7.0454140625,6.63411328125,9.550890625,4.86012890625,1.5187734375,3.0874296875,5.7076328125,7.284625,3.135046875,1.64588671875,0.822359375,2.1790234375,0.42646875,1.14284765625,-0.0983632812500001,-1.47505859375,0.6803828125,0.24903515625
-1.01770703125,2.204296875,-3.2951484375,0.516515624999999,5.99582421875,6.92790234375,6.3270234375,-0.3008125,11.5715390625,6.38929296875,3.6917578125,1.494796875,7.2874140625,6.28311328125,8.312890625,4.65112890625,0.2747734375,1.2354296875,5.3166328125,6.219625,2.158046875,1.70788671875,0.682359375,1.2440234375,-0.22453125,0.71084765625,-0.56936328125,0.03694140625,1.4063828125,-0.21596484375
-3.40570703125,1.653296875,-4.4391484375,-0.802484375,4.73482421875,5.75990234375,5.7450234375,-0.9208125,10.7425390625,5.39829296875,2.6057578125,0.887796875,6.0084140625,5.33711328125,6.511890625,3.68412890625,-1.5832265625,-1.2195703125,4.3546328125,4.634625,0.775046875,1.41388671875,0.216359375,-0.1869765625,-1.08253125,-0.09615234375,-1.30836328125,1.37894140625,1.4683828125,-1.01596484375
-5.42070703125,0.539296875,-5.0141484375,-2.204484375,2.52482421875,3.73990234375,4.1630234375,-2.0828125,9.1945390625,3.69029296875,0.7117578125,-0.257203125,3.4014140625,3.95211328125,4.452890625,2.09312890625,-3.8352265625,-3.8165703125,2.9616328125,2.740625,-0.875953125,0.49188671875,-0.568640625,-1.9619765625,-2.21353125,-1.29615234375,-2.32636328125,1.95894140625,0.5943828125,-2.19796484375
-6.72070703125,-0.733703124999999,-4.7441484375,-3.526484375,-0.0351757812499995,1.30290234375,1.9210234375,-3.4328125,7.3665390625,1.60229296875,-1.5732421875,-1.780203125,0.1164140625,2.37811328125,2.473890625,0.16512890625,-6.0022265625,-6.0155703125,1.4236328125,0.844625,-2.524953125,-0.95211328125,-1.500640625,-3.8109765625,-3.49653125,-2.67115234375,-3.40136328125,1.66694140625,-0.9336171875,-3.45396484375
-7.21670703125,-1.766703125,-3.7931484375,-4.709484375,-2.31017578125,-1.03609765625,-0.5169765625,-4.5808125,5.6965390625,-0.48170703125,-3.7892421875,-3.419203125,-3.0025859375,0.87911328125,0.859890624999998,-1.78787109375,-7.5672265625,-7.3825703125,0.0616328125000001,-0.757375,-3.872953125,-2.38911328125,-2.310640625,-5.4249765625,-4.68753125,-3.87315234375,-4.19436328125,0.89294140625,-2.4466171875,-4.32796484375
-7.04570703125,-2.344703125,-2.6491484375,-5.734484375,-3.82117578125,-2.84009765625,-2.6939765625,-5.2198125,4.4765390625,-2.22570703125,-5.5682421875,-4.909203125,-5.2075859375,-0.31588671875,-0.197109375000001,-3.50287109375,-8.2162265625,-7.7285703125,-0.8713671875,-1.860375,-4.701953125,-3.12111328125,-2.749640625,-6.5309765625,-5.52853125,-4.58915234375,-4.42836328125,0.23294140625,-3.2696171875,-4.47296484375
-6.44470703125,-2.449703125,-1.7991484375,-6.589484375,-4.37417578125,-3.83609765625,-4.2439765625,-5.1928125,3.7805390625,-3.36970703125,-6.6682421875,-6.035203125,-6.0615859375,-1.03388671875,-0.571109375000001,-4.74687109375,-7.9382265625,-7.1515703125,-1.2283671875,-2.347375,-4.896953125,-2.66511328125,-2.676640625,-6.9299765625,-5.82153125,-4.62515234375,-4.01336328125,0.12794140625,-3.0456171875,-3.77996484375
-5.59770703125,-2.115703125,-1.4001484375,-7.277484375,-4.03717578125,-3.91109765625,-4.9039765625,-4.4698125,3.4965390625,-3.72870703125,-6.9482421875,-6.605203125,-5.5455859375,-1.15588671875,-0.169109375000001,-5.27087109375,-6.9442265625,-5.9565703125,-0.9613671875,-2.139375,-4.423953125,-1.04411328125,-2.093640625,-6.5129765625,-5.45853125,-3.92115234375,-3.06736328125,0.65394140625,-1.8606171875,-2.36496484375
-4.52370703125,-1.275703125,-1.1341484375,-7.822484375,-3.01417578125,-3.08709765625,-4.5109765625,-3.1098125,3.4605390625,-3.22270703125,-6.3342421875,-6.450203125,-4.0365859375,-0.63688671875,1.045890625,-4.85487109375,-5.5032265625,-4.5255703125,-0.0963671875000001,-1.174375,-3.314953125,1.17788671875,-1.145640625,-5.2919765625,-4.43753125,-2.56615234375,-1.85036328125,1.53794140625,-0.1646171875,-0.53196484375
-3.07270703125,0.264296875,-0.3761484375,-8.256484375,-1.54117578125,-1.50209765625,-3.0599765625,-1.2468125,3.5905390625,-1.91870703125,-4.8452421875,-5.465203125,-2.1655859375,0.46511328125,2.990890625,-3.42787109375,-3.8322265625,-3.1855703125,1.2576328125,0.541625,-1.704953125,3.15488671875,-0.077640625,-3.4539765625,-2.89453125,-0.84115234375,-0.66536328125,2.34194140625,1.4383828125,1.27703515625
-1.06870703125,2.660296875,1.4338515625,-8.564484375,0.15082421875,0.57990234375,-0.7829765625,0.8951875,3.9275390625,-0.05470703125,-2.6562421875,-3.704203125,-0.6075859375,1.96411328125,5.403890625,-1.20487109375,-2.0952265625,-2.1425703125,2.8826328125,2.828625,0.130046875,4.15788671875,0.840359375,-1.3589765625,-1.09653125,0.79284765625,0.23763671875,2.69694140625,2.4313828125,2.56003515625
1.48429296875,5.781296875,4.3958515625,-8.637484375,1.82082421875,2.77490234375,1.8320234375,2.9971875,4.5465390625,1.97829296875,-0.1422421875,-1.450203125,0.1304140625,3.55511328125,7.864890625,1.30612890625,-0.4712265625,-1.4765703125,4.4546328125,5.287625,1.803046875,3.89088671875,1.393359375,0.5240234375,0.60946875,1.81784765625,0.73563671875,2.45994140625,2.5733828125,2.92403515625
4.26229296875,9.061296875,7.9698515625,-8.294484375,3.21382421875,4.60590234375,4.1460234375,4.6861875,5.4185390625,3.68529296875,2.1607578125,0.795796875,-0.1695859375,4.85111328125,9.865890625,3.43612890625,0.7817734375,-1.2145703125,5.5886328125,7.341625,2.925046875,2.53888671875,1.444359375,1.7390234375,1.87846875,1.86984765625,0.81863671875,1.72294140625,1.9463828125,2.24203515625
6.66929296875,11.629296875,11.1198515625,-7.401484375,4.07982421875,5.59590234375,5.5360234375,5.5931875,6.3145390625,4.56129296875,3.6697578125,2.431796875,-1.4425859375,5.45111328125,10.918890625,4.56712890625,1.3627734375,-1.4025703125,5.9146328125,8.387625,3.222046875,0.54488671875,0.918359375,1.9620234375,2.43846875,0.91184765625,0.51763671875,0.67994140625,0.8383828125,0.70903515625
8.11829296875,12.709296875,12.7658515625,-6.012484375,4.21782421875,5.40190234375,5.5810234375,5.4701875,6.8625390625,4.25629296875,3.9397578125,2.957796875,-3.4265859375,5.05411328125,10.678890625,4.34012890625,1.0727734375,-2.1105703125,5.2106328125,8.010625,2.624046875,-1.65911328125,-0.199640625,1.0880234375,2.14346875,-0.72015234375,-0.13636328125,-0.50005859375,-0.4266171875,-1.23696484375
8.38129296875,12.089296875,12.3248515625,-4.372484375,3.59382421875,3.99590234375,4.2270234375,4.3321875,6.7465390625,2.75529296875,2.8657578125,2.198796875,-5.7325859375,3.62111328125,9.101890625,2.80912890625,-0.0252265624999999,-3.3205703125,3.5386328125,6.199625,1.311046875,-3.78411328125,-1.805640625,-0.7049765625,1.03346875,-2.43815234375,-1.08436328125,-1.69605859375,-1.5746171875,-3.04996484375
7.77629296875,10.306296875,10.0538515625,-2.762484375,2.47682421875,1.75990234375,1.9000234375,2.5801875,5.9525390625,0.45929296875,0.8027578125,0.436796875,-7.8725859375,1.48511328125,6.548890625,0.46412890625,-1.5452265625,-4.7785703125,1.3246328125,3.428625,-0.298953125,-5.60911328125,-3.620640625,-2.9509765625,-0.62653125,-3.63915234375,-2.17036328125,-2.75505859375,-2.3636171875,-4.21296484375
7.02229296875,8.392296875,6.9698515625,-1.358484375,1.39582421875,-0.60009765625,-0.5939765625,0.9041875,4.8285390625,-1.92270703125,-1.5232421875,-1.670203125,-9.3195859375,-0.71388671875,3.737890625,-1.92487109375,-2.9062265625,-5.9905703125,-0.7453671875,0.530625,-1.678953125,-6.88511328125,-5.220640625,-5.0189765625,-2.39753125,-3.95515234375,-3.14036328125,-3.45205859375,-2.5806171875,-4.38596484375
6.81029296875,7.313296875,4.3568515625,-0.241484375000001,0.87282421875,-2.33509765625,-2.3919765625,-0.0248124999999999,3.8795390625,-3.66070703125,-3.3102421875,-3.358203125,-9.6565859375,-2.28288671875,1.496890625,-3.60487109375,-3.6022265625,-6.4375703125,-2.0113671875,-1.638375,-2.407953125,-7.35611328125,-6.200640625,-6.3379765625,-3.82653125,-3.41715234375,-3.75836328125,-3.58505859375,-2.1436171875,-3.56496484375
7.43029296875,7.520296875,3.2078515625,0.539515624999999,1.12782421875,-2.95409765625,-2.9419765625,0.1041875,3.4765390625,-4.28170703125,-4.0002421875,-4.067203125,-8.7375859375,-2.75388671875,0.466890624999999,-4.12287109375,-3.4442265625,-5.8375703125,-2.1143671875,-2.529375,-2.337953125,-6.87511328125,-6.332640625,-6.6109765625,-4.61253125,-2.43315234375,-3.93636328125,-3.11505859375,-1.2036171875,-2.15296484375
8.74429296875,8.878296875,3.9138515625,0.988515624999999,2.04982421875,-2.34409765625,-2.1519765625,1.1381875,3.7475390625,-3.67770703125,-3.4332421875,-3.596203125,-6.7135859375,-2.00088671875,0.920890624999999,-3.41187109375,-2.6012265625,-4.2305703125,-1.0793671875,-2.028375,-1.604953125,-5.47411328125,-5.603640625,-5.8469765625,-4.65353125,-1.54315234375,-3.74836328125,-2.18705859375,-0.1046171875,-0.80496484375
10.47129296875,10.955296875,6.3118515625,1.259515625,3.40382421875,-0.69109765625,-0.2909765625,2.6521875,4.6745390625,-2.03170703125,-1.7702421875,-2.075203125,-3.9275859375,-0.15388671875,2.771890625,-1.69187109375,-1.4442265625,-1.8475703125,0.8376328125,-0.356374999999999,-0.458953125,-3.34211328125,-4.121640625,-4.2319765625,-3.96553125,-1.09515234375,-3.29136328125,-0.99005859375,0.8373828125,-0.05196484375
12.44429296875,13.338296875,9.8738515625,1.637515625,5.02782421875,1.65890234375,2.1970234375,4.2041875,6.2035390625,0.32629296875,0.6347578125,0.137796875,-0.8045859375,2.51111328125,5.643890625,0.68712890625,-0.3302265625,1.0414296875,3.3236328125,2.112625,0.902046875,-0.78611328125,-2.014640625,-1.9859765625,-2.59353125,-1.03615234375,-2.56036328125,0.36294140625,1.5483828125,0.02803515625
14.58029296875,15.707296875,13.8758515625,2.345515625,6.80982421875,4.27590234375,4.7920234375,5.4721875,8.1925390625,2.98929296875,3.3217578125,2.540796875,2.1774140625,5.60411328125,8.943890625,3.31712890625,0.5137734375,4.1414296875,6.0646328125,4.954625,2.356046875,1.77188671875,0.536359375,0.6470234375,-0.64353125,-1.01215234375,-1.47336328125,1.81094140625,2.1883828125,-0.17296484375
16.66829296875,17.730296875,17.4878515625,3.350515625,8.58082421875,6.67690234375,6.9700234375,6.2571875,10.3105390625,5.49829296875,5.7747578125,4.574796875,4.5084140625,8.59811328125,11.959890625,5.73312890625,0.9837734375,7.0694296875,8.7006328125,7.700625,3.771046875,3.82988671875,3.204359375,3.3320234375,1.62946875,-0.67315234375,-0.0323632812500001,3.21694140625,2.9403828125,-0.11296484375
18.27029296875,19.015296875,19.9468515625,4.386515625,10.08982421875,8.41590234375,8.3240234375,6.4781875,12.0785390625,7.40429296875,7.5247578125,5.766796875,5.7554140625,10.91211328125,14.042890625,7.47812890625,1.0567734375,9.3614296875,10.8286328125,9.875625,4.940046875,4.97888671875,5.518359375,5.6540234375,3.79046875,0.05484765625,1.55963671875,4.31894140625,3.8183828125,0.51203515625
18.92629296875,19.253296875,20.8028515625,5.148515625,11.11682421875,9.24990234375,8.7230234375,6.1861875,13.0905390625,8.42329296875,8.3397578125,5.916796875,5.7634140625,12.11411328125,14.861890625,8.25512890625,0.7977734375,10.6434296875,12.1326328125,11.130625,5.621046875,5.12188671875,7.047359375,7.2590234375,5.37246875,0.95584765625,2.97563671875,4.86594140625,4.6733828125,1.59503515625
18.45829296875,18.424296875,20.1128515625,5.491515625,11.58782421875,9.26590234375,8.3830234375,5.5751875,13.2405390625,8.57729296875,8.3447578125,5.203796875,4.7854140625,12.12411328125,14.561890625,8.07512890625,0.3927734375,10.8174296875,12.5266328125,11.396625,5.666046875,4.58388671875,7.617359375,8.0260234375,6.08146875,1.72284765625,3.95663671875,4.82194140625,5.3503828125,2.75503515625
17.10529296875,16.847296875,18.4088515625,5.483515625,11.62082421875,8.85590234375,7.7970234375,4.9331875,12.7895390625,8.19529296875,7.9777578125,4.135796875,3.4044140625,11.26611328125,13.693890625,7.27312890625,0.1537734375,10.1524296875,12.1906328125,10.931625,5.136046875,3.96488671875,7.396359375,8.1240234375,5.95546875,2.18984765625,4.46063671875,4.44294140625,5.8283828125,3.61603515625
15.40229296875,15.068296875,16.4728515625,5.349515625,11.49382421875,8.53090234375,7.5420234375,4.5741875,12.2285390625,7.74729296875,7.7897578125,3.344796875,2.2784140625,10.12211328125,12.951890625,6.37712890625,0.4367734375,9.1844296875,11.4836328125,10.211625,4.343046875,3.83488671875,6.793359375,7.9330234375,5.35646875,2.45284765625,4.66863671875,4.15694140625,6.2453828125,4.04403515625
13.95629296875,13.665296875,15.0398515625,5.353515625,11.53482421875,8.68890234375,8.0450234375,4.7571875,12.0235390625,7.63729296875,8.1837578125,3.335796875,1.8564140625,9.29111328125,12.855890625,5.92912890625,1.4957734375,8.4864296875,10.7956328125,9.742625,3.769046875,4.44288671875,6.263359375,7.8750234375,4.84446875,2.82284765625,4.88963671875,4.35694140625,6.8193828125,4.24903515625
13.25929296875,13.087296875,14.5578515625,5.649515625,11.94282421875,9.42490234375,9.3700234375,5.5761875,12.3465390625,8.02829296875,9.2187578125,4.285796875,2.1864140625,9.12811328125,13.529890625,6.29512890625,3.3337734375,8.3974296875,10.4046328125,9.862625,3.861046875,5.60088671875,6.130359375,8.2460234375,4.95046875,3.65584765625,5.41663671875,5.21194140625,7.7373828125,4.67403515625
13.56329296875,13.488296875,15.0428515625,6.145515625,12.62182421875,10.46090234375,11.1260234375,6.8741875,12.9125390625,8.75829296875,10.5417578125,5.928796875,2.8984140625,9.57811328125,14.660890625,7.49612890625,5.6077734375,8.8354296875,10.3616328125,10.594625,4.777046875,6.76388671875,6.456359375,9.0630234375,5.90846875,5.10084765625,6.34863671875,6.55094140625,9.0013828125,5.70603515625
14.78529296875,14.611296875,16.0728515625,6.470515625,13.17282421875,11.21890234375,12.5710234375,8.2371875,13.0755390625,9.36129296875,11.5097578125,7.617796875,3.3694140625,10.17311328125,15.636890625,9.12112890625,7.6757734375,9.2994296875,10.4566328125,11.589625,6.223046875,7.24888671875,6.979359375,9.9980234375,7.47046875,6.88384765625,7.44863671875,7.85094140625,10.2883828125,7.31503515625
16.44629296875,15.834296875,16.9548515625,6.110515625,13.06982421875,11.07690234375,12.9250234375,9.1151875,12.1275390625,9.24929296875,11.4627578125,8.556796875,3.0254140625,10.23111328125,15.828890625,10.42012890625,8.7877734375,9.1194296875,10.2956328125,12.238625,7.516046875,6.53088671875,7.196359375,10.4680234375,8.93946875,8.28984765625,8.14963671875,8.40294140625,10.9683828125,8.89403515625
17.72129296875,16.411296875,16.9868515625,4.688515625,11.92482421875,9.66690234375,11.7060234375,9.0311875,9.6765390625,7.99329296875,10.0437578125,8.126796875,1.6654140625,9.17811328125,14.870890625,10.61112890625,8.3827734375,7.8044296875,9.4806328125,11.932625,7.872046875,4.50288671875,6.583359375,9.8680234375,9.46746875,8.43584765625,7.78563671875,7.61294140625,10.3403828125,9.47503515625
17.62429296875,15.758296875,15.6948515625,2.234515625,9.67482421875,7.07390234375,8.9470234375,7.7531875,5.8835390625,5.56429296875,7.3797578125,6.156796875,-0.3905859375,6.82411328125,12.804890625,9.24312890625,6.3487734375,5.3034296875,7.7896328125,10.326625,6.765046875,1.56188671875,4.858359375,7.8390234375,8.46446875,6.69684765625,5.93163671875,5.30794140625,8.0133828125,8.23203515625
15.32629296875,13.616296875,12.9368515625,-0.724484375000001,6.63982421875,3.80190234375,5.1950234375,5.3801875,1.4455390625,2.35529296875,4.0287578125,2.987796875,-2.4605859375,3.44911328125,10.021890625,6.40812890625,3.0917734375,2.0254296875,5.2556328125,7.478625,4.164046875,-1.56211328125,2.111359375,4.4290234375,5.87546875,3.06084765625,2.63063671875,1.82894140625,4.1613828125,4.96803515625
10.50329296875,10.052296875,8.8868515625,-3.363484375,3.41582421875,0.54190234375,1.3210234375,2.3021875,-2.6654609375,-0.98970703125,0.733757812499999,-0.669203125,-3.8545859375,-0.33388671875,7.052890625,2.69712890625,-0.6292265625,-1.3475703125,2.1326328125,3.801625,0.548046875,-4.12811328125,-1.254640625,0.0830234375000001,2.19246875,-1.77515234375,-1.61136328125,-2.11005859375,-0.4806171875,0.29703515625
3.59429296875,5.409296875,3.9808515625,-4.972484375,0.63682421875,-2.10109765625,-1.7999765625,-0.9348125,-5.5984609375,-3.83570703125,-1.8492421875,-3.989203125,-4.2125859375,-3.81688671875,4.369890625,-1.03787109375,-3.9952265625,-4.1345703125,-1.1943671875,-0.0913749999999998,-3.275953125,-5.67611328125,-4.679640625,-4.4909765625,-1.74853125,-6.61515234375,-6.01336328125,-5.68805859375,-4.8726171875,-4.55396484375
-4.21970703125,0.237296875,-1.1731484375,-5.304484375,-1.26217578125,-3.78409765625,-3.5909765625,-3.8038125,-6.9434609375,-5.74370703125,-3.3572421875,-6.300203125,-3.6155859375,-6.41388671875,2.271890625,-3.99187109375,-6.4042265625,-5.8675703125,-4.2903671875,-3.560375,-6.446953125,-6.11711328125,-7.609640625,-8.5109765625,-5.07453125,-10.17515234375,-9.75536328125,-8.22905859375,-8.0346171875,-8.23596484375
-11.33870703125,-4.778703125,-5.8811484375,-4.623484375,-2.14217578125,-4.45309765625,-3.9309765625,-5.9138125,-6.7804609375,-6.54470703125,-3.7792421875,-7.253203125,-2.4385859375,-7.75088671875,0.881890624999999,-5.64687109375,-7.6092265625,-6.3615703125,-6.7113671875,-6.092375,-8.312953125,-5.65611328125,-9.598640625,-11.3049765625,-7.13653125,-11.53815234375,-12.20436328125,-9.37605859375,-9.3746171875,-9.80896484375
-16.22070703125,-8.910703125,-9.4431484375,-3.448484375,-2.06817578125,-4.26709765625,-3.1089765625,-7.0428125,-5.4804609375,-6.30570703125,-3.3852421875,-6.890203125,-1.0945859375,-7.67688671875,0.210890624999998,-5.89587109375,-7.7052265625,-5.6695703125,-8.0563671875,-7.397375,-8.598953125,-4.64711328125,-10.384640625,-12.4629765625,-7.67953125,-10.48015234375,-13.05936328125,-9.16205859375,-8.8666171875,-9.07896484375
-17.82570703125,-11.461703125,-11.2361484375,-2.242484375,-1.19417578125,-3.48109765625,-1.6439765625,-7.1168125,-3.4354609375,-5.23970703125,-2.5822421875,-5.589203125,0.1774140625,-6.22488671875,0.221890624999999,-5.01987109375,-6.9952265625,-4.0045703125,-8.0533671875,-7.449375,-7.450953125,-3.45511328125,-9.909640625,-11.9239765625,-6.84753125,-7.54815234375,-12.37836328125,-7.93705859375,-6.9966171875,-6.62296484375
-15.87870703125,-11.860703125,-10.8371484375,-1.253484375,0.29282421875,-2.34309765625,-0.0759765625,-6.1938125,-0.9434609375,-3.59470703125,-1.7482421875,-3.924203125,1.3694140625,-3.60588671875,0.864890624999999,-3.53887109375,-5.8442265625,-1.6695703125,-6.6493671875,-6.449375,-5.343953125,-2.35311328125,-8.312640625,-9.9709765625,-5.07253125,-3.82315234375,-10.50736328125,-6.19705859375,-4.5216171875,-3.47796484375
-10.92670703125,-9.837703125,-8.1891484375,-0.547484375,2.18482421875,-1.03909765625,1.2190234375,-4.4688125,1.7565390625,-1.60670703125,-1.1052421875,-2.451203125,2.6034140625,-0.20988671875,2.077890625,-2.00287109375,-4.5732265625,0.9784296875,-4.0693671875,-4.721375,-2.900953125,-1.45711328125,-5.888640625,-7.1329765625,-2.87853125,-0.49715234375,-7.92436328125,-4.38605859375,-2.1446171875,-0.67196484375
-4.21470703125,-5.632703125,-3.7451484375,-0.0994843750000007,4.28182421875,0.30790234375,2.1140234375,-2.2678125,4.3825390625,0.49229296875,-0.6742421875,-1.527203125,3.9504140625,3.41011328125,3.743890625,-0.79487109375,-3.4182265625,3.5604296875,-0.7893671875,-2.617375,-0.678953125,-0.74411328125,-3.042640625,-4.0169765625,-0.71553125,1.57084765625,-5.10436328125,-2.76505859375,-0.2706171875,1.17303515625
2.62429296875,-0.110703125,1.5628515625,0.165515624999999,6.43882421875,1.60790234375,2.7110234375,0.00618750000000023,6.5845390625,2.44229296875,-0.3232421875,-1.220203125,5.2964140625,6.62311328125,5.651890625,-0.04987109375,-2.5032265625,5.7254296875,2.5716328125,-0.460375,0.967046875,-0.14411328125,-0.222640625,-1.1479765625,1.13446875,2.09284765625,-2.42736328125,-1.39505859375,1.0613828125,1.99103515625
8.01929296875,5.418296875,6.5768515625,0.394515624999999,8.56582421875,2.78490234375,3.2110234375,1.9671875,8.0175390625,3.98429296875,0.1377578125,-1.351203125,6.3654140625,8.88711328125,7.514890625,0.33212890625,-1.8122265625,7.2294296875,5.4236328125,1.497625,1.930046875,0.37788671875,2.185359375,1.1680234375,2.56346875,1.34084765625,-0.12036328125,-0.17005859375,2.0713828125,2.13103515625
10.94629296875,9.662296875,10.3198515625,0.819515624999999,10.58882421875,3.79190234375,3.7810234375,3.3881875,8.4875390625,4.94129296875,0.8657578125,-1.605203125,6.8744140625,9.93011328125,9.057890625,0.58112890625,-1.1902265625,8.0284296875,7.3846328125,3.100625,2.327046875,0.82588671875,3.963359375,2.8800234375,3.60246875,-0.07415234375,1.75863671875,1.09994140625,3.0633828125,2.09003515625
11.26529296875,11.884296875,12.3498515625,1.669515625,12.39482421875,4.62090234375,4.4680234375,4.2841875,8.0455390625,5.29029296875,1.9127578125,-1.657203125,6.6984140625,9.83011328125,10.121890625,0.93412890625,-0.4062265625,8.2864296875,8.3626328125,4.295625,2.441046875,1.23088671875,5.111359375,4.1270234375,4.36446875,-1.46715234375,3.29263671875,2.58194140625,4.2663828125,2.25803515625
9.73529296875,12.186296875,12.8598515625,2.954515625,13.75982421875,5.27090234375,5.1590234375,4.8651875,6.9325390625,5.14529296875,3.1887578125,-1.277203125,5.8984140625,8.92711328125,10.674890625,1.51412890625,0.7217734375,8.2774296875,8.5086328125,5.089625,2.610046875,1.71188671875,5.780359375,5.0730234375,4.97846875,-2.29415234375,4.62063671875,4.30394140625,5.7183828125,2.79303515625
7.64329296875,11.364296875,12.4498515625,4.288515625,14.27082421875,5.69390234375,5.5500234375,5.3571875,5.3715390625,4.69329296875,4.4477578125,-0.405203125,4.6344140625,7.61911328125,10.742890625,2.26012890625,2.2187734375,8.2054296875,8.0496328125,5.477625,3.097046875,2.45988671875,6.171359375,5.7630234375,5.51346875,-2.26815234375,5.85363671875,6.09994140625,7.2363828125,3.59603515625
6.22029296875,10.428296875,11.7558515625,4.955515625,13.36782421875,5.77790234375,5.1960234375,5.8291875,3.4035390625,4.11229296875,5.3527578125,0.852796875,3.0384140625,6.18611328125,10.342890625,2.94912890625,3.9417734375,8.1044296875,7.1496328125,5.413625,3.980046875,3.69588671875,6.442359375,6.0800234375,5.94946875,-1.38615234375,7.03663671875,7.66794140625,8.4813828125,4.39403515625
6.15429296875,10.114296875,11.1568515625,4.285515625,10.59882421875,5.41990234375,3.7130234375,6.1831875,0.9175390625,3.53329296875,5.6257578125,2.307796875,1.1854140625,4.73911328125,9.481890625,3.32712890625,5.6787734375,7.8784296875,5.8726328125,4.853625,5.164046875,5.57888671875,6.689359375,5.8570234375,6.21046875,0.13884765625,8.16663671875,8.73694140625,9.1343828125,4.88603515625
7.42529296875,10.631296875,10.7448515625,2.098515625,5.98282421875,4.62690234375,1.0460234375,6.3081875,-2.1444609375,3.01729296875,5.2147578125,3.793796875,-0.8725859375,3.28111328125,8.224890625,3.28012890625,7.2847734375,7.4454296875,4.2646328125,3.836625,6.483046875,8.10788671875,6.945359375,5.0530234375,6.25146875,2.01184765625,9.23163671875,9.23194140625,9.0983828125,4.92103515625
9.46629296875,11.711296875,10.4478515625,-1.090484375,0.19682421875,3.55590234375,-2.3919765625,6.2371875,-5.6114609375,2.54929296875,4.3597578125,5.239796875,-3.0465859375,1.78811328125,6.733890625,2.91912890625,8.7597734375,6.8394296875,2.4406328125,2.532625,7.811046875,11.04888671875,7.207359375,3.8510234375,6.12246875,3.97384765625,10.23963671875,9.34094140625,8.5883828125,4.59903515625
9.46629296875,11.711296875,10.4478515625,-1.090484375,0.19682421875,3.55590234375,-2.3919765625,6.2371875,-5.6114609375,2.54929296875,4.3597578125,5.239796875,-3.0465859375,1.78811328125,6.733890625,2.91912890625,8.7597734375,6.8394296875,2.4406328125,2.532625,7.811046875,11.04888671875,7.207359375,3.8510234375,6.12246875,3.97384765625,10.23963671875,9.34094140625,8.5883828125,4.59903515625
