"Fp1","Fpz","Fp2","F7","F3","Fz","F4","F8","FC5","FC1","FC2","FC6","T7","C3","Cz","C4","T8","CP5","CP1","CP2","CP6","P7","P3","Pz","P4","P8","POz","O1","Oz","O2"
-20.0074453125,-17.26121484375,-20.01087109375,-4.409390625,2.53780078125,-0.15724609375,1.2876796875,17.70066015625,-2.4737265625,0.37828125,-0.59643359375,0.44433203125,-5.10076953125,-4.29775390625,-0.303640624999999,-0.0366445312500003,3.7865546875,-7.28601953125,-2.87973046875,3.495265625,-1.006453125,-7.7288203125,-6.09486328125,-3.4608828125,-5.4436953125,-4.28894140625,-7.2921875,-9.7220078125,-14.23019921875,-9.477234375
-20.4394453125,-15.72321484375,-18.58187109375,-3.662390625,1.65180078125,1.49775390625,0.3756796875,17.96966015625,-0.1537265625,2.64928125,0.953566406249999,3.01633203125,0.88223046875,-1.38075390625,1.117359375,0.70935546875,6.8375546875,-4.88401953125,-1.32373046875,4.228265625,1.376546875,-6.5758203125,-4.18986328125,-1.9528828125,-4.0226953125,-3.01194140625,-5.5591875,-6.7950078125,-12.13719921875,-7.334234375
-20.6344453125,-14.63821484375,-17.53987109375,-3.294390625,0.818800781250001,2.09575390625,-0.3353203125,18.12966015625,0.9512734375,3.50128125,1.30456640625,4.49633203125,4.53523046875,0.27624609375,1.324359375,0.56335546875,8.3345546875,-3.32701953125,-0.73873046875,3.935265625,2.496546875,-5.4848203125,-3.17786328125,-1.6778828125,-3.7236953125,-2.58994140625,-5.1371875,-5.1740078125,-11.05519921875,-6.208234375
-20.7134453125,-14.19821484375,-16.98987109375,-3.470390625,-0.0121992187499997,1.64275390625,-0.8993203125,17.88166015625,0.8222734375,2.98128125,0.501566406249999,4.87533203125,5.77123046875,0.66124609375,0.373359375000001,-0.43964453125,8.1725546875,-2.61901953125,-1.14373046875,2.670265625,2.322546875,-4.4888203125,-3.03786328125,-2.6208828125,-4.4816953125,-2.92694140625,-6.0061875,-4.8400078125,-10.96819921875,-6.100234375
-20.8834453125,-14.53121484375,-16.96487109375,-4.238390625,-0.89819921875,0.47375390625,-1.4253203125,16.93066015625,-0.2017265625,1.55828125,-1.05343359375,4.41133203125,5.20923046875,0.0992460937499997,-1.300640625,-1.98064453125,6.7015546875,-2.53301953125,-2.27373046875,0.855265625,1.210546875,-3.6088203125,-3.51286328125,-4.3668828125,-5.8656953125,-3.64294140625,-7.7181875,-5.3640078125,-11.51719921875,-6.688234375
-21.3064453125,-15.64121484375,-17.43687109375,-5.470390625,-1.86119921875,-0.94624609375,-2.0153203125,15.16666015625,-1.6307265625,-0.16171875,-2.84543359375,3.41433203125,3.80323046875,-0.96375390625,-3.133640625,-3.61764453125,4.5185546875,-2.77101953125,-3.72973046875,-0.942734375,-0.302453125,-2.8308203125,-4.28486328125,-6.3278828125,-7.3276953125,-4.29494140625,-9.6331875,-6.1600078125,-12.20419921875,-7.516234375
-21.9784453125,-17.32121484375,-18.28787109375,-6.900390625,-2.88819921875,-2.22724609375,-2.7683203125,12.71366015625,-3.0257265625,-1.69971875,-4.47143359375,2.08833203125,2.41723046875,-2.16175390625,-4.679640625,-4.97464453125,2.2165546875,-3.10301953125,-5.13773046875,-2.255734375,-1.719453125,-2.1398203125,-5.11386328125,-7.9868828125,-8.4296953125,-4.60394140625,-11.1721875,-6.7530078125,-12.61819921875,-8.202234375
-22.6824453125,-19.12321484375,-19.25887109375,-8.230390625,-3.95419921875,-3.18124609375,-3.7673203125,9.88866015625,-4.1427265625,-2.84571875,-5.74743359375,0.51533203125,1.50523046875,-3.31675390625,-5.735640625,-5.86464453125,0.1925546875,-3.45301953125,-6.25573046875,-2.882734375,-2.754453125,-1.6218203125,-5.88986328125,-9.0538828125,-8.9846953125,-4.59294140625,-11.9891875,-6.9400078125,-12.58319921875,-8.583234375
-23.0084453125,-20.43321484375,-19.94287109375,-9.236390625,-5.02019921875,-3.83024609375,-5.0313203125,7.10966015625,-4.9517265625,-3.66071875,-6.71143359375,-1.27166796875,1.02223046875,-4.42875390625,-6.333640625,-6.33964453125,-1.4394453125,-3.90101953125,-6.99773046875,-2.914734375,-3.403453125,-1.5258203125,-6.61286328125,-9.4988828125,-9.0636953125,-4.55494140625,-12.0231875,-6.8060078125,-12.18619921875,-8.712234375
-22.4764453125,-20.65721484375,-19.86187109375,-9.804390625,-6.00919921875,-4.30124609375,-6.4573203125,4.80166015625,-5.5347265625,-4.34471875,-7.51043359375,-3.18466796875,0.61223046875,-5.55475390625,-6.610640625,-6.60264453125,-2.7774453125,-4.57101953125,-7.38073046875,-2.602734375,-3.866453125,-2.1328203125,-7.30886328125,-9.4598828125,-8.8776953125,-4.86494140625,-11.4171875,-6.6030078125,-11.65119921875,-8.739234375
-20.7274453125,-19.43821484375,-18.62487109375,-9.910390625,-6.77419921875,-4.67224609375,-7.8243203125,3.28866015625,-5.9247265625,-5.03371875,-8.24243359375,-5.01366796875,-0.0437695312499999,-6.65175390625,-6.645640625,-6.84364453125,-3.9624453125,-5.45801953125,-7.43273046875,-2.172734375,-4.357453125,-3.4898203125,-7.91786328125,-9.0698828125,-8.6016953125,-5.72394140625,-10.3611875,-6.5440078125,-11.16219921875,-8.752234375
-17.7104453125,-16.82221484375,-16.12287109375,-9.565390625,-7.11619921875,-4.88424609375,-8.8693203125,2.72066015625,-6.0177265625,-5.67071875,-8.85843359375,-6.44766796875,-0.95776953125,-7.50475390625,-6.390640625,-7.09764453125,-4.9954453125,-6.33901953125,-7.12573046875,-1.687734375,-4.930453125,-5.2168203125,-8.25886328125,-8.3548828125,-8.2516953125,-6.99594140625,-8.9701875,-6.6610078125,-10.73519921875,-8.700234375
-13.7764453125,-13.30121484375,-12.65687109375,-8.799390625,-6.85119921875,-4.79524609375,-9.3953203125,3.05766015625,-5.6377265625,-6.03571875,-9.19543359375,-7.21266796875,-1.83076953125,-7.82575390625,-5.753640625,-7.23464453125,-5.6884453125,-6.87101953125,-6.41273046875,-1.059734375,-5.451453125,-6.6118203125,-8.12086328125,-7.2588828125,-7.7196953125,-8.27694140625,-7.2831875,-6.8120078125,-10.25319921875,-8.459234375
-9.6384453125,-9.69821484375,-8.91487109375,-7.710390625,-5.93819921875,-4.32924609375,-9.3743203125,4.09466015625,-4.7257265625,-5.92171875,-9.12343359375,-7.21866796875,-2.29176953125,-7.45375390625,-4.751640625,-7.08464453125,-5.7734453125,-6.82301953125,-5.34173046875,-0.193734375,-5.719453125,-7.0168203125,-7.43886328125,-5.7808828125,-6.9156953125,-9.12694140625,-5.3571875,-6.8170078125,-9.60619921875,-7.969234375
-6.2394453125,-6.94721484375,-5.80587109375,-6.547390625,-4.60119921875,-3.60124609375,-9.0023203125,5.46566015625,-3.4807265625,-5.31071875,-8.66043359375,-6.61866796875,-2.20176953125,-6.51575390625,-3.608640625,-6.57464453125,-5.1234453125,-6.26301953125,-4.13873046875,0.863265625,-5.630453125,-6.2048203125,-6.41186328125,-4.1048828125,-5.8946953125,-9.33294140625,-3.3611875,-6.5960078125,-8.81219921875,-7.322234375
-4.5304453125,-5.81821484375,-4.20287109375,-5.717390625,-3.32419921875,-2.91024609375,-8.6443203125,6.69866015625,-2.3477265625,-4.43171875,-7.99243359375,-5.73066796875,-1.78676953125,-5.42775390625,-2.695640625,-5.80864453125,-3.9304453125,-5.56301953125,-3.18573046875,1.871265625,-5.269453125,-4.5528203125,-5.46186328125,-2.5938828125,-4.8846953125,-9.03394140625,-1.5781875,-6.2240078125,-8.02219921875,-6.739234375
-5.1604453125,-6.69121484375,-4.66687109375,-5.638390625,-2.66519921875,-2.59824609375,-8.6533203125,7.36166015625,-1.8247265625,-3.66971875,-7.37943359375,-4.88466796875,-1.53576953125,-4.71175390625,-2.367640625,-5.01864453125,-2.6844453125,-5.20701953125,-2.86273046875,2.497265625,-4.864453125,-2.8948203125,-5.04086328125,-1.6528828125,-4.1866953125,-8.62494140625,-0.316187500000001,-5.8660078125,-7.41519921875,-6.468234375
-8.1734453125,-9.41321484375,-7.22587109375,-6.512390625,-2.95219921875,-2.84824609375,-9.1423203125,7.26366015625,-2.1997265625,-3.36071875,-6.99143359375,-4.26466796875,-1.90376953125,-4.74175390625,-2.765640625,-4.42064453125,-1.9164453125,-5.50301953125,-3.34273046875,2.518265625,-4.632453125,-2.1108203125,-5.38286328125,-1.5128828125,-4.0046953125,-8.51694140625,0.257812499999999,-5.6460078125,-7.05219921875,-6.653234375
-12.8814453125,-13.30221484375,-11.29187109375,-8.164390625,-4.06919921875,-3.53024609375,-9.8853203125,6.56566015625,-3.3617265625,-3.57071875,-6.77843359375,-3.81666796875,-2.99676953125,-5.51075390625,-3.689640625,-4.04664453125,-1.8474453125,-6.36901953125,-4.44873046875,2.008265625,-4.599453125,-2.6498203125,-6.33386328125,-2.0558828125,-4.2946953125,-8.85894140625,0.2298125,-5.5410078125,-6.80619921875,-7.250234375
-18.0574453125,-17.35421484375,-15.81687109375,-10.084390625,-5.48519921875,-4.21324609375,-10.4173203125,5.70666015625,-4.8117265625,-4.01871875,-6.46243359375,-3.28866796875,-4.42476953125,-6.59775390625,-4.640640625,-3.68764453125,-2.1954453125,-7.32401953125,-5.68673046875,1.349265625,-4.548453125,-4.2448203125,-7.39186328125,-2.8398828125,-4.7646953125,-9.44094140625,-0.0841875000000005,-5.3740078125,-6.44719921875,-8.041234375
-22.4024453125,-20.61521484375,-19.68087109375,-11.644390625,-6.52219921875,-4.38224609375,-10.2943203125,5.18166015625,-5.9097265625,-4.23671875,-5.70643359375,-2.41966796875,-5.45676953125,-7.37975390625,-5.051640625,-3.03464453125,-2.3354453125,-7.74101953125,-6.47473046875,1.032265625,-4.165453125,-6.0408203125,-7.97586328125,-3.3408828125,-5.0546953125,-9.84294140625,-0.335187500000001,-4.9610078125,-5.83619921875,-8.761234375
-25.0774453125,-22.55521484375,-22.14587109375,-12.363390625,-6.69819921875,-3.72724609375,-9.3233203125,5.31266015625,-6.1907265625,-3.86071875,-4.35343359375,-1.14166796875,-5.40076953125,-7.36175390625,-4.587640625,-1.92064453125,-1.6964453125,-7.22001953125,-6.44673046875,1.357265625,-3.283453125,-7.0578203125,-7.76286328125,-3.2838828125,-4.9876953125,-9.71594140625,-0.3921875,-4.2970078125,-5.08819921875,-9.262234375
-26.0204453125,-23.23821484375,-23.12287109375,-12.099390625,-5.95019921875,-2.31424609375,-7.6633203125,6.09266015625,-5.5727265625,-2.84271875,-2.53643359375,0.35533203125,-3.98376953125,-6.41175390625,-3.305640625,-0.46064453125,-0.1164453125,-5.80501953125,-5.62273046875,2.254265625,-2.018453125,-6.7018203125,-6.86486328125,-2.8048828125,-4.6776953125,-8.99294140625,-0.4161875,-3.6060078125,-4.54119921875,-9.565234375
-25.8534453125,-23.17321484375,-23.08287109375,-11.063390625,-4.62419921875,-0.53624609375,-5.7463203125,7.19366015625,-4.3277265625,-1.43571875,-0.60443359375,1.74433203125,-1.49376953125,-4.76175390625,-1.594640625,1.01635546875,2.0815546875,-3.93301953125,-4.34473046875,3.344265625,-0.687453125,-5.0248203125,-5.71286328125,-2.3448828125,-4.4176953125,-7.87294140625,-0.721187500000001,-3.1990078125,-4.53319921875,-9.771234375
-25.4274453125,-22.95521484375,-22.69587109375,-9.672390625,-3.24919921875,1.10975390625,-4.0753203125,8.12166015625,-2.8757265625,-0.0327187499999999,1.06556640625,2.73733203125,1.38223046875,-2.83575390625,0.0413593750000003,2.14235546875,4.2885546875,-2.16901953125,-3.05873046875,4.172265625,0.385546874999999,-2.6218203125,-4.77386328125,-2.3608828125,-4.4396953125,-6.66294140625,-1.5271875,-3.2580078125,-5.16819921875,-9.933234375
-25.2634453125,-22.91021484375,-22.41087109375,-8.320390625,-2.24919921875,2.23375390625,-3.0143203125,8.47166015625,-1.5807265625,1.02428125,2.20056640625,3.18633203125,3.87723046875,-1.05175390625,1.192359375,2.67035546875,5.9245546875,-0.93101953125,-2.10273046875,4.432265625,1.024546875,-0.3038203125,-4.30086328125,-3.0628828125,-4.7676953125,-5.61694140625,-2.8021875,-3.7000078125,-6.24719921875,-10.000234375
-25.2914453125,-22.97721484375,-22.26587109375,-7.235390625,-1.76919921875,2.65875390625,-2.6943203125,8.10266015625,-0.6377265625,1.54328125,2.66256640625,3.08533203125,5.40723046875,0.31024609375,1.638359375,2.51635546875,6.6435546875,-0.34101953125,-1.60873046875,4.054265625,1.210546875,1.2571796875,-4.24186328125,-4.3238828125,-5.2316953125,-4.87994140625,-4.2901875,-4.2100078125,-7.38319921875,-9.891234375
-25.0114453125,-22.85321484375,-22.00687109375,-6.475390625,-1.72419921875,2.40075390625,-3.0753203125,7.13066015625,-0.1007265625,1.48828125,2.40956640625,2.50933203125,5.68223046875,1.12624609375,1.342359375,1.72035546875,6.3755546875,-0.24501953125,-1.53373046875,3.130265625,1.013546875,1.7651796875,-4.32986328125,-5.7898828125,-5.6216953125,-4.50494140625,-5.6591875,-4.3910078125,-8.20619921875,-9.579234375
-23.9434453125,-22.27021484375,-21.37387109375,-6.026390625,-1.96519921875,1.57575390625,-4.0623203125,5.79266015625,0.0382734375,0.91328125,1.44256640625,1.55133203125,4.68523046875,1.37324609375,0.369359375000001,0.37835546875,5.2235546875,-0.34501953125,-1.77073046875,1.803265625,0.490546874999999,1.3431796875,-4.27086328125,-7.0908828125,-5.8536953125,-4.48894140625,-6.6831875,-3.9650078125,-8.51419921875,-9.139234375
-21.9794453125,-21.18621484375,-20.32687109375,-5.859390625,-2.40519921875,0.31675390625,-5.5623203125,4.31166015625,-0.2197265625,-0.12871875,-0.211433593750001,0.26533203125,2.65223046875,1.06224609375,-1.192640625,-1.40464453125,3.3615546875,-0.37701953125,-2.24473046875,0.184265625,-0.352453125000001,0.4221796875,-3.91886328125,-8.0328828125,-6.0296953125,-4.79794140625,-7.3341875,-2.9170078125,-8.33219921875,-8.717234375
-19.4274453125,-19.76421484375,-19.04587109375,-5.911390625,-3.04119921875,-1.25224609375,-7.4413203125,2.83766015625,-0.8567265625,-1.60471875,-2.46043359375,-1.30466796875,0.09523046875,0.22524609375,-3.246640625,-3.49364453125,0.9945546875,-0.23701953125,-2.94773046875,-1.638734375,-1.522453125,-0.4458203125,-3.34486328125,-8.6558828125,-6.3506953125,-5.37094140625,-7.7521875,-1.5040078125,-7.85219921875,-8.455234375
-16.7834453125,-18.21021484375,-17.74387109375,-6.061390625,-3.89819921875,-2.97424609375,-9.4693203125,1.45266015625,-1.7907265625,-3.44771875,-5.06643359375,-3.04366796875,-2.22276953125,-1.05175390625,-5.629640625,-5.66264453125,-1.5814453125,-0.00401953124999999,-3.88973046875,-3.528734375,-2.941453125,-0.7898203125,-2.76886328125,-9.1408828125,-6.9436953125,-6.09894140625,-8.0901875,-0.1370078125,-7.30419921875,-8.411234375
-14.4804453125,-16.66521484375,-16.51787109375,-6.171390625,-4.98719921875,-4.63424609375,-11.3153203125,0.202660156249999,-2.8657265625,-5.49171875,-7.62543359375,-4.70066796875,-3.50876953125,-2.59475390625,-8.066640625,-7.57164453125,-3.9574453125,0.0989804687499998,-5.02873046875,-5.276734375,-4.384453125,-0.3988203125,-2.42686328125,-9.6478828125,-7.7236953125,-6.82294140625,-8.3831875,0.8039921875,-6.83819921875,-8.510234375
-12.7944453125,-15.23421484375,-15.37687109375,-6.170390625,-6.29619921875,-6.00024609375,-12.6403203125,-0.873339843750001,-3.9457265625,-7.49071875,-9.66843359375,-5.93966796875,-3.33776953125,-4.19075390625,-10.210640625,-8.87264453125,-5.7224453125,-0.19801953125,-6.25373046875,-6.646734375,-5.538453125,0.5881796875,-2.47586328125,-10.2008828125,-8.4236953125,-7.36194140625,-8.5091875,1.0959921875,-6.47919921875,-8.583234375
-11.8684453125,-14.07521484375,-14.36687109375,-6.126390625,-7.78919921875,-6.90124609375,-13.2053203125,-1.72433984375,-5.0067265625,-9.21071875,-10.83743359375,-6.49866796875,-1.96876953125,-5.67175390625,-11.749640625,-9.36964453125,-6.6364453125,-1.09801953125,-7.41173046875,-7.471734375,-6.124453125,1.7421796875,-2.95586328125,-10.6798828125,-8.7356953125,-7.57094140625,-8.2691875,0.7089921875,-6.16519921875,-8.455234375
-11.7484453125,-13.37521484375,-13.62387109375,-6.206390625,-9.38619921875,-7.27324609375,-12.9523203125,-2.29833984375,-6.1337265625,-10.48671875,-11.01343359375,-6.30866796875,-0.25176953125,-6.94775390625,-12.491640625,-9.10564453125,-6.7144453125,-2.59801953125,-8.32573046875,-7.687734375,-6.001453125,2.5561796875,-3.76786328125,-10.8738828125,-8.4566953125,-7.37394140625,-7.4851875,-0.2040078125,-5.79719921875,-8.038234375
-12.3524453125,-13.22621484375,-13.27287109375,-6.568390625,-10.94319921875,-7.14024609375,-12.0263203125,-2.57433984375,-7.3947265625,-11.21671875,-10.32843359375,-5.51266796875,0.87423046875,-7.96175390625,-12.390640625,-8.31964453125,-6.1344453125,-4.43601953125,-8.80473046875,-7.313734375,-5.192453125,2.7141796875,-4.67386328125,-10.5568828125,-7.5586953125,-6.75994140625,-6.0671875,-1.3370078125,-5.26819921875,-7.352234375
-13.4274453125,-13.51721484375,-13.30087109375,-7.243390625,-12.26419921875,-6.57924609375,-10.7273203125,-2.58133984375,-8.7307265625,-11.36071875,-9.11343359375,-4.39766796875,0.91823046875,-8.65475390625,-11.537640625,-7.33364453125,-5.1224453125,-6.17701953125,-8.68073046875,-6.409734375,-3.876453125,2.2091796875,-5.37286328125,-9.5908828125,-6.1916953125,-5.78694140625,-4.0411875,-2.3060078125,-4.50419921875,-6.518234375
-14.5814453125,-13.96021484375,-13.52887109375,-8.087390625,-13.14719921875,-5.72024609375,-9.4073203125,-2.40133984375,-9.9337265625,-10.96271875,-7.79743359375,-3.30666796875,0.02223046875,-8.97575390625,-10.153640625,-6.44364453125,-3.8914453125,-7.41601953125,-7.88573046875,-5.070734375,-2.355453125,1.2801796875,-5.62486328125,-8.0028828125,-4.6576953125,-4.59294140625,-1.5761875,-2.7810078125,-3.50919921875,-5.711234375
-15.3884453125,-14.20121484375,-13.68787109375,-8.802390625,-13.43519921875,-4.70924609375,-8.3443203125,-2.15133984375,-10.7137265625,-10.13371875,-6.75143359375,-2.49666796875,-1.24176953125,-8.87875390625,-8.504640625,-5.81764453125,-2.6354453125,-7.92401953125,-6.48873046875,-3.420734375,-0.962453125000001,0.2521796875,-5.33686328125,-5.9758828125,-3.3016953125,-3.38994140625,1.0668125,-2.5920078125,-2.39019921875,-5.097234375
-15.5344453125,-13.94321484375,-13.53987109375,-9.048390625,-13.06619921875,-3.66224609375,-7.6433203125,-1.94833984375,-10.7797265625,-8.97671875,-6.11643359375,-2.01166796875,-2.26676953125,-8.31575390625,-6.791640625,-5.43364453125,-1.5014453125,-7.66801953125,-4.65173046875,-1.590734375,0.0625468749999993,-0.5858203125,-4.55486328125,-3.7528828125,-2.3636953125,-2.39894140625,3.6208125,-1.7550078125,-1.31619921875,-4.751234375
-14.9434453125,-13.06221484375,-12.99187109375,-8.577390625,-12.10519921875,-2.62824609375,-7.2213203125,-1.86833984375,-9.9427265625,-7.54371875,-5.74043359375,-1.67566796875,-2.73176953125,-7.25075390625,-5.092640625,-5.11264453125,-0.5414453125,-6.76001953125,-2.58673046875,0.292265625,0.650546874999999,-1.0548203125,-3.42586328125,-1.5668828125,-1.8966953125,-1.78894140625,5.8738125,-0.4600078125,-0.473199218749999,-4.643234375
-13.8424453125,-11.71221484375,-12.17987109375,-7.365390625,-10.74019921875,-1.62824609375,-6.8913203125,-1.91333984375,-8.2277265625,-5.89071875,-5.31743359375,-1.24566796875,-2.72576953125,-5.73575390625,-3.422640625,-4.67164453125,0.2705546875,-5.42801953125,-0.53673046875,2.094265625,0.869546874999999,-1.1558203125,-2.18886328125,0.3661171875,-1.8086953125,-1.66994140625,7.6478125,0.9539921875,-0.0301992187499991,-4.708234375
-12.7274453125,-10.34021484375,-11.45287109375,-5.657390625,-9.25219921875,-0.71824609375,-6.4843203125,-2.04533984375,-5.9317265625,-4.15971875,-4.60743359375,-0.60666796875,-2.61876953125,-3.97975390625,-1.853640625,-4.05864453125,0.9695546875,-3.99901953125,1.21326953125,3.659265625,0.818546875,-1.1138203125,-1.16386328125,1.8071171875,-1.9916953125,-2.11594140625,8.7568125,2.0519921875,-0.127199218749999,-4.938234375
-12.2114453125,-9.56721484375,-11.26787109375,-3.915390625,-7.95519921875,-0.00924609374999985,-5.9733203125,-2.27633984375,-3.5617265625,-2.58971875,-3.59543359375,0.14333203125,-2.77776953125,-2.32875390625,-0.559640625,-3.37864453125,1.5435546875,-2.84901953125,2.37026953125,4.816265625,0.567546875,-1.2928203125,-0.69886328125,2.5171171875,-2.3896953125,-3.14694140625,9.0178125,2.4209921875,-0.831199218749999,-5.423234375
-12.7994453125,-9.93921484375,-12.00587109375,-2.668390625,-7.11619921875,0.37275390625,-5.4843203125,-2.72333984375,-1.6667265625,-1.44571875,-2.49743359375,0.76433203125,-3.31576953125,-1.14675390625,0.250359375,-2.80664453125,1.9355546875,-2.30101953125,2.70926953125,5.425265625,0.150546874999999,-2.0018203125,-1.04386328125,2.3381171875,-2.9846953125,-4.68194140625,8.3288125,1.8089921875,-2.09219921875,-6.289234375
-14.6294453125,-11.65321484375,-13.78487109375,-2.285390625,-6.86219921875,0.35675390625,-5.2143203125,-3.55033984375,-0.6347265625,-0.91771875,-1.64743359375,1.02133203125,-4.04976953125,-0.67875390625,0.434359375000001,-2.46664453125,2.0895546875,-2.51101953125,2.16226953125,5.421265625,-0.397453125000001,-3.2908203125,-2.24786328125,1.2781171875,-3.7286953125,-6.48394140625,6.7608125,0.2279921875,-3.71619921875,-7.575234375
-17.3224453125,-14.37221484375,-16.34087109375,-2.800390625,-7.11019921875,-0.0182460937499997,-5.2983203125,-4.83233984375,-0.5467265625,-1.03171875,-1.31843359375,0.80933203125,-4.65176953125,-0.93075390625,0.0243593750000004,-2.36364453125,2.0125546875,-3.39601953125,0.87226953125,4.857265625,-1.010453125,-4.8738203125,-4.09686328125,-0.4308828125,-4.4976953125,-8.16394140625,4.6058125,-2.0030078125,-5.37919921875,-9.121234375
-20.0324453125,-17.25221484375,-19.03087109375,-3.873390625,-7.57819921875,-0.60124609375,-5.7443203125,-6.47433984375,-1.1257265625,-1.60871875,-1.58843359375,0.20833203125,-4.82176953125,-1.63575390625,-0.760640624999999,-2.39164453125,1.7865546875,-4.60501953125,-0.80073046875,3.912265625,-1.563453125,-6.2128203125,-6.13486328125,-2.3728828125,-5.0896953125,-9.25194140625,2.3408125,-4.3110078125,-6.68719921875,-10.548234375
-21.7254453125,-19.20321484375,-21.01087109375,-4.927390625,-7.91519921875,-1.18624609375,-6.4853203125,-8.25133984375,-1.8437265625,-2.33271875,-2.32743359375,-0.58266796875,-4.37176953125,-2.33375390625,-1.597640625,-2.43064453125,1.4975546875,-5.59401953125,-2.37773046875,2.824265625,-1.917453125,-6.7218203125,-7.78486328125,-4.0838828125,-5.3156953125,-9.36694140625,0.497812499999999,-6.0120078125,-7.27619921875,-11.385234375
-21.5844453125,-19.32421484375,-21.52887109375,-5.394390625,-7.87219921875,-1.64524609375,-7.4683203125,-9.90833984375,-2.1517265625,-2.91271875,-3.33543359375,-1.40566796875,-3.22776953125,-2.57675390625,-2.258640625,-2.49064453125,1.0985546875,-5.81601953125,-3.44273046875,1.766265625,-2.020453125,-5.9958203125,-8.54086328125,-5.2618828125,-5.1316953125,-8.40394140625,-0.551187500000001,-6.5320078125,-6.94919921875,-11.293234375
-19.3464453125,-17.30021484375,-20.24587109375,-4.931390625,-7.41719921875,-2.02724609375,-8.6983203125,-11.25433984375,-1.7217265625,-3.26471875,-4.52243359375,-2.27566796875,-1.43076953125,-2.14975390625,-2.766640625,-2.79164453125,0.3365546875,-4.94901953125,-3.83173046875,0.738265625,-2.003453125,-3.9518203125,-8.17086328125,-5.9178828125,-4.7366953125,-6.63094140625,-0.749187500000001,-5.6230078125,-5.77019921875,-10.262234375
-15.4534453125,-13.58121484375,-17.40587109375,-3.537390625,-6.74919921875,-2.54424609375,-10.2283203125,-12.24233984375,-0.5697265625,-3.55771875,-5.97643359375,-3.38166796875,0.86223046875,-1.17675390625,-3.407640625,-3.68064453125,-1.1474453125,-3.04701953125,-3.70373046875,-0.431734375,-2.169453125,-0.8508203125,-6.79186328125,-6.3598828125,-4.5326953125,-4.61694140625,-0.377187500000001,-3.4520078125,-4.07319921875,-8.636234375
-10.9334453125,-9.25421484375,-13.80887109375,-1.546390625,-6.21619921875,-3.44624609375,-12.0983203125,-12.99133984375,0.9762734375,-4.11171875,-7.87043359375,-4.94266796875,3.37423046875,-0.0617539062499999,-4.562640625,-5.42964453125,-3.5764453125,-0.54701953125,-3.46473046875,-1.979734375,-2.852453125,2.7761796875,-4.83386328125,-7.0288828125,-4.9516953125,-3.00594140625,0.0738124999999989,-0.5440078125,-2.37119921875,-6.976234375
-7.0494453125,-5.65621484375,-10.55987109375,0.501609375,-6.17419921875,-4.86524609375,-14.2633203125,-13.71433984375,2.4122734375,-5.22071875,-10.28943359375,-7.03766796875,5.73523046875,0.68224609375,-6.488640625,-8.05264453125,-6.8224453125,1.86198046875,-3.59273046875,-4.068734375,-4.255453125,6.2451796875,-2.89786328125,-8.2798828125,-6.2666953125,-2.28294140625,0.0968124999999995,2.3799921875,-1.20219921875,-5.841234375
-4.8404453125,-3.88421484375,-8.67087109375,2.059609375,-6.83219921875,-6.73024609375,-16.5353203125,-14.55933984375,3.2492734375,-7.00471875,-13.10743359375,-9.50966796875,7.55423046875,0.62424609375,-9.163640625,-11.25064453125,-10.3704453125,3.46298046875,-4.45273046875,-6.678734375,-6.334453125,8.9011796875,-1.58586328125,-10.2318828125,-8.4596953125,-2.61194140625,-0.656187500000001,4.6129921875,-0.970199218749999,-5.599234375
-4.7484453125,-4.37921484375,-8.66587109375,2.781609375,-8.14419921875,-8.75524609375,-18.5823203125,-15.46933984375,3.1902734375,-9.30771875,-15.93343359375,-11.95666796875,8.53923046875,-0.41675390625,-12.222640625,-14.46064453125,-13.4554453125,3.77698046875,-6.13073046875,-9.545734375,-8.755453125,10.3261796875,-1.29286328125,-12.6888828125,-11.1726953125,-3.78694140625,-2.2321875,5.6679921875,-1.78619921875,-6.295234375
-6.5064453125,-6.76921484375,-10.35487109375,2.631609375,-9.79119921875,-10.48524609375,-20.0033203125,-16.17533984375,2.2522734375,-11.66871875,-18.15843359375,-13.81466796875,8.57823046875,-2.27375390625,-14.998640625,-16.98364453125,-15.3084453125,2.77398046875,-8.33973046875,-12.162734375,-10.940453125,10.4911796875,-2.03986328125,-15.1308828125,-13.7376953125,-5.27494140625,-4.3111875,5.4349921875,-3.38019921875,-7.631234375
-9.3174453125,-10.04121484375,-12.92287109375,1.851609375,-11.26419921875,-11.41024609375,-20.4303203125,-16.31233984375,0.7602734375,-13.41571875,-19.09743359375,-14.53866796875,7.75823046875,-4.46075390625,-16.683640625,-18.15164453125,-15.3984453125,0.89598046875,-10.46273046875,-13.861734375,-12.219453125,9.7351796875,-3.44486328125,-16.8308828125,-15.3386953125,-6.37594140625,-6.2721875,4.1869921875,-5.17719921875,-9.057234375
-12.2034453125,-12.97721484375,-15.30087109375,0.836609374999999,-12.02919921875,-11.13424609375,-19.6093203125,-15.59533984375,-0.7997265625,-13.89571875,-18.21343359375,-13.82166796875,6.29823046875,-6.33675390625,-16.589640625,-17.53564453125,-13.6344453125,-1.14201953125,-11.75873046875,-14.004734375,-12.091453125,8.5431796875,-4.88086328125,-17.0858828125,-15.2986953125,-6.51194140625,-7.4091875,2.4199921875,-6.52519921875,-9.989234375
-14.3534453125,-14.63721484375,-16.60187109375,-0.0433906250000007,-11.71619921875,-9.52124609375,-17.4693203125,-13.97133984375,-1.9857265625,-12.73571875,-15.33643359375,-11.74666796875,4.49823046875,-7.32975390625,-14.409640625,-15.09364453125,-10.4454453125,-2.66501953125,-11.62573046875,-12.227734375,-10.455453125,7.2981796875,-5.72986328125,-15.4788828125,-13.3706953125,-5.48694140625,-7.2131875,0.6299921875,-6.98619921875,-10.050234375
-15.3344453125,-14.63221484375,-16.39987109375,-0.560390625,-10.25619921875,-6.75524609375,-14.1653203125,-11.68733984375,-2.5287265625,-9.97671875,-10.75043359375,-8.75766796875,2.74823046875,-7.08875390625,-10.329640625,-11.18664453125,-6.6594453125,-3.26601953125,-9.79473046875,-8.594734375,-7.671453125,6.1861796875,-5.57286328125,-12.0358828125,-9.8566953125,-3.58294140625,-5.5531875,-0.8390078125,-6.48719921875,-9.204234375
-15.1184453125,-13.15321484375,-14.77987109375,-0.655390625000001,-7.89619921875,-3.26224609375,-10.0753203125,-9.22333984375,-2.3577265625,-6.02971875,-5.11343359375,-5.46166796875,1.50923046875,-5.54175390625,-4.953640625,-6.44764453125,-3.2174453125,-2.87501953125,-6.37973046875,-3.613734375,-4.413453125,5.2571796875,-4.27886328125,-7.2078828125,-5.4836953125,-1.42894140625,-2.6841875,-1.8280078125,-5.27619921875,-7.718234375
-13.9944453125,-10.79221484375,-12.22387109375,-0.383390625000001,-5.07819921875,0.41375390625,-5.7213203125,-7.09333984375,-1.5607265625,-1.52571875,0.71656640625,-2.40866796875,1.13623046875,-2.87775390625,0.878359375,-1.59464453125,-0.8404453125,-1.71301953125,-1.83073046875,1.927265625,-1.400453125,4.4951796875,-2.01286328125,-1.7178828125,-1.1206953125,0.280058593750001,0.863812499999999,-2.3160078125,-3.73519921875,-6.027234375
-12.4414453125,-8.30421484375,-9.43387109375,0.151609375,-2.24419921875,3.76075390625,-1.6483203125,-5.63333984375,-0.3277265625,2.85928125,5.89456640625,0.0543320312500002,1.61423046875,0.50124609375,6.327359375,2.75635546875,0.1975546875,-0.17601953125,3.19026953125,7.206265625,0.849546874999999,3.8481796875,0.815136718749999,3.6431171875,2.5203046875,1.05705859375,4.4658125,-2.3750078125,-2.18119921875,-4.552234375
-10.9824453125,-6.35121484375,-7.11887109375,0.830609374999999,0.31780078125,6.41475390625,1.7036796875,-4.91233984375,1.1232734375,6.59328125,9.80356640625,1.82833203125,2.45723046875,4.08824609375,10.761359375,6.23035546875,0.1265546875,1.32198046875,7.97126953125,11.612265625,2.169546875,3.2421796875,3.66813671875,8.2411171875,5.0963046875,0.818058593750001,7.6038125,-2.1070078125,-0.751199218749999,-3.534234375
-10.0274453125,-5.31221484375,-5.77987109375,1.543609375,2.52280078125,8.25375390625,4.0886796875,-4.78433984375,2.6142734375,9.40928125,12.22156640625,3.02733203125,2.93423046875,7.41224609375,13.906359375,8.75635546875,-0.4614453125,2.50698046875,11.94726953125,14.896265625,2.754546875,2.6401796875,6.06513671875,11.7571171875,6.6913046875,-0.10094140625,10.0298125,-1.5680078125,0.606800781250001,-2.940234375
-9.7354453125,-5.20321484375,-5.55887109375,2.225609375,4.44080078125,9.38975390625,5.5116796875,-4.99433984375,4.0572734375,11.33528125,13.34256640625,3.87533203125,2.52123046875,10.14224609375,15.856359375,10.51735546875,-0.9004453125,3.32098046875,14.84626953125,17.166265625,3.034546875,2.0801796875,7.74413671875,14.2161171875,7.7043046875,-1.11894140625,11.8078125,-0.7360078125,2.04080078125,-2.501234375
-10.0004453125,-5.76921484375,-6.25987109375,2.868609375,6.17080078125,10.07075390625,6.2076796875,-5.28333984375,5.4122734375,12.57628125,13.62356640625,4.57433203125,1.25023046875,12.11124609375,16.933359375,11.78435546875,-0.7674453125,3.87998046875,16.69026953125,18.717265625,3.443546875,1.6501796875,8.70213671875,15.8671171875,8.5873046875,-1.70994140625,13.2068125,0.4519921875,3.64580078125,-1.881234375
-10.6044453125,-6.68821484375,-7.52387109375,3.459609375,7.70580078125,10.51775390625,6.5016796875,-5.49533984375,6.6032734375,13.35328125,13.53556640625,5.19033203125,-0.29876953125,13.27324609375,17.468359375,12.73735546875,-0.0804453124999999,4.32398046875,17.66926953125,19.799265625,4.189546875,1.4031796875,9.12113671875,16.9711171875,9.6033046875,-1.67594140625,14.4868125,1.9979921875,5.35580078125,-0.882234375000001
-11.4094453125,-7.75321484375,-9.03787109375,3.870609375,8.85880078125,10.80675390625,6.6326796875,-5.65633984375,7.4622734375,13.77328125,13.35756640625,5.63033203125,-1.34276953125,13.64924609375,17.645359375,13.38135546875,0.7445546875,4.70698046875,17.97426953125,20.455265625,5.156546875,1.3131796875,9.22413671875,17.6561171875,10.6993046875,-1.20694140625,15.7388125,3.7589921875,6.94380078125,0.439765624999998
-12.4264453125,-8.90721484375,-10.60987109375,3.854609375,9.34680078125,10.85575390625,6.6626796875,-5.92333984375,7.7642734375,13.80428125,13.11256640625,5.72433203125,-1.34976953125,13.30524609375,17.454359375,13.58535546875,1.1385546875,4.96498046875,17.69726953125,20.527265625,5.994546875,1.3041796875,9.16613671875,17.8911171875,11.5873046875,-0.69694140625,16.8388125,5.4659921875,8.13980078125,1.829765625
-13.6694453125,-10.13121484375,-12.09287109375,3.184609375,8.98380078125,10.51675390625,6.5406796875,-6.40633984375,7.3392734375,13.33528125,12.64956640625,5.36033203125,-0.33276953125,12.36724609375,16.771359375,13.21235546875,0.7045546875,4.99198046875,16.84926953125,19.798265625,6.336546875,1.3101796875,9.00213671875,17.5711171875,11.9423046875,-0.463941406249999,17.5338125,6.8129921875,8.77080078125,2.997765625
-14.9434453125,-11.27521484375,-13.22887109375,1.852609375,7.85080078125,9.70775390625,6.2256796875,-7.00933984375,6.1972734375,12.30128125,11.80656640625,4.59933203125,1.19423046875,11.02424609375,15.500359375,12.24635546875,-0.5304453125,4.73898046875,15.45426953125,18.185265625,6.023546875,1.3161796875,8.72213671875,16.6461171875,11.6053046875,-0.549941406249999,17.5908125,7.5889921875,8.84980078125,3.787765625
-15.8034453125,-12.00121484375,-13.62287109375,0.144609375,6.29680078125,8.50775390625,5.7686796875,-7.43633984375,4.5632734375,10.77928125,10.56256640625,3.69233203125,2.53623046875,9.51324609375,13.687359375,10.85035546875,-2.0664453125,4.27098046875,13.63426953125,15.830265625,5.208546875,1.3471796875,8.32113671875,15.1891171875,10.6823046875,-0.716941406249999,16.9198125,7.7689921875,8.55880078125,4.230765625
-15.7724453125,-11.94321484375,-12.92187109375,-1.472390625,4.77580078125,7.13175390625,5.2686796875,-7.37333984375,2.7952734375,8.98628125,9.06256640625,2.96433203125,3.17623046875,8.03224609375,11.532359375,9.28735546875,-3.1414453125,3.70998046875,11.60026953125,13.054265625,4.259546875,1.4091796875,7.80313671875,13.3631171875,9.4543046875,-0.63594140625,15.5938125,7.4899921875,8.15280078125,4.467765625
-14.6934453125,-10.99321484375,-11.12087109375,-2.578390625,3.62580078125,5.79175390625,4.7856796875,-6.69333984375,1.2162734375,7.16128125,7.50056640625,2.62533203125,2.94523046875,6.63024609375,9.269359375,7.76135546875,-3.1494453125,3.10498046875,9.54726953125,10.196265625,3.510546875,1.4281796875,7.13213671875,11.2971171875,8.1843046875,-0.147941406249999,13.7578125,6.9279921875,7.80780078125,4.589765625
-12.9424453125,-9.48221484375,-8.71887109375,-2.988390625,2.91780078125,4.55475390625,4.2586796875,-5.57133984375,-0.0157265625000003,5.43228125,5.97456640625,2.62633203125,1.98623046875,5.17024609375,7.037359375,6.28435546875,-2.0164453125,2.35798046875,7.54426953125,7.458265625,3.045546875,1.2681796875,6.18013671875,8.9931171875,6.9283046875,0.58805859375,11.5238125,6.1689921875,7.51880078125,4.535765625
-11.3084453125,-8.09521484375,-6.56387109375,-2.816390625,2.45580078125,3.31375390625,3.5036796875,-4.43133984375,-0.9307265625,3.78728125,4.44756640625,2.69333203125,0.62023046875,3.43724609375,4.842359375,4.69335546875,-0.2874453125,1.30098046875,5.52326953125,4.867265625,2.652546875,0.8441796875,4.77813671875,6.3531171875,5.5273046875,1.14805859375,8.9518125,5.1929921875,7.11280078125,4.125765625
-10.6094453125,-7.52821484375,-5.44287109375,-2.399390625,1.89780078125,1.88775390625,2.2876796875,-3.76633984375,-1.6717265625,2.13328125,2.80656640625,2.48433203125,-0.79476953125,1.30924609375,2.622359375,2.78035546875,1.1455546875,-0.14201953125,3.37026953125,2.341265625,1.962546875,0.2201796875,2.84313671875,3.3101171875,3.7243046875,1.06705859375,6.1058125,3.9509921875,6.34980078125,3.185765625
-11.2834453125,-8.14021484375,-5.71487109375,-2.142390625,0.93380078125,0.14175390625,0.440679687499999,-3.91733984375,-2.4097265625,0.37128125,0.94756640625,1.73833203125,-1.97576953125,-1.14575390625,0.312359375000001,0.41935546875,1.4635546875,-1.87201953125,1.03226953125,-0.205734375,0.651546874999999,-0.4278203125,0.470136718749999,-0.0598828124999997,1.3313046875,0.0690585937500003,3.1068125,2.4689921875,5.06280078125,1.652765625
-13.1774453125,-9.78721484375,-7.18387109375,-2.351390625,-0.58119921875,-1.94224609375,-2.0573203125,-4.93033984375,-3.2967265625,-1.56971875,-1.19043359375,0.34833203125,-2.77976953125,-3.70075390625,-2.117640625,-2.37864453125,0.2655546875,-3.66001953125,-1.43473046875,-2.800734375,-1.420453125,-0.9558203125,-2.07686328125,-3.5198828125,-1.6716953125,-1.81594140625,0.141812499999999,0.875992187500001,3.23980078125,-0.378234375000002
-15.6254453125,-11.89521484375,-9.24587109375,-3.101390625,-2.57519921875,-4.25224609375,-5.0613203125,-6.58233984375,-4.4097265625,-3.68371875,-3.60143359375,-1.63766796875,-3.19076953125,-6.06775390625,-4.650640625,-5.47264453125,-2.3024453125,-5.26101953125,-3.86273046875,-5.378734375,-4.146453125,-1.3398203125,-4.43986328125,-6.7418828125,-5.1016953125,-4.25194140625,-2.5621875,-0.6260078125,1.06780078125,-2.668234375
-17.7304453125,-13.69021484375,-11.16487109375,-4.187390625,-4.79519921875,-6.57024609375,-8.3013203125,-8.52533984375,-5.7057265625,-5.83971875,-6.17043359375,-4.02066796875,-3.25476953125,-7.97275390625,-7.177640625,-8.60664453125,-5.6084453125,-6.49401953125,-6.00673046875,-7.766734375,-7.188453125,-1.6188203125,-6.26986328125,-9.3918828125,-8.5926953125,-6.69894140625,-4.7641875,-1.8110078125,-1.09719921875,-4.874234375
-18.6994453125,-14.50021484375,-12.34787109375,-5.203390625,-6.88219921875,-8.61524609375,-11.4313203125,-10.41433984375,-7.0027265625,-7.77171875,-8.65843359375,-6.48966796875,-3.04876953125,-9.20575390625,-9.479640625,-11.44164453125,-8.7774453125,-7.25301953125,-7.60373046875,-9.697734375,-10.061453125,-1.7628203125,-7.32486328125,-11.2048828125,-11.6706953125,-8.58494140625,-6.2531875,-2.5050078125,-2.83419921875,-6.628234375
-18.1274453125,-13.99721484375,-12.51687109375,-5.744390625,-8.48219921875,-10.12024609375,-14.0803203125,-11.98733984375,-8.0747265625,-9.15771875,-10.74743359375,-8.69066796875,-2.72776953125,-9.67275390625,-11.254640625,-13.62564453125,-11.0144453125,-7.51201953125,-8.46973046875,-10.894734375,-12.278453125,-1.6318203125,-7.54386328125,-12.0578828125,-13.8686953125,-9.50894140625,-6.9141875,-2.6550078125,-3.81919921875,-7.657234375
-16.1554453125,-12.31621484375,-11.74787109375,-5.655390625,-9.37219921875,-10.92424609375,-15.9343203125,-13.11133984375,-8.7807265625,-9.77071875,-12.14043359375,-10.31666796875,-2.57676953125,-9.45975390625,-12.230640625,-14.87264453125,-11.9014453125,-7.34001953125,-8.59373046875,-11.183734375,-13.492453125,-1.0878203125,-7.07986328125,-12.0168828125,-14.8606953125,-9.39694140625,-6.7771875,-2.3640078125,-3.96019921875,-7.886234375
-13.4314453125,-9.99421484375,-10.39587109375,-5.172390625,-9.56619921875,-11.03024609375,-16.8403203125,-13.81533984375,-9.1647265625,-9.59871875,-12.68243359375,-11.17566796875,-2.96976953125,-8.84775390625,-12.287640625,-15.03864453125,-11.5364453125,-6.91601953125,-8.16673046875,-10.592734375,-13.581453125,-0.1958203125,-6.25686328125,-11.3188828125,-14.5546953125,-8.52394140625,-6.0151875,-1.8610078125,-3.43319921875,-7.464234375
-10.8214453125,-7.73121484375,-8.91387109375,-4.802390625,-9.30819921875,-10.60924609375,-16.8633203125,-14.26233984375,-9.4277265625,-8.88171875,-12.42843359375,-11.23266796875,-4.19576953125,-8.23375390625,-11.550640625,-14.16164453125,-10.4384453125,-6.50801953125,-7.52073046875,-9.361734375,-12.680453125,0.6631796875,-5.46286328125,-10.2968828125,-13.1256953125,-7.39194140625,-4.9031875,-1.4100078125,-2.58819921875,-6.699234375
-8.9734453125,-6.04721484375,-7.62287109375,-4.987390625,-8.91019921875,-9.92724609375,-16.2283203125,-14.60433984375,-9.7837265625,-8.01971875,-11.62543359375,-10.61466796875,-6.22876953125,-7.95775390625,-10.367640625,-12.47464453125,-9.2594453125,-6.38301953125,-6.98973046875,-7.846734375,-11.123453125,0.9181796875,-5.01786328125,-9.2648828125,-10.9706953125,-6.50594140625,-3.7371875,-1.2170078125,-1.81119921875,-5.924234375
-7.9554453125,-4.99221484375,-6.51087109375,-5.775390625,-8.55419921875,-9.22124609375,-15.1933203125,-14.83533984375,-10.2807265625,-7.36071875,-10.60643359375,-9.55166796875,-8.60376953125,-8.11075390625,-9.157640625,-10.34164453125,-8.4294453125,-6.65601953125,-6.73573046875,-6.350734375,-9.320453125,0.1421796875,-5.02586328125,-8.3918828125,-8.5676953125,-6.13794140625,-2.7411875,-1.3430078125,-1.37019921875,-5.350234375
-7.2434453125,-4.11621484375,-5.22687109375,-6.728390625,-8.17719921875,-8.58224609375,-13.9503203125,-14.76533984375,-10.7107265625,-7.00071875,-9.62643359375,-8.27966796875,-10.49276953125,-8.43075390625,-8.197640625,-8.14364453125,-7.9544453125,-7.16101953125,-6.63573046875,-4.976734375,-7.590453125,-1.6008203125,-5.30786328125,-7.6228828125,-6.2976953125,-6.18694140625,-1.9811875,-1.6570078125,-1.31919921875,-4.961234375
-6.0824453125,-2.75421484375,-3.30787109375,-7.151390625,-7.54319921875,-7.92924609375,-12.6173203125,-14.15833984375,-10.6817265625,-6.71771875,-8.77543359375,-6.97766796875,-11.04476953125,-8.40275390625,-7.493640625,-6.17264453125,-7.5104453125,-7.47801953125,-6.32773046875,-3.601734375,-6.074453125,-3.6608203125,-5.45986328125,-6.7158828125,-4.3276953125,-6.24594140625,-1.3541875,-1.8850078125,-1.49819921875,-4.547234375
-3.9944453125,-0.480214843749998,-0.542871093749996,-6.494390625,-6.41019921875,-7.11824609375,-11.2893203125,-12.93233984375,-9.8467265625,-6.14171875,-8.01443359375,-5.79466796875,-9.80176953125,-7.54575390625,-6.828640625,-4.59464453125,-6.7904453125,-7.13601953125,-5.42873046875,-2.002734375,-4.780453125,-5.0808203125,-5.07286328125,-5.3928828125,-2.6456953125,-5.85494140625,-0.679187500000001,-1.7560078125,-1.66019921875,-3.869234375
-1.1224453125,2.55678515625,2.78912890625,-4.692390625,-4.72419921875,-6.08524609375,-10.0913203125,-11.28733984375,-8.1427265625,-5.02171875,-7.28243359375,-4.90566796875,-6.97376953125,-5.72275390625,-5.947640625,-3.48764453125,-5.8354453125,-5.90401953125,-3.79173046875,-0.0507343750000002,-3.713453125,-5.0708203125,-3.97586328125,-3.5518828125,-1.1986953125,-4.81394140625,0.1448125,-1.1820078125,-1.64819921875,-2.869234375
1.7885546875,5.64378515625,5.95812890625,-2.270390625,-2.71119921875,-4.92624609375,-9.2013203125,-9.67533984375,-5.8907265625,-3.41071875,-6.56043359375,-4.47866796875,-3.38776953125,-3.25775390625,-4.727640625,-2.86264453125,-5.0714453125,-3.96101953125,-1.63873046875,2.158265625,-2.952453125,-3.4258203125,-2.35686328125,-1.3718828125,-0.00669531249999977,-3.32594140625,1.0378125,-0.3430078125,-1.50519921875,-1.750234375
3.7315546875,7.83878515625,8.08812890625,-0.135390625,-0.81919921875,-3.84924609375,-8.7843203125,-8.59933984375,-3.6767265625,-1.64071875,-5.86243359375,-4.56866796875,-0.16076953125,-0.79775390625,-3.235640625,-2.65064453125,-5.0384453125,-1.83101953125,0.52626953125,4.319265625,-2.613453125,-0.6468203125,-0.683863281250001,0.7391171875,0.8233046875,-1.89194140625,1.7708125,0.3859921875,-1.44419921875,-0.890234375000001
3.9455546875,8.42478515625,8.56612890625,0.855609374999999,0.48380078125,-3.05624609375,-8.8763203125,-8.31533984375,-2.1057265625,-0.14371875,-5.18443359375,-5.02266796875,1.72123046875,0.99524609375,-1.686640625,-2.69564453125,-5.9984453125,-0.14001953125,2.15926953125,6.075265625,-2.735453125,2.2441796875,0.526136718749999,2.3281171875,1.1923046875,-1.01694140625,2.0888125,0.6389921875,-1.70319921875,-0.632234375000001
2.3225546875,7.27278515625,7.36312890625,0.305609375,0.95480078125,-2.62324609375,-9.2743203125,-8.62733984375,-1.5317265625,0.76928125,-4.47343359375,-5.49766796875,1.74323046875,1.74024609375,-0.326640625,-2.77064453125,-7.6904453125,0.672980468750001,2.92826953125,7.197265625,-3.181453125,4.1401796875,0.948136718749999,3.1021171875,1.1113046875,-0.915941406249999,1.8648125,0.2609921875,-2.37319921875,-1.093234375
-0.476445312500001,4.95278515625,5.13112890625,-1.531390625,0.69980078125,-2.45724609375,-9.5613203125,-8.93733984375,-1.9147265625,1.03628125,-3.63443359375,-5.57966796875,0.02823046875,1.49424609375,0.677359375,-2.62664453125,-9.3594453125,0.53598046875,2.85826953125,7.700265625,-3.641453125,4.3361796875,0.594136718749999,3.0631171875,0.750304687500001,-1.37494140625,1.1938125,-0.5960078125,-3.30219921875,-2.098234375
-3.2804453125,2.52878515625,3.00612890625,-3.903390625,0.10280078125,-2.34524609375,-9.2893203125,-8.55633984375,-2.8467265625,0.85128125,-2.58743359375,-4.95966796875,-2.71376953125,0.69224609375,1.303359375,-2.08064453125,-10.0844453125,-0.25601953125,2.29226953125,7.807265625,-3.755453125,2.8581796875,-0.20386328125,2.4861171875,0.372304687500001,-1.87194140625,0.350812499999999,-1.5510078125,-4.15019921875,-3.254234375
-4.8834453125,1.13478515625,2.16512890625,-5.927390625,-0.38819921875,-2.07724609375,-8.2093203125,-7.07333984375,-3.7827265625,0.52428125,-1.34243359375,-3.58966796875,-5.45276953125,-0.0907539062499998,1.656359375,-1.10464453125,-9.2484453125,-1.23601953125,1.70926953125,7.812265625,-3.300453125,0.4291796875,-0.994863281250001,1.7721171875,0.2013046875,-1.88794140625,-0.350187500000001,-2.2050078125,-4.57519921875,-4.143234375
-4.5114453125,1.52878515625,3.35012890625,-6.958390625,-0.46119921875,-1.56224609375,-6.3953203125,-4.55733984375,-4.3037265625,0.31128125,-0.0404335937500004,-1.71666796875,-7.23876953125,-0.42075390625,1.896359375,0.12635546875,-6.8794453125,-2.01401953125,1.49926953125,7.928265625,-2.311453125,-1.9128203125,-1.42186328125,1.2631171875,0.311304687500001,-1.19094140625,-0.704187500000001,-2.3390078125,-4.41319921875,-4.493234375
-2.0654453125,3.84178515625,6.58612890625,-6.796390625,-0.0151992187499999,-0.84624609375,-4.1973203125,-1.49433984375,-4.2687265625,0.35128125,1.13256640625,0.26033203125,-7.57676953125,-0.14075390625,2.192359375,1.32235546875,-3.6224453125,-2.40701953125,1.85326953125,8.250265625,-1.032453125,-3.2878203125,-1.32286328125,1.1671171875,0.6573046875,0.0960585937500005,-0.632187500000001,-1.9580078125,-3.72119921875,-4.210234375
1.8915546875,7.59378515625,11.19812890625,-5.665390625,0.88380078125,-0.00824609374999996,-2.0693203125,1.46766015625,-3.7707265625,0.71328125,2.08156640625,2.02833203125,-6.60076953125,0.68924609375,2.728359375,2.27135546875,-0.3424453125,-2.39001953125,2.79626953125,8.827265625,0.273546875,-3.2618203125,-0.668863281250001,1.5971171875,1.2113046875,1.67405859375,-0.0931875000000009,-1.1780078125,-2.65319921875,-3.312234375
6.3815546875,11.91078515625,16.09012890625,-4.033390625,2.09880078125,0.92875390625,-0.3693203125,3.78466015625,-3.0007265625,1.45828125,2.88456640625,3.49433203125,-4.96276953125,1.92324609375,3.668359375,2.97135546875,2.3535546875,-1.97301953125,4.26126953125,9.722265625,1.482546875,-1.8698203125,0.531136718749999,2.6231171875,2.0453046875,3.27905859375,0.9748125,-0.0990078125,-1.32319921875,-1.856234375
10.3545546875,15.81178515625,20.11812890625,-2.392390625,3.48580078125,1.98575390625,0.743679687499999,5.16466015625,-2.1347265625,2.59328125,3.68956640625,4.70833203125,-3.49076953125,3.38824609375,5.047359375,3.57135546875,4.3315546875,-1.16501953125,6.10326953125,10.964265625,2.587546875,0.4861796875,2.21613671875,4.2231171875,3.2463046875,4.76705859375,2.5838125,1.2069921875,0.222800781250001,0.0227656249999981
12.9905546875,18.47478515625,22.42412890625,-1.104390625,4.88180078125,3.11575390625,1.2676796875,5.52166015625,-1.3247265625,3.97428125,4.53056640625,5.65533203125,-2.76376953125,4.85024609375,6.656359375,4.16935546875,5.7515546875,-0.0470195312500001,8.04326953125,12.429265625,3.560546875,3.1701796875,4.17813671875,6.1861171875,4.7393046875,6.02905859375,4.5498125,2.6039921875,1.90780078125,2.033765625
13.8565546875,19.41278515625,22.62912890625,-0.366390625,6.04780078125,4.10875390625,1.2146796875,4.82766015625,-0.7247265625,5.26328125,5.21856640625,6.11733203125,-2.86576953125,5.97924609375,8.042359375,4.65235546875,6.7035546875,1.16298046875,9.64826953125,13.772265625,4.231546875,5.4761796875,6.01413671875,8.0721171875,6.1893046875,6.88005859375,6.4348125,3.8279921875,3.52080078125,3.715765625
12.9245546875,18.53978515625,20.85012890625,-0.249390625,6.66680078125,4.61875390625,0.5366796875,3.05266015625,-0.5037265625,6.02028125,5.39656640625,5.73233203125,-3.43576953125,6.40724609375,8.665359375,4.71735546875,6.9535546875,2.12098046875,10.43026953125,14.512265625,4.303546875,6.8061796875,7.21113671875,9.3281171875,7.0913046875,7.03205859375,7.6708125,4.5109921875,4.70680078125,4.560765625
10.5075546875,16.14778515625,17.59712890625,-0.715390625,6.47280078125,4.32075390625,-0.809320312500001,0.269660156249998,-0.7997265625,5.89028125,4.74856640625,4.22433203125,-3.93776953125,5.87224609375,8.156359375,4.06035546875,6.0145546875,2.48398046875,10.03926953125,14.256265625,3.515546875,6.8501796875,7.34613671875,9.5101171875,7.0123046875,6.19805859375,7.8058125,4.3129921875,5.08880078125,4.216765625
7.1715546875,12.80978515625,13.58612890625,-1.601390625,5.44980078125,3.10875390625,-2.7003203125,-3.17633984375,-1.6327265625,4.79828125,3.22056640625,1.64633203125,-3.96676953125,4.38824609375,6.525359375,2.60735546875,3.5055546875,2.06998046875,8.46726953125,12.948265625,1.840546875,5.6821796875,6.30813671875,8.5151171875,5.8373046875,4.29205859375,6.7478125,3.0949921875,4.46680078125,2.690765625
3.6045546875,9.24278515625,9.54812890625,-2.608390625,3.92880078125,1.23675390625,-4.7663203125,-6.64233984375,-2.8177265625,3.06328125,1.15756640625,-1.51266796875,-3.37976953125,2.33224609375,4.228359375,0.65835546875,-0.4564453125,0.99998046875,6.12726953125,10.985265625,-0.389453125000001,3.7481796875,4.41013671875,6.6851171875,3.9033046875,1.59905859375,4.8708125,1.0709921875,2.97680078125,0.427765624999999
0.434554687499997,6.12578515625,6.05512890625,-3.353390625,2.48880078125,-0.73224609375,-6.4913203125,-9.36733984375,-3.9777265625,1.31528125,-0.79343359375,-4.46166796875,-2.26476953125,0.36924609375,2.024359375,-1.18964453125,-5.1164453125,-0.29801953125,3.73926953125,9.081265625,-2.562453125,1.7031796875,2.32013671875,4.6911171875,1.8923046875,-1.22994140625,2.8768125,-1.1890078125,1.09880078125,-1.817234375
-1.9384453125,3.90778515625,3.39712890625,-3.493390625,1.69680078125,-2.15424609375,-7.4293203125,-10.76533984375,-4.6827265625,0.23328125,-1.96843359375,-6.44266796875,-0.81576953125,-0.81475390625,0.655359375000001,-2.32064453125,-9.3214453125,-1.26401953125,2.02426953125,7.938265625,-4.049453125,0.1751796875,0.770136718749999,3.2271171875,0.5223046875,-3.38494140625,1.4618125,-2.9550078125,-0.540199218749999,-3.300234375
-3.4364453125,2.67478515625,1.54912890625,-2.878390625,1.83980078125,-2.61024609375,-7.4143203125,-10.65433984375,-4.6637265625,0.20828125,-2.02643359375,-7.08466796875,0.74123046875,-0.83975390625,0.498359375000001,-2.42964453125,-11.9784453125,-1.47401953125,1.36426953125,7.874265625,-4.517453125,-0.4428203125,0.21313671875,2.6651171875,0.1933046875,-4.25894140625,0.9718125,-3.6830078125,-1.47919921875,-3.644234375
-4.3074453125,2.15278515625,0.234128906250003,-1.672390625,2.76480078125,-2.11624609375,-6.6493203125,-9.34633984375,-3.9707265625,1.14028125,-1.12443359375,-6.55866796875,2.15523046875,0.15824609375,1.368359375,-1.68564453125,-12.4974453125,-0.86801953125,1.60626953125,8.639265625,-4.067453125,-0.1058203125,0.597136718749999,2.8581171875,0.7983046875,-3.72994140625,1.2258125,-3.3040078125,-1.66519921875,-3.023234375
-5.0494453125,1.81278515625,-0.955871093749996,-0.362390625000001,3.91280078125,-1.11724609375,-5.6423203125,-7.53433984375,-2.9787265625,2.47728125,0.15756640625,-5.44766796875,3.13623046875,1.54824609375,2.598359375,-0.64964453125,-11.0024453125,0.20398046875,2.13626953125,9.513265625,-3.159453125,0.8891796875,1.39013671875,3.2061171875,1.7893046875,-2.23794140625,1.6218125,-2.2760078125,-1.48919921875,-2.068234375
-6.2534453125,1.06478515625,-2.43387109375,0.401609375,4.55180078125,-0.28324609375,-4.9843203125,-6.01333984375,-2.2277265625,3.45528125,1.08856640625,-4.44966796875,3.39323046875,2.47524609375,3.320359375,0.00235546874999981,-8.2854453125,1.15098046875,2.17226953125,9.652265625,-2.382453125,1.9901796875,1.84613671875,2.9561171875,2.4313046875,-0.60094140625,1.4408125,-1.3540078125,-1.57719921875,-1.557234375
-8.3474453125,-0.512214843749998,-4.46287109375,0.110609374999999,4.11580078125,-0.20524609375,-5.0683203125,-5.33933984375,-2.1837265625,3.42428125,1.08756640625,-4.07966796875,2.74723046875,2.23924609375,2.846359375,-0.228644531250001,-5.4884453125,1.43098046875,1.14826953125,8.495265625,-2.223453125,2.5771796875,1.37213671875,1.5761171875,2.1323046875,0.34005859375,0.203812499999999,-1.2010078125,-2.46119921875,-2.050234375
-11.3464453125,-2.94221484375,-6.99887109375,-1.337390625,2.47880078125,-1.11224609375,-5.9013203125,-5.61433984375,-2.9977265625,2.13528125,-0.0264335937500002,-4.48866796875,1.28123046875,0.64224609375,0.983359375,-1.44564453125,-3.6294453125,0.84998046875,-0.98073046875,6.065265625,-2.885453125,2.2331796875,-0.159863281250001,-0.9468828125,0.7003046875,0.110058593750001,-2.0731875,-2.0490078125,-4.27119921875,-3.632234375
-14.7274453125,-5.75021484375,-9.60187109375,-3.545390625,0.0198007812500003,-2.73524609375,-7.1103203125,-6.51333984375,-4.3967265625,-0.10971875,-1.95043359375,-5.44366796875,-0.57776953125,-1.86675390625,-1.834640625,-3.29764453125,-3.1584453125,-0.31601953125,-3.67473046875,3.003265625,-4.191453125,0.9681796875,-2.31086328125,-4.0358828125,-1.5306953125,-1.16394140625,-4.8341875,-3.5890078125,-6.60919921875,-5.857234375
-17.5764453125,-8.10221484375,-11.55787109375,-5.766390625,-2.54219921875,-4.41624609375,-8.1303203125,-7.50233984375,-5.7757265625,-2.56471875,-4.00943359375,-6.46366796875,-2.14176953125,-4.36875390625,-4.696640625,-5.11164453125,-3.8074453125,-1.44501953125,-6.02973046875,0.308265625,-5.643453125,-0.7568203125,-4.26686328125,-6.7358828125,-3.8166953125,-2.78594140625,-7.1911875,-5.1320078125,-8.68319921875,-7.915234375
-18.9714453125,-9.19921484375,-12.22787109375,-7.216390625,-4.45019921875,-5.43524609375,-8.4653203125,-8.12433984375,-6.4767265625,-4.36271875,-5.47143359375,-7.08166796875,-2.73176953125,-5.88775390625,-6.619640625,-6.20564453125,-4.8624453125,-1.92101953125,-7.19673046875,-1.129734375,-6.648453125,-2.2608203125,-5.24386328125,-8.1488828125,-5.3386953125,-3.83894140625,-8.3231875,-5.9690078125,-9.67219921875,-8.984234375
-18.4574453125,-8.72121484375,-11.45287109375,-7.420390625,-5.22519921875,-5.40324609375,-7.9423203125,-8.23333984375,-6.1247265625,-4.92171875,-5.90243359375,-7.09966796875,-2.02076953125,-5.87075390625,-7.011640625,-6.23564453125,-5.6824453125,-1.48901953125,-6.80873046875,-0.977734375,-6.822453125,-2.9978203125,-4.90286328125,-7.8728828125,-5.6106953125,-3.65894140625,-7.8781875,-5.7270078125,-9.13019921875,-8.626234375
-16.3584453125,-7.06921484375,-9.75887109375,-6.434390625,-4.86819921875,-4.49224609375,-6.8433203125,-8.09433984375,-4.8447265625,-4.22671875,-5.39243359375,-6.71666796875,-0.28276953125,-4.46275390625,-5.969640625,-5.39764453125,-6.1284453125,-0.41901953125,-5.17673046875,0.330265625,-6.204453125,-2.8198203125,-3.54786328125,-6.2268828125,-4.7436953125,-2.20294140625,-6.1771875,-4.5430078125,-7.23719921875,-7.029234375
-13.7014453125,-5.22021484375,-8.16787109375,-4.838390625,-3.86619921875,-3.38324609375,-5.8493203125,-8.25833984375,-3.2317265625,-2.84971875,-4.53343359375,-6.43666796875,1.59223046875,-2.46675390625,-4.252640625,-4.36964453125,-6.6074453125,0.60598046875,-3.17773046875,1.742265625,-5.260453125,-2.0398203125,-2.00486328125,-4.1398828125,-3.4206953125,-0.0999414062499993,-4.1121875,-3.0050078125,-4.75919921875,-4.956234375
-11.7154453125,-4.23921484375,-7.67287109375,-3.455390625,-2.95619921875,-2.94524609375,-5.7293203125,-9.21633984375,-2.1027265625,-1.70571875,-4.14043359375,-6.82066796875,2.38623046875,-0.99875390625,-2.947640625,-4.00464453125,-7.7294453125,0.79698046875,-1.89173046875,2.064265625,-4.666453125,-1.2818203125,-1.25686328125,-2.7528828125,-2.5726953125,1.66405859375,-2.7721875,-1.8870078125,-2.72319921875,-3.402234375
-11.1594453125,-4.68521484375,-8.63887109375,-2.963390625,-2.76219921875,-3.78524609375,-6.9223203125,-11.01333984375,-2.1257265625,-1.63471875,-4.83643359375,-8.15766796875,1.08723046875,-0.98875390625,-2.964640625,-4.87864453125,-9.7784453125,-0.36301953125,-2.12573046875,0.546265625,-4.945453125,-1.1808203125,-1.97986328125,-2.9018828125,-2.9056953125,2.25905859375,-2.9421875,-1.8000078125,-1.95719921875,-3.084234375
-11.8584453125,-6.23221484375,-10.49087109375,-3.577390625,-3.49219921875,-5.90124609375,-9.2363203125,-13.09933984375,-3.5047265625,-2.97771875,-6.67343359375,-10.22366796875,-2.53976953125,-2.73375390625,-4.572640625,-6.92064453125,-12.3744453125,-2.85401953125,-4.02873046875,-2.689734375,-6.146453125,-2.0618203125,-4.19286328125,-4.7068828125,-4.4986953125,1.47705859375,-4.7011875,-2.8880078125,-2.69819921875,-4.059234375
-12.7494453125,-7.74021484375,-11.88987109375,-4.986390625,-4.85119921875,-8.60924609375,-11.8513203125,-14.54833984375,-5.8627265625,-5.37671875,-9.02643359375,-12.27766796875,-7.65076953125,-5.72875390625,-7.220640625,-9.34864453125,-14.5364453125,-6.07501953125,-6.98973046875,-6.635734375,-7.728453125,-3.7468203125,-7.20186328125,-7.4828828125,-6.6986953125,-0.13294140625,-7.3371875,-4.7200078125,-4.47419921875,-5.678234375
-12.3664453125,-7.74621484375,-11.32487109375,-6.521390625,-6.17819921875,-10.82024609375,-13.6203203125,-14.47533984375,-8.3957265625,-7.92771875,-10.84143359375,-13.35066796875,-12.54076953125,-8.87275390625,-9.762640625,-10.97864453125,-15.1214453125,-9.07101953125,-9.86873046875,-9.822734375,-8.773453125,-5.6168203125,-9.87386328125,-10.0228828125,-8.3986953125,-1.51994140625,-9.6391875,-6.4420078125,-6.32419921875,-6.905234375
-9.5484453125,-5.15621484375,-7.82887109375,-7.444390625,-6.72519921875,-11.51424609375,-13.5323203125,-12.44433984375,-10.2037265625,-9.57471875,-11.12243359375,-12.69266796875,-15.37476953125,-10.92875390625,-10.961640625,-10.78264453125,-13.3924453125,-10.90301953125,-11.45373046875,-10.967734375,-8.410453125,-6.8858203125,-11.11886328125,-11.1218828125,-8.5446953125,-1.64294140625,-10.4401875,-7.1440078125,-7.23519921875,-6.808234375
-4.0064453125,0.213785156250001,-1.47587109375,-7.236390625,-5.96919921875,-10.18724609375,-11.1603203125,-8.69633984375,-10.6357265625,-9.56071875,-9.39543359375,-10.13766796875,-15.05876953125,-11.01375390625,-10.031640625,-8.38764453125,-9.4094453125,-10.96901953125,-10.93873046875,-9.528734375,-6.249453125,-6.9358203125,-10.32186328125,-10.0798828125,-6.6276953125,0.0360585937500009,-9.1331875,-6.2630078125,-6.58319921875,-4.983234375
3.4575546875,7.47978515625,6.55912890625,-5.801390625,-3.84419921875,-7.05024609375,-6.9083203125,-4.12433984375,-9.5067265625,-7.72471875,-5.92843359375,-6.20766796875,-11.76576953125,-8.91075390625,-6.962640625,-4.27564453125,-4.0714453125,-9.16601953125,-8.22273046875,-5.909734375,-2.606453125,-5.5608203125,-7.55086328125,-6.9698828125,-2.9186953125,3.28205859375,-5.9291875,-3.8310078125,-4.38419921875,-1.716234375
11.2185546875,14.98878515625,14.39312890625,-3.494390625,-0.79819921875,-2.94924609375,-1.9053203125,0.0146601562499988,-7.1437265625,-4.54571875,-1.65043359375,-1.94466796875,-6.81276953125,-5.12175390625,-2.519640625,0.38735546875,1.1665546875,-5.90001953125,-3.95473046875,-1.263734375,1.584546875,-3.0578203125,-3.50786328125,-2.5908828125,1.6243046875,7.17105859375,-1.7631875,-0.4850078125,-1.28019921875,2.113765625
17.4685546875,20.93378515625,20.14412890625,-0.962390625,2.38780078125,0.96975390625,2.4386796875,2.57466015625,-4.2337265625,-0.95571875,2.20856640625,1.47833203125,-1.96576953125,-0.67175390625,2.063359375,4.22235546875,4.8025546875,-1.96301953125,0.714269531249999,2.991265625,5.133546875,-0.1338203125,0.742136718749999,1.8491171875,5.7363046875,10.48505859375,2.1048125,2.7979921875,1.73080078125,5.374765625
20.9445546875,24.05678515625,22.64612890625,1.151609375,4.92580078125,3.70275390625,5.0146796875,2.96866015625,-1.5367265625,2.05728125,4.60756640625,3.19733203125,1.40323046875,3.29724609375,5.584359375,6.21835546875,5.8515546875,1.71798046875,4.57626953125,5.751265625,7.091546875,2.3711796875,4.17013671875,5.2221171875,8.3633046875,12.25805859375,4.6228125,5.1049921875,3.73080078125,7.136765625
21.4045546875,24.11878515625,21.88712890625,2.486609375,6.34980078125,4.78375390625,5.4446796875,1.38266015625,0.4352734375,3.87228125,5.13356640625,3.01233203125,2.84223046875,5.96824609375,7.363359375,6.16035546875,4.2535546875,4.41698046875,6.86426953125,6.630265625,7.153546875,3.8561796875,6.17113671875,6.9251171875,9.1023046875,12.20905859375,5.3858125,5.9739921875,4.28080078125,7.065765625
19.6735546875,21.97078515625,18.97412890625,3.090609375,6.68380078125,4.42175390625,4.1616796875,-1.29933984375,1.5972734375,4.45728125,4.15056640625,1.45533203125,2.81523046875,7.12524609375,7.474359375,4.68635546875,0.9165546875,5.87598046875,7.51926953125,6.034265625,5.756546875,4.2411796875,6.75513671875,7.0741171875,8.3153046875,10.80505859375,4.7548125,5.5419921875,3.58080078125,5.563765625
17.2635546875,19.17978515625,15.68112890625,3.330609375,6.37280078125,3.32475390625,2.1646796875,-3.80833984375,2.2422734375,4.27028125,2.56156640625,-0.47566796875,2.25523046875,7.10924609375,6.594359375,2.91835546875,-2.6674453125,6.34298046875,7.10526953125,4.856265625,3.804546875,3.9741796875,6.44013671875,6.3481171875,6.8793046875,8.95505859375,3.5968125,4.3909921875,2.31480078125,3.555765625
15.7565546875,17.39678515625,13.76812890625,3.659609375,6.02780078125,2.31875390625,0.5746796875,-4.93433984375,2.7932734375,3.91328125,1.33556640625,-1.76966796875,2.00323046875,6.53524609375,5.592359375,1.89735546875,-5.0644453125,6.35498046875,6.43626953125,4.000265625,2.232546875,3.7431796875,5.94113671875,5.6001171875,5.7213046875,7.54105859375,2.8248125,3.2289921875,1.29380078125,2.061765625
16.1915546875,17.72578515625,14.34912890625,4.362609375,6.09980078125,1.97375390625,0.1836796875,-3.97133984375,3.5432734375,3.79428125,1.06556640625,-1.80766796875,2.42323046875,5.95624609375,5.105359375,2.12435546875,-5.4714453125,6.41898046875,6.15126953125,3.977265625,1.627546875,4.0781796875,5.82313671875,5.4621171875,5.4073046875,7.07605859375,2.9928125,2.5929921875,1.09880078125,1.780765625
18.6815546875,20.31978515625,17.53012890625,5.395609375,6.64680078125,2.39375390625,1.1666796875,-1.00533984375,4.4722734375,3.93928125,1.75656640625,-0.56866796875,3.33723046875,5.61324609375,5.279359375,3.39535546875,-3.9624453125,6.74398046875,6.43826953125,4.723265625,2.065546875,5.0591796875,6.27613671875,6.0981171875,5.9563046875,7.60505859375,4.1008125,2.6809921875,1.86780078125,2.853765625
22.3835546875,24.32578515625,22.39312890625,6.387609375,7.29380078125,3.21575390625,3.0786796875,3.12266015625,5.2112734375,3.99728125,2.87356640625,1.40933203125,4.19123046875,5.35524609375,5.747359375,4.92835546875,-1.3454453125,7.11998046875,6.97326953125,5.655265625,3.127546875,6.2651796875,7.02613671875,7.1521171875,6.8923046875,8.78205859375,5.6268125,3.3119921875,3.26280078125,4.842765625
25.8475546875,28.21078515625,27.34312890625,6.779609375,7.40680078125,3.78375390625,5.0896796875,7.16266015625,5.1642734375,3.41928125,3.60856640625,3.27433203125,4.34323046875,4.71724609375,5.818359375,5.70635546875,1.2635546875,6.99898046875,7.08526953125,5.939265625,4.091546875,6.9621796875,7.45213671875,7.9041171875,7.4653046875,10.03605859375,6.7598125,4.0079921875,4.61480078125,6.922765625
27.5895546875,30.36178515625,30.70412890625,6.063609375,6.38980078125,3.46575390625,6.3506796875,9.94466015625,3.7822734375,1.74728125,3.26556640625,4.25033203125,3.34223046875,3.16624609375,4.823359375,4.93635546875,2.9385546875,5.78298046875,6.08326953125,4.864265625,4.256546875,6.4581796875,6.87113671875,7.5941171875,7.0023046875,10.80105859375,6.7578125,4.2119921875,5.23380078125,8.228765625
26.6705546875,29.72978515625,31.33112890625,4.027609375,3.99680078125,1.97275390625,6.3266796875,10.81166015625,0.8882734375,-1.09071875,1.61356640625,3.99033203125,1.10423046875,0.42524609375,2.481359375,2.45035546875,3.3145546875,3.17098046875,3.63326953125,2.224265625,3.286546875,4.4511796875,4.90713671875,5.8081171875,5.2463046875,10.73705859375,5.3028125,3.5659921875,4.73680078125,8.231765625
23.0685546875,26.24178515625,29.01012890625,0.891609374999999,0.50580078125,-0.47924609375,4.9996796875,9.83666015625,-3.1447265625,-4.66871875,-0.97943359375,2.72633203125,-2.08776953125,-3.31075390625,-0.909640624999999,-1.15964453125,2.6535546875,-0.61901953125,-0.0267304687500003,-1.517734375,1.406546875,1.1911796875,1.71713671875,2.7211171875,2.5243046875,9.86805859375,2.6528125,2.0949921875,3.24280078125,6.959765625
17.6675546875,20.79478515625,24.47612890625,-2.719390625,-3.33619921875,-3.25024609375,2.8546796875,7.75066015625,-7.4947265625,-8.21071875,-3.70543359375,1.12333203125,-5.72576953125,-7.40175390625,-4.564640625,-4.76764453125,1.6135546875,-4.91201953125,-4.14573046875,-5.380734375,-0.704453125000001,-2.6228203125,-2.05186328125,-0.9518828125,-0.3916953125,8.53605859375,-0.4961875,0.1869921875,1.29180078125,4.947765625
11.8915546875,14.86678515625,19.08312890625,-5.994390625,-6.59119921875,-5.55224609375,0.655679687499999,5.59566015625,-11.2037265625,-10.89771875,-5.67643359375,-0.0616679687499997,-9.25676953125,-10.99575390625,-7.530640625,-7.18464453125,0.8765546875,-8.83501953125,-7.75273046875,-8.265734375,-2.243453125,-6.1128203125,-5.52886328125,-4.2548828125,-2.6176953125,7.21205859375,-3.3321875,-1.6150078125,-0.424199218749999,2.958765625
7.1545546875,9.95578515625,14.29712890625,-8.205390625,-8.48419921875,-6.75624609375,-0.873320312500001,4.27966015625,-13.5177265625,-12.16271875,-6.28243359375,-0.29166796875,-12.17476953125,-13.32175390625,-9.040640625,-7.62664453125,0.8495546875,-11.62201953125,-10.02173046875,-9.391734375,-2.635453125,-8.5218203125,-7.93786328125,-6.3718828125,-3.5226953125,6.30605859375,-5.2431875,-2.8310078125,-1.35719921875,1.660765625
4.4075546875,7.09878515625,11.23312890625,-8.911390625,-8.64719921875,-6.58924609375,-1.2903203125,4.28566015625,-14.0977265625,-11.84471875,-5.38143359375,0.59033203125,-14.05976953125,-13.93275390625,-8.771640625,-5.96464453125,1.5945546875,-12.82101953125,-10.53573046875,-8.562734375,-1.740453125,-9.4178203125,-8.82886328125,-6.8968828125,-2.9316953125,6.05205859375,-5.9741875,-3.1910078125,-1.27519921875,1.409765625
3.9605546875,6.63978515625,10.39712890625,-8.031390625,-7.18219921875,-5.18624609375,-0.5183203125,5.63166015625,-13.0607265625,-10.19471875,-3.30543359375,2.37133203125,-14.63276953125,-12.81575390625,-6.932640625,-2.71164453125,2.9275546875,-12.39101953125,-9.38173046875,-6.169734375,0.154546874999999,-8.8058203125,-8.17886328125,-5.9188828125,-1.1286953125,6.49205859375,-5.6261875,-2.6650078125,-0.27919921875,2.189765625
5.5265546875,8.25778515625,11.64412890625,-5.844390625,-4.57519921875,-3.02624609375,1.1936796875,7.98366015625,-10.8967265625,-7.77471875,-0.71343359375,4.57933203125,-13.89476953125,-10.38675390625,-4.180640625,1.19835546875,4.5765546875,-10.68601953125,-7.07973046875,-3.006734375,2.472546875,-7.1388203125,-6.37686328125,-3.9448828125,1.2793046875,7.47205859375,-4.5651875,-1.4560078125,1.26380078125,3.668765625
8.3715546875,11.14678515625,14.28112890625,-2.944390625,-1.57119921875,-0.77124609375,3.3426796875,10.77966015625,-8.3077265625,-5.27371875,1.64056640625,6.64733203125,-12.24776953125,-7.35975390625,-1.389640625,4.72435546875,6.2545546875,-8.33401953125,-4.39473046875,-0.00673437500000018,4.551546875,-5.1668203125,-4.09186328125,-1.7058828125,3.5703046875,8.65305859375,-3.2801875,0.0529921875000001,2.84580078125,5.319765625
11.4615546875,14.22878515625,17.24412890625,-0.122390625,1.00680078125,0.93575390625,5.2886796875,13.32966015625,-6.0137265625,-3.30971875,3.13356640625,8.07533203125,-10.42976953125,-4.52275390625,0.644359375000001,7.01035546875,7.6405546875,-6.03401953125,-2.09773046875,2.020265625,5.837546875,-3.6678203125,-2.05686328125,0.0811171875000003,5.1023046875,9.57005859375,-2.2361875,1.3839921875,3.95980078125,6.575765625
13.6705546875,16.38278515625,19.33512890625,1.848609375,2.49180078125,1.65775390625,6.4236796875,14.95466015625,-4.5477265625,-2.26271875,3.42956640625,8.53133203125,-9.20976953125,-2.49175390625,1.440359375,7.57735546875,8.3535546875,-4.32201953125,-0.74673046875,2.575265625,6.003546875,-3.1368203125,-0.824863281250001,0.9281171875,5.4663046875,9.76505859375,-1.7421875,2.1049921875,4.25780078125,6.992765625
14.0835546875,16.74678515625,19.56912890625,2.499609375,2.59980078125,1.28275390625,6.3656796875,15.16566015625,-4.1077265625,-2.18371875,2.54056640625,7.90033203125,-8.93376953125,-1.53075390625,0.956359375,6.39135546875,8.0225546875,-3.41201953125,-0.53673046875,1.580265625,5.014546875,-3.5798203125,-0.58686328125,0.7021171875,4.5903046875,8.98005859375,-1.8501875,1.9859921875,3.68080078125,6.399765625
12.3465546875,15.02278515625,17.54612890625,1.867609375,1.54780078125,0.0547539062500002,5.0936796875,13.83766015625,-4.4937265625,-2.78671875,0.80256640625,6.31133203125,-9.23576953125,-1.49575390625,-0.443640625,3.84635546875,6.5005546875,-3.14301953125,-1.26573046875,-0.618734375,3.151546875,-4.5118203125,-1.10886328125,-0.3478828125,2.7833046875,7.31405859375,-2.3211875,1.1219921875,2.50180078125,4.988765625
8.8725546875,11.64778515625,13.66912890625,0.510609375,-0.0401992187499998,-1.50824609375,2.9676796875,11.28066015625,-5.1747265625,-3.54271875,-1.21643359375,4.12133203125,-9.18976953125,-1.92675390625,-2.127640625,0.66835546875,4.0595546875,-3.09801953125,-2.40873046875,-3.342734375,0.951546875,-5.1688203125,-1.83486328125,-1.6768828125,0.6763046875,5.24005859375,-2.6981875,-0.0540078125000001,1.25180078125,3.286765625
4.7535546875,7.65778515625,9.02812890625,-0.698390625,-1.38119921875,-2.79724609375,0.636679687499999,8.19066015625,-5.5117265625,-3.88371875,-2.88843359375,1.83433203125,-7.89376953125,-2.26375390625,-3.423640625,-2.28964453125,1.3905546875,-2.81901953125,-3.32573046875,-5.778734375,-0.939453125,-4.8858203125,-2.14386328125,-2.6428828125,-0.9756953125,3.45205859375,-2.4911875,-0.9310078125,0.511800781250001,1.984765625
1.3475546875,4.28978515625,4.97612890625,-0.947390625000001,-1.84419921875,-3.34324609375,-1.1743203125,5.44066015625,-5.0357265625,-3.44671875,-3.72243359375,-0.0396679687499997,-5.10476953125,-2.09875390625,-3.853640625,-4.30164453125,-0.6424453125,-2.05401953125,-3.51873046875,-7.241734375,-1.977453125,-3.4568203125,-1.64786328125,-2.7688828125,-1.5776953125,2.58505859375,-1.4171875,-0.9870078125,0.65380078125,1.662765625
-0.250445312500002,2.50078515625,2.59312890625,0.144609375,-1.18619921875,-2.98524609375,-1.9253203125,3.75966015625,-3.6577265625,-2.21971875,-3.52143359375,-1.12966796875,-1.47376953125,-1.32575390625,-3.293640625,-4.97564453125,-1.3594453125,-0.87701953125,-2.83173046875,-7.400734375,-1.895453125,-1.2448203125,-0.370863281250001,-1.9308828125,-0.9276953125,2.95505859375,0.4428125,-0.0360078125000003,1.68280078125,2.527765625
0.390554687499996,2.65778515625,2.32112890625,2.338609375,0.36380078125,-1.91824609375,-1.4893203125,3.43566015625,-1.7007265625,-0.54271875,-2.43843359375,-1.31166796875,1.78723046875,-0.15575390625,-2.004640625,-4.33264453125,-0.5524453125,0.36498046875,-1.49973046875,-6.381734375,-0.778453125000001,1.0191796875,1.27713671875,-0.4038828125,0.720304687500001,4.42705859375,2.6608125,1.6699921875,3.22480078125,4.311765625
2.9665546875,4.46278515625,3.87012890625,4.866609375,2.21680078125,-0.61124609375,-0.2053203125,4.21966015625,0.2412734375,1.00928125,-0.94343359375,-0.74566796875,3.50523046875,0.97324609375,-0.546640624999999,-2.76764453125,1.4105546875,1.21998046875,-0.0517304687500006,-4.726734375,0.963546875,2.5951796875,2.68513671875,1.2471171875,2.7413046875,6.46605859375,4.6108125,3.5149921875,4.66680078125,6.349765625
6.6515546875,7.12478515625,6.40112890625,6.782609375,3.69780078125,0.36975390625,1.2796796875,5.47866015625,1.5512734375,1.83328125,0.320566406249999,0.15033203125,3.06323046875,1.57424609375,0.420359375,-0.92664453125,3.7015546875,1.34498046875,0.89626953125,-3.184734375,2.710546875,3.0211796875,3.29413671875,2.3851171875,4.3533046875,8.33905859375,5.6858125,4.7459921875,5.38680078125,7.831765625
10.4405546875,9.67078515625,8.86912890625,7.405609375,4.34880078125,0.59875390625,2.3196796875,6.50166015625,1.8642734375,1.55328125,0.79056640625,0.86733203125,0.61923046875,1.34824609375,0.413359375000001,0.50135546875,5.3695546875,0.680980468750001,0.90126953125,-2.419734375,3.826546875,2.2541796875,2.83713671875,2.5671171875,4.8983046875,9.39605859375,5.5238125,4.7889921875,5.01480078125,8.151765625
13.4285546875,11.26878515625,10.36512890625,6.609609375,4.12280078125,-0.0132460937499999,2.5566796875,6.78966015625,1.2502734375,0.23628125,0.262566406249999,1.03733203125,-2.96376953125,0.36824609375,-0.627640624999999,1.02535546875,5.7385546875,-0.47301953125,-0.09773046875,-2.724734375,3.899546875,0.6781796875,1.48313671875,1.7441171875,4.1073046875,9.33005859375,4.1738125,3.5479921875,3.62380078125,7.196765625
14.9605546875,11.42878515625,10.34512890625,4.837609375,3.37080078125,-1.17524609375,2.0606796875,6.21566015625,0.1872734375,-1.58971875,-0.99043359375,0.60033203125,-6.45076953125,-0.91575390625,-2.275640625,0.50435546875,4.6445546875,-1.55401953125,-1.72773046875,-3.926734375,2.899546875,-1.0328203125,-0.210863281250001,0.2851171875,2.1933046875,8.25805859375,2.0978125,1.4809921875,1.73580078125,5.399765625
14.6975546875,10.05778515625,8.68712890625,2.861609375,2.62380078125,-2.38024609375,1.2496796875,5.02166015625,-0.6747265625,-3.17371875,-2.36343359375,-0.21866796875,-8.70576953125,-1.89375390625,-3.825640625,-0.86564453125,2.4095546875,-1.99901953125,-3.36873046875,-5.527734375,1.144546875,-2.1698203125,-1.55986328125,-1.2318828125,-0.2776953125,6.59705859375,-0.0391875000000006,-0.6120078125,0.0928007812500002,3.511765625
12.6665546875,7.41078515625,5.65512890625,1.427609375,2.31480078125,-3.16524609375,0.639679687499999,3.64866015625,-0.8347265625,-3.90471875,-3.24943359375,-1.09466796875,-9.10076953125,-2.11275390625,-4.633640625,-2.69864453125,-0.3894453125,-1.51701953125,-4.45573046875,-7.001734375,-0.881453125000001,-2.2898203125,-2.07586328125,-2.3168828125,-2.6696953125,4.80405859375,-1.6701875,-1.9870078125,-0.68919921875,2.201765625
9.2885546875,4.00278515625,1.80912890625,0.970609375,2.57680078125,-3.31024609375,0.557679687499999,2.48566015625,-0.1387265625,-3.56671875,-3.32743359375,-1.78566796875,-7.67576953125,-1.48875390625,-4.405640625,-4.57064453125,-3.1494453125,-0.22101953125,-4.73173046875,-8.049734375,-2.757453125,-1.3868203125,-1.68786328125,-2.7828828125,-4.5276953125,3.16405859375,-2.5601875,-2.2860078125,-0.40119921875,1.728765625
5.3585546875,0.521785156250001,-2.08887109375,1.529609375,3.22980078125,-2.88924609375,0.9946796875,1.68566015625,1.2052734375,-2.38771875,-2.66843359375,-2.23766796875,-4.99576953125,-0.30875390625,-3.278640625,-6.13064453125,-5.3714453125,1.44798046875,-4.32573046875,-8.682734375,-4.260453125,0.1521796875,-0.724863281250001,-2.7698828125,-5.6966953125,1.72605859375,-2.8371875,-1.6430078125,0.712800781250001,1.870765625
1.9275546875,-2.28521484375,-5.20887109375,2.847609375,3.93680078125,-2.19424609375,1.6696796875,1.15666015625,2.7722734375,-0.90071875,-1.65143359375,-2.57266796875,-1.84176953125,0.92924609375,-1.734640625,-7.17264453125,-6.7314453125,2.93198046875,-3.63173046875,-9.118734375,-5.396453125,1.7581796875,0.275136718749999,-2.6058828125,-6.2856953125,0.37705859375,-2.8501875,-0.5390078125,2.11080078125,2.108765625
0.0545546874999978,-3.75421484375,-6.81587109375,4.575609375,4.40580078125,-1.58524609375,2.2426796875,0.705660156249998,4.1152734375,0.28828125,-0.77343359375,-2.99866796875,1.08823046875,1.74324609375,-0.385640624999999,-7.65664453125,-7.1364453125,3.78298046875,-3.09473046875,-9.587734375,-6.321453125,2.9151796875,0.82513671875,-2.6168828125,-6.5426953125,-1.01194140625,-2.9511875,0.4669921875,3.21080078125,1.944765625
0.5095546875,-3.43321484375,-6.41387109375,6.425609375,4.50480078125,-1.33824609375,2.5076796875,0.201660156249998,4.9442734375,0.72728125,-0.44343359375,-3.66266796875,3.35623046875,1.86924609375,0.263359375,-7.67664453125,-6.7354453125,3.82498046875,-2.98673046875,-10.169734375,-7.196453125,3.3191796875,0.707136718749999,-2.9438828125,-6.6866953125,-2.47094140625,-3.3021875,0.9869921875,3.63680078125,1.181765625
3.5315546875,-1.17421484375,-3.85087109375,8.227609375,4.27480078125,-1.53924609375,2.4746796875,-0.32633984375,5.2292734375,0.27928125,-0.82343359375,-4.54166796875,4.83623046875,1.37024609375,0.0033593750000005,-7.36764453125,-5.8714453125,3.21698046875,-3.29073046875,-10.757734375,-8.051453125,2.9331796875,0.052136718749999,-3.4678828125,-6.7756953125,-3.86994140625,-3.8091875,0.9419921875,3.35480078125,0.0277656249999989
8.7255546875,2.80278515625,0.634128906250002,9.898609375,3.87280078125,-2.05924609375,2.3286796875,-0.680339843750001,5.1702734375,-0.86171875,-1.79543359375,-5.41566796875,5.68123046875,0.59224609375,-1.026640625,-6.82164453125,-4.9524453125,2.37398046875,-3.73373046875,-11.128734375,-8.733453125,1.9701796875,-0.750863281250001,-3.8628828125,-6.6826953125,-4.96394140625,-4.1931875,0.5269921875,2.65180078125,-1.013234375
15.1235546875,7.88578515625,6.39912890625,11.383609375,3.50180078125,-2.63424609375,2.3136796875,-0.556339843750001,5.0632734375,-2.28371875,-3.03143359375,-5.96266796875,6.22523046875,-0.0187539062499997,-2.431640625,-6.07064453125,-4.3064453125,1.76098046875,-3.96673046875,-11.087734375,-8.966453125,0.7941796875,-1.27586328125,-3.7648828125,-6.1916953125,-5.49094140625,-4.1671875,0.0749921875000004,1.98280078125,-1.399234375
21.3815546875,13.12578515625,12.45212890625,12.591609375,3.33680078125,-2.99724609375,2.5856796875,0.276660156249999,5.1232734375,-3.52371875,-4.12343359375,-5.89266796875,6.82223046875,-0.14275390625,-3.743640625,-5.11564453125,-4.0634453125,1.66098046875,-3.76773046875,-10.578734375,-8.490453125,-0.2088203125,-1.26886328125,-2.9798828125,-5.1486953125,-5.28494140625,-3.5991875,-0.1270078125,1.75880078125,-0.816234375000001
26.0635546875,17.40878515625,17.60812890625,13.372609375,3.45880078125,-2.99424609375,3.1266796875,1.79566015625,5.3872734375,-4.22171875,-4.70643359375,-5.07066796875,7.68323046875,0.26824609375,-4.584640625,-3.98564453125,-4.1364453125,2.06498046875,-3.17173046875,-9.712734375,-7.203453125,-0.7508203125,-0.758863281250001,-1.6068828125,-3.5726953125,-4.34194140625,-2.5831875,0.0519921874999998,2.18080078125,0.701765624999998
28.0065546875,19.72878515625,20.74512890625,13.538609375,3.81880078125,-2.64724609375,3.7626796875,3.64866015625,5.7092734375,-4.21671875,-4.57043359375,-3.61666796875,8.74423046875,0.96124609375,-4.781640625,-2.81264453125,-4.3224453125,2.68798046875,-2.46473046875,-8.721734375,-5.270453125,-0.7188203125,-0.0378632812500008,-0.0298828125000004,-1.7126953125,-2.86494140625,-1.4091875,0.5359921875,3.17180078125,2.780765625
26.6505546875,19.47578515625,21.09712890625,12.922609375,4.25480078125,-2.15724609375,4.2536796875,5.25566015625,5.8362734375,-3.59871875,-3.76443359375,-1.94266796875,9.65823046875,1.49224609375,-4.406640625,-1.86664453125,-4.4684453125,3.11598046875,-2.06873046875,-7.886734375,-3.158453125,-0.2238203125,0.457136718749999,1.2091171875,-0.0106953124999993,-1.26694140625,-0.4771875,1.0739921875,4.39780078125,4.845765625
22.2285546875,16.62878515625,18.49612890625,11.465609375,4.55580078125,-1.82424609375,4.3846796875,6.02666015625,5.5422734375,-2.66771875,-2.60743359375,-0.67866796875,9.95423046875,1.43624609375,-3.736640625,-1.52464453125,-4.5864453125,2.98998046875,-2.34573046875,-7.459734375,-1.525453125,0.4341796875,0.33613671875,1.6341171875,1.0123046875,-0.0879414062499997,-0.154187500000001,1.3479921875,5.40780078125,6.316765625
15.7055546875,11.79378515625,13.44712890625,9.292609375,4.54080078125,-1.89224609375,3.9986796875,5.56866015625,4.7782734375,-1.78071875,-1.57343359375,-0.44166796875,9.32723046875,0.62624609375,-3.111640625,-2.11364453125,-4.8314453125,2.20698046875,-3.38373046875,-7.581734375,-0.958453125000001,0.9011796875,-0.531863281250001,1.0601171875,0.9693046875,0.21205859375,-0.608187500000001,1.1489921875,5.82580078125,6.820765625
8.5115546875,6.04478515625,7.01812890625,6.769609375,4.16680078125,-2.41224609375,3.0396796875,3.83466015625,3.7702734375,-1.16671875,-1.08143359375,-1.54766796875,7.88623046875,-0.68875390625,-2.769640625,-3.73164453125,-5.3584453125,1.02798046875,-4.87973046875,-8.215734375,-1.693453125,0.9561796875,-1.89886328125,-0.2788828125,-0.1986953125,-0.51594140625,-1.6901875,0.524992187500001,5.53080078125,6.348765625
2.1655546875,0.642785156250003,0.569128906250004,4.477609375,3.58080078125,-3.18724609375,1.6216796875,1.18266015625,2.9602734375,-0.83471875,-1.30843359375,-3.83266796875,6.18123046875,-1.90775390625,-2.748640625,-6.14664453125,-6.1844453125,-0.00101953124999987,-6.21473046875,-9.131734375,-3.481453125,0.6281796875,-3.19786328125,-1.8138828125,-2.1506953125,-2.00594140625,-2.9571875,-0.2000078125,4.69580078125,5.242765625
-2.0934453125,-3.29421484375,-4.56787109375,3.072609375,3.09580078125,-3.85324609375,0.0836796874999992,-1.70033984375,2.8252734375,-0.59171875,-2.09143359375,-6.68266796875,4.91723046875,-2.33275390625,-2.875640625,-8.81864453125,-7.1174453125,-0.28501953125,-6.68973046875,-9.961734375,-5.676453125,0.1581796875,-3.77286328125,-2.8638828125,-4.2506953125,-3.66494140625,-3.8391875,-0.5620078125,3.70680078125,4.037765625
-3.5834453125,-5.06121484375,-7.39487109375,3.037609375,3.06780078125,-4.00924609375,-1.0713203125,-4.02533984375,3.6642734375,-0.14371875,-2.95543359375,-9.23266796875,4.54823046875,-1.47375390625,-2.825640625,-11.01764453125,-7.7754453125,0.547980468750001,-5.81573046875,-10.284734375,-7.478453125,-0.1548203125,-3.14386328125,-2.8898828125,-5.7756953125,-4.80994140625,-3.8621875,-0.1600078125,2.99180078125,3.223765625
-2.3224453125,-4.53121484375,-7.49087109375,4.448609375,3.73680078125,-3.36224609375,-1.3323203125,-5.16833984375,5.4592734375,0.78928125,-3.26243359375,-10.65566796875,4.99723046875,0.73624609375,-2.227640625,-12.01664453125,-7.6904453125,2.48898046875,-3.50173046875,-9.751734375,-8.213453125,-0.1018203125,-1.19986328125,-1.6788828125,-6.1506953125,-4.90994140625,-2.8251875,1.1619921875,2.87780078125,3.076765625
0.971554687499999,-2.21721484375,-5.18787109375,6.879609375,5.12380078125,-1.83024609375,-0.3833203125,-4.86233984375,7.8622734375,2.34328125,-2.48143359375,-10.43566796875,5.70223046875,3.89424609375,-0.822640625,-11.32264453125,-6.4904453125,5.14698046875,-0.11473046875,-8.208734375,-7.547453125,0.3651796875,1.74413671875,0.5931171875,-5.1226953125,-3.77094140625,-0.885187500000001,3.2399921875,3.48480078125,3.567765625
5.0475546875,0.816785156250003,-1.54687109375,9.527609375,7.00780078125,0.38875390625,1.7226796875,-3.26133984375,10.2942734375,4.40828125,-0.45543359375,-8.55166796875,5.96923046875,7.24824609375,1.370359375,-8.88664453125,-4.1244453125,7.88198046875,3.61226953125,-5.806734375,-5.584453125,1.1521796875,5.01813671875,3.4051171875,-2.8576953125,-1.59794140625,1.4778125,5.6149921875,4.69280078125,4.401765625
8.4625546875,3.26678515625,1.93712890625,11.500609375,8.97080078125,2.85075390625,4.5066796875,-0.881339843750002,12.1212734375,6.62428125,2.46156640625,-5.46266796875,5.43923046875,9.94124609375,3.987359375,-5.17264453125,-0.9784453125,10.00798046875,6.79026953125,-3.024734375,-2.804453125,2.0741796875,7.78813671875,6.0481171875,0.111304687500001,1.06005859375,3.6068125,7.6629921875,6.16580078125,5.129765625
10.0725546875,4.08278515625,3.91112890625,12.160609375,10.50880078125,4.99675390625,7.1856796875,1.56166015625,12.8672734375,8.47728125,5.52656640625,-1.91966796875,4.38723046875,11.28624609375,6.414359375,-1.01964453125,2.2155546875,10.98498046875,8.64826953125,-0.554734375,0.128546875,2.9091796875,9.31313671875,7.8481171875,3.0703046875,3.48905859375,4.8908125,8.7989921875,7.45280078125,5.331765625
9.4935546875,2.93978515625,3.75112890625,11.382609375,11.19780078125,6.34475390625,8.9786796875,3.43166015625,12.3802734375,9.48128125,7.89356640625,1.30733203125,3.58923046875,10.99124609375,8.014359375,2.64435546875,4.6515546875,10.56998046875,8.78726953125,0.951265625,2.608546875,3.4411796875,9.19113671875,8.3901171875,5.3703046875,5.06305859375,4.9788125,8.6819921875,8.12880078125,4.789765625
7.3005546875,0.427785156250003,1.85412890625,9.616609375,10.85780078125,6.66175390625,9.4556796875,4.42966015625,10.8962734375,9.36328125,8.95256640625,3.66433203125,3.82823046875,9.26524609375,8.388359375,5.12735546875,5.7785546875,8.90198046875,7.33126953125,1.156265625,4.285546875,3.5111796875,7.51413671875,7.6521171875,6.6383046875,5.47105859375,3.9108125,7.3469921875,7.94980078125,3.582765625
4.8115546875,-2.16121484375,-0.550871093749997,7.716609375,9.66180078125,6.06775390625,8.7366796875,4.67366015625,8.9942734375,8.21428125,8.57556640625,4.94333203125,5.35823046875,6.77624609375,7.559359375,6.20835546875,5.5565546875,6.50498046875,4.90626953125,0.218265625,5.142546875,3.0821796875,4.87313671875,6.0271171875,6.8923046875,4.84805859375,2.1258125,5.2219921875,6.97180078125,2.073765625
3.5095546875,-3.38521484375,-1.96487109375,6.587609375,8.07380078125,4.98875390625,7.4006796875,4.56066015625,7.4212734375,6.50228125,7.15856640625,5.27933203125,7.72723046875,4.44724609375,5.986359375,6.16635546875,4.4965546875,4.17498046875,2.43826953125,-1.251734375,5.449546875,2.2891796875,2.18413671875,4.1961171875,6.5143046875,3.72005859375,0.3228125,2.9909921875,5.55680078125,0.794765624999998
4.3765546875,-2.30721484375,-1.32287109375,6.788609375,6.65280078125,3.97975390625,6.1716796875,4.50666015625,6.8112734375,4.88228125,5.42656640625,5.02533203125,10.03523046875,3.10124609375,4.351359375,5.59135546875,3.4165546875,2.68598046875,0.80326953125,-2.473734375,5.582546875,1.4091796875,0.347136718749999,2.8671171875,6.0503046875,2.77305859375,-0.813187500000001,1.3289921875,4.24680078125,0.219765624999999
7.4425546875,1.05178515625,1.51412890625,8.292609375,5.80180078125,3.46175390625,5.5786796875,4.75766015625,7.3872734375,3.88328125,4.08356640625,4.55833203125,11.40723046875,3.09424609375,3.235359375,5.06235546875,3.0115546875,2.44898046875,0.47626953125,-2.857734375,5.815546875,0.7471796875,-0.120863281250001,2.4801171875,5.9373046875,2.52905859375,-0.901187500000001,0.6379921875,3.53580078125,0.553765624999999
11.7835546875,5.70878515625,5.70912890625,10.499609375,5.60880078125,3.54775390625,5.7546796875,5.34366015625,8.8412734375,3.66928125,3.51856640625,4.13933203125,11.37423046875,4.15824609375,2.880359375,4.90235546875,3.5095546875,3.32298046875,1.36626953125,-2.252734375,6.212546875,0.5081796875,0.719136718749999,3.0491171875,6.3183046875,3.11305859375,-0.0201875000000005,0.9199921875,3.68280078125,1.630765625
15.9705546875,10.19678515625,9.88112890625,12.548609375,5.86580078125,4.05975390625,6.4496796875,6.13166015625,10.4882734375,4.04128125,3.73156640625,3.88433203125,10.01723046875,5.58024609375,3.175359375,5.13835546875,4.6355546875,4.71898046875,2.93626953125,-0.937734375,6.668546875,0.7491796875,2.33613671875,4.2291171875,7.0403046875,4.24905859375,1.3898125,1.8599921875,4.63680078125,3.006765625
18.7535546875,13.27178515625,12.78312890625,13.734609375,6.23780078125,4.68875390625,7.2306796875,6.95566015625,11.6152734375,4.62828125,4.44356640625,3.80733203125,7.86323046875,6.58924609375,3.819359375,5.61535546875,5.9035546875,5.92898046875,4.50426953125,0.572265625,7.043546875,1.3861796875,4.02613671875,5.5341171875,7.8043046875,5.43005859375,2.7718125,3.0139921875,6.07580078125,4.187765625
19.6125546875,14.43778515625,13.84612890625,13.812609375,6.46280078125,5.16775390625,7.7336796875,7.70766015625,11.7932734375,5.08128125,5.27656640625,3.86033203125,5.59523046875,6.72324609375,4.484359375,6.13335546875,6.9375546875,6.45198046875,5.52326953125,1.755265625,7.242546875,2.2131796875,5.21513671875,6.5391171875,8.3123046875,6.15105859375,3.6738125,3.9759921875,7.51380078125,4.819765625
18.8555546875,14.01078515625,13.30612890625,12.999609375,6.42380078125,5.33475390625,7.8126796875,8.35666015625,10.9892734375,5.17328125,5.87856640625,3.95633203125,3.70923046875,5.96624609375,4.893359375,6.51935546875,7.6045546875,6.14198046875,5.72026953125,2.238265625,7.212546875,2.9281796875,5.60613671875,6.9721171875,8.3463046875,6.08005859375,3.8668125,4.4619921875,8.43180078125,4.774765625
17.2615546875,12.75778515625,11.90612890625,11.718609375,6.10180078125,5.11875390625,7.5346796875,8.86566015625,9.4822734375,4.82428125,6.00956640625,4.01433203125,2.33723046875,4.66024609375,4.849359375,6.65935546875,7.9065546875,5.19198046875,5.10226953125,1.856265625,6.911546875,3.2201796875,5.20113671875,6.7341171875,7.8103046875,5.13105859375,3.3328125,4.3369921875,8.43880078125,4.122765625
15.5485546875,11.38278515625,10.39712890625,10.312609375,5.49480078125,4.51775390625,7.0646796875,9.11566015625,7.6852734375,4.09428125,5.58056640625,4.01333203125,1.29723046875,3.29524609375,4.262359375,6.53135546875,7.8245546875,3.97798046875,3.88226953125,0.666265625,6.318546875,2.9061796875,4.23513671875,5.8771171875,6.7563046875,3.47105859375,2.2288125,3.6259921875,7.41380078125,3.061765625
14.0195546875,10.18878515625,9.16312890625,8.934609375,4.62780078125,3.59675390625,6.5786796875,8.95866015625,5.9762734375,3.14128125,4.67856640625,4.01833203125,0.31423046875,2.27324609375,3.172359375,6.21035546875,7.2845546875,2.86098046875,2.38126953125,-1.077734375,5.476546875,2.0071796875,3.05613671875,4.5831171875,5.4043046875,1.46305859375,0.816812499999999,2.4949921875,5.56780078125,1.849765625
12.5705546875,9.07378515625,8.15212890625,7.626609375,3.61680078125,2.49975390625,6.2356796875,8.34866015625,4.5912734375,2.16828125,3.54056640625,4.15133203125,-0.77876953125,1.74124609375,1.768359375,5.84435546875,6.2745546875,2.02398046875,0.91426953125,-2.986734375,4.523546875,0.6821796875,1.97813671875,3.1261171875,4.0873046875,-0.41794140625,-0.600187500000001,1.1999921875,3.39580078125,0.763765624999998
10.9615546875,7.79578515625,7.09212890625,6.428609375,2.68380078125,1.45675390625,6.1756796875,7.42366015625,3.6052734375,1.36528125,2.51456640625,4.53833203125,-1.95976953125,1.56424609375,0.358359375,5.61335546875,5.0145546875,1.41798046875,-0.29673046875,-4.621734375,3.704546875,-0.8798203125,1.17813671875,1.8121171875,3.1493046875,-1.68894140625,-1.7451875,0.0129921875000001,1.51280078125,0.0727656249999988
9.1155546875,6.28278515625,5.81212890625,5.407609375,2.06980078125,0.73975390625,6.5116796875,6.47466015625,2.9702734375,0.88428125,1.98156640625,5.25633203125,-3.05076953125,1.43324609375,-0.695640624999999,5.68335546875,3.9945546875,0.85898046875,-1.13673046875,-5.601734375,3.310546875,-2.5248203125,0.667136718749999,0.9141171875,2.8363046875,-1.96594140625,-2.4291875,-0.8510078125,0.446800781250001,0.00476562499999922
7.2545546875,4.75178515625,4.42912890625,4.616609375,1.90680078125,0.56775390625,7.3016796875,5.82866015625,2.5722734375,0.79828125,2.22256640625,6.27533203125,-3.81676953125,1.04624609375,-1.111640625,6.14235546875,3.7955546875,0.17898046875,-1.58373046875,-5.708734375,3.556546875,-4.1138203125,0.335136718749999,0.5931171875,3.1863046875,-1.09094140625,-2.6051875,-1.2990078125,0.43280078125,0.669765624999998
5.8075546875,3.58878515625,3.30412890625,4.035609375,2.13180078125,0.98275390625,8.5136796875,5.70566015625,2.2622734375,1.05528125,3.24856640625,7.41633203125,-4.04776953125,0.24724609375,-0.825640625,6.91735546875,4.7575546875,-0.65701953125,-1.67873046875,-4.997734375,4.418546875,-5.4638203125,0.0261367187499992,0.8171171875,3.9923046875,0.75005859375,-2.3961875,-1.3830078125,1.30380078125,1.960765625
5.1805546875,3.10278515625,2.80712890625,3.564609375,2.49680078125,1.79375390625,9.9716796875,6.08166015625,1.9032734375,1.46628125,4.72256640625,8.35633203125,-3.61676953125,-0.88675390625,-0.0596406249999997,7.74535546875,6.6945546875,-1.51101953125,-1.50973046875,-3.810734375,5.575546875,-6.3238203125,-0.357863281250001,1.3531171875,4.8563046875,3.01805859375,-2.0461875,-1.2530078125,2.54680078125,3.527765625
5.5235546875,3.32478515625,3.08712890625,3.076609375,2.66880078125,2.62875390625,11.3226796875,6.61266015625,1.4442734375,1.77928125,6.04456640625,8.71733203125,-2.52476953125,-2.04675390625,0.760359375000001,8.24035546875,8.8545546875,-2.10201953125,-1.18973046875,-2.683734375,6.497546875,-6.4288203125,-0.785863281250001,1.8581171875,5.3433046875,4.97205859375,-1.8021875,-1.0480078125,3.54480078125,4.881765625
6.6595546875,3.97578515625,3.96012890625,2.483609375,2.36980078125,3.06475390625,12.0996796875,6.70766015625,0.9662734375,1.77728125,6.57456640625,8.18333203125,-0.97876953125,-2.81875390625,1.169359375,8.02135546875,10.1675546875,-2.13401953125,-0.84673046875,-2.163734375,6.650546875,-5.6538203125,-1.09686328125,2.0171171875,5.1363046875,5.93905859375,-1.8131875,-0.8040078125,3.85380078125,5.605765625
8.1875546875,4.60278515625,4.99712890625,1.804609375,1.50380078125,2.79875390625,11.9106796875,5.79966015625,0.6312734375,1.34228125,5.89356640625,6.60733203125,0.58123046875,-2.88275390625,0.837359375000001,6.86135546875,9.7015546875,-1.46001953125,-0.61173046875,-2.609734375,5.707546875,-4.1698203125,-1.10886328125,1.6541171875,4.1243046875,5.55505859375,-2.1011875,-0.4660078125,3.39180078125,5.536765625
9.6995546875,4.82978515625,5.75412890625,1.185609375,0.22080078125,1.78275390625,10.6876796875,3.68166015625,0.6072734375,0.50928125,4.02756640625,4.13533203125,1.64023046875,-2.18275390625,-0.283640624999999,4.82835546875,7.1555546875,-0.17501953125,-0.57873046875,-4.032734375,3.710546875,-2.4408203125,-0.723863281250001,0.8041171875,2.4463046875,3.91505859375,-2.5731875,0.0489921875000006,2.45580078125,4.858765625
10.9715546875,4.57378515625,6.01212890625,0.869609375,-1.10319921875,0.32575390625,8.8406796875,0.711660156249998,1.0022734375,-0.48371875,1.54556640625,1.31233203125,1.92523046875,-0.93175390625,-1.868640625,2.39535546875,3.1445546875,1.42998046875,-0.71773046875,-6.026734375,1.152546875,-0.9958203125,0.0451367187499994,-0.2568828125,0.5113046875,1.57305859375,-3.0181875,0.8009921875,1.59980078125,4.048765625
12.0185546875,4.10778515625,5.88312890625,1.094609375,-1.99019921875,-0.97124609375,7.1846796875,-2.25133984375,1.8442734375,-1.21871875,-0.57543359375,-0.96566796875,1.63723046875,0.51424609375,-3.276640625,0.37735546875,-0.9414453125,3.01498046875,-0.84173046875,-7.858734375,-1.122453125,-0.1358203125,1.12213671875,-1.0808828125,-1.0776953125,-0.61694140625,-3.1501875,1.7939921875,1.41180078125,3.679765625
13.0185546875,3.88578515625,5.71812890625,1.982609375,-2.03719921875,-1.44724609375,6.6346796875,-4.16733984375,3.0622734375,-1.25671875,-1.34243359375,-1.75166796875,1.37023046875,1.79824609375,-3.796640625,-0.36464453125,-3.5094453125,4.29898046875,-0.69173046875,-8.730734375,-2.217453125,0.1731796875,2.39113671875,-1.2318828125,-1.7226953125,-1.81994140625,-2.7291875,2.9429921875,2.23980078125,4.151765625
14.1435546875,4.27878515625,5.89512890625,3.444609375,-1.09619921875,-0.71124609375,7.7996796875,-4.26033984375,4.4492734375,-0.37971875,-0.21543359375,-0.47766796875,1.70423046875,2.65024609375,-3.005640625,0.67535546875,-3.4744453125,5.08298046875,-0.10573046875,-8.127734375,-1.578453125,0.1601796875,3.66513671875,-0.5188828125,-1.1036953125,-1.57394140625,-1.7201875,4.0379921875,3.98180078125,5.477765625
15.3935546875,5.34078515625,6.60012890625,5.148609375,0.61680078125,1.14075390625,10.6466796875,-2.38633984375,5.6822734375,1.26428125,2.60456640625,2.71533203125,2.76923046875,2.92424609375,-1.005640625,3.36835546875,-0.7414453125,5.24598046875,0.855269531249999,-6.077734375,0.734546874999999,0.0171796874999997,4.69013671875,0.8781171875,0.6573046875,0.00505859375000028,-0.349187500000001,4.7659921875,6.09380078125,7.260765625
16.5235546875,6.74978515625,7.70412890625,6.583609375,2.55380078125,3.53575390625,14.4306796875,0.854660156249999,6.4132734375,3.20128125,6.25056640625,6.96033203125,4.10123046875,2.62424609375,1.600359375,6.95735546875,3.7765546875,4.75398046875,1.92626953125,-3.172734375,4.035546875,-0.2308203125,5.19413671875,2.4781171875,3.0293046875,2.26905859375,0.972812499999999,4.8109921875,7.79380078125,8.859765625
17.1385546875,7.95278515625,8.80712890625,7.235609375,4.05180078125,5.66775390625,17.9716796875,4.35166015625,6.3962734375,4.83528125,9.54756640625,10.95933203125,4.91023046875,1.90824609375,3.965359375,10.35335546875,8.5685546875,3.68598046875,2.77726953125,-0.346734375,7.264546875,-0.6978203125,4.99513671875,3.7181171875,5.2803046875,4.29805859375,1.8248125,3.9929921875,8.38980078125,9.656765625
16.9425546875,8.44978515625,9.44112890625,6.826609375,4.62080078125,6.85975390625,20.1646796875,6.97566015625,5.6102734375,5.71328125,11.50456640625,13.48733203125,4.57023046875,1.06524609375,5.384359375,12.55735546875,12.1635546875,2.25698046875,3.19726953125,1.508265625,9.402546875,-1.4938203125,4.11213671875,4.2121171875,6.7593046875,5.29105859375,1.9498125,2.3679921875,7.55980078125,9.296765625
15.9485546875,8.06778515625,9.32712890625,5.460609375,4.16080078125,6.85275390625,20.4446796875,8.03866015625,4.3082734375,5.72428125,11.69856640625,13.88733203125,2.98323046875,0.46124609375,5.594359375,13.03135546875,13.7065546875,0.813980468750001,3.21426953125,1.895265625,9.870546875,-2.5738203125,2.81513671875,3.9301171875,7.1323046875,4.91005859375,1.3598125,0.258992187500001,5.47880078125,7.848765625
14.4795546875,7.02878515625,8.49612890625,3.588609375,2.96280078125,5.89075390625,18.9716796875,7.50466015625,2.9352734375,5.14028125,10.41056640625,12.31633203125,0.59023046875,0.42124609375,4.858359375,11.86235546875,13.2075546875,-0.23501953125,3.07026953125,0.890265625,8.746546875,-3.6918203125,1.57213671875,3.1971171875,6.4803046875,3.43105859375,0.337812499999999,-1.8200078125,2.75880078125,5.795765625
12.9585546875,5.76278515625,7.20712890625,1.783609375,1.52880078125,4.55375390625,16.4816796875,5.89066015625,1.9392734375,4.44028125,8.42156640625,9.61033203125,-1.91876953125,1.07524609375,3.772359375,9.63635546875,11.3855546875,-0.57801953125,3.05426953125,-0.965734375,6.673546875,-4.5188203125,0.864136718749999,2.5141171875,5.2003046875,1.58105859375,-0.6771875,-3.3480078125,0.21480078125,3.845765625
11.6515546875,4.62178515625,5.74412890625,0.497609374999999,0.33180078125,3.44375390625,13.9206796875,3.96066015625,1.5682734375,4.04128125,6.61256640625,6.85433203125,-3.96276953125,2.24624609375,2.923359375,7.14135546875,9.2085546875,-0.154019531249999,3.30926953125,-2.940734375,4.515546875,-4.8418203125,0.96613671875,2.2831171875,3.7833046875,0.145058593750001,-1.2891875,-4.0000078125,-1.43519921875,2.629765625
10.5865546875,3.72078515625,4.29212890625,-0.0833906250000007,-0.34819921875,2.93475390625,12.0676796875,2.39366015625,1.7892734375,4.09428125,5.59256640625,4.92533203125,-5.21376953125,3.50724609375,2.634359375,5.07135546875,7.4445546875,0.81798046875,3.75926953125,-4.412734375,2.992546875,-4.6588203125,1.82813671875,2.6311171875,2.6233046875,-0.410941406249999,-1.2971875,-3.7440078125,-1.81519921875,2.458765625
9.6715546875,3.01378515625,2.96412890625,-0.00939062499999999,-0.45419921875,3.10675390625,11.2926796875,1.54266015625,2.3852734375,4.50628125,5.55056640625,4.24733203125,-5.50876953125,4.41724609375,2.920359375,3.89135546875,6.4225546875,1.99998046875,4.20926953125,-5.013734375,2.478546875,-4.0828203125,3.15513671875,3.4191171875,1.9693046875,-0.0759414062499992,-0.731187500000001,-2.7750078125,-0.95219921875,3.271765625
8.9095546875,2.48778515625,1.91912890625,0.560609374999999,-0.0681992187499998,3.84075390625,11.5426796875,1.40166015625,3.1472734375,5.10228125,6.33656640625,4.78333203125,-4.71376953125,4.79024609375,3.634359375,3.83235546875,6.0955546875,3.16098046875,4.53826953125,-4.617734375,3.007546875,-3.1648203125,4.59413671875,4.4081171875,1.9733046875,0.828058593750001,0.2378125,-1.3740078125,0.79780078125,4.767765625
8.5425546875,2.30578515625,1.45212890625,1.488609375,0.706800781250001,4.97275390625,12.5066796875,1.75266015625,3.9992734375,5.79528125,7.65856640625,6.18933203125,-2.74076953125,4.81124609375,4.644359375,4.93735546875,6.2635546875,4.30698046875,4.82626953125,-3.249734375,4.391546875,-1.7978203125,5.92313671875,5.4301171875,2.7513046875,1.89705859375,1.4198125,0.2249921875,2.93280078125,6.604765625
9.0035546875,2.77978515625,1.95612890625,2.703609375,1.83280078125,6.37875390625,13.8326796875,2.34866015625,5.0112734375,6.64628125,9.25156640625,7.98933203125,0.27823046875,4.94224609375,5.915359375,7.09635546875,6.7865546875,5.62998046875,5.34226953125,-1.017734375,6.344546875,0.1931796875,7.11313671875,6.4571171875,4.3633046875,2.84405859375,2.6888125,1.8649921875,4.97180078125,8.517765625
10.6735546875,4.19178515625,3.75012890625,4.135609375,3.29680078125,7.97675390625,15.2266796875,2.99266015625,6.3052734375,7.78728125,10.94056640625,9.72533203125,3.84423046875,5.66624609375,7.480359375,10.05335546875,7.6375546875,7.32298046875,6.38026953125,1.883265625,8.563546875,2.8541796875,8.27413671875,7.5561171875,6.7483046875,3.57905859375,4.0048125,3.4229921875,6.56280078125,10.341765625
13.5855546875,6.56278515625,6.82712890625,5.606609375,5.01080078125,9.64975390625,16.4376796875,3.50866015625,7.9032734375,9.26628125,12.58756640625,11.03233203125,7.13223046875,7.21824609375,9.314359375,13.38635546875,8.7595546875,9.38098046875,8.06226953125,5.105265625,10.739546875,5.8921796875,9.50413671875,8.7641171875,9.6303046875,4.13905859375,5.3368125,4.7329921875,7.49680078125,11.928765625
17.2815546875,9.52578515625,10.70912890625,6.813609375,6.74980078125,11.18375390625,17.2366796875,3.71566015625,9.6382734375,10.90628125,13.99656640625,11.65433203125,9.25223046875,9.41324609375,11.219359375,16.50135546875,9.8995546875,11.50598046875,10.19826953125,8.120265625,12.541546875,8.6451796875,10.75913671875,9.9811171875,12.4933046875,4.56205859375,6.5788125,5.5629921875,7.67780078125,13.096765625
20.9435546875,12.43078515625,14.54912890625,7.449609375,8.22980078125,12.30575390625,17.4796796875,3.48666015625,11.1922734375,12.33528125,14.92256640625,11.48933203125,9.64023046875,11.71024609375,12.848359375,18.73935546875,10.6535546875,13.20998046875,12.33826953125,10.328265625,13.657546875,10.3141796875,11.84713671875,10.9921171875,14.7003046875,4.82105859375,7.5388125,5.7119921875,7.14280078125,13.679765625
23.7265546875,14.62878515625,17.46512890625,7.403609375,9.24980078125,12.84675390625,17.2296796875,2.84866015625,12.2752734375,13.19328125,15.22156640625,10.67733203125,8.39623046875,13.47824609375,13.892359375,19.61635546875,10.7635546875,14.08898046875,13.98626953125,11.293265625,13.911546875,10.3871796875,12.57913671875,11.6101171875,15.7583046875,4.89005859375,8.0498125,5.1829921875,6.13780078125,13.683765625
25.0645546875,15.74078515625,18.90312890625,6.857609375,9.80180078125,12.87275390625,16.7856796875,2.04866015625,12.7992734375,13.36628125,14.99956640625,9.63333203125,6.34023046875,14.29524609375,14.265359375,19.05035546875,10.3885546875,14.05098046875,14.83126953125,10.934265625,13.385546875,8.9841796875,12.92113671875,11.8101171875,15.5473046875,4.85805859375,8.1038125,4.2849921875,5.12980078125,13.380765625
24.8165546875,15.72178515625,18.78912890625,6.194609375,10.02980078125,12.64075390625,16.5676796875,1.50166015625,12.8872734375,13.01928125,14.58256640625,8.90833203125,4.67423046875,14.06324609375,14.114359375,17.39435546875,10.0625546875,13.33898046875,14.81726953125,9.534265625,12.395546875,6.8351796875,12.98913671875,11.7161171875,14.3453046875,4.94105859375,7.8498125,3.5019921875,4.64580078125,13.214765625
23.2155546875,14.74778515625,17.44912890625,5.765609375,10.07880078125,12.40275390625,16.8726796875,1.61066015625,12.7292734375,12.42828125,14.28856640625,8.90433203125,4.37423046875,12.92124609375,13.653359375,15.23335546875,10.3105546875,12.33098046875,14.02826953125,7.561265625,11.324546875,4.9031796875,12.89113671875,11.4441171875,12.6193046875,5.34705859375,7.4508125,3.2149921875,4.99980078125,13.537765625
20.7225546875,13.06878515625,15.40112890625,5.670609375,9.94180078125,12.20975390625,17.6666796875,2.51466015625,12.4032734375,11.76128125,14.21356640625,9.63433203125,5.65523046875,11.09524609375,12.980359375,13.10635546875,11.2415546875,11.29898046875,12.56126953125,5.434265625,10.433546875,3.8881796875,12.58113671875,10.9651171875,10.7693046875,6.11505859375,6.9438125,3.4809921875,6.10880078125,14.387765625
17.8745546875,10.94578515625,13.18312890625,5.680609375,9.41880078125,11.88675390625,18.5416796875,3.91866015625,11.8242734375,10.99628125,14.17456640625,10.70333203125,7.81023046875,8.82024609375,12.044359375,11.34035546875,12.4215546875,10.29898046875,10.49226953125,3.407265625,9.781546875,3.9061796875,11.88113671875,10.1241171875,9.0083046875,7.05705859375,6.2278125,4.0309921875,7.53180078125,15.465765625
15.1895546875,8.67978515625,11.26112890625,5.384609375,8.24080078125,11.17675390625,18.9006796875,5.17166015625,10.8282734375,9.99828125,13.84656640625,11.53233203125,9.50623046875,6.35824609375,10.752359375,10.04935546875,13.1365546875,9.23098046875,7.94126953125,1.592265625,9.282546875,4.4791796875,10.61313671875,8.7811171875,7.3993046875,7.84605859375,5.1718125,4.4579921875,8.69180078125,16.302765625
13.1285546875,6.64878515625,10.00112890625,4.458609375,6.27980078125,9.94275390625,18.2896796875,5.60066015625,9.3332734375,8.66828125,12.97556640625,11.65833203125,9.41923046875,4.02924609375,9.113359375,9.21835546875,12.8475546875,7.97898046875,5.15526953125,0.0582656249999999,8.828546875,4.8271796875,8.75713671875,6.9591171875,5.9713046875,8.17105859375,3.7458125,4.4429921875,9.13980078125,16.499765625
12.0665546875,5.28278515625,9.66712890625,2.913609375,3.73580078125,8.31175390625,16.6886796875,4.91166015625,7.4692734375,7.07628125,11.56956640625,10.97333203125,6.94423046875,2.19524609375,7.323359375,8.80035546875,11.5395546875,6.56898046875,2.51926953125,-1.092734375,8.390546875,4.3291796875,6.53413671875,4.9021171875,4.8093046875,7.87805859375,2.0778125,3.8889921875,8.72480078125,15.910765625
12.2405546875,4.95278515625,10.39012890625,1.150609375,1.14480078125,6.66675390625,14.5676796875,3.39666015625,5.6042734375,5.50028125,9.94256640625,9.77633203125,2.68123046875,1.19024609375,5.740359375,8.76635546875,9.7495546875,5.22698046875,0.48926953125,-1.717734375,8.043546875,2.9181796875,4.38013671875,3.0231171875,4.0653046875,7.02105859375,0.4428125,2.9409921875,7.61880078125,14.694765625
13.7045546875,5.81078515625,12.12212890625,-0.184390625000001,-0.77219921875,5.49775390625,12.7226796875,1.85066015625,4.2242734375,4.33328125,8.58956640625,8.61433203125,-1.59076953125,1.19924609375,4.742359375,9.08435546875,8.3085546875,4.30498046875,-0.54273046875,-1.692734375,7.900546875,1.1671796875,2.80113671875,1.7591171875,3.8813046875,5.81005859375,-0.835187500000001,1.8979921875,6.20680078125,13.224765625
16.3515546875,7.71578515625,14.64012890625,-0.454390625,-1.35619921875,5.19775390625,11.9666796875,1.25066015625,3.7342734375,3.89528125,7.95256640625,8.00433203125,-3.54076953125,2.18824609375,4.548359375,9.67135546875,7.9605546875,4.10298046875,-0.38273046875,-0.992734375,8.011546875,0.0141796874999995,2.18513671875,1.4091171875,4.2923046875,4.49305859375,-1.5111875,1.0629921875,4.88880078125,11.909765625
19.9855546875,10.31578515625,17.63212890625,0.721609374999999,-0.25219921875,5.90375390625,12.8256796875,2.33866015625,4.2932734375,4.28928125,8.21956640625,8.20333203125,-1.34176953125,3.92824609375,5.138359375,10.39135546875,9.0725546875,4.72598046875,0.908269531249999,0.293265625,8.326546875,0.2601796875,2.64813671875,2.0241171875,5.1973046875,3.24205859375,-1.5171875,0.6209921875,3.91780078125,11.019765625
24.3555546875,13.24478515625,20.83012890625,3.291609375,2.41980078125,7.46875390625,15.2916796875,5.24266015625,5.7582734375,5.37728125,9.27456640625,9.14533203125,5.33123046875,6.11624609375,6.301359375,11.13035546875,11.5235546875,6.04398046875,3.05126953125,1.997265625,8.746546875,2.1291796875,4.01113671875,3.4141171875,6.4243046875,2.11905859375,-0.968187500000001,0.5749921875,3.33180078125,10.595765625
29.1385546875,16.27378515625,24.09212890625,6.725609375,6.03880078125,9.51975390625,18.7666796875,9.33766015625,7.7402734375,6.85228125,10.77956640625,10.52033203125,14.91823046875,8.49524609375,7.752359375,11.85935546875,14.7745546875,7.75998046875,5.64026953125,3.924265625,9.205546875,5.1051796875,5.87013671875,5.2231171875,7.8063046875,1.08705859375,-0.115187500000001,0.7769921875,2.98480078125,10.469765625
29.1385546875,16.27378515625,24.09212890625,6.725609375,6.03880078125,9.51975390625,18.7666796875,9.33766015625,7.7402734375,6.85228125,10.77956640625,10.52033203125,14.91823046875,8.49524609375,7.752359375,11.85935546875,14.7745546875,7.75998046875,5.64026953125,3.924265625,9.205546875,5.1051796875,5.87013671875,5.2231171875,7.8063046875,1.08705859375,-0.115187500000001,0.7769921875,2.98480078125,10.469765625
