"Fp1","Fpz","Fp2","F7","F3","Fz","F4","F8","FC5","FC1","FC2","FC6","T7","C3","Cz","C4","T8","CP5","CP1","CP2","CP6","P7","P3","Pz","P4","P8","POz","O1","Oz","O2"
5.43443359375,-1.5870234375,-2.77476171875,1.61706640625,1.66916015625,4.68553515625,3.276859375,-1.0218046875,2.2103671875,5.59737109375,5.37262109375,-3.20210546875,6.080890625,4.972234375,6.99060546875,-0.0654687500000002,0.272515625,-0.41079296875,4.9900390625,4.25964453125,-3.17928125,0.50476171875,3.1560078125,3.10783203125,0.61219921875,-3.22649609375,0.35767578125,-4.32192578125,-3.1976875,-7.67112890625
-0.393566406250001,-6.4680234375,-7.40276171875,0.332066406250001,2.03816015625,5.10753515625,3.954859375,-1.7418046875,2.1923671875,7.49337109375,7.17462109375,-1.16610546875,5.663890625,6.426234375,9.30760546875,1.93853125,1.910515625,1.19720703125,7.1340390625,6.95364453125,-1.45828125,2.20176171875,5.3680078125,5.82583203125,3.59819921875,-2.66149609375,3.45467578125,-1.27292578125,-0.466687500000001,-5.19012890625
-1.23656640625,-7.3910234375,-7.88376171875,0.265066406250001,3.44416015625,6.37553515625,5.383859375,-1.4958046875,2.6103671875,9.57137109375,9.27962109375,1.16289453125,5.083890625,7.968234375,11.56360546875,4.12953125,3.624515625,2.64320703125,9.0440390625,9.42664453125,0.39571875,3.20176171875,7.1520078125,8.11283203125,5.97719921875,-2.04749609375,5.72867578125,1.18607421875,1.7213125,-3.14712890625
1.28143359375,-5.5570234375,-5.57776171875,1.02306640625,5.24216015625,7.94753515625,6.956859375,-0.5468046875,3.2923671875,11.49937109375,11.28362109375,3.38289453125,4.277890625,9.369234375,13.46760546875,6.14553125,5.353515625,3.73820703125,10.5000390625,11.40364453125,2.18171875,3.33876171875,8.2550078125,9.72683203125,7.45919921875,-1.44549609375,6.94767578125,2.75707421875,3.1183125,-1.74712890625
3.79343359375,-3.5500234375,-3.30676171875,1.76906640625,6.37316015625,8.94453515625,7.766859375,0.5111953125,3.9383671875,12.83037109375,12.60762109375,4.93989453125,3.267890625,10.329234375,14.68360546875,7.49053125,6.987515625,4.29620703125,11.3170390625,12.61364453125,3.59671875,2.64576171875,8.5090078125,10.50583203125,7.88519921875,-0.95549609375,7.08167578125,3.26507421875,3.5803125,-1.13512890625
3.58743359375,-3.4870234375,-3.34376171875,1.79306640625,6.11116015625,8.78253515625,7.276859375,1.1751953125,4.3483671875,13.30437109375,12.88562109375,5.50389453125,2.214890625,10.677234375,15.03660546875,7.85153125,8.416515625,4.24720703125,11.4680390625,12.94864453125,4.40871875,1.36176171875,7.9480078125,10.45783203125,7.34219921875,-0.65749609375,6.32867578125,2.77107421875,3.1463125,-1.32212890625
0.449433593749998,-5.5940234375,-5.86676171875,0.979066406250001,4.60416015625,7.60953515625,5.755859375,1.3511953125,4.5503671875,13.03137109375,12.23362109375,5.18089453125,1.366890625,10.485234375,14.64960546875,7.31953125,9.575515625,3.70120703125,11.1310390625,12.53864453125,4.59371875,-0.13623828125,6.8420078125,9.78683203125,6.17319921875,-0.55849609375,5.06967578125,1.59207421875,2.0543125,-2.15412890625
-3.31856640625,-8.1900234375,-8.95476171875,-0.170933593749999,2.80316015625,6.22153515625,4.148859375,1.3481953125,4.7093671875,12.42437109375,11.19262109375,4.41989453125,0.903890625,10.009234375,13.89460546875,6.34453125,10.426515625,2.89420703125,10.5870390625,11.68464453125,4.32971875,-1.45323828125,5.5900078125,8.79983203125,4.85519921875,-0.59449609375,3.73867578125,0.190074218750001,0.6673125,-3.34912890625
-4.72456640625,-9.0830234375,-10.13576171875,-0.961933593749999,1.81516015625,5.48453515625,3.423859375,1.5341953125,4.8893671875,11.90437109375,10.37162109375,3.68689453125,0.768890625,9.496234375,13.17460546875,5.45653125,10.908515625,2.04620703125,10.0450390625,10.68864453125,3.86871875,-2.31923828125,4.5410078125,7.76183203125,3.78219921875,-0.68249609375,2.65767578125,-1.02092578125,-0.6566875,-4.60312890625
-2.47356640625,-7.3970234375,-8.38576171875,-1.09193359375,2.09816015625,5.68053515625,3.856859375,1.8991953125,4.8703671875,11.58937109375,10.04162109375,3.14189453125,0.640890625,9.002234375,12.67360546875,4.93453125,10.878515625,1.24420703125,9.5170390625,9.68764453125,3.35471875,-2.66323828125,3.8370078125,6.77683203125,3.09319921875,-0.80649609375,1.91567578125,-1.83292578125,-1.7016875,-5.71012890625
1.78443359375,-4.4810234375,-5.16676171875,-0.980933593749999,3.07116015625,6.22253515625,4.745859375,1.8811953125,4.1673671875,11.17937109375,9.94462109375,2.55489453125,0.116890625,8.351234375,12.24660546875,4.64553125,10.129515625,0.41320703125,8.8220390625,8.60164453125,2.72471875,-2.61223828125,3.3830078125,5.75983203125,2.62219921875,-1.07349609375,1.35367578125,-2.29292578125,-2.4466875,-6.62812890625
4.30543359375,-3.2170234375,-3.65876171875,-1.57693359375,3.43516015625,5.98153515625,4.797859375,0.6331953125,2.2823671875,10.15137109375,9.45862109375,1.49189453125,-1.027109375,7.264234375,11.51860546875,4.14553125,8.488515625,-0.60179296875,7.7230390625,7.21864453125,1.74171875,-2.40823828125,2.9250078125,4.52383203125,1.99119921875,-1.69649609375,0.65767578125,-2.63892578125,-3.0576875,-7.47312890625
1.69943359375,-6.1230234375,-6.67076171875,-3.73593359375,2.01216015625,4.03153515625,2.956859375,-2.3888046875,-0.9376328125,8.14037109375,8.02562109375,-0.33110546875,-2.669109375,5.570234375,10.14960546875,2.99153125,5.947515625,-1.89379296875,6.0990390625,5.37364453125,0.14871875,-2.30923828125,2.2070078125,2.91883203125,0.79919921875,-2.89449609375,-0.48132421875,-3.18492578125,-3.8096875,-8.44412890625
-6.68556640625,-13.5390234375,-14.63176171875,-7.55493359375,-1.44383984375,0.34053515625,-0.848140625,-6.8978046875,-5.0486328125,5.26937109375,5.55262109375,-2.76610546875,-4.420109375,3.377234375,8.08060546875,1.05253125,2.776515625,-3.39579296875,4.0630390625,3.10064453125,-2.13028125,-2.51223828125,1.1040078125,0.94183203125,-1.16980078125,-4.75549609375,-2.21832421875,-4.19892578125,-4.9776875,-9.74612890625
-18.05256640625,-23.1240234375,-25.01576171875,-12.12493359375,-6.01183984375,-4.06146484375,-5.535140625,-11.6988046875,-9.0736328125,2.16537109375,2.54862109375,-5.19710546875,-5.862109375,1.072234375,5.61860546875,-1.35446875,-0.475484374999999,-4.88279296875,1.9280390625,0.67764453125,-4.86728125,-3.12623828125,-0.3339921875,-1.22816796875,-3.81480078125,-7.12649609375,-4.48732421875,-5.82792578125,-6.7296875,-11.50812890625
-27.61756640625,-31.0250234375,-33.60576171875,-15.89093359375,-10.07883984375,-7.58546484375,-9.389140625,-15.1588046875,-11.8796328125,-0.34462890625,-0.134378906250001,-6.80410546875,-6.782109375,-0.848765624999999,3.28360546875,-3.60646875,-3.076484375,-6.09279296875,0.0670390625000001,-1.50735546875,-7.57028125,-4.18923828125,-1.9419921875,-3.32216796875,-6.72480078125,-9.60949609375,-7.04032421875,-8.06392578125,-9.0536875,-13.73112890625
-31.29356640625,-33.9840234375,-36.78776171875,-17.43893359375,-12.20083984375,-8.95446484375,-10.960140625,-15.9768046875,-12.7106328125,-1.67162890625,-1.75637890625,-6.97110546875,-7.230109375,-2.030765625,1.53360546875,-5.08946875,-4.296484375,-6.88479296875,-1.2789609375,-3.14635546875,-9.65828125,-5.68823828125,-3.5549921875,-5.10716796875,-9.33980078125,-11.67549609375,-9.54532421875,-10.75092578125,-11.7436875,-16.24612890625
-27.92056640625,-31.0750234375,-33.45476171875,-16.24393359375,-11.82383984375,-7.86646484375,-9.783140625,-13.8038046875,-11.5456328125,-1.74762890625,-2.05937890625,-5.59210546875,-7.406109375,-2.410765625,0.56260546875,-5.48746875,-3.630484375,-7.30579296875,-2.0829609375,-4.14235546875,-10.67328125,-7.54023828125,-5.0619921875,-6.45516796875,-11.14980078125,-12.84049609375,-11.67832421875,-13.58192578125,-14.4346875,-18.69712890625
-19.72856640625,-24.0470234375,-25.41776171875,-12.92793359375,-9.44583984375,-5.06146484375,-6.526140625,-9.3648046875,-9.0596328125,-0.99362890625,-1.31937890625,-3.09810546875,-7.459109375,-2.194765625,0.27760546875,-4.86746875,-0.997484374999999,-7.52479296875,-2.4779609375,-4.57535546875,-10.41728125,-9.54223828125,-6.3629921875,-7.31016796875,-11.84180078125,-12.79649609375,-13.15132421875,-16.10992578125,-16.6596875,-20.57812890625
-10.83356640625,-16.1610234375,-16.19476171875,-8.89493359375,-6.22283984375,-1.82846484375,-2.543140625,-4.0568046875,-6.2516328125,-0.0296289062500001,-0.109378906250001,-0.23510546875,-7.375109375,-1.696765625,0.43560546875,-3.57846875,3.153515625,-7.69779296875,-2.6189609375,-4.57635546875,-8.97828125,-11.34023828125,-7.3099921875,-7.61116796875,-11.34380078125,-11.46949609375,-13.72732421875,-17.81492578125,-17.9386875,-21.34112890625
-4.80156640625,-10.3330234375,-9.03576171875,-5.59693359375,-3.31283984375,0.68253515625,0.818859375,0.6831953125,-3.9606328125,0.64937109375,1.02162109375,2.23889453125,-7.009109375,-1.158765625,0.79460546875,-2.06246875,7.913515625,-7.86379296875,-2.5869609375,-4.23535546875,-6.66528125,-12.50823828125,-7.6939921875,-7.27916796875,-9.78980078125,-8.99649609375,-13.25232421875,-18.24692578125,-17.9026875,-20.58212890625
-2.79056640625,-7.7170234375,-5.37976171875,-3.86293359375,-1.37383984375,1.93653515625,2.756859375,3.8911953125,-2.5636328125,0.84137109375,1.75062109375,3.76189453125,-6.236109375,-0.676765624999998,1.19860546875,-0.70946875,12.181515625,-7.94479296875,-2.3799609375,-3.60035546875,-3.91728125,-12.70323828125,-7.3359921875,-6.28416796875,-7.46880078125,-5.68549609375,-11.71032421875,-17.19592578125,-16.4246875,-18.20912890625
-3.33056640625,-7.4950234375,-4.57176171875,-3.64193359375,-0.453839843750002,2.06353515625,3.153859375,5.2581953125,-1.9696328125,0.59537109375,2.00062109375,4.05889453125,-5.101109375,-0.243765624999999,1.54960546875,0.20853125,15.025515625,-7.82579296875,-1.9939609375,-2.75335546875,-1.22528125,-11.82423828125,-6.1939921875,-4.75416796875,-4.76980078125,-1.96749609375,-9.28232421875,-14.80292578125,-13.6936875,-14.51412890625
-3.73656640625,-7.8450234375,-4.82176171875,-4.23293359375,-0.253839843750002,1.53453515625,2.370859375,5.0121953125,-1.8556328125,0.0343710937499999,1.81162109375,3.14089453125,-3.851109375,0.135234375000001,1.72260546875,0.53653125,15.962515625,-7.45079296875,-1.5099609375,-1.88035546875,0.95471875,-10.07323828125,-4.4449921875,-3.01216796875,-2.14580078125,1.65250390625,-6.35132421875,-11.53692578125,-10.1976875,-10.11612890625
-2.08856640625,-7.3560234375,-4.62676171875,-4.78393359375,-0.501839843750002,0.73253515625,0.907859375,3.6531953125,-1.9626328125,-0.80862890625,1.19262109375,1.25689453125,-2.836109375,0.349234375000001,1.51660546875,0.20653125,15.030515625,-6.88479296875,-1.1419609375,-1.26835546875,2.25171875,-7.89823828125,-2.4899921875,-1.52516796875,-0.0718007812499999,4.66450390625,-3.44332421875,-8.05492578125,-6.5966875,-5.79112890625
1.56643359375,-5.8930234375,-3.67476171875,-4.75093359375,-1.13283984375,-0.27146484375,-0.840140625,1.7111953125,-2.2266328125,-2.01562890625,0.0766210937499991,-1.15210546875,-2.358109375,0.211234375000001,0.69360546875,-0.78046875,12.666515625,-6.29579296875,-1.1769609375,-1.23635546875,2.44071875,-5.83623828125,-0.8379921875,-0.75416796875,1.02219921875,6.62350390625,-1.10732421875,-5.00392578125,-3.5346875,-2.26012890625
5.54543359375,-4.3860234375,-2.67076171875,-4.02793359375,-2.17183984375,-1.60546484375,-2.593140625,-0.3418046875,-2.6856328125,-3.65062890625,-1.56537890625,-3.51410546875,-2.523109375,-0.404765624999999,-0.864394531249999,-2.31946875,9.505515625,-5.85979296875,-1.8239609375,-1.99235546875,1.48071875,-4.33023828125,0.0750078125000001,-0.98216796875,0.86319921875,7.22650390625,0.23367578125,-2.82392578125,-1.4606875,0.00387109374999994
8.01443359375,-3.8330234375,-2.39876171875,-2.79093359375,-3.45883984375,-3.27146484375,-4.075140625,-2.0878046875,-3.2626328125,-5.57162890625,-3.55437890625,-5.21910546875,-3.165109375,-1.411765625,-2.99939453125,-4.15746875,6.221515625,-5.64679296875,-3.0589609375,-3.49335546875,-0.44828125,-3.56423828125,0.0800078125000001,-2.18016796875,-0.55580078125,6.38250390625,0.41867578125,-1.62492578125,-0.500687500000001,0.87287109375
8.42543359375,-4.3490234375,-2.82176171875,-1.22793359375,-4.49983984375,-4.93146484375,-4.935140625,-3.1248046875,-3.6446328125,-7.35662890625,-5.44837890625,-5.79010546875,-3.857109375,-2.458765625,-5.22239453125,-5.90346875,3.428515625,-5.56979296875,-4.5579609375,-5.39735546875,-2.95328125,-3.40823828125,-0.6399921875,-3.98716796875,-2.91580078125,4.26150390625,-0.39332421875,-1.19192578125,-0.4516875,0.55187109375
7.88543359375,-4.9850234375,-2.95476171875,0.594066406250001,-4.61183984375,-5.98246484375,-4.828140625,-3.1258046875,-3.3706328125,-8.41262890625,-6.66337890625,-5.07810546875,-4.052109375,-3.051765625,-6.86539453125,-7.11646875,1.615515625,-5.41779296875,-5.7859609375,-7.14035546875,-5.49328125,-3.48823828125,-1.6269921875,-5.80416796875,-5.63080078125,1.27450390625,-1.76732421875,-1.11892578125,-0.886687500000001,-0.52912890625
8.27843359375,-4.3840234375,-1.53776171875,2.66006640625,-3.29683984375,-5.87246484375,-3.608140625,-1.9668046875,-2.0786328125,-8.24462890625,-6.73737890625,-3.35610546875,-3.321109375,-2.768765625,-7.34739453125,-7.45746875,1.070515625,-4.95779296875,-6.1919609375,-8.13935546875,-7.51728125,-3.35823828125,-2.3359921875,-6.99116796875,-8.00480078125,-2.00149609375,-3.13232421875,-0.999925781249999,-1.3246875,-1.86812890625
10.86043359375,-1.7550234375,1.99323828125,4.86106640625,-0.593839843750002,-4.42946484375,-1.498140625,0.1481953125,0.253367187499999,-6.72862890625,-5.56037890625,-1.24710546875,-1.583109375,-1.475765625,-6.43539453125,-6.83446875,1.782515625,-4.05279296875,-5.4559609375,-8.02235546875,-8.63728125,-2.71323828125,-2.3669921875,-7.09416796875,-9.44480078125,-4.98049609375,-3.97432421875,-0.622925781249999,-1.4136875,-3.02212890625
15.32743359375,2.4949765625,6.94623828125,6.89906640625,2.81016015625,-2.02146484375,0.919859375,2.6691953125,3.2013671875,-4.23362890625,-3.47137890625,0.51889453125,0.811890625,0.578234375000001,-4.36839453125,-5.45746875,3.389515625,-2.74179296875,-3.6479609375,-6.79235546875,-8.76528125,-1.53523828125,-1.6219921875,-6.02416796875,-9.66680078125,-7.24749609375,-4.03332421875,-0.0499257812499989,-1.0576875,-3.70912890625
19.96443359375,6.9099765625,11.61923828125,8.36206640625,5.83516015625,0.56553515625,2.911859375,4.8641953125,6.0093671875,-1.50062890625,-1.13137890625,1.39789453125,3.201890625,2.839234375,-1.76939453125,-3.77646875,5.246515625,-1.24779296875,-1.2379609375,-4.84435546875,-8.14628125,-0.11123828125,-0.3379921875,-4.10816796875,-8.78480078125,-8.66849609375,-3.38532421875,0.436074218750001,-0.432687500000001,-3.84812890625
22.72443359375,9.8019765625,14.23123828125,8.91406640625,7.49616015625,2.47853515625,3.914859375,6.1101953125,7.8793671875,0.65537109375,0.748621093749999,1.24189453125,4.871890625,4.670234375,0.59660546875,-2.31246875,6.620515625,0.10520703125,1.0790390625,-2.80335546875,-7.22728125,1.09476171875,1.0320078125,-1.96616796875,-7.24680078125,-9.36449609375,-2.39032421875,0.493074218750001,0.110312499999999,-3.54712890625
22.47943359375,10.1989765625,13.90923828125,8.47706640625,7.35116015625,3.16853515625,3.781859375,6.1491953125,8.3053671875,1.66937109375,1.68262109375,0.31589453125,5.313890625,5.593234375,2.09660546875,-1.46446875,6.958515625,1.01820703125,2.6450390625,-1.29435546875,-6.45828125,1.64776171875,2.0230078125,-0.28116796875,-5.63580078125,-9.58449609375,-1.52332421875,-0.0899257812499989,0.2213125,-3.05512890625
19.58543359375,8.2769765625,11.08423828125,7.25406640625,5.63816015625,2.55553515625,2.778859375,5.1651953125,7.2663671875,1.39037109375,1.52962109375,-0.87610546875,4.388890625,5.424234375,2.39760546875,-1.40646875,6.097515625,1.31420703125,3.0570390625,-0.73735546875,-6.09828125,1.32276171875,2.3150078125,0.42283203125,-4.46280078125,-9.54149609375,-1.18532421875,-1.29992578125,-0.299687500000001,-2.68012890625
15.43443359375,5.0479765625,7.06423828125,5.58706640625,3.02116015625,0.91253515625,1.353859375,3.6201953125,5.1623671875,0.0223710937500003,0.41862109375,-1.86210546875,2.320890625,4.227234375,1.46660546875,-2.10546875,4.332515625,0.95120703125,2.2160390625,-1.28335546875,-6.16128125,0.16976171875,1.7930078125,-0.0951679687500002,-4.03380078125,-9.33149609375,-1.60132421875,-2.93492578125,-1.4536875,-2.70012890625
11.40643359375,1.5929765625,3.13423828125,3.73206640625,0.134160156249998,-1.41446484375,-0.171140625,1.9781953125,2.5373671875,-2.09262890625,-1.42437890625,-2.42710546875,-0.439109375,2.168234375,-0.54139453125,-3.42646875,2.297515625,-0.0337929687500003,0.2570390625,-2.85835546875,-6.48628125,-1.55423828125,0.4940078125,-1.78616796875,-4.43680078125,-8.95349609375,-2.81932421875,-4.72692578125,-3.1096875,-3.29812890625
7.99543359375,-1.5770234375,-0.168761718750002,1.72906640625,-2.74883984375,-4.22346484375,-1.784140625,0.4761953125,-0.2236328125,-4.68762890625,-3.83137890625,-2.70910546875,-3.402109375,-0.607765624999999,-3.39439453125,-5.23746875,0.687515625000001,-1.59479296875,-2.5709609375,-5.26635546875,-6.90828125,-3.51223828125,-1.4729921875,-4.39016796875,-5.60680078125,-8.40449609375,-4.76732421875,-6.46892578125,-5.0996875,-4.51412890625
4.69143359375,-4.6590234375,-3.18176171875,-0.545933593749999,-5.74083984375,-7.48846484375,-3.749140625,-0.9428046875,-3.0066328125,-7.66762890625,-6.72437890625,-3.13210546875,-6.166109375,-3.993765625,-6.85439453125,-7.45646875,-0.0614843749999991,-3.69879296875,-6.0019609375,-8.26435546875,-7.39028125,-5.41423828125,-3.9829921875,-7.54216796875,-7.40580078125,-7.77449609375,-7.31132421875,-8.07492578125,-7.2956875,-6.25312890625
0.568433593749998,-8.2080234375,-6.66776171875,-3.19393359375,-9.08583984375,-11.23546484375,-6.402140625,-2.5178046875,-5.8606328125,-11.03862890625,-10.06237890625,-4.19310546875,-8.435109375,-7.853765625,-10.66839453125,-10.03046875,0.021515625000001,-6.29479296875,-9.7649609375,-11.59435546875,-8.06028125,-7.08723828125,-6.9049921875,-10.87516796875,-9.67380078125,-7.26649609375,-10.27332421875,-9.56692578125,-9.6116875,-8.30612890625
-4.87856640625,-12.5880234375,-11.15876171875,-6.11193359375,-12.85183984375,-15.35846484375,-9.876140625,-4.4708046875,-8.7836328125,-14.74762890625,-13.72437890625,-6.18210546875,-9.986109375,-11.936765625,-14.52939453125,-12.86246875,0.488515625000001,-9.24379296875,-13.5699609375,-14.97135546875,-9.09828125,-8.48423828125,-10.0599921875,-14.06916796875,-12.20880078125,-7.11049609375,-13.40932421875,-10.99292578125,-11.9396875,-10.40012890625
-11.22256640625,-17.5880234375,-16.49176171875,-8.94193359375,-16.76683984375,-19.49046484375,-13.908140625,-6.8148046875,-11.5816328125,-18.54062890625,-17.39437890625,-8.96010546875,-10.686109375,-15.831765625,-18.03439453125,-15.71046875,0.769515625,-12.27579296875,-17.0489609375,-18.04335546875,-10.55028125,-9.64823828125,-13.1589921875,-16.83516796875,-14.70780078125,-7.42049609375,-16.36332421875,-12.33492578125,-14.0766875,-12.22212890625
-17.22056640625,-22.4120234375,-21.80676171875,-11.20593359375,-20.27383984375,-23.02746484375,-17.817140625,-9.2758046875,-13.9026328125,-21.93562890625,-20.55337890625,-11.93410546875,-10.570109375,-19.026765625,-20.69939453125,-18.14746875,0.525515625000001,-14.99979296875,-19.7739609375,-20.38635546875,-12.18728125,-10.63523828125,-15.7899921875,-18.87216796875,-16.73880078125,-8.07949609375,-18.65932421875,-13.44692578125,-15.6946875,-13.44512890625
-21.44956640625,-26.0530234375,-25.96876171875,-12.53893359375,-22.78083984375,-25.33246484375,-20.720140625,-11.3888046875,-15.4266328125,-24.36562890625,-22.61037890625,-14.30110546875,-9.896109375,-21.050765625,-22.07739453125,-19.65946875,-0.191484374999999,-16.99779296875,-21.3419609375,-21.59335546875,-13.52328125,-11.45023828125,-17.5019921875,-19.88816796875,-17.81680078125,-8.74649609375,-19.79732421875,-14.08192578125,-16.4196875,-13.76612890625
-23.03956640625,-27.7950234375,-28.13176171875,-12.89193359375,-23.92883984375,-26.01146484375,-21.907140625,-12.7078046875,-16.0546328125,-25.41662890625,-23.15737890625,-15.43110546875,-9.091109375,-21.660765625,-21.94739453125,-19.85246875,-1.036484375,-17.96979296875,-21.5389609375,-21.42835546875,-14.02028125,-12.02223828125,-17.9699921875,-19.68816796875,-17.57880078125,-8.99449609375,-19.42332421875,-14.00292578125,-15.9906875,-12.99012890625
-22.02856640625,-27.4850234375,-28.06876171875,-12.52993359375,-23.72283984375,-25.09746484375,-21.162140625,-13.0088046875,-15.9526328125,-25.01362890625,-22.16737890625,-15.14810546875,-8.586109375,-20.955765625,-20.44639453125,-18.65946875,-1.638484375,-17.86179296875,-20.4519609375,-19.95235546875,-13.33428125,-12.23323828125,-17.1439921875,-18.29116796875,-15.94780078125,-8.49349609375,-17.51232421875,-13.10492578125,-14.3986875,-11.12912890625
-19.21656640625,-25.4890234375,-26.12976171875,-11.85993359375,-22.47383984375,-23.03246484375,-18.865140625,-12.3578046875,-15.4256328125,-23.46462890625,-20.03837890625,-13.75110546875,-8.649109375,-19.355765625,-18.06439453125,-16.40446875,-1.802484375,-16.88379296875,-18.4649609375,-17.54035546875,-11.48928125,-11.97623828125,-15.2869921875,-15.98116796875,-13.19980078125,-7.14749609375,-14.43132421875,-11.47992578125,-11.9236875,-8.44912890625
-15.78456640625,-22.5070234375,-23.04076171875,-11.22493359375,-20.65283984375,-20.51446484375,-15.848140625,-11.0508046875,-14.7466328125,-21.34462890625,-17.46137890625,-11.81210546875,-9.297109375,-17.450765625,-15.49039453125,-13.69646875,-1.569484375,-15.43979296875,-16.1379609375,-14.77635546875,-8.87028125,-11.21923828125,-12.9049921875,-13.25216796875,-9.90280078125,-5.13149609375,-10.86732421875,-9.39392578125,-9.0446875,-5.42712890625
-12.98956640625,-19.4400234375,-19.76076171875,-10.82993359375,-18.78583984375,-18.30946484375,-13.104140625,-9.5058046875,-14.0826328125,-19.31062890625,-15.20537890625,-9.92110546875,-10.319109375,-15.818765625,-13.40839453125,-11.24246875,-1.116484375,-14.00179296875,-14.0539609375,-12.30235546875,-6.08828125,-10.06023828125,-10.6139921875,-10.69816796875,-6.77380078125,-2.82849609375,-7.63732421875,-7.21392578125,-6.3106875,-2.62612890625
-12.01356640625,-17.3090234375,-17.40276171875,-10.80793359375,-17.41783984375,-17.07746484375,-11.477140625,-8.1728046875,-13.5246328125,-17.92662890625,-13.89137890625,-8.52810546875,-11.377109375,-14.889765625,-12.31239453125,-9.64146875,-0.613484375,-12.99279296875,-12.6839609375,-10.65735546875,-3.78228125,-8.75123828125,-8.9919921875,-8.87016796875,-4.49980078125,-0.69449609375,-5.47232421875,-5.31492578125,-4.2136875,-0.56112890625
-13.73156640625,-17.0480234375,-17.03076171875,-11.27393359375,-17.04483984375,-17.18946484375,-11.411140625,-7.4508046875,-13.1716328125,-17.52262890625,-13.81737890625,-7.89610546875,-12.135109375,-14.867765625,-12.39439453125,-9.22746875,-0.124484374999999,-12.68379296875,-12.2929609375,-10.15335546875,-2.43328125,-7.64323828125,-8.4359921875,-8.14316796875,-3.55580078125,0.89450390625,-4.82132421875,-4.01492578125,-3.0946875,0.41487109375
-18.28856640625,-19.0990234375,-19.20476171875,-12.28093359375,-17.92983984375,-18.56846484375,-12.814140625,-7.5788046875,-13.1436328125,-18.10262890625,-14.87037890625,-8.10410546875,-12.361109375,-15.700765625,-13.49939453125,-9.99346875,0.394515625,-13.13879296875,-12.8759609375,-10.78935546875,-2.24528125,-7.06823828125,-9.0569921875,-8.60916796875,-4.06780078125,1.73950390625,-5.73232421875,-3.51792578125,-3.0766875,0.19287109375
-24.65156640625,-22.9640234375,-23.46076171875,-13.66193359375,-19.84683984375,-20.62646484375,-15.045140625,-8.5048046875,-13.4866328125,-19.29062890625,-16.53337890625,-9.03410546875,-11.977109375,-17.056765625,-15.14639453125,-11.57546875,1.005515625,-14.16679296875,-14.1479609375,-12.23135546875,-3.11628125,-7.17923828125,-10.6289921875,-10.02916796875,-5.76580078125,1.84250390625,-7.83832421875,-3.87892578125,-4.0376875,-1.06912890625
-30.59956640625,-27.0810234375,-28.13076171875,-14.92593359375,-21.96283984375,-22.34846484375,-17.058140625,-9.8138046875,-14.0316328125,-20.37062890625,-17.99737890625,-10.31310546875,-11.052109375,-18.345765625,-16.61039453125,-13.31646875,1.676515625,-15.32179296875,-15.5529609375,-13.85835546875,-4.66728125,-7.84723828125,-12.6019921875,-11.85616796875,-8.04080078125,1.34350390625,-10.44632421875,-4.94692578125,-5.6216875,-2.97612890625
-33.40556640625,-29.2460234375,-30.81176171875,-15.34393359375,-23.03083984375,-22.57646484375,-17.699140625,-10.7998046875,-14.3336328125,-20.45762890625,-18.36237890625,-11.30710546875,-9.744109375,-18.819765625,-17.08439453125,-14.40246875,2.246515625,-15.97479296875,-16.3629609375,-14.89635546875,-6.32628125,-8.66623828125,-14.1899921875,-13.33516796875,-10.09080078125,0.45650390625,-12.71132421875,-6.33292578125,-7.2956875,-4.98212890625
-31.08856640625,-27.5890234375,-29.42976171875,-14.25893359375,-21.91183984375,-20.45746484375,-16.113140625,-10.7208046875,-13.8156328125,-18.81862890625,-16.91937890625,-11.27410546875,-8.231109375,-17.813765625,-15.92739453125,-14.09746875,2.491515625,-15.49979296875,-15.8709609375,-14.62635546875,-7.45728125,-9.10023828125,-14.5709921875,-13.69716796875,-11.12180078125,-0.57749609375,-13.84532421875,-7.45492578125,-8.4576875,-6.52612890625
-23.58156640625,-21.6440234375,-23.39976171875,-11.48993359375,-18.17983984375,-15.87146484375,-12.137140625,-9.1298046875,-12.0796328125,-15.21762890625,-13.44137890625,-9.65810546875,-6.679109375,-15.043765625,-12.91839453125,-12.01446875,2.255515625,-13.52879296875,-13.6549609375,-12.63635546875,-7.53628125,-8.69823828125,-13.1679921875,-12.40716796875,-10.58480078125,-1.52149609375,-13.33132421875,-7.70392578125,-8.5916875,-7.17212890625
-13.12956640625,-12.8830234375,-14.21376171875,-7.57493359375,-12.45583984375,-9.62346484375,-6.468140625,-6.1308046875,-9.1956328125,-10.11662890625,-8.35837890625,-6.41010546875,-5.243109375,-10.810765625,-8.40139453125,-8.29346875,1.588515625,-10.15179296875,-9.8029609375,-9.00235546875,-6.32228125,-7.28623828125,-9.8989921875,-9.37716796875,-8.34680078125,-2.17149609375,-11.07132421875,-6.67292578125,-7.4306875,-6.72112890625
-3.55156640625,-4.2830234375,-4.97876171875,-3.66693359375,-6.23883984375,-3.20846484375,-0.463140625,-2.3898046875,-5.7676328125,-4.57562890625,-2.65737890625,-2.08310546875,-4.078109375,-5.966765625,-3.21739453125,-3.59746875,0.794515625000001,-5.93879296875,-4.9489609375,-4.29935546875,-3.94028125,-5.03923828125,-5.2649921875,-5.03416796875,-4.73980078125,-2.38049609375,-7.40532421875,-4.32592578125,-5.0596875,-5.24712890625
1.39043359375,0.960976562500001,0.923238281249999,-1.08093359375,-1.29583984375,1.76753515625,4.369859375,1.1211953125,-2.7056328125,0.12737109375,2.44462109375,2.35389453125,-3.331109375,-1.616765625,1.57260546875,1.10753125,0.360515625000001,-1.75379296875,-0.0819609374999999,0.57164453125,-0.82328125,-2.40623828125,-0.2139921875,-0.19816796875,-0.44380078125,-2.06949609375,-3.01132421875,-1.02692578125,-1.8996875,-3.04412890625
-0.303566406250002,0.917976562500002,1.38723828125,-0.704933593749999,1.06716015625,4.20553515625,6.954859375,3.5301953125,-0.8446328125,2.96437109375,5.92962109375,5.89889453125,-3.090109375,1.288234375,5.03060546875,4.87453125,0.752515625000001,1.53020703125,3.7690390625,4.66964453125,2.43671875,0.0517617187499995,4.1610078125,4.16083203125,3.70619921875,-1.25049609375,1.27867578125,2.57407421875,1.4083125,-0.53212890625
-7.90556640625,-4.1550234375,-3.42776171875,-2.57793359375,0.519160156249998,3.91353515625,7.024859375,4.4101953125,-0.6196328125,3.51437109375,7.30462109375,7.88389453125,-3.336109375,2.266234375,6.61160546875,7.06053125,2.151515625,3.29220703125,5.8580390625,7.27364453125,5.27371875,1.83576171875,6.9570078125,7.20083203125,6.94919921875,-0.0474960937500004,4.67967578125,5.73707421875,4.1873125,1.85087109375
-18.19556640625,-11.8800234375,-11.12276171875,-5.84893359375,-2.21583984375,1.62153515625,5.169859375,3.9301953125,-1.9136328125,2.07437109375,6.71862109375,8.18189453125,-3.929109375,1.426234375,6.28760546875,7.50153125,4.324515625,3.31620703125,5.9290390625,8.06464453125,7.29271875,2.62876171875,7.7070078125,8.42783203125,8.78219921875,1.29950390625,6.62467578125,7.83907421875,5.9093125,3.73287109375
-26.83256640625,-18.7940234375,-18.11976171875,-9.14293359375,-5.71283984375,-1.34946484375,2.545859375,2.7451953125,-4.1246328125,-0.503628906249999,4.85662109375,7.19089453125,-4.657109375,-0.640765624999999,4.50460546875,6.52953125,6.706515625,1.82620703125,4.2660390625,7.18564453125,8.35571875,2.34376171875,6.4820078125,7.81183203125,9.08019921875,2.48850390625,6.88967578125,8.53307421875,6.3353125,4.87587109375
-30.31556640625,-21.9340234375,-21.30576171875,-11.18693359375,-8.49883984375,-3.66946484375,0.361859375,1.6731953125,-6.4226328125,-3.17662890625,2.62962109375,5.60589453125,-5.317109375,-3.131765625,1.99060546875,4.80753125,8.665515625,-0.62879296875,1.5480390625,5.15264453125,8.56871875,1.10376171875,3.8060078125,5.76383203125,8.09019921875,3.24650390625,5.63167578125,7.82107421875,5.5583125,5.21487109375
-27.59656640625,-20.2190234375,-19.48676171875,-11.37393359375,-9.67683984375,-4.55646484375,-0.631140625,1.3191953125,-8.0936328125,-5.10662890625,0.799621093749999,4.09889453125,-5.777109375,-5.336765625,-0.49539453125,3.06053125,9.783515625,-3.37879296875,-1.4149609375,2.66964453125,8.19471875,-0.82323828125,0.4500078125,2.97583203125,6.32319921875,3.43750390625,3.33767578125,6.02407421875,3.9543125,4.87487109375
-20.48756640625,-14.8670234375,-13.86776171875,-9.96693359375,-9.22783984375,-4.02046484375,-0.382140625,1.8451953125,-8.7756328125,-5.90962890625,-0.242378906250001,3.09389453125,-6.004109375,-6.832765625,-2.37239453125,1.82553125,10.003515625,-5.83079296875,-3.9299609375,0.42864453125,7.55571875,-3.08023828125,-2.7819921875,0.22283203125,4.40619921875,3.13250390625,0.71567578125,3.68907421875,2.0693125,4.15087109375
-12.55656640625,-8.5980234375,-7.24676171875,-7.84993359375,-7.81883984375,-2.65946484375,0.619859375,2.9991953125,-8.4886328125,-5.65362890625,-0.46737890625,2.73789453125,-6.068109375,-7.489765625,-3.31139453125,1.37053125,9.607515625,-7.57179296875,-5.5459609375,-1.00935546875,6.97771875,-5.26823828125,-5.2129921875,-1.80316796875,2.94519921875,2.63050390625,-1.45032421875,1.45807421875,0.499312499999999,3.45987109375
-7.15256640625,-4.0960234375,-2.42176171875,-5.99493359375,-6.30683984375,-1.18246484375,1.766859375,4.3491953125,-7.4926328125,-4.66062890625,-0.0253789062500012,3.02589453125,-6.108109375,-7.363765625,-3.22039453125,1.74953125,9.059515625,-8.36979296875,-6.0489609375,-1.28535546875,6.77871875,-7.00123828125,-6.3849921875,-2.61616796875,2.42819921875,2.37050390625,-2.47532421875,-0.0749257812499993,-0.2466875,3.24487109375
-5.75756640625,-2.6950234375,-0.801761718750003,-5.00293359375,-5.26783984375,-0.0354648437499998,2.684859375,5.5231953125,-6.1156328125,-3.29462890625,0.890621093749999,3.89689453125,-6.271109375,-6.576765625,-2.21839453125,2.87553125,8.785515625,-8.14479296875,-5.4389609375,-0.30135546875,7.21571875,-7.96623828125,-6.1139921875,-2.03216796875,3.10519921875,2.75250390625,-1.96532421875,-0.513925781249999,0.1353125,3.83287109375
-7.62456640625,-4.0160234375,-2.03076171875,-4.94793359375,-4.82783984375,0.67953515625,3.291859375,6.2931953125,-4.6806328125,-1.84562890625,2.06062109375,5.21089453125,-6.618109375,-5.287765625,-0.62639453125,4.53053125,8.969515625,-6.97179296875,-3.9179609375,1.71664453125,8.37471875,-8.00223828125,-4.5389921875,-0.23316796875,4.89219921875,3.93850390625,0.0336757812500004,0.229074218750001,1.6343125,5.28187109375
-10.72056640625,-6.5860234375,-4.62976171875,-5.52493359375,-4.80983984375,1.03153515625,3.624859375,6.5321953125,-3.4806328125,-0.54162890625,3.17762109375,6.67089453125,-7.051109375,-3.709765625,1.06460546875,6.32953125,9.460515625,-5.08379296875,-1.8769609375,4.21664453125,10.05771875,-7.13323828125,-2.0869921875,2.24883203125,7.32719921875,5.73050390625,3.02367578125,1.91107421875,3.9163125,7.32287109375
-13.10156640625,-8.8350234375,-7.03876171875,-6.30993359375,-4.97483984375,1.06253515625,3.640859375,6.1491953125,-2.7466328125,0.42037109375,3.85062109375,7.82189453125,-7.327109375,-2.114765625,2.30360546875,7.74053125,9.838515625,-2.85479296875,0.1710390625,6.44664453125,11.77271875,-5.55523828125,0.6180078125,4.69083203125,9.67519921875,7.62350390625,6.18967578125,4.03407421875,6.4083125,9.43287109375
-13.84456640625,-9.8490234375,-8.36476171875,-6.95393359375,-5.16683984375,0.72453515625,3.178859375,5.0951953125,-2.5816328125,0.88037109375,3.69862109375,8.17789453125,-7.153109375,-0.803765624999999,2.64760546875,8.21053125,9.614515625,-0.72479296875,1.7130390625,7.67564453125,12.86471875,-3.58123828125,2.9250078125,6.38583203125,11.13119921875,8.98250390625,8.65367578125,6.00107421875,8.4583125,11.01487109375
-13.19256640625,-9.6250234375,-8.60176171875,-7.27893359375,-5.36583984375,-0.0684648437499997,2.059859375,3.4261953125,-2.9246328125,0.74037109375,2.50262109375,7.41189453125,-6.353109375,-0.0397656249999989,1.89360546875,7.34253125,8.476515625,0.90120703125,2.3570390625,7.41764453125,12.73871875,-1.56823828125,4.3030078125,6.84783203125,11.07519921875,9.27250390625,9.72567578125,7.29207421875,9.5223125,11.59687109375
-12.16856640625,-8.8950234375,-8.42576171875,-7.29893359375,-5.67683984375,-1.35246484375,0.213859375,1.3291953125,-3.6006328125,-0.03462890625,0.30162109375,5.47389453125,-4.987109375,-0.0117656249999989,0.12460546875,5.05353125,6.449515625,1.74320703125,1.9200390625,5.57064453125,11.08971875,0.14376171875,4.4570078125,5.90483203125,9.25819921875,8.21950390625,9.07667578125,7.59307421875,9.3073125,10.95487109375
-11.96156640625,-8.6740234375,-8.76676171875,-7.18893359375,-6.29283984375,-3.06546484375,-2.232140625,-0.8938046875,-4.4156328125,-1.42562890625,-2.59037890625,2.60389453125,-3.354109375,-0.793765624999998,-2.34239453125,1.63053125,3.922515625,1.69420703125,0.4550390625,2.42964453125,8.02871875,1.30276171875,3.3780078125,3.70783203125,5.87919921875,5.88750390625,6.79567578125,6.86007421875,7.8453125,9.13587109375
-13.30056640625,-9.6880234375,-10.25276171875,-7.17393359375,-7.37183984375,-5.02346484375,-4.935140625,-2.8898046875,-5.2356328125,-3.33862890625,-5.66537890625,-0.74510546875,-1.852109375,-2.312765625,-5.06439453125,-2.32146875,1.521515625,0.83720703125,-1.7709609375,-1.40535546875,4.07671875,1.79276171875,1.3380078125,0.66183203125,1.53519921875,2.64050390625,3.33567578125,5.28607421875,5.4593125,6.42587109375
-15.97156640625,-11.8820234375,-12.74576171875,-7.35893359375,-8.86083984375,-6.91046484375,-7.384140625,-4.3198046875,-5.9856328125,-5.53462890625,-8.33437890625,-3.99710546875,-0.808109375,-4.303765625,-7.56839453125,-6.02546875,-0.134484375,-0.58079296875,-4.3239609375,-5.18535546875,0.01171875,1.66576171875,-1.1739921875,-2.66616796875,-2.94180078125,-0.96049609375,-0.61432421875,3.22307421875,2.6633125,3.26987109375
-18.76256640625,-14.3080234375,-15.24676171875,-7.62693359375,-10.39383984375,-8.30146484375,-9.010140625,-4.9178046875,-6.5986328125,-7.60462890625,-10.06537890625,-6.54510546875,-0.381109375,-6.318765625,-9.42639453125,-8.73046875,-0.675484374999999,-2.19279296875,-6.6829609375,-8.18435546875,-3.36028125,1.12276171875,-3.5559921875,-5.64216796875,-6.69280078125,-4.29749609375,-4.28532421875,1.08107421875,0.0143124999999991,0.19887109375
-20.00156640625,-15.5480234375,-16.32876171875,-7.69093359375,-11.38283984375,-8.75846484375,-9.379140625,-4.5718046875,-6.9596328125,-9.04462890625,-10.49637890625,-7.88710546875,-0.569109375,-7.821765625,-10.30839453125,-9.89846875,-0.100484374999999,-3.57879296875,-8.3499609375,-9.86035546875,-5.43228125,0.450761718749999,-5.2429921875,-7.68716796875,-9.03980078125,-6.83149609375,-6.99332421875,-0.743925781249999,-2.0186875,-2.27112890625
-18.49656640625,-14.5290234375,-14.96976171875,-7.29193359375,-11.28683984375,-8.02046484375,-8.382140625,-3.3908046875,-6.9206328125,-9.44062890625,-9.54837890625,-7.78810546875,-1.259109375,-8.363765625,-10.06239453125,-9.36146875,1.250515625,-4.38179296875,-8.9909609375,-9.98535546875,-5.94928125,-0.0832382812500003,-5.8709921875,-8.42316796875,-9.64980078125,-8.21749609375,-8.29832421875,-1.92892578125,-3.1466875,-3.73612890625
-14.34556640625,-11.2460234375,-11.25576171875,-6.40593359375,-9.93383984375,-6.19746484375,-6.343140625,-1.7318046875,-6.3996328125,-8.66162890625,-7.49337890625,-6.39610546875,-2.264109375,-7.771765625,-8.79539453125,-7.38346875,2.857515625,-4.41779296875,-8.5539609375,-8.72035546875,-5.05228125,-0.32723828125,-5.4059921875,-7.81316796875,-8.61180078125,-8.38249609375,-8.12832421875,-2.28192578125,-3.3176875,-4.01112890625
-9.05056640625,-6.8930234375,-6.49376171875,-5.31993359375,-7.66683984375,-3.82446484375,-3.943140625,-0.1268046875,-5.4856328125,-6.96562890625,-4.92637890625,-4.20010546875,-3.346109375,-6.248765625,-6.89839453125,-4.60146875,4.206515625,-3.75979296875,-7.3159609375,-6.59035546875,-3.19428125,-0.28823828125,-4.1689921875,-6.21516796875,-6.40880078125,-7.52549609375,-6.80332421875,-1.79592578125,-2.7146875,-3.18512890625
-4.84156640625,-3.2880234375,-2.61976171875,-4.52293359375,-5.25383984375,-1.69346484375,-1.982140625,0.8881953125,-4.4696328125,-4.93762890625,-2.60637890625,-1.86910546875,-4.252109375,-4.313765625,-4.97139453125,-1.84146875,4.929515625,-2.72179296875,-5.7929609375,-4.33635546875,-0.99028125,-0.0992382812500003,-2.7199921875,-4.28616796875,-3.76780078125,-6.04949609375,-4.93332421875,-0.669925781249999,-1.6906875,-1.61612890625
-3.60156640625,-1.9700234375,-1.27476171875,-4.47993359375,-3.58783984375,-0.54646484375,-1.097140625,0.9411953125,-3.7606328125,-3.29262890625,-1.23437890625,-0.0511054687499999,-4.781109375,-2.631765625,-3.64739453125,0.0995312499999998,4.852515625,-1.74279296875,-4.5699609375,-2.69735546875,0.92971875,0.0697617187500001,-1.6509921875,-2.75816796875,-1.46780078125,-4.43849609375,-3.22032421875,0.720074218750001,-0.6616875,0.149871093750001
-6.01256640625,-3.5070234375,-3.09076171875,-5.40193359375,-3.32383984375,-0.80346484375,-1.578140625,-0.0608046875000001,-3.7186328125,-2.63062890625,-1.26037890625,0.75789453125,-4.846109375,-1.786765625,-3.39139453125,0.63253125,3.966515625,-1.22879296875,-4.1119609375,-2.19635546875,2.02671875,0.0947617187499996,-1.3769921875,-2.18916796875,-0.15380078125,-3.14949609375,-2.23732421875,1.91907421875,0.0133124999999996,1.53287109375
-11.34256640625,-7.3540234375,-7.51576171875,-7.13893359375,-4.63283984375,-2.42946484375,-3.328140625,-1.9458046875,-4.4776328125,-3.21862890625,-2.76637890625,0.26789453125,-4.489109375,-2.083765625,-4.35739453125,-0.50646875,2.379515625,-1.40379296875,-4.6229609375,-3.01835546875,1.93071875,-0.0622382812500004,-2.0139921875,-2.78916796875,-0.21280078125,-2.53249609375,-2.26632421875,2.53407421875,0.121312499999999,2.08187109375
-17.87256640625,-12.2300234375,-13.18676171875,-9.20993359375,-7.13783984375,-4.98446484375,-5.951140625,-4.3708046875,-5.8566328125,-4.90362890625,-5.45237890625,-1.58210546875,-3.844109375,-3.436765625,-6.32339453125,-3.19846875,0.277515625,-2.22079296875,-5.9749609375,-4.98335546875,0.51571875,-0.34723828125,-3.3449921875,-4.37116796875,-1.68480078125,-2.76649609375,-3.23632421875,2.38707421875,-0.3486875,1.62887109375
-23.69156640625,-16.7440234375,-18.57476171875,-10.98593359375,-10.08883984375,-7.80946484375,-8.913140625,-6.9458046875,-7.4236328125,-7.17662890625,-8.71537890625,-4.60110546875,-3.081109375,-5.393765625,-8.77039453125,-6.95446875,-2.076484375,-3.38979296875,-7.7569609375,-7.62035546875,-2.02728125,-0.63423828125,-4.9089921875,-6.44416796875,-4.24080078125,-3.80149609375,-4.77732421875,1.59607421875,-1.2186875,0.34687109375
-27.45456640625,-19.9510234375,-22.58576171875,-11.94993359375,-12.67583984375,-10.29146484375,-11.714140625,-9.3258046875,-8.7036328125,-9.39462890625,-11.82637890625,-8.33510546875,-2.389109375,-7.329765625,-11.06139453125,-11.00146875,-4.358484375,-4.50179296875,-9.4219609375,-10.31635546875,-5.19028125,-0.76123828125,-6.1829921875,-8.39916796875,-7.25280078125,-5.35149609375,-6.36632421875,0.533074218750001,-2.1866875,-1.30712890625
-28.82256640625,-21.6360234375,-24.88776171875,-11.93693359375,-14.37283984375,-12.06846484375,-14.004140625,-11.2618046875,-9.4176328125,-11.02762890625,-14.14837890625,-12.12210546875,-1.961109375,-8.702765625,-12.65439453125,-14.47446875,-6.231484375,-5.20079296875,-10.4919609375,-12.48135546875,-8.24728125,-0.57623828125,-6.7709921875,-9.71216796875,-9.95380078125,-6.96249609375,-7.50232421875,-0.327925781249999,-2.9286875,-2.76812890625
-28.47556640625,-22.2420234375,-25.88976171875,-11.22893359375,-15.10283984375,-13.09146484375,-15.630140625,-12.6238046875,-9.5946328125,-11.81662890625,-15.29537890625,-15.23510546875,-1.950109375,-9.253765625,-13.24439453125,-16.63646875,-7.427484375,-5.30079296875,-10.6999609375,-13.66735546875,-10.45828125,0.0167617187499998,-6.5279921875,-10.08316796875,-11.64880078125,-8.15649609375,-7.84532421875,-0.592925781249999,-3.1956875,-3.56912890625
-27.70656640625,-22.5250234375,-26.40876171875,-10.40693359375,-15.17283984375,-13.51446484375,-16.583140625,-13.3878046875,-9.4836328125,-11.77262890625,-15.17937890625,-17.07710546875,-2.367109375,-9.043765625,-12.77839453125,-17.07846875,-7.819484375,-4.81379296875,-10.0329609375,-13.63235546875,-11.28428125,1.01576171875,-5.5609921875,-9.46616796875,-11.90680078125,-8.58349609375,-7.27632421875,-0.0839257812499987,-2.8656875,-3.48912890625
-27.68456640625,-23.0640234375,-27.11876171875,-10.01993359375,-14.98783984375,-13.50346484375,-16.891140625,-13.5818046875,-9.3566328125,-11.04762890625,-13.96037890625,-17.37010546875,-3.000109375,-8.347765625,-11.40339453125,-15.81146875,-7.456484375,-3.90879296875,-8.6849609375,-12.35435546875,-10.54428125,2.30276171875,-4.1549921875,-8.03616796875,-10.67280078125,-8.13049609375,-5.89732421875,1.10407421875,-1.9726875,-2.58812890625
-28.70756640625,-23.8520234375,-28.04476171875,-10.25593359375,-14.73583984375,-13.08846484375,-16.514140625,-13.2108046875,-9.3156328125,-9.80862890625,-11.95237890625,-16.21210546875,-3.460109375,-7.480765625,-9.40139453125,-13.22046875,-6.537484375,-2.84379296875,-6.9769609375,-10.03935546875,-8.44128125,3.66376171875,-2.6629921875,-6.11316796875,-8.25880078125,-6.93249609375,-3.99232421875,2.64407421875,-0.6966875,-1.13812890625
-29.95956640625,-24.2650234375,-28.47076171875,-10.83993359375,-14.27983984375,-12.17546484375,-15.355140625,-12.2448046875,-9.2476328125,-8.21062890625,-9.54237890625,-13.99110546875,-3.374109375,-6.673765625,-7.14839453125,-9.90346875,-5.346484375,-1.89179296875,-5.2789609375,-7.09535546875,-5.47328125,4.83076171875,-1.4139921875,-4.09816796875,-5.22580078125,-5.29849609375,-1.94532421875,4.09207421875,0.6973125,0.501871093750001
-30.10856640625,-23.5430234375,-27.47576171875,-11.25293359375,-13.34483984375,-10.72046484375,-13.407140625,-10.7138046875,-8.9526328125,-6.46162890625,-7.15437890625,-11.23410546875,-2.619109375,-6.045765625,-5.07939453125,-6.49546875,-4.162484375,-1.26779296875,-3.9409609375,-4.07235546875,-2.25728125,5.56576171875,-0.6509921875,-2.39516796875,-2.19680078125,-3.58849609375,-0.13832421875,5.05207421875,1.9403125,2.01287109375
-28.46256640625,-21.5570234375,-24.82476171875,-11.12293359375,-11.89383984375,-8.96746484375,-10.966140625,-8.8558046875,-8.3566328125,-4.91862890625,-5.24737890625,-8.46310546875,-1.408109375,-5.675765625,-3.64039453125,-3.54846875,-3.190484375,-1.08179296875,-3.2499609375,-1.56535546875,0.62271875,5.73776171875,-0.4959921875,-1.33716796875,0.30719921875,-2.09849609375,1.13467578125,5.31607421875,2.8503125,3.19387109375
-25.78956640625,-19.2450234375,-21.53776171875,-10.53393359375,-10.38083984375,-7.52746484375,-8.706140625,-7.1778046875,-7.6586328125,-4.06862890625,-4.27537890625,-6.12710546875,-0.185109375,-5.678765625,-3.20239453125,-1.49546875,-2.540484375,-1.33379296875,-3.3829609375,-0.0873554687499998,2.72771875,5.37776171875,-0.9529921875,-1.12716796875,1.93319921875,-1.00249609375,1.72767578125,4.90307421875,3.3533125,3.95987109375
-24.08956640625,-18.2810234375,-19.56576171875,-10.01393359375,-9.65183984375,-7.16746484375,-7.473140625,-6.2988046875,-7.2876328125,-4.36662890625,-4.56637890625,-4.56010546875,0.610890625,-6.202765625,-3.94939453125,-0.62546875,-2.216484375,-1.93379296875,-4.3769609375,0.05964453125,3.79871875,4.65976171875,-1.9299921875,-1.80216796875,2.51119921875,-0.36849609375,1.63567578125,4.00107421875,3.4513125,4.29787109375
-25.34656640625,-20.0530234375,-20.66276171875,-10.20693359375,-10.47883984375,-8.38546484375,-7.861140625,-6.6268046875,-7.6556328125,-5.98262890625,-6.15237890625,-3.94210546875,0.749890625,-7.327765625,-5.78539453125,-1.04446875,-2.143484375,-2.73979296875,-6.0829609375,-1.12935546875,3.77071875,3.82776171875,-3.2579921875,-3.21816796875,2.03019921875,-0.19949609375,0.96067578125,2.84707421875,3.1603125,4.19987109375
-30.13756640625,-24.6600234375,-25.18876171875,-11.43693359375,-13.03883984375,-11.04246484375,-9.847140625,-8.0928046875,-8.8646328125,-8.62362890625,-8.67537890625,-4.26110546875,0.298890625,-8.944765625,-8.32139453125,-2.63046875,-2.195484375,-3.58679296875,-8.1749609375,-3.34735546875,2.75271875,3.09976171875,-4.7169921875,-5.08616796875,0.62919921875,-0.48049609375,-0.13432421875,1.63907421875,2.4893125,3.64687109375
-37.07956640625,-30.6570234375,-31.71576171875,-13.43093359375,-16.68383984375,-14.34446484375,-12.745140625,-10.1118046875,-10.5726328125,-11.57962890625,-11.47037890625,-5.32410546875,-0.405109375,-10.729765625,-10.97439453125,-5.04646875,-2.245484375,-4.32579296875,-10.2209609375,-6.07135546875,0.97571875,2.58276171875,-6.0789921875,-7.04516796875,-1.43080078125,-1.20249609375,-1.47232421875,0.497074218750001,1.4613125,2.63887109375
-43.50956640625,-35.7660234375,-37.72076171875,-15.39493359375,-20.18683984375,-17.18346484375,-15.515140625,-11.8548046875,-12.1406328125,-13.98562890625,-13.80137890625,-6.81210546875,-0.895109375,-12.245765625,-13.14739453125,-7.80446875,-2.201484375,-4.85579296875,-11.8069609375,-8.72735546875,-1.26028125,2.24676171875,-7.1619921875,-8.76516796875,-3.81280078125,-2.33049609375,-2.89032421875,-0.512925781249999,0.163312499999999,1.25187109375
-46.93556640625,-38.0920234375,-40.92176171875,-16.41093359375,-22.31983984375,-18.63546484375,-17.242140625,-12.6418046875,-12.9476328125,-15.15662890625,-15.11337890625,-8.35410546875,-0.775109375,-13.108765625,-14.39539453125,-10.37446875,-2.020484375,-5.13279296875,-12.6379609375,-10.82835546875,-3.62828125,1.96776171875,-7.8469921875,-10.00616796875,-6.14380078125,-3.74349609375,-4.23632421875,-1.33992578125,-1.2156875,-0.32012890625
-46.33256640625,-37.0860234375,-40.42476171875,-15.91993359375,-22.40583984375,-18.33046484375,-17.500140625,-12.2498046875,-12.6856328125,-14.82362890625,-15.18237890625,-9.61210546875,0.073890625,-13.108765625,-14.51239453125,-12.27946875,-1.700484375,-5.14379296875,-12.5769609375,-12.04835546875,-5.78628125,1.62476171875,-8.0679921875,-10.62616796875,-8.05780078125,-5.19949609375,-5.35532421875,-1.91492578125,-2.4046875,-1.79012890625
-42.51456640625,-33.7010234375,-37.01276171875,-14.00493359375,-20.54683984375,-16.52446484375,-16.423140625,-10.9398046875,-11.4446328125,-13.14962890625,-14.11337890625,-10.34610546875,1.416890625,-12.238765625,-13.53139453125,-13.16746875,-1.264484375,-4.87379296875,-11.6369609375,-12.23235546875,-7.40128125,1.18976171875,-7.7919921875,-10.55416796875,-9.24780078125,-6.37749609375,-6.09232421875,-2.16592578125,-3.1336875,-2.85312890625
-37.42556640625,-29.6610234375,-32.46076171875,-11.30093359375,-17.43583984375,-13.85546484375,-14.484140625,-9.2288046875,-9.5836328125,-10.55162890625,-12.19837890625,-10.43010546875,2.753890625,-10.638765625,-11.64839453125,-12.85546875,-0.740484374999999,-4.29279296875,-9.9489609375,-11.36535546875,-8.19928125,0.75176171875,-7.0089921875,-9.78116796875,-9.51880078125,-6.99949609375,-6.31532421875,-2.04492578125,-3.2396875,-3.29012890625
-32.91856640625,-26.3820234375,-28.39076171875,-8.63393359375,-13.92283984375,-10.95646484375,-12.147140625,-7.5498046875,-7.5056328125,-7.47662890625,-9.73537890625,-9.81110546875,3.547890625,-8.519765625,-9.13439453125,-11.33046875,-0.142484375,-3.37479296875,-7.7189609375,-9.55735546875,-8.03528125,0.45976171875,-5.7489921875,-8.35516796875,-8.81480078125,-6.95649609375,-5.94732421875,-1.54192578125,-2.7416875,-3.03812890625
-29.88856640625,-24.2920234375,-25.48476171875,-6.64693359375,-10.64883984375,-8.18246484375,-9.651140625,-6.0558046875,-5.4926328125,-4.26962890625,-6.92637890625,-8.47610546875,3.440890625,-6.114765625,-6.27139453125,-8.75146875,0.519515625,-2.14379296875,-5.1989609375,-7.03735546875,-6.93528125,0.41976171875,-4.0899921875,-6.39516796875,-7.24280078125,-6.35949609375,-4.99932421875,-0.703925781249999,-1.8226875,-2.19812890625
-28.29056640625,-22.9760234375,-23.53776171875,-5.64293359375,-7.94483984375,-5.63246484375,-7.072140625,-4.6948046875,-3.7106328125,-1.20762890625,-3.93437890625,-6.47910546875,2.380890625,-3.691765625,-3.36839453125,-5.45946875,1.187515625,-0.71879296875,-2.6729609375,-4.16635546875,-5.11928125,0.61376171875,-2.2019921875,-4.12016796875,-5.06680078125,-5.48449609375,-3.60332421875,0.352074218750001,-0.758687500000001,-1.00712890625
-27.82356640625,-21.9300234375,-22.16376171875,-5.64793359375,-5.98683984375,-3.39046484375,-4.553140625,-3.4368046875,-2.3256328125,1.38637109375,-1.03337890625,-4.02410546875,0.623890625,-1.590765625,-0.77839453125,-1.96546875,1.716515625,0.66520703125,-0.4659609375,-1.41035546875,-2.96428125,0.89876171875,-0.3539921875,-1.85016796875,-2.67580078125,-4.64649609375,-2.00832421875,1.42507421875,0.1703125,0.23487109375
-28.57456640625,-21.2400234375,-21.47176171875,-6.55893359375,-4.98283984375,-1.72846484375,-2.472140625,-2.4468046875,-1.5846328125,3.10337109375,1.33462109375,-1.50810546875,-1.358109375,-0.189765624999998,1.12660546875,1.13353125,1.880515625,1.70520703125,1.0910390625,0.76364453125,-0.91428125,1.08576171875,1.1260078125,0.0508320312499997,-0.50080078125,-4.06249609375,-0.54032421875,2.26707421875,0.7603125,1.25087109375
-31.00956640625,-21.6090234375,-22.12576171875,-8.23193359375,-5.19183984375,-1.04446484375,-1.355140625,-2.0338046875,-1.7616328125,3.56537109375,2.68162109375,0.56189453125,-3.046109375,0.222234375000001,2.08060546875,3.32153125,1.464515625,2.13320703125,1.7610390625,2.03964453125,0.65771875,1.05876171875,1.9720078125,1.28883203125,1.10319921875,-3.77049609375,0.49767578125,2.65607421875,0.9283125,1.85687109375
-35.37856640625,-23.7500234375,-24.76676171875,-10.44893359375,-6.73983984375,-1.60246484375,-1.580140625,-2.4248046875,-2.9716328125,2.65137109375,2.71662109375,1.75389453125,-4.064109375,-0.401765624999999,2.04760546875,4.31753125,0.391515625000001,1.82920703125,1.5160390625,2.36364453125,1.55871875,0.846761718749999,2.0870078125,1.75383203125,1.95019921875,-3.65149609375,0.93067578125,2.49007421875,0.709312499999999,2.00387109375
-41.12756640625,-27.6860234375,-29.32476171875,-12.87093359375,-9.40283984375,-3.29746484375,-3.116140625,-3.5858046875,-5.0206328125,0.64037109375,1.52362109375,1.87289453125,-4.324109375,-1.789765625,1.25760546875,4.13653125,-1.186484375,0.88620703125,0.5930390625,1.93564453125,1.80171875,0.60876171875,1.5860078125,1.55683203125,2.06519921875,-3.53549609375,0.77167578125,1.83507421875,0.222312499999999,1.75987109375
-46.92556640625,-32.5270234375,-34.82676171875,-15.05293359375,-12.57483984375,-5.63546484375,-5.492140625,-5.2158046875,-7.4026328125,-1.84762890625,-0.45937890625,1.00289453125,-4.021109375,-3.436765625,0.12060546875,3.03253125,-2.904484375,-0.40379296875,-0.5659609375,1.09964453125,1.56071875,0.540761718749999,0.7480078125,0.98483203125,1.64519921875,-3.31649609375,0.20967578125,0.916074218750001,-0.370687500000001,1.27687109375
-51.33956640625,-36.9140234375,-39.86576171875,-16.58593359375,-15.47583984375,-7.94946484375,-8.013140625,-6.9358046875,-9.4816328125,-4.09862890625,-2.61737890625,-0.58210546875,-3.497109375,-4.804765625,-0.92939453125,1.38553125,-4.307484375,-1.64779296875,-1.4779609375,0.21664453125,1.08371875,0.769761718749999,-0.0929921874999999,0.40383203125,1.00619921875,-2.99049609375,-0.43832421875,0.0670742187500011,-0.873687500000001,0.767871093750001
-53.64456640625,-39.7750234375,-43.36776171875,-17.26493359375,-17.49483984375,-9.70546484375,-10.090140625,-8.4988046875,-10.7706328125,-5.60362890625,-4.40437890625,-2.56810546875,-3.052109375,-5.536765625,-1.58139453125,-0.40446875,-5.050484375,-2.50379296875,-1.8039609375,-0.43235546875,0.61871875,1.29076171875,-0.6609921875,0.13783203125,0.48719921875,-2.62249609375,-0.82532421875,-0.376925781249999,-1.0806875,0.49387109375
-54.16156640625,-40.8730234375,-45.10276171875,-17.19393359375,-18.42183984375,-10.71346484375,-11.477140625,-9.8898046875,-11.1396328125,-6.21562890625,-5.52437890625,-4.71610546875,-2.823109375,-5.575765625,-1.72939453125,-2.00646875,-5.048484375,-2.81879296875,-1.4839609375,-0.69735546875,0.34671875,1.96876171875,-0.8359921875,0.35183203125,0.34719921875,-2.28449609375,-0.70132421875,-0.203925781249999,-0.8246875,0.694871093750001
-53.85856640625,-40.7580234375,-45.59376171875,-16.69793359375,-18.44783984375,-11.12946484375,-12.277140625,-11.2298046875,-10.8326328125,-6.11762890625,-5.96837890625,-6.83710546875,-2.808109375,-5.137765625,-1.47239453125,-3.19446875,-4.497484375,-2.67479296875,-0.7449609375,-0.57835546875,0.33571875,2.59076171875,-0.6929921875,0.97783203125,0.67719921875,-2.01849609375,-0.0253242187499998,0.570074218750001,-0.0676875000000008,1.48087109375
-53.54456640625,-40.2090234375,-45.52976171875,-16.11993359375,-17.94683984375,-11.24346484375,-12.728140625,-12.5638046875,-10.2706328125,-5.64262890625,-5.89837890625,-8.70610546875,-2.956109375,-4.554765625,-1.01939453125,-3.85146875,-3.750484375,-2.33879296875,0.0240390625,-0.18535546875,0.53471875,2.94376171875,-0.4579921875,1.73583203125,1.35219921875,-1.84449609375,0.99267578125,1.66807421875,1.0283125,2.72087109375
-53.25956640625,-39.5940234375,-45.15376171875,-15.62493359375,-17.21583984375,-11.23546484375,-12.952140625,-13.6978046875,-9.7886328125,-5.07962890625,-5.49937890625,-10.00910546875,-3.250109375,-4.111765625,-0.58339453125,-3.95846875,-3.143484375,-2.11979296875,0.4470390625,0.30664453125,0.79371875,2.89276171875,-0.4149921875,2.23483203125,2.07519921875,-1.79049609375,1.94167578125,2.63407421875,2.0973125,4.02087109375
-52.32756640625,-38.6470234375,-44.10076171875,-15.14093359375,-16.34583984375,-11.07946484375,-12.863140625,-14.2218046875,-9.4846328125,-4.59162890625,-4.89537890625,-10.43110546875,-3.722109375,-3.959765625,-0.31439453125,-3.60046875,-2.883484375,-2.24279296875,0.2910390625,0.70464453125,0.91171875,2.41576171875,-0.7999921875,2.12183203125,2.45619921875,-1.92549609375,2.33767578125,2.97807421875,2.6703125,4.83987109375
-50.02756640625,-36.8160234375,-41.81076171875,-14.47893359375,-15.29283984375,-10.63846484375,-12.274140625,-13.7398046875,-9.2446328125,-4.22162890625,-4.17937890625,-9.83110546875,-4.406109375,-4.124765625,-0.28639453125,-2.96346875,-3.034484375,-2.77779296875,-0.4889609375,0.82564453125,0.69971875,1.60476171875,-1.7329921875,1.20583203125,2.15119921875,-2.34849609375,1.78967578125,2.35107421875,2.3363125,4.69287109375
-46.43656640625,-33.9290234375,-38.22876171875,-13.52693359375,-14.07283984375,-9.85346484375,-11.119140625,-12.1538046875,-8.8966328125,-3.96962890625,-3.45537890625,-8.36710546875,-5.284109375,-4.548765625,-0.50639453125,-2.30246875,-3.539484375,-3.62179296875,-1.7509609375,0.54964453125,0.0467187500000001,0.61476171875,-3.1579921875,-0.45616796875,0.99419921875,-3.13749609375,0.15767578125,0.690074218750001,0.929312499999999,3.35787109375
-42.87156640625,-30.7090234375,-34.29776171875,-12.40693359375,-12.91883984375,-8.87746484375,-9.602140625,-9.8268046875,-8.3836328125,-3.83762890625,-2.86237890625,-6.48010546875,-6.246109375,-5.117765625,-0.921394531249999,-1.86546875,-4.252484375,-4.54479296875,-3.2039609375,-0.13435546875,-1.01928125,-0.38823828125,-4.8249921875,-2.55516796875,-0.91080078125,-4.26549609375,-2.34332421875,-1.72592578125,-1.3636875,0.982871093750001
-41.56056640625,-28.7040234375,-31.81676171875,-11.48993359375,-12.26583984375,-8.06546484375,-8.175140625,-7.4748046875,-7.8166328125,-3.84762890625,-2.53537890625,-4.72910546875,-7.093109375,-5.671765625,-1.42139453125,-1.80046875,-4.951484375,-5.26379296875,-4.4739609375,-1.10335546875,-2.32228125,-1.25823828125,-6.3379921875,-4.61616796875,-3.20380078125,-5.57549609375,-5.17932421875,-4.34792578125,-4.0186875,-1.94912890625
-44.54256640625,-29.5340234375,-32.57076171875,-11.21893359375,-12.51983984375,-7.79546484375,-7.327140625,-5.8288046875,-7.4106328125,-4.00162890625,-2.54537890625,-3.54710546875,-7.570109375,-6.023765625,-1.85439453125,-2.09846875,-5.377484375,-5.52779296875,-5.1999609375,-2.12135546875,-3.58028125,-1.87523828125,-7.2549921875,-6.13616796875,-5.37380078125,-6.80049609375,-7.64432421875,-6.51692578125,-6.3446875,-4.78212890625
-52.33656640625,-33.8360234375,-37.19976171875,-11.82693359375,-13.73283984375,-8.21946484375,-7.290140625,-5.2518046875,-7.3156328125,-4.20562890625,-2.81937890625,-3.05110546875,-7.437109375,-5.967765625,-2.03639453125,-2.58346875,-5.315484375,-5.17079296875,-5.1199609375,-2.88635546875,-4.48628125,-2.12023828125,-7.2199921875,-6.72216796875,-6.91180078125,-7.63449609375,-9.08432421875,-7.66692578125,-7.7136875,-6.89112890625
-63.26156640625,-40.6360234375,-44.56976171875,-13.12193359375,-15.44583984375,-9.08446484375,-7.879140625,-5.5618046875,-7.4846328125,-4.23462890625,-3.11037890625,-2.99710546875,-6.543109375,-5.314765625,-1.76939453125,-2.95246875,-4.689484375,-4.11779296875,-4.1119609375,-3.09435546875,-4.78628125,-1.86723828125,-6.0549921875,-6.17616796875,-7.42580078125,-7.81249609375,-9.08932421875,-7.47592578125,-7.7446875,-7.84212890625
-73.96356640625,-47.6430234375,-52.15876171875,-14.52793359375,-16.83683984375,-9.82146484375,-8.574140625,-6.1708046875,-7.6746328125,-3.80062890625,-3.07237890625,-2.93010546875,-4.893109375,-3.954765625,-0.89239453125,-2.89446875,-3.627484375,-2.39479296875,-2.2279609375,-2.51935546875,-4.34428125,-1.02223828125,-3.8199921875,-4.52416796875,-6.72980078125,-7.17949609375,-7.59832421875,-5.93092578125,-6.4046875,-7.47812890625
-80.88656640625,-52.3260234375,-57.23276171875,-15.33693359375,-17.12683984375,-9.83746484375,-8.811140625,-6.4318046875,-7.5646328125,-2.69862890625,-2.42937890625,-2.44810546875,-2.665109375,-1.930765625,0.61660546875,-2.22846875,-2.436484375,-0.14979296875,0.2950390625,-1.11635546875,-3.19428125,0.418761718749999,-0.8259921875,-2.02416796875,-4.89780078125,-5.75449609375,-4.92232421875,-3.33492578125,-4.0026875,-5.94012890625
-81.77556640625,-53.0460234375,-58.04176171875,-15.02593359375,-15.92983984375,-8.82346484375,-8.254140625,-5.9528046875,-6.8986328125,-0.93862890625,-1.13437890625,-1.42110546875,-0.187109375,0.515234375000001,2.58460546875,-1.00446875,-1.477484375,2.34720703125,3.0610390625,0.91764453125,-1.54828125,2.30676171875,2.4190078125,0.87383203125,-2.28380078125,-3.76049609375,-1.65332421875,-0.232925781249999,-1.0946875,-3.62612890625
-76.37056640625,-49.5930234375,-54.34576171875,-13.43293359375,-13.35683984375,-6.85546484375,-6.883140625,-4.7008046875,-5.5586328125,1.24137109375,0.616621093749999,-0.0171054687499999,2.146890625,3.002234375,4.67560546875,0.52553125,-0.999484374999999,4.74720703125,5.6050390625,3.19264453125,0.26971875,4.35976171875,5.3400078125,3.63483203125,0.55519921875,-1.57949609375,1.50667578125,2.73307421875,1.6873125,-1.09312890625
-66.06556640625,-42.9590234375,-47.13076171875,-10.74693359375,-9.84783984375,-4.27646484375,-4.899140625,-2.8878046875,-3.5726328125,3.49837109375,2.49962109375,1.44289453125,3.998890625,5.147234375,6.51860546875,2.04953125,-1.023484375,6.71620703125,7.5440390625,5.26264453125,1.93771875,6.25276171875,7.4770078125,5.79183203125,3.02619921875,0.35450390625,3.95367578125,5.01107421875,3.8273125,1.09087109375
-52.84656640625,-34.5680234375,-37.80276171875,-7.33793359375,-5.86183984375,-1.45346484375,-2.535140625,-0.7738046875,-1.0706328125,5.56437109375,4.23662109375,2.68889453125,5.212890625,6.718234375,7.86260546875,3.34853125,-1.337484375,8.04120703125,8.6980390625,6.79864453125,3.23771875,7.73076171875,8.6250078125,7.09083203125,4.68419921875,1.70750390625,5.35467578125,6.30307421875,5.0553125,2.50987109375
-38.13556640625,-25.4420234375,-27.34776171875,-3.51793359375,-1.60983984375,1.44253515625,0.0888593750000002,1.4901953125,1.7943671875,7.38437109375,5.71762109375,3.64489453125,5.857890625,7.745234375,8.67360546875,4.39553125,-1.613484375,8.70420703125,9.1340390625,7.68964453125,4.10371875,8.67776171875,8.8700078125,7.54583203125,5.36819921875,2.34850390625,5.69767578125,6.61807421875,5.3803125,3.00387109375
-22.14956640625,-15.7030234375,-15.87076171875,0.636066406250001,3.03216015625,4.53453515625,3.011859375,3.9171953125,4.9233671875,9.13237109375,7.03062109375,4.45689453125,6.154890625,8.502234375,9.11960546875,5.33753125,-1.584484375,8.88020703125,9.1140390625,8.04364453125,4.59771875,9.10376171875,8.5100078125,7.39283203125,5.20819921875,2.36150390625,5.22967578125,6.20307421875,5.0123125,2.68187109375
-4.02656640625,-4.6340234375,-2.69676171875,5.30006640625,8.40216015625,8.14653515625,6.378859375,6.6281953125,8.2943671875,11.10237109375,8.38662109375,5.40889453125,6.316890625,9.372234375,9.47860546875,6.39553125,-1.160484375,8.85420703125,8.9620390625,8.09264453125,4.85071875,9.08376171875,7.9140078125,6.95883203125,4.54419921875,1.97850390625,4.32767578125,5.39607421875,4.2423125,1.83787109375
17.35943359375,8.7609765625,13.04723828125,10.73406640625,14.78516015625,12.57953515625,10.323859375,9.7481953125,11.8873671875,13.52937109375,9.98562109375,6.76689453125,6.448890625,10.644234375,9.98260546875,7.72653125,-0.423484374999999,8.88520703125,8.9220390625,8.06764453125,5.00471875,8.69876171875,7.3690078125,6.52283203125,3.77119921875,1.46650390625,3.35967578125,4.47707421875,3.3333125,0.834871093750001
42.20443359375,24.8839765625,31.57523828125,16.97006640625,22.09516015625,17.82253515625,14.796859375,13.2711953125,15.5593671875,16.40537109375,11.86862109375,8.62189453125,6.538890625,12.342234375,10.69160546875,9.30753125,0.476515625000001,9.08820703125,9.0560390625,8.09864453125,5.17571875,8.01076171875,6.9930078125,6.22483203125,3.20419921875,1.02950390625,2.60067578125,3.61307421875,2.4703125,-0.00912890624999996
68.66943359375,42.7399765625,51.62223828125,23.51906640625,29.65416015625,23.34553515625,19.415859375,16.9081953125,18.9373671875,19.36737109375,13.81662109375,10.77189453125,6.532890625,14.166234375,11.43960546875,10.89053125,1.428515625,9.39020703125,9.2280390625,8.17664453125,5.42771875,7.08776171875,6.7390078125,6.05883203125,3.00519921875,0.772503906249999,2.21467578125,2.88407421875,1.7733125,-0.485128906249999
92.62743359375,59.6849765625,70.20623828125,29.31606640625,36.20116015625,28.13453515625,23.415859375,20.0351953125,21.4593671875,21.74437109375,15.36962109375,12.72589453125,6.409890625,15.587234375,11.89060546875,12.06753125,2.359515625,9.58320703125,9.1960390625,8.17764453125,5.75371875,6.03876171875,6.4780078125,5.93183203125,3.18319921875,0.703503906249999,2.26167578125,2.36207421875,1.3243125,-0.51312890625
108.82943359375,72.1289765625,83.41423828125,33.04406640625,40.29216015625,31.00453515625,25.834859375,21.8341953125,22.5773671875,22.78337109375,15.98462109375,13.85889453125,6.202890625,16.066234375,11.69460546875,12.41853125,3.163515625,9.44620703125,8.7440390625,7.94564453125,6.07871875,5.03176171875,6.0980078125,5.74283203125,3.62319921875,0.78350390625,2.70667578125,2.14307421875,1.1933125,-0.126128906249999
113.18143359375,77.0159765625,88.02323828125,33.73006640625,40.91616015625,31.08853515625,25.888859375,21.6151953125,22.0263671875,21.98037109375,15.27062109375,13.65989453125,5.965890625,15.287234375,10.65460546875,11.68153125,3.645515625,8.85120703125,7.7960390625,7.36464453125,6.27671875,4.25676171875,5.5560078125,5.41983203125,4.13119921875,0.96550390625,3.42067578125,2.31407421875,1.4063125,0.546871093750001
104.89243359375,73.3289765625,83.11123828125,31.27006640625,38.00616015625,28.25553515625,23.353859375,19.1751953125,19.9863671875,19.33937109375,13.18762109375,11.96389453125,5.738890625,13.306234375,8.82460546875,9.86653125,3.564515625,7.81420703125,6.4310390625,6.40764453125,6.19971875,3.85876171875,4.8640078125,4.91883203125,4.46719921875,1.20250390625,4.18367578125,2.86507421875,1.9013125,1.31087109375
87.09643359375,62.6769765625,70.63023828125,26.55606640625,32.50116015625,23.20753515625,18.717859375,14.9551953125,17.0133671875,15.39337109375,10.08262109375,9.02589453125,5.545890625,10.523234375,6.48460546875,7.25753125,2.768515625,6.48120703125,4.8350390625,5.11964453125,5.72671875,3.85676171875,4.0490078125,4.19283203125,4.39119921875,1.43750390625,4.71967578125,3.63207421875,2.5143125,1.94587109375
65.52543359375,48.6219765625,54.58923828125,21.09906640625,25.92916015625,17.20553515625,13.009859375,9.9041953125,13.7913671875,11.00237109375,6.55662109375,5.40589453125,5.427890625,7.519234375,4.01360546875,4.30053125,1.331515625,5.06020703125,3.2060390625,3.58364453125,4.79571875,4.12976171875,3.1230078125,3.19583203125,3.72019921875,1.59650390625,4.77367578125,4.31907421875,3.0143125,2.25687109375
46.04643359375,35.1689765625,39.38323828125,16.41106640625,19.80316015625,11.59253515625,7.427859375,5.1431953125,10.8753671875,7.04737109375,3.24662109375,1.76289453125,5.469890625,4.851234375,1.76260546875,1.45253125,-0.435484374999999,3.75620703125,1.6970390625,1.88964453125,3.43871875,4.46176171875,2.0990078125,1.91083203125,2.38919921875,1.59150390625,4.19667578125,4.59207421875,3.1743125,2.13387109375
32.55743359375,25.3449765625,28.26823828125,13.48606640625,15.20516015625,7.40353515625,2.985859375,1.6101953125,8.5983671875,4.18937109375,0.654621093749999,-1.30710546875,5.766890625,2.925234375,-0.0113945312499997,-0.92246875,-2.103484375,2.74720703125,0.4170390625,0.14964453125,1.78471875,4.63976171875,1.0350078125,0.40883203125,0.48919921875,1.35350390625,3.00567578125,4.20607421875,2.8573125,1.56887109375
26.26243359375,20.5589765625,22.72723828125,12.62206640625,12.69816015625,5.22653515625,0.355859375,-0.1448046875,7.1563671875,2.78937109375,-0.896378906250001,-3.34210546875,6.360890625,1.971234375,-1.13739453125,-2.57246875,-3.322484375,2.18620703125,-0.516960937499999,-1.46735546875,0.04571875,4.53876171875,0.0880078125000001,-1.11216796875,-1.71480078125,0.86850390625,1.39767578125,3.10107421875,2.0573125,0.645871093750001
26.21143359375,20.7229765625,22.65123828125,13.52706640625,12.43016015625,5.23453515625,-0.146140625,-0.00480468750000007,6.7293671875,2.91737109375,-1.24737890625,-4.02110546875,7.168890625,2.078234375,-1.49839453125,-3.34146875,-3.965484375,2.20020703125,-0.9539609375,-2.71735546875,-1.53728125,4.16476171875,-0.5019921875,-2.35316796875,-3.83880078125,0.19250390625,-0.30032421875,1.42607421875,0.900312499999999,-0.501128906249999
30.31343359375,24.6789765625,26.80923828125,15.53706640625,14.19516015625,7.21253515625,1.428859375,1.7601953125,7.4803671875,4.39037109375,-0.397378906250001,-3.21010546875,8.001890625,3.189234375,-1.04939453125,-3.16046875,-4.151484375,2.85820703125,-0.7479609375,-3.34335546875,-2.75328125,3.62976171875,-0.5089921875,-3.01416796875,-5.48380078125,-0.57449609375,-1.73132421875,-0.516925781249999,-0.407687500000001,-1.72912890625
36.16343359375,30.6179765625,33.26723828125,17.84406640625,17.41516015625,10.55753515625,4.628859375,4.5721953125,9.4213671875,6.79537109375,1.44962109375,-1.03510546875,8.640890625,5.081234375,0.13060546875,-2.09146875,-4.131484375,4.11920703125,0.1450390625,-3.19335546875,-3.48428125,3.08376171875,0.1530078125,-2.92116796875,-6.35980078125,-1.34149609375,-2.62932421875,-2.36492578125,-1.6556875,-2.90712890625
41.63243359375,36.5429765625,39.84723828125,19.73106640625,21.17816015625,14.38253515625,8.637859375,7.6811953125,12.2823671875,9.54537109375,3.88862109375,2.07789453125,8.948890625,7.372234375,1.80960546875,-0.34746875,-4.093484375,5.80320703125,1.5910390625,-2.30435546875,-3.71228125,2.64476171875,1.3490078125,-2.11716796875,-6.36780078125,-2.05949609375,-2.89132421875,-3.79692578125,-2.6756875,-3.93212890625
45.35243359375,40.8689765625,44.74923828125,20.79306640625,24.47216015625,17.77053515625,12.484859375,10.3711953125,15.5103671875,12.00437109375,6.39162109375,5.46489453125,8.934890625,9.592234375,3.63160546875,1.72853125,-4.024484375,7.60820703125,3.2860390625,-0.91535546875,-3.49528125,2.36976171875,2.7480078125,-0.86516796875,-5.61280078125,-2.71749609375,-2.60032421875,-4.60792578125,-3.3726875,-4.72612890625
47.03743359375,42.9409765625,47.14723828125,21.05406640625,26.53516015625,20.07253515625,15.356859375,12.1571953125,18.4103671875,13.66237109375,8.44662109375,8.38689453125,8.727890625,11.297234375,5.20760546875,3.73953125,-3.724484375,9.17520703125,4.8280390625,0.61364453125,-2.92928125,2.26176171875,3.9300078125,0.42883203125,-4.35380078125,-3.30849609375,-1.97432421875,-4.74992578125,-3.7216875,-5.23012890625
47.44443359375,43.1909765625,47.41523828125,20.86806640625,27.13616015625,21.08853515625,16.858859375,12.8821953125,20.3533671875,14.27237109375,9.69762109375,10.24289453125,8.481890625,12.185234375,6.22460546875,5.34553125,-2.973484375,10.17220703125,5.8330390625,1.92364453125,-2.12528125,2.29976171875,4.5350078125,1.35383203125,-2.90880078125,-3.79949609375,-1.27232421875,-4.32692578125,-3.7546875,-5.39112890625
47.90143359375,42.8009765625,46.82223828125,20.65806640625,26.61116015625,21.05053515625,17.098859375,12.7001953125,20.9553671875,13.91037109375,10.04362109375,10.76589453125,8.263890625,12.166234375,6.54160546875,6.36053125,-1.718484375,10.39320703125,6.0640390625,2.78264453125,-1.17728125,2.45676171875,4.4050078125,1.64683203125,-1.55380078125,-4.10449609375,-0.69432421875,-3.52592578125,-3.5236875,-5.14312890625
49.58843359375,43.0399765625,46.81423828125,20.65806640625,25.63116015625,20.46053515625,16.568859375,11.9711953125,20.1563671875,12.90537109375,9.66962109375,10.12989453125,8.019890625,11.380234375,6.24660546875,6.82753125,-0.158484375,9.82620703125,5.5250390625,3.16564453125,-0.13728125,2.70076171875,3.6440078125,1.31583203125,-0.42180078125,-4.06649609375,-0.28832421875,-2.52892578125,-3.0596875,-4.40612890625
52.91943359375,44.6189765625,48.28323828125,20.81806640625,24.84416015625,19.84553515625,15.892859375,11.1481953125,18.2113671875,11.69437109375,8.98162109375,8.88789453125,7.600890625,10.131234375,5.61260546875,6.98853125,1.352515625,8.66220703125,4.4730390625,3.24964453125,1.00971875,2.97576171875,2.5740078125,0.64183203125,0.52019921875,-3.48149609375,0.0496757812500004,-1.45692578125,-2.3706875,-3.12912890625
57.37143359375,47.4149765625,51.20523828125,20.91906640625,24.58416015625,19.57253515625,15.583859375,10.6511953125,15.5983671875,10.66937109375,8.44062109375,7.75089453125,6.855890625,8.789234375,4.99060546875,7.17053125,2.518515625,7.22520703125,3.3100390625,3.32264453125,2.32671875,3.19576171875,1.5790078125,0.0488320312499997,1.40919921875,-2.17049609375,0.49867578125,-0.382925781249999,-1.4676875,-1.34912890625
61.89543359375,50.7169765625,54.84923828125,20.78206640625,24.83316015625,19.77353515625,15.896859375,10.7711953125,12.9153671875,10.08337109375,8.39862109375,7.29589453125,5.734890625,7.684234375,4.67660546875,7.62153125,3.265515625,5.86420703125,2.4340390625,3.63464453125,3.86871875,3.25876171875,0.9500078125,-0.0861679687500003,2.38419921875,-0.0884960937500003,1.18667578125,0.620074218750001,-0.412687500000001,0.76287109375
65.66343359375,53.8029765625,58.38123828125,20.42806640625,25.38116015625,20.41353515625,16.840859375,11.6131953125,10.7583671875,10.05137109375,9.00562109375,7.76889453125,4.356890625,7.039234375,4.84160546875,8.41953125,3.755515625,4.87020703125,2.1160390625,4.29164453125,5.60871875,3.09676171875,0.7970078125,0.40283203125,3.49019921875,2.60150390625,2.09667578125,1.44707421875,0.671312499999999,2.91987109375
68.66343359375,56.4509765625,61.44023828125,20.07106640625,26.06916015625,21.40353515625,18.262859375,13.0781953125,9.6083671875,10.58737109375,10.21362109375,9.03689453125,2.997890625,6.947234375,5.51860546875,9.46553125,4.235515625,4.41420703125,2.4360390625,5.23264453125,7.39671875,2.70676171875,1.0510078125,1.42683203125,4.64919921875,5.52150390625,3.05267578125,1.97307421875,1.6203125,4.78587109375
71.69743359375,59.0119765625,64.28123828125,19.96906640625,26.89916015625,22.66653515625,19.946859375,14.9001953125,9.7103671875,11.63037109375,11.82962109375,10.71389453125,1.984890625,7.375234375,6.62060546875,10.56653125,4.849515625,4.50320703125,3.2850390625,6.27164453125,8.96371875,2.14876171875,1.5140078125,2.69583203125,5.68119921875,8.15850390625,3.77767578125,2.07607421875,2.2633125,6.06387109375
75.72943359375,61.9939765625,67.40423828125,20.23206640625,27.97016015625,24.11853515625,21.672859375,16.7191953125,10.9973671875,13.02837109375,13.58162109375,12.35289453125,1.555890625,8.164234375,7.96860546875,11.52453125,5.535515625,4.96920703125,4.4120390625,7.19264453125,10.01871875,1.48376171875,1.9250078125,3.83583203125,6.38119921875,10.00950390625,4.00567578125,1.66207421875,2.4463125,6.56587109375
80.98843359375,65.4879765625,70.95723828125,20.72506640625,29.29516015625,25.62653515625,23.226859375,18.1741953125,13.0773671875,14.53937109375,15.18262109375,13.63389453125,1.764890625,9.061234375,9.33560546875,12.21053125,6.088515625,5.50120703125,5.5030390625,7.84564453125,10.37171875,0.72676171875,2.0410078125,4.53083203125,6.60719921875,10.74950390625,3.58967578125,0.695074218750001,2.0613125,6.24787109375
86.51943359375,68.8849765625,74.40123828125,21.15406640625,30.69416015625,26.99753515625,24.420859375,19.0061953125,15.3493671875,15.89137109375,16.40462109375,14.45789453125,2.487890625,9.801234375,10.51660546875,12.59453125,6.318515625,5.76920703125,6.3010390625,8.19364453125,10.02171875,-0.14923828125,1.7350078125,4.64283203125,6.34319921875,10.33450390625,2.57367578125,-0.765925781249999,1.0933125,5.21487109375
90.65643359375,71.1779765625,76.77323828125,21.28506640625,31.87516015625,28.03953515625,25.147859375,19.1531953125,17.2203671875,16.89337109375,17.15062109375,14.92189453125,3.527890625,10.228234375,11.41260546875,12.74253125,6.173515625,5.57920703125,6.7170390625,8.31564453125,9.15571875,-1.15723828125,1.0730078125,4.26583203125,5.70819921875,9.00150390625,1.18967578125,-2.54692578125,-0.359687500000001,3.69387109375
92.22443359375,71.7129765625,77.44323828125,21.17706640625,32.68416015625,28.69053515625,25.460859375,18.8061953125,18.3563671875,17.55637109375,17.50162109375,15.20489453125,4.710890625,10.400234375,12.08360546875,12.77953125,5.737515625,5.00120703125,6.8810390625,8.36664453125,8.04771875,-2.22023828125,0.3280078125,3.69683203125,4.90419921875,7.14750390625,-0.19732421875,-4.36592578125,-2.0706875,1.98187109375
91.63343359375,70.8619765625,76.81323828125,21.24006640625,33.31516015625,29.13453515625,25.608859375,18.3711953125,18.8373671875,18.11637109375,17.71262109375,15.45089453125,5.941890625,10.599234375,12.72660546875,12.85353125,5.146515625,4.37520703125,7.1000390625,8.52364453125,6.93871875,-3.14623828125,-0.0849921874999999,3.32883203125,4.15119921875,5.14950390625,-1.18632421875,-5.87592578125,-3.7186875,0.37187109375
90.91743359375,70.0069765625,76.29623828125,22.06306640625,34.25916015625,29.75953515625,25.952859375,18.3151953125,19.1003671875,18.92337109375,18.11262109375,15.71189453125,7.187890625,11.203234375,13.58960546875,13.07353125,4.468515625,4.18920703125,7.7250390625,8.92664453125,5.94571875,-3.65523828125,0.2350078125,3.49883203125,3.61619921875,3.21450390625,-1.46532421875,-6.76092578125,-4.9566875,-0.92812890625
92.47743359375,70.6929765625,77.43423828125,24.04506640625,35.94616015625,30.90853515625,26.733859375,18.9111953125,19.6543671875,20.22037109375,18.92462109375,15.92889453125,8.426890625,12.462234375,14.81660546875,13.43853125,3.675515625,4.85020703125,8.9660390625,9.61564453125,5.03071875,-3.49123828125,1.4880078125,4.33583203125,3.35219921875,1.32350390625,-0.92932421875,-6.83992578125,-5.5276875,-1.84312890625
97.29543359375,73.4689765625,80.68123828125,27.05906640625,38.32116015625,32.54353515625,27.831859375,20.0341953125,20.7323671875,21.93937109375,20.08462109375,15.95489453125,9.583890625,14.309234375,16.31660546875,13.78253125,2.704515625,6.46920703125,10.7420390625,10.47764453125,4.04571875,-2.53423828125,3.5460078125,5.67983203125,3.26219921875,-0.70149609375,0.25267578125,-6.15492578125,-5.3596875,-2.44412890625
103.91443359375,77.2619765625,84.78223828125,30.36006640625,40.69116015625,34.10853515625,28.707859375,21.1231953125,22.1263671875,23.65637109375,21.19462109375,15.58989453125,10.496890625,16.339234375,17.74260546875,13.80253125,1.560515625,8.78020703125,12.6810390625,11.25464453125,2.83171875,-0.88023828125,5.9640078125,7.12883203125,3.13719921875,-3.03049609375,1.68867578125,-4.94592578125,-4.5916875,-2.88912890625
109.01643359375,79.8299765625,87.29223828125,32.86906640625,42.02916015625,34.75153515625,28.650859375,21.4241953125,23.3133671875,24.76037109375,21.70062109375,14.65789453125,10.980890625,17.999234375,18.62560546875,13.20153125,0.366515625000001,11.25120703125,14.2810390625,11.65364453125,1.36271875,1.19076171875,8.1700078125,8.23183203125,2.78419921875,-5.61949609375,2.94567578125,-3.52192578125,-3.4926875,-3.30212890625
109.37443359375,79.0749765625,86.01823828125,33.71306640625,41.56616015625,33.82053515625,27.211859375,20.4011953125,23.7813671875,24.78537109375,21.20662109375,13.13389453125,10.968890625,18.876234375,18.62960546875,11.90753125,-0.665484374999999,13.33120703125,15.1630390625,11.51764453125,-0.14528125,3.32976171875,9.7280078125,8.72083203125,2.19819921875,-8.08149609375,3.77667578125,-2.08192578125,-2.2936875,-3.63212890625
103.90143359375,74.3939765625,80.46023828125,32.70806640625,39.30516015625,31.33253515625,24.583859375,18.1161953125,23.3453671875,23.71137109375,19.75562109375,11.25789453125,10.651890625,18.917234375,17.77160546875,10.22253125,-1.319484375,14.68320703125,15.2700390625,10.96864453125,-1.22628125,5.27176171875,10.5440078125,8.67783203125,1.65419921875,-9.72349609375,4.25867578125,-0.604925781249999,-1.0536875,-3.59412890625
94.45043359375,67.1939765625,72.30523828125,30.46806640625,36.11016015625,28.09353515625,21.625859375,15.3041953125,22.2653671875,22.04537109375,17.89762109375,9.55189453125,10.453890625,18.464234375,16.48860546875,8.78353125,-1.447484375,15.30520703125,14.9240390625,10.42164453125,-1.30528125,6.90676171875,10.8970078125,8.52183203125,1.66019921875,-9.77149609375,4.77567578125,1.11007421875,0.373312499999999,-2.74012890625
84.79043359375,60.1929765625,64.58823828125,28.05706640625,33.29316015625,25.36053515625,19.486859375,13.0401953125,21.1153671875,20.60537109375,16.47162109375,8.63789453125,10.815890625,18.074234375,15.47260546875,8.30953125,-0.987484374999999,15.47520703125,14.6710390625,10.42164453125,0.0547187500000001,8.25876171875,11.2800078125,8.82483203125,2.74319921875,-7.70049609375,5.82067578125,3.28007421875,2.2273125,-0.674128906249999
78.37243359375,55.8799765625,59.96823828125,26.36906640625,31.89416015625,24.17253515625,18.975859375,12.1551953125,20.4593671875,20.08937109375,16.16562109375,8.92389453125,11.917890625,18.217234375,15.32460546875,9.23653125,0.0185156250000009,15.56020703125,14.9990390625,11.35564453125,2.89371875,9.37076171875,12.1160078125,10.00183203125,5.15619921875,-3.53549609375,7.70667578125,5.93407421875,4.6403125,2.69887109375
76.33543359375,55.0529765625,59.18823828125,25.64606640625,32.10716015625,24.74853515625,20.066859375,12.7631953125,20.5063671875,20.67437109375,17.11562109375,10.30989453125,13.511890625,18.997234375,16.21760546875,11.41953125,1.414515625,15.78320703125,16.0540390625,13.20364453125,6.71571875,10.19876171875,13.4930078125,12.05083203125,8.64019921875,2.02250390625,10.32767578125,8.78507421875,7.4503125,7.00187109375
77.09343359375,56.4549765625,60.78123828125,25.43806640625,33.21316015625,26.37553515625,21.890859375,14.2211953125,21.0113671875,21.93037109375,18.80062109375,12.19089453125,15.003890625,20.079234375,17.77460546875,14.14353125,2.935515625,16.09420703125,17.5350390625,15.47064453125,10.58471875,10.58376171875,15.0750078125,14.48383203125,12.41119921875,7.75650390625,13.11667578125,11.25407421875,10.1583125,11.40587109375
77.78943359375,57.7909765625,62.24823828125,25.05706640625,34.10716015625,27.89553515625,23.282859375,15.5921953125,21.4883671875,23.09837109375,20.35662109375,13.78289453125,15.732890625,20.894234375,19.28960546875,16.47053125,4.273515625,16.24320703125,18.8590390625,17.41464453125,13.47171875,10.32276171875,16.2720078125,16.53783203125,15.43319921875,12.33650390625,15.25067578125,12.66807421875,12.0763125,14.87787109375
76.45843359375,57.3889765625,61.85323828125,24.17806640625,34.04116015625,28.45353515625,23.525859375,16.2591953125,21.5893671875,23.56637109375,21.10162109375,14.59089453125,15.295890625,20.997234375,20.12960546875,17.71653125,5.173515625,15.98320703125,19.4820390625,18.41264453125,14.68071875,9.30376171875,16.5450078125,17.52683203125,16.86019921875,14.80550390625,16.01367578125,12.54507421875,12.6133125,16.56387109375
73.23043359375,55.2139765625,59.65023828125,23.10906640625,33.03516015625,27.93553515625,22.725859375,16.2411953125,21.3113671875,23.17637109375,20.87562109375,14.64089453125,13.740890625,20.305234375,20.04560546875,17.75853125,5.495515625,15.24120703125,19.1550390625,18.25064453125,14.11571875,7.60376171875,15.6670078125,17.14783203125,16.39019921875,14.91550390625,15.10367578125,10.80507421875,11.5313125,16.11987109375
69.75943359375,52.5359765625,57.04723828125,22.51706640625,31.68116015625,26.81553515625,21.590859375,15.9971953125,20.8823671875,22.17037109375,19.98862109375,14.33889453125,11.542890625,19.055234375,19.17160546875,16.96453125,5.211515625,14.12420703125,17.9590390625,17.14264453125,12.25871875,5.48876171875,13.7760078125,15.54383203125,14.35119921875,13.14050390625,12.73267578125,7.81207421875,9.0453125,13.83287109375
67.49643359375,50.6599765625,55.39023828125,22.83806640625,30.53916015625,25.61353515625,20.791859375,15.9241953125,20.4693671875,20.87037109375,18.86462109375,14.06289453125,9.367890625,17.552234375,17.79960546875,15.86553125,4.374515625,12.79820703125,16.1560390625,15.51964453125,9.87271875,3.31276171875,11.2510078125,13.16283203125,11.48719921875,10.39150390625,9.49267578125,4.23307421875,5.7423125,10.47187109375
66.28943359375,49.7689765625,54.74623828125,23.84106640625,29.62616015625,24.42653515625,20.430859375,15.9611953125,19.9603671875,19.38537109375,17.69562109375,13.84489453125,7.773890625,15.933234375,16.12760546875,14.80653125,3.099515625,11.36320703125,14.0120390625,13.76664453125,7.64271875,1.40076171875,8.5400078125,10.52783203125,8.61519921875,7.60550390625,6.10667578125,0.820074218750001,2.3833125,6.96187109375
64.39543359375,48.7839765625,53.80423828125,24.66106640625,28.39916015625,22.88753515625,19.988859375,15.6051953125,19.0093671875,17.57437109375,16.35662109375,13.35589453125,6.985890625,14.144234375,14.18260546875,13.80953125,1.566515625,9.83120703125,11.7280390625,12.07864453125,5.93871875,-0.0162382812500002,6.0280078125,8.06583203125,6.32519921875,5.42250390625,3.20267578125,-1.79492578125,-0.3316875,4.05287109375
59.89643359375,46.2869765625,50.95223828125,24.31306640625,26.22816015625,20.54753515625,18.764859375,14.3221953125,17.3053671875,15.27037109375,14.60462109375,12.18989453125,6.852890625,12.107234375,11.94060546875,12.68453125,0.0075156250000008,8.22020703125,9.4750390625,10.48864453125,4.78071875,-0.80823828125,4.0020078125,6.03883203125,4.84819921875,4.07050390625,1.17667578125,-3.22192578125,-1.9416875,2.11587109375
52.36143359375,41.7679765625,45.65823828125,22.31006640625,22.96616015625,17.36253515625,16.463859375,12.0231953125,14.8553671875,12.54037109375,12.37662109375,10.20989453125,6.981890625,9.930234375,9.49760546875,11.26053125,-1.336484375,6.65920703125,7.4580390625,8.98264453125,3.97971875,-0.92723828125,2.6520078125,4.56283203125,4.09219921875,3.43250390625,0.15467578125,-3.36092578125,-2.3186875,1.11987109375
43.38743359375,36.1559765625,39.01123828125,18.98006640625,19.16416015625,13.88053515625,13.464859375,9.2211953125,12.0763671875,9.75737109375,9.93262109375,7.69489453125,6.971890625,7.936234375,7.13060546875,9.53653125,-2.311484375,5.39820703125,5.9010390625,7.57564453125,3.30471875,-0.41823828125,2.0690078125,3.64783203125,3.76819921875,3.21650390625,0.0126757812500005,-2.38092578125,-1.6586875,0.757871093750001
35.52843359375,31.1509765625,32.96823828125,15.24406640625,15.72516015625,10.91753515625,10.557859375,6.7241953125,9.5803671875,7.39137109375,7.69262109375,5.16789453125,6.606890625,6.474234375,5.15660546875,7.64653125,-2.944484375,4.67820703125,4.9380390625,6.28164453125,2.57071875,0.548761718749999,2.1850078125,3.19183203125,3.51219921875,3.10550390625,0.42567578125,-0.674925781249999,-0.388687500000001,0.62187109375
30.42843359375,27.8609765625,28.83923828125,12.03006640625,13.24716015625,8.94853515625,8.341859375,5.0791953125,7.7883671875,5.67837109375,5.90262109375,3.03289453125,5.898890625,5.637234375,3.69060546875,5.69053125,-3.470484375,4.53220703125,4.4680390625,5.01164453125,1.63371875,1.66676171875,2.7280078125,2.95383203125,2.96719921875,2.84250390625,0.947675781250001,1.23007421875,0.974312499999999,0.35987109375
27.57643359375,25.8379765625,26.23023828125,9.72806640625,11.56016015625,7.68553515625,6.763859375,4.1771953125,6.6483671875,4.41637109375,4.38562109375,1.30389453125,4.992890625,5.125234375,2.50660546875,3.60053125,-4.243484375,4.69020703125,4.1180390625,3.52864453125,0.35671875,2.53876171875,3.2460078125,2.57483203125,1.83619921875,2.24750390625,1.12267578125,2.79607421875,1.9663125,-0.232128906249999
24.66843359375,23.3069765625,23.27823828125,8.03006640625,9.81116015625,6.19653515625,5.127859375,3.2991953125,5.6483671875,3.05537109375,2.60962109375,-0.39210546875,3.998890625,4.369234375,1.11260546875,1.17053125,-5.550484375,4.66420703125,3.3710390625,1.53764453125,-1.37628125,2.81376171875,3.2500078125,1.68083203125,-0.0388007812499999,1.21850390625,0.62967578125,3.60207421875,2.3013125,-1.18812890625
19.30643359375,18.4529765625,18.02223828125,6.23106640625,7.06416015625,3.49753515625,2.577859375,1.5791953125,4.1343671875,1.03437109375,0.0266210937499993,-2.53410546875,2.899890625,2.855234375,-0.96139453125,-1.77846875,-7.452484375,3.98520703125,1.8150390625,-1.13335546875,-3.57528125,2.31376171875,2.4090078125,0.0498320312499998,-2.60980078125,-0.24449609375,-0.61132421875,3.44507421875,1.9203125,-2.40812890625
10.79843359375,10.8229765625,9.92223828125,3.74106640625,2.97616015625,-0.78246484375,-1.308140625,-1.4508046875,1.7263671875,-1.86362890625,-3.53237890625,-5.35210546875,1.573890625,0.435234375000001,-3.86339453125,-5.20946875,-9.712484375,2.45020703125,-0.6289609375,-4.37135546875,-6.05728125,1.10176171875,0.6890078125,-2.26016796875,-5.58980078125,-2.00049609375,-2.40832421875,2.36807421875,0.975312499999999,-3.70912890625
0.808433593749998,1.8719765625,0.448238281249997,0.482066406250001,-1.89483984375,-6.10046484375,-6.177140625,-5.5328046875,-1.4376328125,-5.34462890625,-7.67037890625,-8.60210546875,-0.0701093750000001,-2.564765625,-7.28139453125,-8.77346875,-11.870484375,0.23420703125,-3.6309609375,-7.73935546875,-8.43128125,-0.56823828125,-1.6319921875,-4.89316796875,-8.47880078125,-3.73749609375,-4.35732421875,0.641074218750001,-0.2416875,-4.87112890625
-7.52956640625,-5.6960234375,-7.60176171875,-3.04693359375,-6.34083984375,-11.19446484375,-10.996140625,-9.7668046875,-4.7346328125,-8.70962890625,-11.51937890625,-11.59810546875,-1.963109375,-5.473765625,-10.52439453125,-11.85546875,-13.394484375,-2.17279296875,-6.5459609375,-10.58135546875,-10.19128125,-2.33523828125,-4.0509921875,-7.29116796875,-10.67080078125,-5.01749609375,-5.95832421875,-1.30192578125,-1.3746875,-5.64912890625
-11.42356640625,-9.4000234375,-11.64776171875,-6.03893359375,-9.13983984375,-14.67546484375,-14.521140625,-13.0368046875,-7.3516328125,-11.16562890625,-14.09537890625,-13.51310546875,-3.821109375,-7.569765625,-12.79039453125,-13.77546875,-13.890484375,-4.17479296875,-8.6359609375,-12.23035546875,-10.88928125,-3.83623828125,-5.9829921875,-8.86916796875,-11.61880078125,-5.40749609375,-6.75932421875,-2.95092578125,-2.0756875,-5.79912890625
-10.05656640625,-8.4050234375,-10.81676171875,-7.81193359375,-9.71483984375,-15.70546484375,-15.896140625,-14.5498046875,-8.6756328125,-12.18362890625,-14.74437890625,-13.80410546875,-5.215109375,-8.392765625,-13.50639453125,-14.06946875,-13.269484375,-5.29479296875,-9.3549609375,-12.25635546875,-10.32728125,-4.77923828125,-6.9509921875,-9.21516796875,-11.02780078125,-4.67249609375,-6.48432421875,-3.85392578125,-2.0906875,-5.13012890625
-5.06956640625,-4.0290234375,-6.47876171875,-8.16393359375,-8.43383984375,-14.39046484375,-15.071140625,-14.2088046875,-8.5736328125,-11.73462890625,-13.45137890625,-12.51710546875,-5.752109375,-7.929765625,-12.57639453125,-12.71546875,-11.827484375,-5.35879296875,-8.5689609375,-10.65235546875,-8.67328125,-5.00423828125,-6.7449921875,-8.24816796875,-8.99680078125,-2.91049609375,-5.13232421875,-3.75892578125,-1.3446875,-3.60312890625
0.381433593749998,1.0189765625,-1.45876171875,-7.43093359375,-6.36783984375,-11.66446484375,-12.774140625,-12.5948046875,-7.4126328125,-10.25462890625,-10.83337890625,-10.26710546875,-5.270109375,-6.568765625,-10.40839453125,-10.17846875,-10.145484375,-4.51779296875,-6.5999609375,-7.86235546875,-6.41728125,-4.51623828125,-5.4889921875,-6.23716796875,-6.01480078125,-0.55849609375,-2.97932421875,-2.69992578125,0.0233124999999994,-1.40712890625
3.37143359375,4.1879765625,1.56323828125,-6.24293359375,-4.67983984375,-8.73546484375,-10.081140625,-10.5848046875,-5.8146328125,-8.37362890625,-7.81437890625,-7.89610546875,-3.946109375,-4.858765625,-7.70539453125,-7.20946875,-8.848484375,-3.13779296875,-4.0709609375,-4.61335546875,-4.18628125,-3.47123828125,-3.5629921875,-3.68116796875,-2.79480078125,1.77250390625,-0.48932421875,-0.985925781249999,1.7083125,1.05087109375
2.63343359375,4.3929765625,1.42523828125,-5.14793359375,-4.02083984375,-6.47746484375,-7.855140625,-8.8848046875,-4.3346328125,-6.60162890625,-5.18837890625,-6.02910546875,-2.227109375,-3.244765625,-5.14439453125,-4.52446875,-8.339484375,-1.63279296875,-1.6319609375,-1.64935546875,-2.51428125,-2.11923828125,-1.4439921875,-1.11916796875,-0.0108007812499998,3.53650390625,1.84267578125,0.926074218750001,3.3643125,3.26687109375
-1.09856640625,2.3229765625,-1.17476171875,-4.34093359375,-4.30783984375,-5.12346484375,-6.397140625,-7.7368046875,-3.2446328125,-5.13762890625,-3.33737890625,-4.82810546875,-0.626109375,-1.906765625,-3.12839453125,-2.54546875,-8.642484375,-0.32679296875,0.2710390625,0.51664453125,-1.66228125,-0.71523828125,0.4560078125,1.04183203125,1.90919921875,4.44950390625,3.63667578125,2.58607421875,4.7123125,4.81387109375
-5.80556640625,-0.249023437499998,-4.35976171875,-3.64093359375,-4.90683984375,-4.34646484375,-5.448140625,-6.9208046875,-2.5116328125,-3.88262890625,-2.18737890625,-4.03210546875,0.505890625,-0.788765624999999,-1.69739453125,-1.30946875,-9.419484375,0.61720703125,1.5080390625,1.73564453125,-1.57528125,0.55276171875,1.8840078125,2.60283203125,2.87819921875,4.54750390625,4.70667578125,3.69607421875,5.6003125,5.49287109375
-9.37156640625,-1.5900234375,-6.23376171875,-2.69293359375,-5.06883984375,-3.59246484375,-4.474140625,-5.9868046875,-1.8966328125,-2.58662890625,-1.37537890625,-3.20110546875,1.095890625,0.268234375000001,-0.62939453125,-0.55046875,-10.153484375,1.18820703125,2.2200390625,2.19264453125,-1.96028125,1.59276171875,2.7720078125,3.56983203125,3.09919921875,4.10850390625,5.06767578125,4.17107421875,6.0113125,5.37087109375
-10.57556640625,-0.901023437499999,-5.83676171875,-1.26093359375,-4.33883984375,-2.44846484375,-3.047140625,-4.5658046875,-1.1196328125,-1.05162890625,-0.510378906250001,-2.00210546875,1.303890625,1.375234375,0.36360546875,0.0935312499999998,-10.397484375,1.48520703125,2.6670390625,2.26464453125,-2.45028125,2.38776171875,3.1870078125,4.07383203125,2.92219921875,3.49050390625,4.88567578125,4.11207421875,6.0133125,4.70887109375
-9.49456640625,1.4119765625,-3.48876171875,0.575066406250001,-2.77383984375,-0.87246484375,-1.108140625,-2.6038046875,-0.0196328125000005,0.71237109375,0.600621093749999,-0.39510546875,1.381890625,2.499234375,1.43860546875,0.87353125,-9.979484375,1.64320703125,3.0610390625,2.30964453125,-2.76228125,2.94276171875,3.2510078125,4.26583203125,2.66819921875,2.96250390625,4.38067578125,3.70507421875,5.7113125,3.82687109375
-7.23456640625,4.1109765625,-0.458761718750003,2.43106640625,-0.889839843750002,0.79553515625,1.003859375,-0.4198046875,1.3433671875,2.45237109375,1.86162109375,1.34889453125,1.533890625,3.464234375,2.53060546875,1.80753125,-9.071484375,1.77320703125,3.4680390625,2.50964453125,-2.79628125,3.24276171875,3.0770078125,4.25083203125,2.51719921875,2.61350390625,3.75567578125,3.12907421875,5.2053125,2.97987109375
-5.24056640625,5.8729765625,1.78023828125,3.81306640625,0.612160156249998,2.04653515625,2.746859375,1.4401953125,2.6823671875,3.77237109375,2.96862109375,2.78289453125,1.860890625,4.037234375,3.41660546875,2.69853125,-8.072484375,1.93620703125,3.8160390625,2.83164453125,-2.62028125,3.26576171875,2.7640078125,4.08683203125,2.48819921875,2.36250390625,3.16767578125,2.53007421875,4.5933125,2.31387109375
-4.58156640625,5.9599765625,2.27623828125,4.34806640625,1.19416015625,2.47653515625,3.650859375,2.4661953125,3.5993671875,4.33237109375,3.58962109375,3.47089453125,2.388890625,4.067234375,3.86360546875,3.26653125,-7.407484375,2.15020703125,4.0020390625,3.10964453125,-2.39028125,3.04376171875,2.4190078125,3.83183203125,2.51119921875,2.05750390625,2.74167578125,2.03907421875,3.9833125,1.89887109375
-5.54156640625,4.4759765625,0.961238281249997,3.93206640625,0.727160156249999,1.98753515625,3.535859375,2.4151953125,3.7823671875,4.02337109375,3.52962109375,3.17789453125,3.112890625,3.584234375,3.76960546875,3.30053125,-7.315484375,2.40920703125,3.9890390625,3.17364453125,-2.23928125,2.70676171875,2.1810078125,3.58083203125,2.52819921875,1.59550390625,2.59267578125,1.79607421875,3.5103125,1.78387109375
-7.68656640625,2.1369765625,-1.49876171875,2.74006640625,-0.484839843750002,0.79753515625,2.548859375,1.4071953125,3.1663671875,3.02737109375,2.81062109375,1.97289453125,3.999890625,2.805234375,3.22260546875,2.76453125,-7.755484375,2.70420703125,3.8540390625,2.96064453125,-2.19928125,2.45476171875,2.1880078125,3.46483203125,2.56419921875,1.01450390625,2.84167578125,1.92007421875,3.3163125,2.03987109375
-10.36356640625,-0.2880234375,-4.25776171875,1.08706640625,-1.93483984375,-0.71146484375,1.033859375,-0.1768046875,1.9693671875,1.70437109375,1.63462109375,0.21489453125,4.926890625,2.037234375,2.43460546875,1.81453125,-8.440484375,3.03220703125,3.7510390625,2.54964453125,-2.19628125,2.46676171875,2.5350078125,3.60883203125,2.73119921875,0.50750390625,3.57267578125,2.45907421875,3.5113125,2.73587109375
-13.27856640625,-2.5160234375,-6.89576171875,-0.739933593749999,-3.24983984375,-2.23246484375,-0.679140625,-1.9078046875,0.5423671875,0.38437109375,0.273621093749999,-1.58910546875,5.662890625,1.523234375,1.62760546875,0.71153125,-8.978484375,3.38220703125,3.8100390625,2.11064453125,-2.09728125,2.79876171875,3.2060078125,4.06983203125,3.16019921875,0.35050390625,4.78367578125,3.34207421875,4.1243125,3.88687109375
-16.69556640625,-4.8710234375,-9.63376171875,-2.56393359375,-4.39183984375,-3.67546484375,-2.425140625,-3.5068046875,-0.8246328125,-0.782628906249999,-1.05537890625,-3.00110546875,5.944890625,1.316234375,0.925605468750001,-0.29146875,-9.054484375,3.71320703125,4.0440390625,1.79264453125,-1.80628125,3.34776171875,4.0590078125,4.78183203125,3.90119921875,0.77050390625,6.32667578125,4.38807421875,5.0623125,5.38387109375
-21.00856640625,-7.8730234375,-12.95076171875,-4.24993359375,-5.56083984375,-5.12546484375,-4.176140625,-4.8838046875,-2.0036328125,-1.82462890625,-2.23637890625,-3.82610546875,5.624890625,1.274234375,0.329605468750001,-1.04846875,-8.570484375,3.95620703125,4.3210390625,1.63664453125,-1.32328125,3.90076171875,4.8470078125,5.54583203125,4.84219921875,1.82050390625,7.90767578125,5.36107421875,6.1173125,6.97787109375
-26.01256640625,-11.5730234375,-16.89076171875,-5.57793359375,-6.88183984375,-6.63246484375,-5.881140625,-6.0288046875,-2.9516328125,-2.80362890625,-3.22537890625,-4.14610546875,4.773890625,1.173234375,-0.21739453125,-1.53246875,-7.671484375,4.05020703125,4.4400390625,1.55664453125,-0.74628125,4.24976171875,5.3210078125,6.09083203125,5.74319921875,3.32950390625,9.15767578125,6.06007421875,7.0233125,8.32287109375
-30.56956640625,-15.2050234375,-20.66576171875,-6.22893359375,-8.17383984375,-8.05246484375,-7.334140625,-6.8898046875,-3.5806328125,-3.68962890625,-3.98737890625,-4.19310546875,3.644890625,0.858234375000001,-0.76239453125,-1.78646875,-6.659484375,3.98820703125,4.2560390625,1.41164453125,-0.21128125,4.28676171875,5.3300078125,6.18783203125,6.33319921875,4.96750390625,9.76667578125,6.39307421875,7.5493125,9.08787109375
-33.07056640625,-17.5040234375,-22.96976171875,-5.96093359375,-9.01083984375,-9.09346484375,-8.227140625,-7.3508046875,-3.7266328125,-4.36762890625,-4.49537890625,-4.18810546875,2.536890625,0.322234375000001,-1.30839453125,-1.88246875,-5.851484375,3.81720703125,3.7410390625,1.07964453125,0.17571875,4.03876171875,4.8810078125,5.75283203125,6.43419921875,6.37350390625,9.59567578125,6.39007421875,7.5743125,9.07787109375
-32.44856640625,-17.5080234375,-22.82576171875,-4.85493359375,-9.05383984375,-9.55046484375,-8.362140625,-7.3388046875,-3.2736328125,-4.76162890625,-4.77637890625,-4.21910546875,1.629890625,-0.337765624999999,-1.85339453125,-1.89546875,-5.446484375,3.59820703125,2.9640390625,0.51664453125,0.37071875,3.62476171875,4.1000078125,4.86183203125,6.02019921875,7.29950390625,8.71767578125,6.15007421875,7.1073125,8.30187109375
-29.03156640625,-15.2890234375,-20.35476171875,-3.42093359375,-8.36683984375,-9.50746484375,-7.839140625,-6.9388046875,-2.3156328125,-4.94462890625,-4.94737890625,-4.25010546875,0.909890625,-1.006765625,-2.41539453125,-1.90546875,-5.463484375,3.35020703125,2.0290390625,-0.22635546875,0.39671875,3.18376171875,3.1580078125,3.71683203125,5.21819921875,7.68550390625,7.37867578125,5.76707421875,6.2693125,6.97187109375
-24.58456640625,-12.0540234375,-16.87476171875,-2.42293359375,-7.45783984375,-9.31846484375,-7.060140625,-6.4008046875,-1.1886328125,-5.13962890625,-5.16237890625,-4.17710546875,0.246890625,-1.624765625,-3.02639453125,-1.95746875,-5.750484375,3.05820703125,1.0440390625,-1.00335546875,0.33271875,2.82476171875,2.2170078125,2.58383203125,4.27019921875,7.67750390625,5.92367578125,5.29507421875,5.2583125,5.43187109375
-21.42056640625,-9.5190234375,-14.21276171875,-2.46793359375,-6.98383984375,-9.37946484375,-6.520140625,-5.9958046875,-0.3456328125,-5.57062890625,-5.51637890625,-3.90710546875,-0.443109375,-2.167765625,-3.68739453125,-2.02846875,-6.054484375,2.70920703125,0.1240390625,-1.60135546875,0.30071875,2.61176171875,1.4170078125,1.72783203125,3.47019921875,7.56050390625,4.70667578125,4.78007421875,4.3113125,4.06387109375
-21.06656640625,-8.9190234375,-13.61976171875,-3.61893359375,-7.32783984375,-9.84746484375,-6.499140625,-5.8168046875,-0.135632812500001,-6.28762890625,-5.95637890625,-3.38510546875,-1.060109375,-2.606765625,-4.32339453125,-2.00646875,-6.095484375,2.35320703125,-0.5909609375,-1.80335546875,0.43971875,2.57676171875,0.8820078125,1.35283203125,3.08019921875,7.63950390625,4.00367578125,4.29907421875,3.6553125,3.20187109375
-23.33956640625,-10.2640234375,-14.98876171875,-5.30693359375,-8.32783984375,-10.50046484375,-6.862140625,-5.6578046875,-0.6286328125,-7.09562890625,-6.27037890625,-2.58710546875,-1.334109375,-2.881765625,-4.79339453125,-1.72746875,-5.641484375,2.09520703125,-0.9589609375,-1.47235546875,0.86671875,2.72276171875,0.7000078125,1.54283203125,3.24819921875,8.10950390625,3.94867578125,3.96307421875,3.4563125,3.05987109375
-26.46556640625,-12.3270234375,-16.90176171875,-6.61793359375,-9.36783984375,-10.84746484375,-7.107140625,-5.0998046875,-1.5946328125,-7.65362890625,-6.17737890625,-1.49110546875,-1.012109375,-2.936765625,-4.93939453125,-1.04246875,-4.561484375,2.04420703125,-0.8949609375,-0.61235546875,1.63071875,3.00776171875,0.8820078125,2.23083203125,3.96319921875,8.96850390625,4.50367578125,3.87307421875,3.7753125,3.66187109375
-28.23856640625,-13.4480234375,-17.55476171875,-6.81593359375,-9.76483984375,-10.43946484375,-6.683140625,-3.7868046875,-2.6336328125,-7.70062890625,-5.50037890625,-0.10710546875,-0.0681093750000001,-2.785765625,-4.68939453125,0.0745312499999999,-2.888484375,2.23520703125,-0.4409609375,0.60564453125,2.67271875,3.34176171875,1.3310078125,3.21483203125,5.05819921875,10.00050390625,5.46267578125,4.04607421875,4.5413125,4.82387109375
-27.51656640625,-12.6750234375,-16.00276171875,-5.77393359375,-9.23483984375,-9.23946484375,-5.387140625,-1.7298046875,-3.4056328125,-7.27462890625,-4.33137890625,1.45889453125,1.211890625,-2.573765625,-4.13539453125,1.44853125,-0.873484374999999,2.55520703125,0.1890390625,1.86364453125,3.81171875,3.58276171875,1.8300078125,4.19783203125,6.25119921875,10.85650390625,6.50867578125,4.38507421875,5.5553125,6.18787109375
-25.01156640625,-10.4560234375,-12.86876171875,-4.05693359375,-8.10283984375,-7.74246484375,-3.568140625,0.5811953125,-3.8206328125,-6.73862890625,-3.07437890625,2.95789453125,2.345890625,-2.560765625,-3.54839453125,2.71153125,1.043515625,2.75520703125,0.6590390625,2.77664453125,4.78271875,3.57676171875,2.1000078125,4.86783203125,7.23119921875,11.21950390625,7.30967578125,4.71107421875,6.5353125,7.34887109375
-22.76656640625,-8.3410234375,-9.95276171875,-2.60193359375,-7.10083984375,-6.73146484375,-1.960140625,2.3911953125,-4.0496328125,-6.58462890625,-2.26637890625,4.06789453125,2.885890625,-3.013765625,-3.25839453125,3.45153125,2.377515625,2.54120703125,0.6470390625,3.02464453125,5.34371875,3.21776171875,1.9130078125,4.99783203125,7.75319921875,10.97350390625,7.64067578125,4.86507421875,7.2103125,8.01687109375
-22.70756640625,-7.8990234375,-9.01476171875,-2.18393359375,-6.88783984375,-6.78346484375,-1.238140625,3.0881953125,-4.3516328125,-7.11762890625,-2.27537890625,4.54389453125,2.617890625,-4.058765625,-3.48239453125,3.41753125,2.802515625,1.73320703125,0.00803906249999997,2.49364453125,5.38671875,2.50176171875,1.2070078125,4.53383203125,7.73619921875,10.29050390625,7.47567578125,4.79407421875,7.4323125,8.11787109375
-25.34756640625,-9.6790234375,-10.63776171875,-3.01093359375,-7.63383984375,-7.91446484375,-1.624140625,2.5371953125,-4.8746328125,-8.25262890625,-3.09437890625,4.33189453125,1.611890625,-5.584765625,-4.20539453125,2.66653125,2.294515625,0.37620703125,-1.1489609375,1.33264453125,4.99771875,1.55076171875,0.1320078125,3.60883203125,7.26619921875,9.55150390625,6.98267578125,4.57207421875,7.2293125,7.79287109375
-29.54956640625,-12.9460234375,-13.97376171875,-4.69193359375,-8.97083984375,-9.59946484375,-2.807140625,1.1121953125,-5.5776328125,-9.56662890625,-4.36837890625,3.55889453125,0.124890625,-7.279765625,-5.20339453125,1.51453125,1.120515625,-1.26479296875,-2.5179609375,-0.11635546875,4.38771875,0.56576171875,-1.0169921875,2.47783203125,6.53319921875,9.14650390625,6.43267578125,4.33607421875,6.7663125,7.28787109375
-33.40756640625,-16.2750234375,-17.42976171875,-6.53293359375,-10.28883984375,-11.11746484375,-4.190140625,-0.5518046875,-6.2936328125,-10.55462890625,-5.61337890625,2.44689453125,-1.565109375,-8.751765625,-6.16639453125,0.37453125,-0.278484375,-2.82079296875,-3.7419609375,-1.46535546875,3.79171875,-0.24923828125,-1.9299921875,1.41083203125,5.74319921875,9.27750390625,6.06167578125,4.18907421875,6.2623125,6.82187109375
-35.53656640625,-18.4860234375,-19.73076171875,-7.95393359375,-11.13983984375,-11.94946484375,-5.235140625,-1.8948046875,-6.8606328125,-10.90462890625,-6.44837890625,1.23689453125,-3.257109375,-9.673765625,-6.82739453125,-0.42246875,-1.447484375,-3.94979296875,-4.5319609375,-2.40635546875,3.37471875,-0.76223828125,-2.3889921875,0.63283203125,5.07119921875,9.88550390625,6.00067578125,4.16207421875,5.9003125,6.52487109375
-35.88756640625,-19.2940234375,-20.61476171875,-8.74393359375,-11.46983984375,-11.99246484375,-5.696140625,-2.6348046875,-7.2096328125,-10.63462890625,-6.71537890625,0.17989453125,-4.810109375,-9.886765625,-7.03639453125,-0.70446875,-2.076484375,-4.45079296875,-4.7439609375,-2.76735546875,3.21371875,-0.95523828125,-2.3139921875,0.29483203125,4.65819921875,10.71850390625,6.26867578125,4.23107421875,5.7923125,6.43087109375
-35.56956640625,-19.2760234375,-20.76176171875,-9.05493359375,-11.56083984375,-11.50346484375,-5.621140625,-2.7848046875,-7.3736328125,-10.00462890625,-6.44937890625,-0.45310546875,-6.049109375,-9.412765625,-6.76039453125,-0.44346875,-2.078484375,-4.29279296875,-4.3759609375,-2.49835546875,3.32071875,-0.90223828125,-1.7499921875,0.47583203125,4.61619921875,11.48750390625,6.81567578125,4.35807421875,5.9633125,6.51887109375
-35.91956640625,-19.3090234375,-21.13876171875,-9.17493359375,-11.77283984375,-10.86346484375,-5.192140625,-2.5138046875,-7.4176328125,-9.31662890625,-5.77637890625,-0.40910546875,-6.727109375,-8.410765625,-6.04939453125,0.30853125,-1.582484375,-3.59279296875,-3.5309609375,-1.62935546875,3.67371875,-0.72023828125,-0.8229921875,1.17583203125,5.01319921875,11.99850390625,7.55667578125,4.51707421875,6.3583125,6.73887109375
-37.55956640625,-19.9430234375,-22.32076171875,-9.29393359375,-12.31683984375,-10.35246484375,-4.588140625,-2.0268046875,-7.3686328125,-8.73362890625,-4.83237890625,0.41589453125,-6.610109375,-7.099765625,-5.00339453125,1.44653125,-0.837484374999999,-2.56079296875,-2.3729609375,-0.26635546875,4.23471875,-0.51823828125,0.3020078125,2.30483203125,5.84319921875,12.19350390625,8.38067578125,4.69107421875,6.8563125,7.02087109375
-40.11456640625,-21.2110234375,-24.28776171875,-9.41893359375,-13.21583984375,-10.09446484375,-3.979140625,-1.5218046875,-7.2166328125,-8.25862890625,-3.77537890625,1.82289453125,-5.644109375,-5.722765625,-3.79639453125,2.77953125,-0.105484375,-1.45279296875,-1.1039609375,1.37864453125,4.92771875,-0.37023828125,1.4350078125,3.65783203125,6.98119921875,12.10150390625,9.14667578125,4.85607421875,7.2873125,7.26687109375
-42.72256640625,-22.9150234375,-26.74976171875,-9.47893359375,-14.43983984375,-10.18946484375,-3.628140625,-1.2238046875,-6.9866328125,-7.85162890625,-2.87437890625,3.24389453125,-4.055109375,-4.547765625,-2.70339453125,3.98253125,0.391515625000001,-0.53779296875,0.0200390625,2.95264453125,5.61571875,-0.31723828125,2.3500078125,4.92683203125,8.15619921875,11.75050390625,9.66767578125,4.95407421875,7.4673125,7.34987109375
-44.78456640625,-25.0370234375,-29.59876171875,-9.47693359375,-16.04083984375,-10.83946484375,-3.933140625,-1.3908046875,-6.8016328125,-7.55662890625,-2.52637890625,3.88189453125,-2.277109375,-3.854765625,-2.07939453125,4.63153125,0.488515625000001,-0.0747929687500002,0.7130390625,4.01364453125,6.10271875,-0.38123828125,2.7950078125,5.75683203125,8.99619921875,11.10450390625,9.73867578125,4.89207421875,7.2443125,7.13887109375
-46.29356640625,-27.8100234375,-33.00076171875,-9.52493359375,-18.13183984375,-12.28546484375,-5.274140625,-2.2318046875,-6.8506328125,-7.49862890625,-3.09937890625,3.07589453125,-0.745109375,-3.848765625,-2.22439453125,4.37253125,0.0915156250000004,-0.23279296875,0.7560390625,4.20264453125,6.20671875,-0.57023828125,2.5840078125,5.88583203125,9.18519921875,10.09050390625,9.20967578125,4.58207421875,6.5503125,6.55287109375
-47.56056640625,-31.3890234375,-37.08976171875,-9.73093359375,-20.73283984375,-14.58446484375,-7.728140625,-3.7578046875,-7.2366328125,-7.75362890625,-4.67637890625,0.69089453125,0.336890625,-4.533765625,-3.18539453125,3.14753125,-0.761484374999999,-0.99779296875,0.1310390625,3.46564453125,5.88071875,-0.86123828125,1.7170078125,5.29083203125,8.64519921875,8.69750390625,8.09567578125,4.00607421875,5.4403125,5.61187109375
-48.75156640625,-35.5010234375,-41.62876171875,-10.05493359375,-23.65083984375,-17.42746484375,-10.891140625,-5.6998046875,-7.8646328125,-8.22262890625,-6.89737890625,-2.72010546875,1.087890625,-5.639765625,-4.66439453125,1.30953125,-1.878484375,-2.12479296875,-0.9079609375,2.14264453125,5.27371875,-1.20323828125,0.4470078125,4.24383203125,7.62819921875,7.05750390625,6.62167578125,3.25507421875,4.0943125,4.45887109375
-48.75156640625,-35.5010234375,-41.62876171875,-10.05493359375,-23.65083984375,-17.42746484375,-10.891140625,-5.6998046875,-7.8646328125,-8.22262890625,-6.89737890625,-2.72010546875,1.087890625,-5.639765625,-4.66439453125,1.30953125,-1.878484375,-2.12479296875,-0.9079609375,2.14264453125,5.27371875,-1.20323828125,0.4470078125,4.24383203125,7.62819921875,7.05750390625,6.62167578125,3.25507421875,4.0943125,4.45887109375
