"Fp1","Fpz","Fp2","F7","F3","Fz","F4","F8","FC5","FC1","FC2","FC6","T7","C3","Cz","C4","T8","CP5","CP1","CP2","CP6","P7","P3","Pz","P4","P8","POz","O1","Oz","O2"
5.0626875,2.5977109375,0.8058984375,-8.0144140625,2.50379296875,4.74115234375,4.98079296875,-1.4107578125,3.7853359375,4.59063671875,4.065046875,0.49744921875,-5.9964453125,7.19002734375,11.49916796875,3.9301640625,-1.855546875,3.013140625,8.89845703125,6.6224453125,8.24016796875,-2.72265625,4.7274375,5.39880078125,1.33793359375,-1.499203125,4.43205078125,-1.41971875,-4.79981640625,-8.371171875
2.5786875,1.4367109375,-1.7101015625,-10.8304140625,0.16179296875,6.88815234375,6.39879296875,-0.3627578125,1.6133359375,3.09863671875,2.814046875,0.34444921875,-9.0014453125,5.53802734375,10.52116796875,2.0561640625,-2.022546875,-0.542859375000001,6.31545703125,4.4234453125,7.86416796875,-7.39965625,2.3964375,2.13080078125,-1.20306640625,-5.722203125,-0.786949218750001,-5.99471875,-8.46781640625,-13.508171875
-0.7863125,-1.0712890625,-5.1191015625,-13.2454140625,-2.82320703125,6.46115234375,5.88179296875,-0.985757812499999,-2.1186640625,0.23663671875,-0.0279531249999998,-1.36855078125,-11.9254453125,2.00702734375,6.87616796875,-1.6278359375,-2.846546875,-4.980859375,1.87245703125,0.0844453124999998,4.51916796875,-12.06265625,-1.5765625,-2.79819921875,-5.47606640625,-11.132203125,-6.38494921875,-10.02971875,-11.68781640625,-17.454171875
-4.7443125,-4.6762890625,-9.2601015625,-15.1094140625,-6.02020703125,3.87415234375,3.77679296875,-3.1847578125,-6.7206640625,-3.59436328125,-4.053953125,-4.39055078125,-14.5114453125,-2.90597265625,1.01516796875,-6.6698359375,-4.843546875,-9.774859375,-3.97454296875,-5.9035546875,-1.31083203125,-16.41665625,-6.7075625,-8.87819921875,-10.94206640625,-17.121203125,-11.87794921875,-13.20771875,-14.20481640625,-19.969171875
-8.5423125,-8.5472890625,-13.4701015625,-16.2834140625,-8.65920703125,0.43615234375,1.10779296875,-6.2577578125,-10.8646640625,-7.39236328125,-8.158953125,-7.82755078125,-16.4814453125,-7.91597265625,-5.50183203125,-11.8008359375,-8.340546875,-13.983859375,-9.94954296875,-12.1025546875,-7.94483203125,-20.13365625,-11.8125625,-14.83919921875,-16.28706640625,-22.417203125,-16.48894921875,-15.29771875,-15.82681640625,-21.125171875
-11.2553125,-11.6212890625,-16.7501015625,-16.6124140625,-10.01620703125,-2.34484765625,-0.98620703125,-9.1787578125,-13.2906640625,-10.01736328125,-11.068953125,-10.56455078125,-17.6854453125,-11.56097265625,-10.70283203125,-15.5308359375,-13.129546875,-16.725859375,-14.53154296875,-16.7795546875,-13.30483203125,-22.91965625,-15.5665625,-19.24119921875,-20.05306640625,-25.623203125,-19.51094921875,-16.27071875,-16.52381640625,-21.267171875
-12.2083125,-13.0652890625,-18.1671015625,-15.9934140625,-9.79720703125,-3.43184765625,-1.76720703125,-10.9737578125,-13.4006640625,-10.71536328125,-11.946953125,-11.77555078125,-18.1964453125,-12.87197265625,-13.06783203125,-16.8568359375,-18.268546875,-17.568859375,-16.62454296875,-18.6895546875,-15.84683203125,-24.49865625,-17.1055625,-21.11519921875,-21.31906640625,-25.863203125,-20.64094921875,-16.35671875,-16.49981640625,-20.920171875
-11.3323125,-12.6452890625,-17.3191015625,-14.5304140625,-8.31620703125,-2.66484765625,-1.20620703125,-11.1107578125,-11.5026640625,-9.47936328125,-10.784953125,-11.29155078125,-18.2984453125,-11.79697265625,-12.16283203125,-15.7368359375,-22.243546875,-16.693859375,-16.02054296875,-17.6285546875,-15.17683203125,-24.63665625,-16.3745625,-20.37219921875,-20.09506640625,-23.235203125,-20.10794921875,-15.97371875,-16.14781640625,-20.633171875
-9.2583125,-10.8572890625,-14.6081015625,-12.6464140625,-6.40720703125,-0.78084765625,0.0427929687499998,-9.7537578125,-8.6696640625,-7.10036328125,-8.406953125,-9.64255078125,-18.3774453125,-9.24197265625,-8.80683203125,-13.0878359375,-23.581546875,-14.817859375,-13.48354296875,-14.5035546875,-12.13883203125,-23.32765625,-14.1355625,-17.81119921875,-17.29306640625,-18.863203125,-18.56794921875,-15.54271875,-15.87981640625,-20.799171875
-7.0883125,-8.7382890625,-11.1721015625,-11.0094140625,-5.11120703125,0.93515234375,0.96979296875,-7.6937578125,-6.3296640625,-4.88636328125,-6.107953125,-7.75755078125,-18.7674453125,-6.73297265625,-4.73583203125,-10.3578359375,-21.664546875,-12.947859375,-10.45554296875,-10.9385546875,-8.37583203125,-21.01665625,-11.6505625,-14.77919921875,-14.32706640625,-14.545203125,-16.85294921875,-15.31171875,-15.94181640625,-21.523171875
-5.9493125,-7.4352890625,-8.4641015625,-10.2734140625,-5.27720703125,1.26815234375,0.73279296875,-5.9477578125,-5.7276640625,-4.15236328125,-5.121953125,-6.50555078125,-19.6204453125,-5.80597265625,-1.91083203125,-8.8908359375,-17.267546875,-12.049859375,-8.49854296875,-8.6105546875,-5.62383203125,-18.61265625,-10.1825625,-12.64819921875,-12.54506640625,-12.083203125,-15.70794921875,-15.29971875,-16.33881640625,-22.614171875
-6.5643125,-7.7352890625,-7.6791015625,-10.7724140625,-7.19420703125,-0.35984765625,-0.94620703125,-5.2757578125,-7.4126640625,-5.65336328125,-6.127953125,-6.33155078125,-20.8594453125,-7.36597265625,-1.74483203125,-9.4068359375,-12.404546875,-12.691859375,-8.69454296875,-8.5995546875,-5.04783203125,-17.15365625,-10.5085625,-12.31419921875,-12.71506640625,-12.547203125,-15.57094921875,-15.36671875,-16.89081640625,-23.696171875
-8.9783125,-9.7482890625,-9.2531015625,-12.3204140625,-10.40620703125,-3.63484765625,-3.65920703125,-5.8927578125,-10.9706640625,-9.20336328125,-8.972953125,-7.13155078125,-22.2124453125,-11.26097265625,-4.54583203125,-11.7598359375,-9.411546875,-14.788859375,-11.21654296875,-11.0135546875,-6.84883203125,-17.27365625,-12.6435625,-13.89919921875,-14.74206640625,-15.732203125,-16.46094921875,-15.34871875,-17.33981640625,-24.362171875
-12.5143125,-12.8462890625,-12.6521015625,-14.2344140625,-13.83220703125,-7.48484765625,-6.48420703125,-7.4657578125,-15.1386640625,-13.67936328125,-12.711953125,-8.38755078125,-23.3094453125,-16.30097265625,-9.38883203125,-15.0588359375,-9.725546875,-17.595859375,-15.24554296875,-14.9835546875,-10.23683203125,-18.80265625,-15.8515625,-16.75119921875,-17.74106640625,-20.153203125,-17.99194921875,-15.14671875,-17.46781640625,-24.323171875
-15.9813125,-15.8832890625,-16.5531015625,-15.5734140625,-16.19520703125,-10.48484765625,-8.31620703125,-9.3057578125,-18.3226640625,-17.43236328125,-15.948953125,-9.44455078125,-23.8124453125,-20.71497265625,-14.47483203125,-18.0478359375,-13.088546875,-19.979859375,-19.28854296875,-19.0385546875,-13.80683203125,-20.78065625,-18.9395625,-19.72619921875,-20.42806640625,-23.732203125,-19.51994921875,-14.74871875,-17.14781640625,-23.514171875
-18.0603125,-17.5942890625,-19.3601015625,-15.5154140625,-16.54820703125,-11.40984765625,-8.27120703125,-10.6797578125,-19.2816640625,-18.93836328125,-17.363953125,-9.79355078125,-23.5254453125,-22.84997265625,-17.81983203125,-19.5958359375,-17.703546875,-20.874859375,-21.75454296875,-21.6755546875,-16.16483203125,-21.90665625,-20.7015625,-21.62519921875,-21.68006640625,-24.873203125,-20.37194921875,-14.17471875,-16.35581640625,-22.102171875
-17.7723125,-17.0672890625,-19.8221015625,-13.6894140625,-14.65420703125,-9.73384765625,-6.07520703125,-11.1017578125,-17.6706640625,-17.39136328125,-16.203953125,-9.25155078125,-22.4684453125,-21.81497265625,-17.99183203125,-19.0868359375,-21.257546875,-19.712859375,-21.55254296875,-21.9045546875,-16.51683203125,-21.20165625,-20.3565625,-21.61219921875,-20.97906640625,-23.311203125,-20.06994921875,-13.42271875,-15.13781640625,-20.400171875
-14.8523125,-14.0942890625,-17.4971015625,-10.3354140625,-11.04820703125,-5.86784765625,-2.25220703125,-10.4967578125,-14.1606640625,-13.01236328125,-12.578953125,-7.96055078125,-20.8664453125,-17.79997265625,-14.62783203125,-16.5828359375,-22.187546875,-16.667859375,-18.49354296875,-19.5435546875,-14.92683203125,-18.52665625,-17.8325625,-19.48319921875,-18.55706640625,-20.156203125,-18.49194921875,-12.47171875,-13.61281640625,-18.739171875
-9.8753125,-9.2692890625,-12.8851015625,-6.2144140625,-6.80120703125,-0.97384765625,2.06179296875,-9.1257578125,-10.0766640625,-6.96036328125,-7.422953125,-6.24755078125,-19.0674453125,-11.96297265625,-8.53583203125,-12.7098359375,-20.424546875,-12.583859375,-13.31754296875,-15.1975546875,-12.10483203125,-14.66065625,-13.7815625,-15.69519921875,-15.19006640625,-17.103203125,-15.90594921875,-11.35871875,-11.98181640625,-17.377171875
-4.0753125,-3.7832890625,-7.2211015625,-2.3154140625,-3.07520703125,3.55615234375,5.61479296875,-7.3657578125,-6.7306640625,-0.87036328125,-2.138953125,-4.43055078125,-17.3934453125,-5.92297265625,-1.36883203125,-8.3598359375,-17.183546875,-8.592859375,-7.38154296875,-9.9525546875,-8.92883203125,-10.85565625,-9.2895625,-11.14119921875,-11.77506640625,-15.352203125,-12.85194921875,-10.22271875,-10.49481640625,-16.428171875
1.1006875,1.0117109375,-2.0101015625,0.5115859375,-0.64220703125,6.65415234375,7.55279296875,-5.5317578125,-4.7896640625,3.76763671875,1.943046875,-2.68555078125,-16.0004453125,-1.10497265625,4.97816796875,-4.3638359375,-14.016546875,-5.600859375,-2.10454296875,-4.9605546875,-6.02683203125,-8.15165625,-5.4035625,-6.77619921875,-8.91506640625,-14.939203125,-9.88894921875,-9.23171875,-9.32781640625,-15.817171875
4.5226875,4.0637109375,1.4778984375,1.8695859375,0.391792968750001,7.89615234375,7.68979296875,-3.8337578125,-4.0526640625,6.11763671875,4.038046875,-1.06055078125,-14.8554453125,1.73802734375,8.98416796875,-1.2908359375,-11.821546875,-3.934859375,1.50445703125,-1.0965546875,-3.65583203125,-6.93165625,-2.7485625,-3.30119921875,-6.75406640625,-14.887203125,-7.37894921875,-8.43771875,-8.46481640625,-15.279171875
5.7496875,4.9337109375,2.5768984375,1.9155859375,0.489792968750001,7.51515234375,6.45379296875,-2.3977578125,-3.7626640625,6.16063671875,4.091046875,0.406449218750001,-13.8554453125,2.61102734375,9.89616796875,0.581164062499999,-10.476546875,-3.384859375,3.06345703125,1.1654453125,-1.85483203125,-7.00265625,-1.4335625,-1.06119921875,-5.11806640625,-13.998203125,-5.44794921875,-7.73271875,-7.71781640625,-14.491171875
5.0816875,3.8717109375,1.3498984375,1.2085859375,0.285792968750001,6.18015234375,4.60179296875,-1.2907578125,-3.2456640625,4.50563671875,2.649046875,1.59544921875,-13.0104453125,2.00902734375,7.85016796875,1.2081640625,-9.248546875,-3.547859375,2.72545703125,1.7304453125,-0.637832031250001,-8.01065625,-1.2375625,-0.138199218749998,-3.80506640625,-11.685203125,-4.12794921875,-6.98071875,-6.92781640625,-13.298171875
3.3466875,1.6677109375,-1.4961015625,0.423585937499999,0.20179296875,4.68315234375,2.88979296875,-0.5357578125,-2.3906640625,2.06363671875,0.577046875000001,2.36144921875,-12.5124453125,0.57102734375,3.77216796875,0.764164062499999,-7.532546875,-4.137859375,1.00045703125,0.8344453125,-0.038832031250001,-9.70465625,-1.8505625,-0.460199218749997,-2.78206640625,-8.340203125,-3.49894921875,-6.21771875,-6.17181640625,-11.881171875
1.5636875,-0.6112890625,-4.8251015625,0.0995859374999988,0.337792968750001,3.66315234375,1.82679296875,-0.0967578124999999,-1.6356640625,-0.21936328125,-1.204953125,2.70544921875,-12.5914453125,-1.10097265625,-0.86883203125,-0.317835937500002,-5.354546875,-5.024859375,-1.36754296875,-0.9665546875,-0.0108320312500005,-11.78965625,-2.9645625,-1.79619921875,-2.16406640625,-5.096203125,-3.66794921875,-5.69671875,-5.79081640625,-10.721171875
0.6596875,-1.9292890625,-7.3771015625,0.5435859375,0.633792968750001,3.50115234375,1.64179296875,0.165242187500001,-1.4806640625,-1.52436328125,-1.911953125,2.90844921875,-13.2304453125,-2.43097265625,-4.43183203125,-1.3558359375,-3.343546875,-6.014859375,-3.47754296875,-2.8465546875,-0.326832031250001,-13.64765625,-4.2105625,-3.67219921875,-2.04606640625,-3.211203125,-4.59894921875,-5.72671875,-6.18781640625,-10.374171875
1.2306875,-1.5712890625,-8.1411015625,1.8435859375,1.08879296875,4.35115234375,2.37779296875,0.5022421875,-1.9756640625,-1.27236328125,-1.053953125,3.45344921875,-13.9924453125,-2.83997265625,-5.59083203125,-1.6098359375,-2.267546875,-6.682859375,-4.42354296875,-3.8995546875,-0.612832031250001,-14.33965625,-5.1045625,-5.38219921875,-2.34606640625,-3.424203125,-5.97794921875,-6.42571875,-7.53181640625,-11.183171875
3.3576875,0.6167109375,-6.7271015625,3.8755859375,1.81879296875,6.15215234375,3.94279296875,1.1562421875,-2.6136640625,0.71163671875,1.397046875,4.73444921875,-14.1884453125,-1.89897265625,-3.80683203125,-0.612835937500002,-2.500546875,-6.492859375,-3.60054296875,-3.4865546875,-0.578832031250001,-13.08065625,-5.1815625,-6.20619921875,-2.81206640625,-5.634203125,-7.26394921875,-7.58671875,-9.57181640625,-13.066171875
6.4996875,4.1117109375,-3.5801015625,6.2885859375,2.89679296875,8.54715234375,6.02379296875,2.1032421875,-2.7346640625,4.03663671875,4.904046875,6.70244921875,-13.3394453125,0.36602734375,0.38716796875,1.4961640625,-3.800546875,-5.179859375,-1.05254296875,-1.5875546875,-0.29783203125,-9.91065625,-4.2965625,-5.77719921875,-3.21906640625,-9.050203125,-7.93894921875,-8.77071875,-11.68881640625,-15.481171875
9.5936875,7.8087109375,0.104898437499999,8.5165859375,4.13179296875,10.82815234375,8.00379296875,2.8942421875,-2.1046640625,7.71263671875,8.428046875,8.71544921875,-11.6284453125,3.24902734375,5.46716796875,3.8851640625,-5.478546875,-3.114859375,2.36945703125,1.0634453125,-0.298832031250001,-6.04265625,-2.8465625,-4.35219921875,-3.56706640625,-12.630203125,-7.79994921875,-9.54571875,-13.16881640625,-17.608171875
11.4246875,10.3907109375,2.8138984375,9.9275859375,5.02279296875,12.13415234375,9.10679296875,2.8162421875,-1.1506640625,10.42363671875,10.754046875,9.76744921875,-9.9464453125,5.50902734375,9.44816796875,5.3371640625,-6.794546875,-1.278859375,5.25645703125,3.2454453125,-1.27283203125,-3.46165625,-1.6765625,-2.74119921875,-4.09106640625,-15.480203125,-7.06694921875,-9.71571875,-13.53281640625,-18.697171875
11.1606875,10.8767109375,3.3628984375,10.0945859375,5.01679296875,11.86015234375,8.76579296875,1.3492421875,-0.6286640625,11.08763671875,11.024046875,9.05244921875,-9.4054453125,5.94802734375,10.71416796875,4.8901640625,-7.244546875,-0.742859375,6.30045703125,3.8664453125,-3.49383203125,-3.82765625,-1.6025625,-1.85519921875,-4.99606640625,-16.961203125,-6.18794921875,-9.34871875,-12.71681640625,-18.368171875
8.8126875,9.1137109375,1.4848984375,9.0685859375,3.94079296875,10.02715234375,6.96879296875,-1.3947578125,-0.9946640625,9.43863671875,9.202046875,6.55444921875,-10.6124453125,4.12102734375,8.79116796875,2.4521640625,-6.582546875,-1.941859375,5.02145703125,2.6024453125,-6.38083203125,-7.32765625,-2.8505625,-2.12919921875,-6.13506640625,-16.622203125,-5.48694921875,-8.63071875,-11.01081640625,-16.708171875
5.3126875,5.8927109375,-1.9861015625,7.4385859375,2.23679296875,7.34515234375,4.33579296875,-4.5727578125,-2.0336640625,6.24163671875,6.188046875,3.22844921875,-13.2404453125,0.68202734375,4.62516796875,-1.0298359375,-4.778546875,-4.304859375,2.09245703125,0.1344453125,-8.62683203125,-12.32865625,-4.8215625,-3.23719921875,-6.93606640625,-14.242203125,-4.94494921875,-7.70471875,-8.86881640625,-14.171171875
2.0816875,2.5987109375,-5.5001015625,6.0735859375,0.766792968750001,4.91215234375,1.87779296875,-6.9677578125,-3.0356640625,2.93763671875,3.423046875,0.58844921875,-16.2254453125,-2.90997265625,0.16516796875,-4.0068359375,-2.102546875,-6.552859375,-0.998542968750002,-2.1985546875,-8.88483203125,-16.20065625,-6.4135625,-4.31219921875,-6.71106640625,-10.055203125,-4.30094921875,-6.64571875,-6.76981640625,-11.415171875
0.3256875,0.5487109375,-7.5621015625,5.6435859375,0.29679296875,3.72015234375,0.55279296875,-7.5937578125,-3.3596640625,0.93463671875,2.201046875,-0.0805507812499995,-18.4454453125,-5.15897265625,-2.56483203125,-5.1278359375,0.682453125,-7.475859375,-2.75254296875,-3.1255546875,-6.59783203125,-16.80465625,-6.6935625,-4.51619921875,-5.13106640625,-4.973203125,-3.37194921875,-5.55871875,-5.14581640625,-9.139171875
0.4696875,0.3967109375,-7.4371015625,6.2275859375,1.07079296875,4.19915234375,0.83179296875,-6.2147578125,-2.8736640625,0.95563671875,3.065046875,1.60044921875,-19.3734453125,-5.27897265625,-2.38983203125,-3.9058359375,2.387453125,-6.649859375,-2.42554296875,-2.1085546875,-2.41083203125,-13.70065625,-5.4525625,-3.54019921875,-2.53506640625,-0.480203125000001,-2.28894921875,-4.62871875,-4.32381640625,-7.894171875
2.0636875,1.9197109375,-5.3911015625,7.2735859375,2.70979296875,6.02715234375,2.48679296875,-3.4467578125,-1.9786640625,2.80163671875,5.602046875,4.92044921875,-19.2964453125,-3.49997265625,0.56116796875,-0.915835937500002,1.898453125,-4.650859375,-0.329542968750001,0.4234453125,2.07816796875,-8.36665625,-3.3265625,-1.76119921875,0.15893359375,1.895796875,-1.48194921875,-4.05671875,-4.42781640625,-7.897171875
4.1296875,4.2377109375,-2.4241015625,7.9435859375,4.44879296875,8.33515234375,4.74079296875,-0.403757812499999,-1.3046640625,5.55563671875,8.695046875,8.48244921875,-19.0324453125,-0.86197265625,5.01216796875,2.5301640625,-1.099546875,-2.700859375,2.41145703125,3.3314453125,5.08816796875,-3.41565625,-1.4395625,-0.00619921874999818,1.86993359375,1.304796875,-1.43394921875,-3.94271875,-5.31981640625,-8.933171875
5.6766875,6.3017109375,0.2698984375,7.6025859375,5.50379296875,10.16515234375,6.67579296875,1.8562421875,-1.3696640625,8.05063671875,11.068046875,10.90144921875,-19.3894453125,1.33902734375,9.18816796875,5.0091640625,-5.711546875,-2.006859375,4.45645703125,5.3254453125,5.50216796875,-1.29365625,-0.820562499999999,0.880800781250002,1.86693359375,-1.940203125,-2.41294921875,-4.23371875,-6.63981640625,-10.446171875
6.0756875,7.3277109375,1.8018984375,6.1315859375,5.39179296875,10.89715234375,7.65479296875,2.7272421875,-2.3916640625,9.37263671875,11.855046875,11.41144921875,-20.7054453125,2.12302734375,11.58916796875,5.5921640625,-10.117546875,-3.154859375,4.88445703125,5.5264453125,3.33716796875,-3.08365625,-1.8845625,0.438800781250002,0.0999335937500003,-6.436203125,-4.30494921875,-4.76771875,-7.95181640625,-11.786171875
5.1836875,7.0107109375,1.8318984375,3.9305859375,4.11179296875,10.42115234375,7.50179296875,2.1322421875,-4.2386640625,9.16863671875,10.918046875,10.08744921875,-22.6774453125,1.20302734375,11.53316796875,4.1471640625,-12.505546875,-5.837859375,3.56045703125,3.7804453125,-0.394832031250001,-7.97265625,-4.2345625,-1.22319921875,-2.82306640625,-10.355203125,-6.63394921875,-5.35171875,-8.90281640625,-12.488171875
3.2586875,5.4957109375,0.5358984375,1.6435859375,2.08779296875,9.02115234375,6.43379296875,0.376242187500001,-6.4806640625,7.66963671875,8.772046875,7.61844921875,-24.5394453125,-0.99297265625,9.25016796875,1.2391640625,-12.132546875,-9.034859375,1.09245703125,0.5994453125,-4.31083203125,-13.64165625,-6.8685625,-3.54319921875,-5.97106640625,-12.341203125,-8.77194921875,-5.83271875,-9.36581640625,-12.459171875
0.7736875,3.1897109375,-1.6201015625,-0.185414062500001,-0.0942070312499999,7.12415234375,4.83279296875,-2.0537578125,-8.5466640625,5.42763671875,6.192046875,4.84744921875,-25.4614453125,-3.62697265625,5.56216796875,-2.2748359375,-9.799546875,-11.540859375,-1.58354296875,-3.1765546875,-7.35983203125,-17.43765625,-8.6945625,-5.84919921875,-8.56806640625,-12.132203125,-10.24294921875,-6.14671875,-9.49081640625,-12.027171875
-1.7653125,0.5687109375,-4.1131015625,-1.3424140625,-1.98820703125,5.06615234375,3.02279296875,-4.6517578125,-9.9276640625,2.98463671875,3.789046875,2.36544921875,-24.9544453125,-5.87097265625,1.42116796875,-5.6488359375,-7.394546875,-12.535859375,-3.68454296875,-6.7605546875,-9.19183203125,-17.69665625,-9.0575625,-7.68819921875,-10.30206640625,-10.566203125,-10.94694921875,-6.32371875,-9.63281640625,-11.783171875
-3.9043125,-1.9142890625,-6.4461015625,-1.9204140625,-3.39320703125,3.02315234375,1.17679296875,-6.9797578125,-10.3106640625,0.70863671875,1.828046875,0.390449218750001,-23.0354453125,-7.18897265625,-2.37483203125,-8.4128359375,-6.733546875,-11.851859375,-4.83754296875,-9.5945546875,-10.02983203125,-14.45065625,-7.9595625,-8.90919921875,-11.29606640625,-8.996203125,-11.11294921875,-6.41171875,-10.13181640625,-12.237171875
-5.2283125,-3.8122890625,-8.1101015625,-2.0704140625,-4.23420703125,1.14315234375,-0.58220703125,-8.6577578125,-9.5706640625,-1.11136328125,0.372046875000001,-1.03455078125,-20.0784453125,-7.34597265625,-5.20083203125,-10.2628359375,-8.420546875,-9.834859375,-4.98954296875,-11.2955546875,-10.22483203125,-9.16565625,-5.8865625,-9.50519921875,-11.79906640625,-8.481203125,-11.02494921875,-6.38371875,-11.07681640625,-13.470171875
-5.3383125,-4.6432890625,-8.5761015625,-1.7264140625,-4.36020703125,-0.23184765625,-1.96620703125,-9.3237578125,-7.6926640625,-2.09536328125,-0.452953125,-1.79355078125,-16.5344453125,-6.27997265625,-6.51983203125,-10.8988359375,-11.443546875,-6.991859375,-4.18154296875,-11.5385546875,-9.87283203125,-3.82365625,-3.4215625,-9.39819921875,-11.85506640625,-9.213203125,-10.75294921875,-6.11571875,-12.21781640625,-15.025171875
-3.9223125,-3.9712890625,-7.4371015625,-0.5404140625,-3.48920703125,-0.50984765625,-2.45220703125,-8.6417578125,-4.7576640625,-1.75036328125,-0.336953125,-1.59955078125,-12.7514453125,-4.01197265625,-5.89683203125,-10.0038359375,-13.758546875,-3.728859375,-2.42054296875,-10.0685546875,-8.73683203125,0.0483437500000008,-0.9375625,-8.39619921875,-11.19906640625,-10.450203125,-10.10394921875,-5.48071875,-13.09381640625,-16.134171875
-0.9453125,-1.6222890625,-4.6401015625,1.8595859375,-1.36420703125,0.89215234375,-1.49920703125,-6.4417578125,-1.0296640625,0.31563671875,1.088046875,-0.16855078125,-8.9694453125,-0.70197265625,-3.18183203125,-7.4298359375,-13.484546875,-0.308859375000001,0.259457031249998,-6.8765546875,-6.49483203125,1.89834375,1.4734375,-6.35319921875,-9.44406640625,-10.940203125,-8.80294921875,-4.47571875,-13.28481640625,-16.128171875
3.1556875,2.0817109375,-0.664101562500001,5.4425859375,1.96879296875,4.09515234375,1.06379296875,-2.8917578125,2.9273359375,4.04763671875,3.934046875,2.49044921875,-5.4504453125,3.22002734375,1.26316796875,-3.4378359375,-9.992546875,3.003140625,3.61545703125,-2.3945546875,-3.08583203125,2.09434375,3.8434375,-3.39819921875,-6.42606640625,-9.582203125,-6.76594921875,-3.26471875,-12.61581640625,-14.769171875
7.4256875,6.2537109375,3.5168984375,9.5015859375,5.92579296875,8.46815234375,4.76879296875,1.4302421875,6.2623359375,8.69563671875,7.759046875,5.84944921875,-2.5814453125,6.99002734375,6.45216796875,1.1521640625,-4.264546875,5.798140625,7.05645703125,2.4374453125,1.05216796875,1.46534375,6.1064375,-0.0781992187499974,-2.49906640625,-6.042203125,-4.27694921875,-2.11771875,-11.23381640625,-12.358171875
10.6286875,9.6717109375,6.7078984375,12.7905859375,9.42879296875,12.73915234375,8.58779296875,5.6552421875,8.0693359375,12.91263671875,11.536046875,8.91044921875,-0.848445312500001,9.64702734375,10.94216796875,5.0901640625,1.606453125,7.520140625,9.70245703125,6.3404453125,4.99716796875,0.748343750000002,7.9674375,2.71980078125,1.41893359375,-1.063203125,-1.95994921875,-1.28671875,-9.54981640625,-9.594171875
11.7136875,11.2377109375,7.9208984375,14.0745859375,11.30479296875,15.47415234375,11.32379296875,8.8812421875,7.7993359375,15.23563671875,13.986046875,10.53644921875,-0.623445312500001,10.37702734375,13.29416796875,7.0971640625,5.429453125,7.693140625,10.68445703125,8.1064453125,7.61316796875,0.259343750000001,8.9834375,4.07180078125,4.11993359375,3.719796875,-0.520949218750001,-0.871718749999999,-8.05081640625,-7.259171875
10.2996875,10.4757109375,6.7888984375,12.8245859375,10.85779296875,15.70815234375,12.11979296875,10.4712421875,5.5923359375,14.75563671875,14.168046875,9.95644921875,-1.8734453125,8.90302734375,12.66516796875,6.4251640625,5.887453125,6.207140625,9.56245703125,7.1004453125,8.01016796875,-0.10465625,8.8174375,3.44980078125,4.63093359375,6.451796875,-0.386949218750001,-0.746718749999999,-7.06381640625,-5.882171875
6.9096875,7.7967109375,3.7438984375,9.6205859375,8.25879296875,13.40715234375,10.85379296875,10.2952421875,2.2853359375,11.57863671875,11.978046875,7.15244921875,-4.0114453125,5.67802734375,9.23416796875,3.2681640625,3.098453125,3.500140625,6.61245703125,3.6094453125,6.01016796875,-0.619656249999998,7.5034375,1.02180078125,2.72193359375,5.984796875,-1.46094921875,-0.623718749999998,-6.61381640625,-5.543171875
2.7886875,4.3597109375,-0.135101562500001,5.9755859375,4.48879296875,9.52015234375,8.19579296875,8.8092421875,-0.940664062500001,6.80463671875,8.245046875,2.91744921875,-6.0584453125,1.75302734375,4.19016796875,-1.2148359375,-1.454546875,0.459140625,2.79245703125,-1.1705546875,2.38316796875,-1.44865625,5.5224375,-2.34419921875,-0.89006640625,2.551796875,-3.14994921875,-0.230718749999999,-6.46581640625,-5.938171875
-0.6283125,1.5627109375,-3.5581015625,3.6035859375,0.90879296875,5.53915234375,5.27179296875,6.8942421875,-3.0546640625,2.05463671875,4.355046875,-1.46955078125,-7.0424453125,-1.61497265625,-0.72983203125,-5.3498359375,-5.630546875,-1.897859375,-0.629542968750001,-5.5665546875,-1.38283203125,-2.49165625,3.6264375,-5.43119921875,-4.79706640625,-2.251203125,-4.65594921875,0.513281250000002,-6.32381640625,-6.606171875
-2.3033125,0.4247109375,-5.5021015625,3.5585859375,-1.29320703125,2.81015234375,3.11279296875,5.4812421875,-3.5246640625,-1.19136328125,1.628046875,-4.76955078125,-6.4194453125,-3.41397265625,-3.93683203125,-7.6518359375,-7.687546875,-2.788859375,-2.56854296875,-8.1015546875,-3.75183203125,-3.36865625,2.5204375,-7.17119921875,-7.52706640625,-6.276203125,-5.34194921875,1.45328125,-6.01581640625,-7.165171875
-1.9073125,1.2137109375,-5.5161015625,5.7915859375,-1.48820703125,2.00815234375,2.26979296875,5.2152421875,-2.3716640625,-2.08036328125,0.819046875000001,-6.23255078125,-4.2414453125,-3.17197265625,-4.54783203125,-7.4178359375,-7.087546875,-1.906859375,-2.49254296875,-8.0355546875,-3.87783203125,-3.54765625,2.5994375,-7.04319921875,-8.18906640625,-7.951203125,-4.95994921875,2.33528125,-5.54581640625,-7.406171875
0.2386875,3.5007109375,-3.7391015625,9.3395859375,0.276792968750001,3.08215234375,2.78779296875,6.3092421875,-0.00866406250000029,-0.54436328125,1.975046875,-5.74655078125,-1.0614453125,-1.00897265625,-2.57083203125,-4.9108359375,-4.542546875,0.544140625000001,-0.521542968750001,-5.5645546875,-1.96483203125,-2.57065625,3.8644375,-5.17519921875,-6.78106640625,-7.036203125,-3.65494921875,2.98528125,-5.01281640625,-7.265171875
3.4486875,6.4947109375,-0.724101562500001,12.9225859375,3.40579296875,5.51715234375,4.40879296875,8.5932421875,2.9803359375,2.83263671875,4.610046875,-3.73255078125,2.2715546875,2.47802734375,1.27216796875,-1.1248359375,-1.345546875,3.942140625,2.71445703125,-1.6095546875,0.959167968749999,-0.35165625,5.9844375,-2.18919921875,-4.06306640625,-4.582203125,-1.81594921875,3.38628125,-4.51581640625,-6.766171875
6.9346875,9.3997109375,2.7698984375,15.5125859375,6.99479296875,8.61815234375,6.72279296875,11.5712421875,5.9543359375,7.08363671875,7.986046875,-0.91755078125,4.8155546875,6.39502734375,5.89816796875,2.6941640625,1.424453125,7.400140625,6.32445703125,2.5924453125,3.62816796875,2.62934375,8.4094375,1.07780078125,-1.13906640625,-2.214203125,0.0920507812499984,3.61128125,-4.12381640625,-6.005171875
9.9626875,11.6077109375,5.9458984375,16.6215859375,10.08979296875,11.66015234375,9.20979296875,14.5092421875,8.2723359375,11.11463671875,11.333046875,1.87244921875,5.7755546875,9.74902734375,10.18616796875,5.4951640625,3.256453125,9.969140625,9.40645703125,5.9124453125,5.10716796875,5.41634375,10.5114375,3.83580078125,1.01193359375,-1.226203125,1.66105078125,3.69628125,-3.88881640625,-5.143171875
11.9566875,12.7757109375,8.1048984375,16.3335859375,11.90879296875,13.98415234375,11.28679296875,16.6212421875,9.3583359375,13.94863671875,13.963046875,3.89144921875,4.8075546875,11.68702734375,13.20816796875,6.6961640625,4.003453125,10.907140625,11.24645703125,7.6334453125,5.06916796875,6.98234375,11.7444375,5.52780078125,1.84793359375,-2.018203125,2.61905078125,3.59328125,-3.86081640625,-4.380171875
12.5866875,12.8347109375,8.7878984375,15.1315859375,12.02079296875,15.08115234375,12.41079296875,17.3422421875,8.8683359375,14.92663671875,15.348046875,4.62944921875,2.2415546875,11.72702734375,14.37616796875,6.2521640625,3.548453125,9.927140625,11.46245703125,7.5714453125,3.75516796875,6.72934375,11.8024375,5.92580078125,1.35893359375,-4.079203125,2.86305078125,3.23228125,-4.06481640625,-3.882171875
11.8356875,11.9507109375,7.9008984375,13.6215859375,10.45979296875,14.65215234375,12.19379296875,16.5272421875,6.8693359375,13.86963671875,15.204046875,3.91744921875,-1.0194453125,9.92002734375,13.52416796875,4.5671640625,1.796453125,7.319140625,10.07145703125,6.0284453125,1.74916796875,4.76634375,10.6994375,5.13180078125,-0.0520664062500007,-6.396203125,2.44705078125,2.60728125,-4.47181640625,-3.726171875
9.9936875,10.4527109375,5.7648984375,12.2635859375,7.71279296875,12.64715234375,10.48379296875,14.4822421875,3.9073359375,11.11263671875,13.565046875,1.93944921875,-3.9174453125,6.82902734375,10.91616796875,2.3001640625,-1.005546875,3.834140625,7.44645703125,3.6154453125,-0.295832031250001,1.80434375,8.7234375,3.48180078125,-1.80506640625,-8.002203125,1.52205078125,1.81128125,-5.00781640625,-3.889171875
7.5696875,8.7327109375,3.0288984375,11.2655859375,4.56579296875,9.32915234375,7.46579296875,11.8492421875,0.8453359375,7.40463671875,10.796046875,-0.83755078125,-5.7234453125,3.32402734375,7.17716796875,0.145164062499999,-4.038546875,0.398140625,4.21145703125,1.0134453125,-1.85983203125,-1.23665625,6.3194375,1.41280078125,-3.39406640625,-8.383203125,0.272050781249998,1.00228125,-5.57681640625,-4.290171875
5.1356875,7.1587109375,0.461898437499999,10.6345859375,1.84079296875,5.35515234375,3.75379296875,9.4102421875,-1.4726640625,3.69263671875,7.530046875,-3.79755078125,-6.2644453125,0.29902734375,3.15916796875,-1.3618359375,-6.146546875,-2.204859375,1.08045703125,-1.2095546875,-2.67783203125,-3.62365625,3.9734375,-0.658199218749997,-4.52706640625,-7.601203125,-1.11494921875,0.354281250000001,-6.08381640625,-4.820171875
3.1746875,5.9887109375,-1.3001015625,10.3005859375,0.16979296875,1.70015234375,0.31879296875,7.8062421875,-2.5266640625,0.86263671875,4.532046875,-6.33555078125,-5.8064453125,-1.58297265625,-0.24283203125,-1.9538359375,-6.458546875,-3.522859375,-1.28254296875,-2.6885546875,-2.74383203125,-4.98065625,2.1354375,-2.36619921875,-5.12206640625,-6.116203125,-2.42194921875,0.0382812500000007,-6.41681640625,-5.322171875
1.9826875,5.3427109375,-1.9361015625,10.2275859375,-0.140207031249999,-0.61584765625,-1.79620703125,7.2712421875,-2.2266640625,-0.46436328125,2.533046875,-8.01155078125,-4.7544453125,-2.01297265625,-2.26683203125,-1.6538359375,-4.902546875,-3.454859375,-2.38854296875,-3.2605546875,-2.22283203125,-5.19765625,1.1684375,-3.40719921875,-5.21006640625,-4.440203125,-3.38294921875,0.208281250000001,-6.44081640625,-5.580171875
1.6746875,5.2207109375,-1.4701015625,10.4655859375,0.861792968750001,-0.89484765625,-1.88220703125,7.5362421875,-0.8256640625,-0.0753632812499996,2.024046875,-8.65655078125,-3.4254453125,-1.05297265625,-2.47083203125,-0.723835937500001,-2.202546875,-2.166859375,-2.02954296875,-2.9395546875,-1.31183203125,-4.25065625,1.2804375,-3.55319921875,-4.84006640625,-2.830203125,-3.71894921875,0.955281250000002,-6.02581640625,-5.367171875
2.2176875,5.5517109375,-0.186101562500001,11.1305859375,2.76979296875,0.94015234375,0.11479296875,7.9892421875,1.2163359375,1.77463671875,3.055046875,-8.42355078125,-2.0344453125,0.91202734375,-0.89283203125,0.402164062499999,0.568453125,-0.0328593749999992,-0.377542968750001,-1.9215546875,-0.205832031250001,-2.18765625,2.4354375,-2.74419921875,-4.06006640625,-1.205203125,-3.25994921875,2.25028125,-5.11581640625,-4.564171875
3.4236875,6.2037109375,1.4718984375,12.2615859375,4.88979296875,4.20215234375,3.46679296875,7.9672421875,3.3373359375,4.37363671875,5.104046875,-7.78255078125,-0.808445312500002,3.22602734375,1.86516796875,1.1901640625,2.460453125,2.364140625,1.98845703125,-0.618554687500001,0.812167968749999,0.657343750000001,4.2804375,-1.21119921875,-3.00106640625,0.619796874999999,-2.07794921875,3.90728125,-3.79181640625,-3.255171875
4.8946875,6.9067109375,2.9498984375,13.6265859375,6.39379296875,7.53815234375,6.81579296875,6.9942421875,4.9423359375,6.68463671875,7.139046875,-7.42055078125,-0.0624453124999995,5.07002734375,4.69316796875,1.1011640625,2.802453125,4.254140625,4.16245703125,0.3464453125,1.23216796875,3.47534375,6.1424375,0.459800781250003,-1.99306640625,2.565796875,-0.554949218750002,5.60428125,-2.30281640625,-1.748171875
6.0016875,7.2087109375,3.6308984375,14.6355859375,6.54679296875,9.32015234375,8.63179296875,4.8932421875,5.4923359375,7.60863671875,7.926046875,-8.04655078125,-0.1444453125,5.63802734375,6.24416796875,-0.272835937500002,1.164453125,4.845140625,5.15645703125,0.2574453125,0.364167968749999,5.14334375,7.1724375,1.43280078125,-1.58806640625,4.064796875,0.663050781249998,6.93128125,-1.05181640625,-0.516171875000001
6.0296875,6.5707109375,2.9568984375,14.5225859375,4.95579296875,8.29915234375,7.86179296875,1.8332421875,4.6263359375,6.35563671875,6.530046875,-10.09955078125,-1.2824453125,4.39602734375,5.39216796875,-3.0368359375,-2.570546875,3.624140625,4.23245703125,-1.4285546875,-2.32983203125,4.77434375,6.6344375,0.909800781250002,-2.38706640625,4.221796875,0.865050781249998,7.45928125,-0.52181640625,-0.0871718749999992
4.5106875,4.6417109375,0.684898437499999,12.7635859375,1.75979296875,4.23315234375,4.47179296875,-1.6807578125,2.3173359375,2.80963671875,2.812046875,-13.46855078125,-3.4084453125,1.34202734375,1.75316796875,-6.8178359375,-7.955546875,0.671140625,1.24345703125,-4.7575546875,-6.76983203125,2.30034375,4.2464375,-1.48519921875,-4.70606640625,2.327796875,-0.417949218750001,6.87128125,-1.09381640625,-0.857171874999999
1.5776875,1.5767109375,-2.8511015625,9.4815859375,-2.30320703125,-1.88284765625,-0.45420703125,-4.9057578125,-1.0126640625,-2.26736328125,-2.345953125,-17.37155078125,-6.0664453125,-2.87097265625,-3.97483203125,-10.7298359375,-13.818546875,-3.249859375,-3.19054296875,-9.0765546875,-11.99283203125,-1.38165625,0.397437500000001,-5.39219921875,-8.26606640625,-1.561203125,-3.11594921875,5.15128125,-2.78881640625,-2.836171875
-1.8933125,-1.8322890625,-6.6581015625,5.5895859375,-6.05120703125,-8.12884765625,-5.10120703125,-7.0117578125,-4.4926640625,-7.38236328125,-7.271953125,-20.52755078125,-8.4644453125,-7.06497265625,-10.10683203125,-13.5708359375,-18.495546875,-6.905859375,-7.80054296875,-13.1275546875,-16.37383203125,-4.81865625,-3.9095625,-9.71919921875,-12.12806640625,-6.372203125,-6.51794921875,2.71928125,-5.12081640625,-5.500171875
-4.5403125,-4.3612890625,-9.3601015625,2.5205859375,-8.24320703125,-12.37984765625,-7.63120703125,-7.2807578125,-7.0036640625,-10.80136328125,-10.152953125,-21.63255078125,-9.7104453125,-9.91497265625,-14.53583203125,-14.2528359375,-20.406546875,-9.041859375,-11.08154296875,-15.4825546875,-18.27083203125,-6.65265625,-7.3815625,-13.01119921875,-14.99606640625,-10.340203125,-9.49094921875,0.342281250000001,-7.24281640625,-7.931171875
-5.1143125,-4.8602890625,-9.7461015625,1.6225859375,-8.07520703125,-13.13184765625,-6.90320703125,-5.3197578125,-7.5826640625,-11.22736328125,-9.798953125,-19.95155078125,-9.1814453125,-10.46197265625,-15.56283203125,-12.2818359375,-18.695546875,-8.865859375,-11.87054296875,-15.1495546875,-16.76383203125,-6.12865625,-8.9175625,-14.05819921875,-15.77506640625,-11.789203125,-10.97094921875,-1.19271875,-8.36981640625,-9.234171875
-3.0973125,-2.8112890625,-7.3291015625,3.4855859375,-5.52720703125,-10.09684765625,-2.93820703125,-1.2657578125,-5.8646640625,-8.34336328125,-6.146953125,-15.69155078125,-6.8554453125,-8.50297265625,-12.59883203125,-8.0158359375,-13.635546875,-6.356859375,-9.81054296875,-12.0305546875,-12.09983203125,-3.30165625,-8.0325625,-12.43419921875,-14.08906640625,-9.965203125,-10.45394921875,-1.44771875,-8.20281640625,-8.996171875
0.9966875,1.3437109375,-2.6161015625,7.5975859375,-1.39320703125,-4.31584765625,3.06479296875,4.1432421875,-2.3176640625,-2.97836328125,-0.282953125,-9.95555078125,-3.3924453125,-4.68597265625,-6.43083203125,-2.5678359375,-6.633546875,-2.294859375,-5.50654296875,-7.0095546875,-5.64483203125,0.984343750000001,-5.0595625,-8.69619921875,-10.50106640625,-5.461203125,-8.24194921875,-0.541718749999999,-7.07581640625,-7.478171875
5.8136875,6.3067109375,3.0328984375,12.5205859375,3.01479296875,2.26515234375,9.20479296875,9.7132421875,1.8953359375,3.17663671875,5.981046875,-4.31255078125,0.0935546874999993,-0.27997265625,1.03616796875,2.5781640625,0.185453125,1.989140625,-0.336542968750002,-1.6455546875,0.603167968749999,5.29434375,-1.0805625,-4.19919921875,-6.34506640625,-0.0302031249999999,-5.33494921875,0.905281250000002,-5.75881640625,-5.480171875
9.6896875,10.3887109375,7.8568984375,16.5105859375,6.33979296875,7.57115234375,13.60679296875,14.1132421875,5.3883359375,8.14963671875,10.749046875,-0.22455078125,2.4675546875,3.27302734375,7.39216796875,6.0371640625,4.750453125,5.042140625,3.98145703125,2.3534453125,4.69116796875,7.98234375,2.4104375,-0.623199218749997,-3.24406640625,4.110796875,-3.06694921875,2.00928125,-5.09081640625,-3.993171875
11.2796875,12.1277109375,10.2968984375,18.2395859375,7.64779296875,10.11515234375,15.07479296875,16.2742421875,7.1203359375,10.36663671875,12.660046875,1.42444921875,2.9885546875,4.83202734375,10.50316796875,6.9441640625,5.915453125,5.763140625,5.92945703125,3.6904453125,5.37816796875,7.76134375,4.0024375,0.616800781250003,-2.50606640625,5.219796875,-2.58594921875,1.96128125,-5.61581640625,-3.790171875
10.0396875,10.8417109375,9.5628984375,17.3035859375,6.72679296875,9.42915234375,13.44079296875,15.7712421875,6.7713359375,9.18263671875,11.309046875,0.58044921875,1.5515546875,3.91002734375,9.22316796875,5.2141640625,3.985453125,3.780140625,4.68745703125,1.9104453125,2.60316796875,4.26834375,2.8864375,-1.10719921875,-4.57506640625,2.869796875,-4.38094921875,0.358281250000001,-7.35181640625,-5.108171875
6.4256875,6.9117109375,5.9868984375,14.3415859375,4.10479296875,6.12915234375,9.56879296875,13.0802421875,4.7683359375,5.09763671875,7.362046875,-1.98655078125,-1.2894453125,0.820027343750001,3.84216796875,1.6031640625,0.612453125,-0.401859375000001,0.470457031249999,-2.4005546875,-2.40183203125,-1.63865625,-0.776562499999999,-5.36319921875,-8.77606640625,-1.718203125,-8.00194921875,-2.57771875,-9.74781640625,-7.498171875
1.7296875,1.6867109375,0.966898437499999,10.7475859375,0.814792968750001,1.66715234375,5.07479296875,9.5432421875,2.0093359375,-0.43436328125,2.321046875,-4.95055078125,-4.4934453125,-3.41897265625,-3.92783203125,-2.5028359375,-1.926546875,-5.533859375,-5.46854296875,-7.7525546875,-7.46283203125,-8.09065625,-5.8485625,-10.73319921875,-13.48806640625,-6.106203125,-12.15694921875,-6.03371875,-11.85981640625,-9.959171875
-2.4063125,-2.9802890625,-3.5191015625,8.0745859375,-1.99220703125,-2.19384765625,1.77679296875,6.9002421875,-0.515664062500001,-5.51036328125,-2.006953125,-6.89455078125,-6.8744453125,-7.39697265625,-11.47583203125,-5.5448359375,-1.724546875,-10.039859375,-11.19654296875,-12.2345546875,-10.27283203125,-12.91165625,-10.5925625,-15.29419921875,-16.74006640625,-7.736203125,-15.18394921875,-8.89371875,-12.70381640625,-11.315171875
-4.5873125,-5.4412890625,-5.6691015625,7.3725859375,-3.44020703125,-4.05684765625,1.01079296875,6.5292421875,-2.0456640625,-8.45536328125,-4.145953125,-6.80355078125,-7.5424453125,-9.78397265625,-16.22083203125,-6.3468359375,1.889453125,-12.560859375,-14.77554296875,-14.1915546875,-9.32283203125,-14.51465625,-13.3495625,-17.33019921875,-17.00306640625,-5.173203125,-15.74294921875,-10.20971875,-11.67681640625,-10.730171875
-4.1373125,-4.8782890625,-4.5471015625,8.7915859375,-3.20620703125,-3.42584765625,3.11579296875,8.7792421875,-2.2486640625,-8.42236328125,-3.483953125,-4.42355078125,-6.2804453125,-9.80197265625,-16.57283203125,-4.5448359375,7.993453125,-12.447859375,-14.99254296875,-12.8495546875,-4.56283203125,-12.59965625,-13.2045625,-16.01719921875,-13.83006640625,1.137796875,-13.40894921875,-9.62271875,-8.84781640625,-8.102171875
-1.2653125,-1.5872890625,-0.4121015625,11.6155859375,-1.61420703125,-0.81384765625,7.35479296875,12.8142421875,-1.3056640625,-5.67236328125,-0.457953125,-0.33755078125,-3.6774453125,-7.51897265625,-12.53283203125,-0.704835937500001,14.421453125,-9.988859375,-11.83054296875,-8.5875546875,2.55916796875,-8.27065625,-10.3275625,-11.74519921875,-8.05006640625,8.981796875,-8.86694921875,-7.50571875,-4.96381640625,-4.147171875
3.0706875,3.1927109375,5.4348984375,14.6775859375,0.51779296875,2.58615234375,12.30079296875,17.0202421875,0.1643359375,-1.42336328125,3.669046875,4.24944921875,-0.886445312500001,-3.80397265625,-5.61483203125,3.9361640625,18.753453125,-6.240859375,-6.43454296875,-2.7395546875,9.70116796875,-3.47465625,-5.8385625,-5.92419921875,-1.40806640625,15.360796875,-3.60894921875,-4.76071875,-1.12281640625,-0.0781718749999989
7.5176875,7.7947109375,11.1898984375,16.8755859375,2.26879296875,5.44515234375,16.41579296875,19.7522421875,1.3633359375,2.69563671875,7.373046875,7.97344921875,0.869554687499999,0.05502734375,1.81616796875,7.9981640625,19.464453125,-2.541859375,-0.597542968750001,2.9784453125,14.60516796875,-0.0186562499999994,-1.2785625,-0.351199218749997,4.17193359375,17.874796875,0.733050781249998,-2.37371875,1.69818359375,2.929828125
10.7566875,10.7337109375,15.2038984375,17.5535859375,3.01879296875,6.78415234375,18.57279296875,20.0282421875,1.6973359375,5.28663671875,9.460046875,9.79944921875,0.801554687499998,2.87202734375,7.46116796875,10.4801640625,16.600453125,0.0291406250000001,3.96045703125,7.1284453125,15.99416796875,1.23234375,2.0154375,3.50280078125,7.34693359375,15.837796875,3.04905078125,-1.00571875,3.01918359375,4.217828125
11.8606875,11.1657109375,16.4708984375,16.6295859375,2.65879296875,6.26015234375,18.35179296875,17.8802421875,1.0523359375,5.63463671875,9.427046875,9.35144921875,-1.1904453125,3.94502734375,9.81916796875,11.0411640625,11.656453125,0.960140624999999,6.12045703125,8.9584453125,13.97316796875,0.485343750000002,3.3074375,4.93380078125,7.76793359375,10.491796875,3.06605078125,-0.825718749999998,2.91618359375,3.796828125
10.5156875,9.0607109375,14.8178984375,14.4685859375,1.50379296875,4.16715234375,16.04879296875,14.2062421875,-0.217664062500001,3.79563671875,7.466046875,6.94044921875,-4.5604453125,3.17002734375,8.50416796875,9.9491640625,6.767453125,0.284140624999999,5.53845703125,8.4504453125,9.77116796875,-1.46965625,2.5164375,4.01580078125,5.98493359375,4.227796875,1.22405078125,-1.61571875,1.79618359375,2.152828125
7.0536875,5.0797109375,10.8028984375,11.6305859375,0.0377929687500007,1.20315234375,12.43679296875,10.2522421875,-1.5786640625,0.41763671875,4.220046875,3.33644921875,-8.3474453125,0.92502734375,4.16616796875,7.8041640625,3.680453125,-1.612859375,2.54545703125,6.0914453125,5.00116796875,-3.87965625,0.0354375000000005,1.31880078125,2.97593359375,-0.708203125000001,-1.70794921875,-2.98871875,0.095183593749999,-0.102171875
2.3546875,0.2937109375,5.4968984375,8.6665859375,-1.32920703125,-1.85584765625,8.42479296875,7.0352421875,-2.6546640625,-3.55436328125,0.480046875,-0.55755078125,-11.4894453125,-2.14797265625,-1.82983203125,5.2271640625,3.019453125,-4.167859375,-2.05154296875,2.5814453125,0.878167968749999,-6.28365625,-3.4765625,-2.41019921875,-0.397066406250001,-3.259203125,-5.01394921875,-4.57371875,-1.89581640625,-2.503171875
-2.3533125,-4.1292890625,0.210898437499999,6.0735859375,-2.37620703125,-4.37384765625,4.80879296875,5.0312421875,-3.3736640625,-7.14836328125,-3.032953125,-3.97355078125,-13.1384453125,-5.32197265625,-7.82883203125,2.6601640625,4.159453125,-6.732859375,-7.17554296875,-1.3845546875,-2.19283203125,-8.38365625,-7.2465625,-6.46219921875,-3.69706640625,-3.797203125,-8.21694921875,-6.09271875,-4.01881640625,-4.809171875
-5.8043125,-7.1732890625,-3.7981015625,4.3245859375,-3.05020703125,-5.89384765625,2.18079296875,4.2332421875,-3.8576640625,-9.56536328125,-5.768953125,-6.40755078125,-12.9124453125,-7.92697265625,-12.31483203125,0.321164062499998,5.689453125,-8.650859375,-11.69454296875,-5.2275546875,-4.49583203125,-9.82365625,-10.4925625,-10.23419921875,-6.87106640625,-3.540203125,-11.06394921875,-7.34571875,-6.12781640625,-6.906171875
-7.0523125,-8.1912890625,-5.6401015625,3.8265859375,-3.34420703125,-6.14484765625,0.89479296875,4.3862421875,-4.1816640625,-10.31136328125,-7.357953125,-7.61155078125,-10.9694453125,-9.45397265625,-14.26983203125,-1.6988359375,6.193453125,-9.397859375,-14.67854296875,-8.4975546875,-6.50683203125,-10.17965625,-12.5545625,-13.23019921875,-9.97206640625,-3.607203125,-13.40594921875,-8.16071875,-7.97181640625,-8.654171875
-5.8023125,-7.0802890625,-5.0471015625,4.7395859375,-3.20520703125,-5.09584765625,1.03079296875,5.1772421875,-4.2306640625,-9.29436328125,-7.626953125,-7.54955078125,-7.9014453125,-9.66597265625,-13.40583203125,-3.3268359375,4.977453125,-8.761859375,-15.64254296875,-10.8765546875,-8.41883203125,-9.15265625,-13.0605625,-15.10519921875,-12.88406640625,-4.313203125,-15.10794921875,-8.37971875,-9.20381640625,-9.826171875
-2.5563125,-4.3502890625,-2.4921015625,6.8085859375,-2.59320703125,-3.04984765625,2.35079296875,6.2682421875,-3.8096640625,-6.89936328125,-6.671953125,-6.41155078125,-4.5244453125,-8.69497265625,-10.24583203125,-4.5018359375,2.376453125,-6.982859375,-14.71254296875,-12.2135546875,-10.03783203125,-6.79465625,-12.0715625,-15.75119921875,-15.29406640625,-5.146203125,-16.07994921875,-7.93371875,-9.55581640625,-10.224171875
1.4956875,-1.0422890625,0.902898437499999,9.3515859375,-1.65420703125,-0.66084765625,4.30079296875,7.2482421875,-2.9006640625,-3.98936328125,-4.959953125,-4.67755078125,-1.6814453125,-7.08797265625,-6.02083203125,-5.2798359375,-0.513546875000001,-4.740859375,-12.61754296875,-12.6125546875,-11.06883203125,-3.58765625,-10.1275625,-15.39419921875,-16.89306640625,-5.364203125,-16.38294921875,-6.96871875,-9.04981640625,-9.879171875
4.8216875,1.5587109375,3.6788984375,11.4485859375,-0.819207031249999,1.18115234375,6.10979296875,7.5992421875,-1.8076640625,-1.73136328125,-3.313953125,-3.10655078125,-0.0604453125000006,-5.68097265625,-2.35083203125,-5.9358359375,-2.541546875,-2.945859375,-10.45454296875,-12.4575546875,-11.51283203125,-0.31965625,-8.0925625,-14.54919921875,-17.62006640625,-4.719203125,-16.26694921875,-5.88471875,-8.08081640625,-9.147171875
6.0536875,2.3247109375,4.5128984375,12.2285859375,-0.65020703125,1.59915234375,6.97579296875,6.7872421875,-1.0286640625,-1.20036328125,-2.679953125,-2.52255078125,-0.0424453124999999,-5.30397265625,-0.72483203125,-6.8868359375,-3.210546875,-2.408859375,-9.29554296875,-12.2965546875,-11.80083203125,2.15334375,-6.8675625,-13.82619921875,-17.74506640625,-3.768203125,-16.08394921875,-5.20271875,-7.23381640625,-8.576171875
4.4806875,0.7177109375,2.7138984375,11.1885859375,-1.51820703125,0.09615234375,6.35379296875,4.5282421875,-0.9476640625,-2.90136328125,-3.687953125,-3.43655078125,-1.5804453125,-6.42797265625,-1.94383203125,-8.4378359375,-2.920546875,-3.541859375,-9.77954296875,-12.5965546875,-12.54083203125,3.11634375,-7.0675625,-13.66519921875,-17.70906640625,-3.552203125,-16.10994921875,-5.32971875,-6.97081640625,-8.600171875
0.3656875,-2.9272890625,-1.4531015625,8.4185859375,-3.30920703125,-3.08784765625,4.27979296875,1.0962421875,-1.5696640625,-6.43136328125,-6.253953125,-5.70055078125,-4.1714453125,-8.91097265625,-5.72583203125,-10.4878359375,-2.539546875,-6.213859375,-11.86354296875,-13.4595546875,-14.02183203125,2.14634375,-8.7885625,-14.11919921875,-17.82206640625,-4.871203125,-16.39794921875,-6.35771875,-7.37281640625,-9.261171875
-5.0973125,-7.4332890625,-6.7981015625,4.6205859375,-5.37220703125,-6.88084765625,1.48779296875,-2.5827578125,-2.4916640625,-10.52136328125,-9.464953125,-8.45055078125,-6.9694453125,-11.98997265625,-10.71083203125,-12.4168359375,-2.610546875,-9.791859375,-14.81754296875,-14.4805546875,-15.84883203125,-0.745656249999998,-11.5515625,-14.80819921875,-18.00106640625,-7.624203125,-16.72194921875,-8.01271875,-8.09581640625,-10.151171875
-10.2113125,-11.2092890625,-11.6311015625,0.849585937499999,-6.76820703125,-9.74284765625,-0.85320703125,-5.2397578125,-3.1236640625,-13.48836328125,-11.905953125,-10.45455078125,-9.0544453125,-14.54397265625,-14.92983203125,-13.3068359375,-2.866546875,-13.324859375,-17.47854296875,-14.8875546875,-17.03483203125,-4.98465625,-14.4505625,-15.06919921875,-17.76106640625,-10.683203125,-16.65994921875,-9.77771875,-8.57281640625,-10.619171875
-13.4203125,-12.9132890625,-14.4231015625,-1.8814140625,-6.72420703125,-10.37184765625,-1.70620703125,-5.8667578125,-3.0536640625,-13.95936328125,-12.319953125,-10.72655078125,-9.7694453125,-15.55897265625,-16.62883203125,-12.4358359375,-2.464546875,-15.843859375,-18.71454296875,-13.9485546875,-16.56783203125,-9.45865625,-16.4835625,-14.28819921875,-16.51806640625,-12.483203125,-15.79494921875,-11.11371875,-8.33081640625,-10.141171875
-13.8523125,-12.0062890625,-14.4041015625,-2.9364140625,-5.03520703125,-8.31984765625,-0.66320703125,-4.1937578125,-2.3006640625,-11.50836328125,-10.251953125,-9.02555078125,-8.9604453125,-14.55997265625,-15.04283203125,-9.7428359375,-0.732546875000001,-16.652859375,-17.88554296875,-11.4365546875,-14.09083203125,-12.81265625,-16.9295625,-12.22719921875,-14.01406640625,-11.962203125,-13.93694921875,-11.67071875,-7.22981640625,-8.618171875
-11.5613125,-8.9092890625,-11.8121015625,-2.1874140625,-2.19020703125,-4.17584765625,1.89379296875,-0.7457578125,-1.2736640625,-6.85936328125,-6.298953125,-5.93855078125,-6.9494453125,-11.78597265625,-10.72283203125,-5.9478359375,2.256453125,-15.501859375,-15.07954296875,-7.8135546875,-10.18383203125,-13.92265625,-15.5795625,-9.15519921875,-10.56206640625,-9.213203125,-11.21994921875,-11.35871875,-5.46881640625,-6.421171875
-7.4113125,-4.7612890625,-7.7291015625,-0.00741406250000054,0.87479296875,0.70215234375,4.99179296875,3.4422421875,-0.475664062500001,-1.56736328125,-1.838953125,-2.54355078125,-4.2964453125,-8.03197265625,-5.24883203125,-2.2268359375,5.643453125,-12.585859375,-11.00454296875,-4.0495546875,-6.08583203125,-12.27065625,-12.7285625,-5.68919921875,-6.93806640625,-5.401203125,-8.02694921875,-10.27771875,-3.41781640625,-4.169171875
-2.7313125,-0.9402890625,-3.6331015625,2.8445859375,3.20179296875,4.71615234375,7.46379296875,7.2162421875,-0.188664062500001,2.61863671875,1.569046875,0.10444921875,-1.5334453125,-4.31097265625,-0.54083203125,0.320164062499998,8.221453125,-8.430859375,-6.67854296875,-1.1845546875,-3.08483203125,-8.08165625,-9.0165625,-2.53119921875,-4.03506640625,-2.095203125,-4.83394921875,-8.63771875,-1.42081640625,-2.412171875
1.1336875,1.4247109375,-0.8781015625,5.4665859375,4.16879296875,6.61815234375,8.40479296875,9.6552421875,-0.374664062500001,4.40263671875,2.814046875,1.39444921875,0.942554687499999,-1.51797265625,1.86716796875,1.1011640625,8.969453125,-3.791859375,-3.09854296875,0.0674453125000003,-1.96783203125,-2.27565625,-5.2435625,-0.257199218749998,-2.51906640625,-0.483203125000001,-2.12594921875,-6.75271875,0.261183593749999,-1.447171875
3.2316875,1.8017109375,-0.2741015625,7.1345859375,3.64379296875,5.96415234375,7.54279296875,10.3162421875,-0.7906640625,3.34063671875,1.618046875,1.32944921875,2.8365546875,-0.216972656249999,1.32016796875,0.187164062499999,7.428453125,0.422140624999999,-1.01554296875,-0.4675546875,-2.79683203125,3.69334375,-2.2135625,0.757800781250003,-2.64606640625,-0.913203125000001,-0.369949218750001,-5.07671875,1.40018359375,-1.332171875
3.2266875,0.3587109375,-1.8901015625,7.5585859375,1.97679296875,3.25215234375,5.32279296875,9.3442421875,-1.1766640625,-0.0483632812500003,-1.417953125,0.42644921875,3.9125546875,-0.55397265625,-1.81783203125,-1.8208359375,3.827453125,3.311140625,-0.796542968750002,-2.4485546875,-5.02183203125,8.16534375,-0.590562499999999,0.357800781250003,-4.24106640625,-2.883203125,0.0240507812499988,-4.14071875,1.76718359375,-1.984171875
1.3726875,-2.2032890625,-5.1031015625,6.9045859375,-0.12820703125,-0.34184765625,2.64279296875,7.3412421875,-1.3716640625,-4.49436328125,-5.119953125,-0.59755078125,4.0125546875,-2.25497265625,-6.37383203125,-4.1028359375,-1.007546875,4.231140625,-2.35254296875,-5.2085546875,-7.81283203125,9.79634375,-0.7235625,-1.37419921875,-6.81006640625,-5.402203125,-1.17194921875,-4.36071875,1.19118359375,-3.252171875
-1.6923125,-4.9842890625,-8.8771015625,5.6245859375,-1.88120703125,-3.49384765625,0.39479296875,5.0702421875,-1.3586640625,-8.46436328125,-8.254953125,-1.20355078125,3.1345546875,-4.72897265625,-10.83383203125,-5.9838359375,-5.841546875,3.047140625,-5.17654296875,-8.0185546875,-10.41183203125,8.09734375,-2.5255625,-4.11719921875,-9.72006640625,-7.488203125,-3.87394921875,-5.82971875,-0.34581640625,-4.929171875
-5.1783125,-7.2142890625,-12.1341015625,4.2045859375,-2.72520703125,-5.25284765625,-0.90920703125,3.1712421875,-1.2596640625,-10.75636328125,-10.019953125,-1.27955078125,1.4965546875,-7.26497265625,-13.89783203125,-7.1498359375,-9.231546875,0.225140625,-8.49454296875,-10.3035546875,-12.32883203125,3.70434375,-5.4685625,-7.35519921875,-12.36406640625,-8.531203125,-7.62494921875,-8.25071875,-2.63681640625,-6.742171875
-8.3163125,-8.4472890625,-14.0761015625,2.9695859375,-2.56920703125,-5.35284765625,-1.26920703125,2.0132421875,-1.2916640625,-10.95336328125,-10.272953125,-1.08755078125,-0.498445312499999,-9.24397265625,-14.88783203125,-7.6198359375,-9.843546875,-3.323859375,-11.48154296875,-11.7255546875,-13.31283203125,-1.85365625,-8.7305625,-10.46619921875,-14.25606640625,-8.368203125,-11.65194921875,-11.02271875,-5.26381640625,-8.342171875
-10.5023125,-8.5992890625,-14.3411015625,2.0045859375,-1.80520703125,-4.24884765625,-1.09020703125,1.6872421875,-1.6936640625,-9.52136328125,-9.435953125,-0.97955078125,-2.4034453125,-10.33297265625,-13.87983203125,-7.5458359375,-6.991546875,-6.610859375,-13.50154296875,-12.1625546875,-13.21683203125,-6.84565625,-11.4965625,-12.85219921875,-15.08206640625,-7.121203125,-15.05694921875,-13.44371875,-7.66581640625,-9.340171875
-11.4303125,-7.8942890625,-13.0241015625,1.1715859375,-1.14020703125,-2.88984765625,-0.95020703125,2.0742421875,-2.6646640625,-7.54636328125,-8.218953125,-1.12855078125,-3.8964453125,-10.58997265625,-11.56483203125,-7.0478359375,-1.243546875,-8.978859375,-14.30054296875,-11.6935546875,-11.98583203125,-10.12265625,-13.2735625,-14.11619921875,-14.78006640625,-5.061203125,-17.09794921875,-14.94571875,-9.31181640625,-9.425171875
-11.2013125,-6.7442890625,-10.5931015625,0.2445859375,-1.31520703125,-2.28484765625,-1.30820703125,2.9192421875,-4.3136640625,-6.23136328125,-7.320953125,-1.46155078125,-4.8634453125,-10.42997265625,-8.94983203125,-6.2278359375,5.414453125,-10.348859375,-14.07654296875,-10.6055546875,-9.80883203125,-11.54065625,-14.0795625,-14.21919921875,-13.63706640625,-2.609203125,-17.47794921875,-15.29671875,-9.89081640625,-8.539171875
-10.2803125,-5.6122890625,-7.7611015625,-0.9094140625,-2.79120703125,-3.04384765625,-2.28720703125,3.9072421875,-6.6056640625,-6.39536328125,-7.209953125,-1.79555078125,-5.3424453125,-10.41797265625,-6.99183203125,-5.2838359375,10.238453125,-11.152859375,-13.36054296875,-9.3825546875,-7.27683203125,-11.81365625,-14.3535625,-13.51119921875,-12.26706640625,-0.376203125,-16.45094921875,-14.63771875,-9.43681640625,-6.971171875
-9.2663125,-4.8532890625,-5.2931015625,-2.1854140625,-5.48720703125,-5.12784765625,-3.62620703125,4.7212421875,-9.2696640625,-8.13736328125,-7.986953125,-1.99155078125,-5.4214453125,-10.97197265625,-6.28283203125,-4.5578359375,11.050453125,-11.990859375,-12.73454296875,-8.5675546875,-5.29583203125,-11.92065625,-14.6315625,-12.54019921875,-11.38606640625,0.965796874999999,-14.65094921875,-13.34971875,-8.27181640625,-5.253171875
-8.5973125,-4.6202890625,-3.8141015625,-3.2194140625,-8.68820703125,-7.88684765625,-4.81220703125,5.1152421875,-11.7246640625,-10.81636328125,-9.371953125,-2.02355078125,-5.1624453125,-12.11297265625,-6.89483203125,-4.4398359375,7.442453125,-13.219859375,-12.53054296875,-8.5535546875,-4.74683203125,-12.44765625,-15.1785625,-11.75119921875,-11.46706640625,0.991796874999999,-12.73194921875,-11.81671875,-6.82081640625,-3.886171875
-8.3693125,-4.8632890625,-3.6741015625,-3.5074140625,-11.27520703125,-10.35884765625,-5.32820703125,4.9682421875,-13.1586640625,-13.37036328125,-10.845953125,-2.00255078125,-4.5974453125,-13.44397265625,-8.46683203125,-5.2388359375,1.055453125,-14.711859375,-12.70954296875,-9.4245546875,-6.09883203125,-13.21765625,-15.8075625,-11.26419921875,-12.49906640625,-0.204203125000001,-11.04694921875,-10.25971875,-5.41781640625,-3.096171875
-8.4293125,-5.4292890625,-4.9191015625,-2.6674140625,-12.23120703125,-11.69784765625,-4.93020703125,4.2812421875,-12.8216640625,-14.81836328125,-11.940953125,-2.20755078125,-3.7624453125,-14.37797265625,-10.45483203125,-7.1188359375,-5.308546875,-15.927859375,-12.97154296875,-10.9725546875,-9.23083203125,-13.43565625,-16.0035625,-10.88319921875,-14.00006640625,-2.019203125,-9.55994921875,-8.71771875,-4.20281640625,-2.756171875
-8.5993125,-6.1872890625,-7.3231015625,-0.730414062500001,-11.12820703125,-11.53984765625,-3.81420703125,3.0842421875,-10.4286640625,-14.67836328125,-12.475953125,-3.06655078125,-2.7184453125,-14.45397265625,-12.37783203125,-10.0718359375,-9.248546875,-16.236859375,-12.97754296875,-12.8205546875,-13.54983203125,-12.23265625,-15.2525625,-10.27619921875,-15.26306640625,-3.646203125,-7.98394921875,-7.12171875,-3.12881640625,-2.498171875
-8.8323125,-7.0592890625,-10.4021015625,1.7675859375,-8.32220703125,-10.12984765625,-2.53120703125,1.3662421875,-6.3956640625,-13.08236328125,-12.564953125,-4.95555078125,-1.5044453125,-13.52797265625,-13.87583203125,-13.8428359375,-10.036546875,-15.238859375,-12.50154296875,-14.5275546875,-18.22683203125,-9.23665625,-13.3415625,-9.17219921875,-15.65906640625,-4.444203125,-5.99794921875,-5.38271875,-2.00881640625,-1.887171875
-9.1303125,-7.9382890625,-13.4461015625,4.0235859375,-4.72320703125,-8.07284765625,-1.61220703125,-0.8697578125,-1.7366640625,-10.56636328125,-12.391953125,-7.87555078125,-0.0584453125000017,-11.74897265625,-14.64283203125,-17.8128359375,-8.817546875,-12.930859375,-11.43554296875,-15.6245546875,-22.39383203125,-4.80165625,-10.4435625,-7.45819921875,-14.81306640625,-4.150203125,-3.43494921875,-3.43371875,-0.581816406250001,-0.567171875
-9.3803125,-8.5782890625,-15.6271015625,5.4175859375,-1.32720703125,-5.91084765625,-1.14220703125,-3.4527578125,2.3483359375,-7.73336328125,-11.946953125,-11.22655078125,1.8155546875,-9.38997265625,-14.35583203125,-20.9948359375,-7.645546875,-9.635859375,-9.71654296875,-15.6235546875,-25.22683203125,0.173343750000001,-6.9845625,-5.14719921875,-12.62606640625,-2.837203125,-0.34294921875,-1.23171875,1.38318359375,1.650828125
-9.2793125,-8.6112890625,-16.2491015625,5.8645859375,1.24279296875,-3.82784765625,-0.65020703125,-5.9367578125,4.9663359375,-4.98536328125,-10.936953125,-13.90455078125,4.3445546875,-6.69197265625,-12.74083203125,-22.2428359375,-8.041546875,-5.813859375,-7.28854296875,-14.0865546875,-25.98083203125,4.70634375,-3.4115625,-2.30619921875,-9.18206640625,-0.753203125000001,3.06105078125,1.24028125,3.99418359375,4.744828125
-8.4533125,-7.6932890625,-14.9951015625,5.8415859375,2.96479296875,-1.66984765625,0.59879296875,-7.6777578125,5.8893359375,-2.44836328125,-8.935953125,-14.69955078125,7.6175546875,-3.79797265625,-9.70483203125,-20.6458359375,-10.046546875,-1.865859375,-4.12154296875,-10.7725546875,-24.10683203125,8.20734375,0.00243750000000098,0.992800781250002,-4.65906640625,1.838796875,6.49405078125,3.96728125,7.16218359375,8.489828125
-6.6733125,-5.6872890625,-12.0561015625,6.0905859375,4.31779296875,0.80415234375,3.10479296875,-8.0337578125,5.6103359375,-0.0363632812499999,-5.664953125,-12.79555078125,11.4815546875,-0.780972656249999,-5.45983203125,-15.9118359375,-12.306546875,1.967140625,-0.298542968750001,-5.7925546875,-19.44383203125,10.71134375,3.1984375,4.65180078125,0.668933593749999,4.705796875,9.70105078125,6.85228125,10.60318359375,12.473828125
-4.0253125,-2.7572890625,-8.0631015625,7.1985859375,5.91079296875,3.68315234375,6.80279296875,-6.6037578125,5.0623359375,2.37963671875,-1.248953125,-8.14355078125,15.5585546875,2.25302734375,-0.53383203125,-8.5888359375,-13.013546875,5.553140625,3.88645703125,0.3014453125,-12.43883203125,12.69634375,6.2204375,8.45880078125,6.35993359375,7.606796875,12.47105078125,9.66428125,13.86518359375,16.137828125
-0.9563125,0.6467109375,-3.8811015625,9.2535859375,8.06579296875,6.76715234375,11.04479296875,-3.4417578125,5.1303359375,4.81663671875,3.724046875,-1.55055078125,19.3305546875,5.08402734375,4.31616796875,0.0111640624999989,-11.052546875,8.731140625,7.89745703125,6.5604453125,-4.22383203125,14.61434375,9.0284375,12.01080078125,11.71993359375,10.183796875,14.59605078125,12.02728125,16.41418359375,18.842828125
1.8276875,3.8787109375,-0.3541015625,11.7435859375,10.60179296875,9.58215234375,14.85279296875,0.817242187500001,6.2093359375,7.10663671875,8.376046875,5.53544921875,22.1935546875,7.36502734375,8.28316796875,8.1691640625,-6.689546875,11.219140625,11.04145703125,11.8404453125,3.55716796875,16.51034375,11.3784375,14.74480078125,15.84093359375,11.903796875,15.83205078125,13.51428125,17.74318359375,20.023828125
3.6006875,6.2667109375,1.9268984375,13.7555859375,12.92079296875,11.54315234375,17.34379296875,5.0602421875,8.0323359375,8.94663671875,11.881046875,11.50144921875,23.5205546875,8.72502734375,10.74616796875,14.3001640625,-1.458546875,12.656140625,12.70545703125,15.1334453125,9.22016796875,17.98234375,12.8884375,16.10480078125,17.83193359375,12.156796875,15.94205078125,13.79728125,17.52818359375,19.373828125
3.9386875,7.3597109375,2.7838984375,14.3965859375,14.33779296875,12.27615234375,18.12579296875,8.1082421875,9.8813359375,10.07163671875,13.805046875,15.15644921875,22.8155546875,8.97802734375,11.49416796875,17.4631640625,2.688453125,12.798140625,12.64245703125,15.9424453125,11.67016796875,18.50334375,13.2734375,15.80280078125,17.20193359375,10.559796875,14.83005078125,12.79728125,15.77318359375,17.014828125
2.9446875,7.1437109375,2.5008984375,13.2295859375,14.45579296875,11.87315234375,17.47079296875,9.2742421875,11.0263359375,10.42963671875,14.254046875,16.14444921875,20.0075546875,8.29902734375,10.84116796875,17.6511640625,4.507453125,11.740140625,11.14645703125,14.5224453125,10.88916796875,17.82134375,12.5984375,14.04380078125,14.20593359375,7.301796875,12.70305078125,10.79728125,12.91818359375,13.556828125
1.2346875,6.0767109375,1.7108984375,10.4975859375,13.37079296875,10.85915234375,16.09779296875,8.6922421875,11.1143359375,10.23063671875,13.752046875,14.99244921875,15.6635546875,7.22702734375,9.50816796875,15.6931640625,4.193453125,10.002140625,8.98945703125,11.8134453125,7.96316796875,16.19034375,11.3524375,11.52780078125,9.88693359375,3.271796875,10.12905078125,8.42828125,9.80318359375,9.976828125
-0.350312499999999,4.8737109375,1.1348984375,7.0075859375,11.56779296875,9.84815234375,14.70979296875,7.1792421875,10.2603359375,9.79063671875,12.886046875,12.73344921875,10.8915546875,6.42202734375,8.28616796875,12.8211640625,3.200453125,8.348140625,7.08045703125,9.0374453125,4.56916796875,14.27534375,10.2374375,9.17280078125,5.69593359375,-0.217203125000001,7.85705078125,6.45128125,7.40118359375,7.290828125
-1.1423125,4.1447109375,1.2588984375,3.7625859375,9.58679296875,9.14615234375,13.61079296875,5.7292421875,8.8373359375,9.27463671875,11.966046875,10.39544921875,6.8815546875,6.29302734375,7.63916796875,10.1211640625,3.267453125,7.406140625,6.03145703125,7.1584453125,2.23516796875,12.78534375,9.7604375,7.68380078125,2.86693359375,-1.952203125,6.46605078125,5.40928125,6.39618359375,6.149828125
-0.9243125,4.1257109375,2.1368984375,1.5375859375,7.69879296875,8.59215234375,12.64179296875,4.9892421875,7.1683359375,8.53563671875,10.910046875,8.64744921875,4.3795546875,6.74802734375,7.49316796875,8.1791640625,5.301453125,7.315140625,5.88945703125,6.5014453125,1.79416796875,12.04634375,9.9214375,7.23680078125,1.93293359375,-1.290203125,6.07605078125,5.36228125,6.86118359375,6.582828125
0.0266875000000004,4.6037109375,3.4058984375,0.598585937499999,5.82979296875,7.68515234375,11.36779296875,5.0192421875,5.3693359375,7.19763671875,9.399046875,7.74244921875,3.4395546875,7.23702734375,7.32416796875,7.0451640625,8.894453125,7.641140625,6.17545703125,6.7264453125,3.26416796875,11.80234375,10.2114375,7.46580078125,2.62093359375,1.673796875,6.33205078125,5.90028125,8.25318359375,8.063828125
1.1176875,5.0577109375,4.4868984375,0.6715859375,3.75079296875,5.87515234375,9.34079296875,5.3892421875,3.4123359375,4.89963671875,7.144046875,7.62044921875,3.5805546875,7.04302734375,6.45216796875,6.4111640625,12.755453125,7.634140625,6.17345703125,7.0884453125,6.04916796875,11.41634375,9.8824375,7.70080078125,4.12293359375,6.246796875,6.64805078125,6.39328125,9.71318359375,9.826828125
1.7166875,4.9067109375,4.8348984375,1.1825859375,1.32979296875,2.87615234375,6.31179296875,5.5092421875,1.3013359375,1.54363671875,4.055046875,7.99444921875,4.1515546875,5.63702734375,4.36816796875,5.8151640625,15.658453125,6.642140625,5.26645703125,6.7934453125,9.22816796875,10.32234375,8.3374375,7.29380078125,5.48493359375,11.414796875,6.50805078125,6.28928125,10.45618359375,11.203828125
1.4146875,3.7697109375,4.1308984375,1.6015859375,-1.32420703125,-1.12384765625,2.37079296875,4.9722421875,-0.8196640625,-2.59336328125,0.274046875000001,8.39244921875,4.6385546875,2.91602734375,0.95316796875,4.7961640625,17.108453125,4.429140625,3.16845703125,5.3074453125,11.79016796875,8.40034375,5.3904375,5.85580078125,5.93493359375,16.064796875,5.65005078125,5.29628125,10.03818359375,11.807828125
0.1696875,1.6187109375,2.3838984375,1.6875859375,-3.87620703125,-5.47184765625,-2.03520703125,3.7232421875,-2.6866640625,-6.89936328125,-3.875953125,8.24044921875,4.7685546875,-0.74597265625,-3.44583203125,2.9881640625,17.304453125,1.258140625,0.00145703124999841,2.5254453125,12.79316796875,6.01234375,1.3314375,3.36680078125,5.04093359375,19.125796875,4.07905078125,3.42728125,8.44718359375,11.558828125
-1.7053125,-1.2082890625,-0.0621015625000005,1.5075859375,-5.87120703125,-9.28984765625,-6.24120703125,2.0192421875,-4.0116640625,-10.57336328125,-7.931953125,7.03144921875,4.4765546875,-4.62097265625,-8.07283203125,0.239164062499999,16.590453125,-2.260859375,-3.73354296875,-1.1975546875,11.53716796875,3.72234375,-3.1845625,0.169800781250002,2.75893359375,19.718796875,2.00005078125,0.971281250000002,6.06018359375,10.617828125
-3.6703125,-4.1282890625,-2.6051015625,1.2975859375,-6.86520703125,-11.78584765625,-9.55320703125,0.2712421875,-4.5656640625,-12.81536328125,-11.325953125,4.54944921875,3.9055546875,-7.82697265625,-11.93883203125,-3.2928359375,15.007453125,-5.415859375,-7.27454296875,-5.1415546875,7.81316796875,1.98134375,-7.3285625,-3.10719921875,-0.568066406250001,17.434796875,-0.241949218750001,-1.58271875,3.50718359375,9.292828125
-5.1233125,-6.4702890625,-4.5681015625,1.3125859375,-6.54620703125,-12.47284765625,-11.40720703125,-1.1137578125,-4.1856640625,-13.04736328125,-13.464953125,1.02544921875,3.4235546875,-9.56197265625,-14.08583203125,-7.0878359375,12.327453125,-7.592859375,-9.77554296875,-8.4095546875,2.15216796875,0.954343750000001,-10.2865625,-5.68919921875,-4.23906640625,12.663796875,-2.18894921875,-3.66271875,1.48718359375,7.949828125
-5.5723125,-7.6502890625,-5.4291015625,1.7335859375,-4.83220703125,-11.27584765625,-11.49020703125,-1.8817578125,-2.7746640625,-11.11136328125,-13.888953125,-2.87055078125,3.5445546875,-9.31497265625,-13.88783203125,-10.3438359375,8.488453125,-8.391859375,-10.53454296875,-10.1645546875,-4.14483203125,0.574343750000001,-11.4145625,-6.84419921875,-7.29406640625,6.715796875,-3.31394921875,-4.75671875,0.58318359375,6.961828125
-4.7613125,-7.3362890625,-4.9941015625,2.5885859375,-1.93220703125,-8.56484765625,-9.85920703125,-2.0227578125,-0.3486640625,-7.37036328125,-12.459953125,-6.23955078125,4.7015546875,-7.00497265625,-11.28683203125,-12.2098359375,3.958453125,-7.650859375,-9.21754296875,-9.8745546875,-9.34983203125,0.729343750000002,-10.3675625,-6.07519921875,-8.74806640625,1.494796875,-3.11394921875,-4.51471875,1.13118359375,6.700828125
-2.7353125,-5.5582890625,-3.4211015625,3.7215859375,1.64679296875,-5.09884765625,-6.99620703125,-1.7467578125,2.8643359375,-2.66736328125,-9.492953125,-8.27155078125,6.9745546875,-3.02597265625,-6.87183203125,-12.1128359375,-0.287546875,-5.425859375,-5.97854296875,-7.4985546875,-11.97183203125,1.47534375,-7.1845625,-3.29519921875,-7.93306640625,-1.244203125,-1.27994921875,-2.81871875,3.15618359375,7.498828125
0.178687500000001,-2.7182890625,-1.1181015625,4.8455859375,5.14579296875,-1.81684765625,-3.69620703125,-1.3437578125,6.3363359375,1.88263671875,-5.737953125,-8.55055078125,10.0065546875,1.82202734375,-1.75083203125,-10.0328359375,-3.204546875,-1.973859375,-1.44954296875,-3.5435546875,-11.39283203125,3.08434375,-2.2985625,1.09880078125,-4.80606640625,-0.663203125000001,2.14005078125,0.197281250000001,6.37718359375,9.536828125
3.4306875,0.5057109375,1.3968984375,5.6645859375,7.70279296875,0.47715234375,-0.81920703125,-1.0427578125,9.2923359375,5.19963671875,-2.184953125,-7.21655078125,13.1575546875,6.51502734375,2.76916796875,-6.5768359375,-4.200546875,2.266140625,3.41145703125,1.0524453125,-8.11983203125,5.85534375,3.5244375,6.29580078125,-0.0160664062500011,2.815796875,6.67205078125,4.14028125,10.28318359375,12.716828125
6.3526875,3.3667109375,3.6228984375,6.0015859375,8.63879296875,1.34615234375,0.96379296875,-0.974757812499999,10.9683359375,6.57163671875,0.256046875,-4.90255078125,15.8155546875,10.07502734375,5.60616796875,-2.7528359375,-3.386546875,6.714140625,7.60445703125,5.2204453125,-3.47083203125,9.80134375,9.3494375,11.30780078125,5.34193359375,7.835796875,11.53805078125,8.41128125,14.25818359375,16.607828125
8.3426875,5.2787109375,5.2018984375,5.8945859375,7.76879296875,0.82015234375,1.32679296875,-1.1887578125,10.9883359375,5.90963671875,1.093046875,-2.44455078125,17.6625546875,11.88802734375,6.28816796875,0.466164062499999,-1.413546875,10.769140625,10.40045703125,8.1464453125,1.09916796875,14.48134375,14.3064375,15.29680078125,10.17893359375,12.848796875,15.92505078125,12.33028125,17.73418359375,20.540828125
9.0936875,6.0477109375,6.0498984375,5.6445859375,5.56879296875,-0.62484765625,0.37879296875,-1.6147578125,9.6273359375,3.80563671875,0.437046875,-0.48055078125,18.7625546875,11.93002734375,5.12916796875,2.5571640625,0.924453124999999,13.960140625,11.57345703125,9.5574453125,4.63016796875,19.07234375,17.8144375,17.84080078125,13.81993359375,16.807796875,19.26505078125,15.32828125,20.32018359375,23.822828125
8.7616875,5.9397109375,6.4088984375,5.7355859375,3.02779296875,-2.21484765625,-1.36520703125,-2.0237578125,7.7153359375,1.33063671875,-1.043953125,0.810449218750001,19.4035546875,10.76902734375,3.08216796875,3.6091640625,3.025453125,16.039140625,11.42745703125,9.7544453125,6.88916796875,22.63934375,19.7084375,19.00780078125,16.14693359375,19.410796875,21.37605078125,17.11928125,21.86618359375,25.965828125
7.8986875,5.5297109375,6.7318984375,6.5935859375,1.24479296875,-3.14584765625,-3.15520703125,-2.0837578125,6.2183359375,-0.37236328125,-2.402953125,1.69644921875,19.8275546875,9.31602734375,1.33716796875,4.1691640625,4.593453125,16.995140625,10.62345703125,9.4054453125,8.19416796875,24.47734375,20.1944375,19.23480078125,17.48193359375,20.902796875,22.41605078125,17.77428125,22.46318359375,26.843828125
7.1786875,5.4027109375,7.4628984375,8.2785859375,0.99979296875,-2.87884765625,-4.27220703125,-1.5187578125,5.7703359375,-0.49336328125,-2.755953125,2.65444921875,20.0385546875,8.43502734375,0.86116796875,4.9341640625,5.633453125,17.014140625,9.91845703125,9.2504453125,9.09316796875,24.39634375,19.7244375,19.11080078125,18.35593359375,21.749796875,22.75105078125,17.64728125,22.39718359375,26.730828125
7.0856875,5.8887109375,8.8208984375,10.3725859375,2.49179296875,-1.28184765625,-4.21020703125,-0.2057578125,6.4523359375,1.20063671875,-1.551953125,4.11244921875,19.8335546875,8.63802734375,2.10916796875,6.4731640625,6.386453125,16.406140625,9.92845703125,9.8734453125,10.13816796875,22.81434375,18.8434375,19.19680078125,19.30593359375,22.382796875,22.80805078125,17.20428125,22.05618359375,26.170828125
7.7316875,6.9647109375,10.7068984375,12.1645859375,5.35179296875,1.45315234375,-2.73020703125,1.8482421875,7.8953359375,4.37663671875,1.303046875,6.30744921875,19.0195546875,9.96402734375,4.95716796875,9.0621640625,7.166453125,15.521140625,10.97145703125,11.5954453125,11.77016796875,20.57134375,18.0614375,19.90180078125,20.73793359375,23.066796875,22.97405078125,16.81428125,21.78418359375,25.731828125
8.8606875,8.3277109375,12.7568984375,13.0175859375,8.86779296875,4.96215234375,0.12179296875,4.5402421875,9.5863359375,8.33063671875,5.454046875,9.23744921875,17.6565546875,12.06302734375,8.82416796875,12.6211640625,8.174453125,14.660140625,13.01045703125,14.4244453125,14.19516796875,18.55634375,17.7634375,21.41480078125,22.82193359375,23.841796875,23.52105078125,16.63528125,21.76918359375,25.772828125
10.0136875,9.5607109375,14.5218984375,12.6695859375,12.31079296875,8.80715234375,3.98979296875,7.6572421875,11.1843359375,12.27163671875,10.231046875,12.68444921875,16.1485546875,14.42602734375,12.91116796875,16.7601640625,9.447453125,14.050140625,15.71945703125,18.0534453125,17.27016796875,17.37734375,18.1484375,23.68280078125,25.44493359375,24.563796875,24.57405078125,16.66128125,22.03818359375,26.369828125
10.7656875,10.3287109375,15.6958984375,11.3285859375,15.18579296875,12.53515234375,8.25579296875,10.8582421875,12.6673359375,15.57663671875,14.875046875,16.27244921875,15.1165546875,16.61202734375,16.47616796875,20.9241640625,11.060453125,13.854140625,18.63645703125,21.9464453125,20.51916796875,17.22434375,19.2224375,26.43780078125,28.24293359375,25.021796875,26.10905078125,16.87528125,22.54818359375,27.396828125
10.9286875,10.5447109375,16.2668984375,9.5525859375,17.28279296875,15.76315234375,12.24079296875,13.7432421875,14.2183359375,17.90963671875,18.776046875,19.56144921875,15.1115546875,18.37302734375,19.05116796875,24.5851640625,13.313453125,14.187140625,21.33645703125,25.4864453125,23.34016796875,17.91634375,20.8254375,29.26180078125,30.73593359375,25.049796875,27.95405078125,17.34328125,23.27118359375,28.649828125
10.6086875,10.4077109375,16.4888984375,7.9815859375,18.53379296875,18.23315234375,15.43279296875,15.9692421875,15.9243359375,19.19263671875,21.601046875,22.14944921875,16.3065546875,19.63302734375,20.51616796875,27.3941640625,16.587453125,15.067140625,23.52345703125,28.1494453125,25.30516796875,19.05734375,22.6714375,31.67580078125,32.49393359375,24.582796875,29.80105078125,18.15228125,24.16318359375,29.896828125
10.1246875,10.2967109375,16.7248984375,7.0625859375,18.85879296875,19.77315234375,17.56779296875,17.3372421875,17.5283359375,19.48163671875,23.261046875,23.76344921875,18.3955546875,20.38302734375,21.02916796875,29.2041640625,20.893453125,16.352140625,25.02945703125,29.6334453125,26.35416796875,20.23034375,24.4154375,33.23480078125,33.28393359375,23.685796875,31.25905078125,19.27328125,25.08118359375,30.856828125
9.8586875,10.5607109375,17.2548984375,6.8975859375,18.12179296875,20.24115234375,18.56679296875,17.8212421875,18.4493359375,18.86463671875,23.787046875,24.31744921875,20.7765546875,20.61302734375,20.87516796875,30.0161640625,25.504453125,17.755140625,25.78145703125,29.9094453125,26.77416796875,21.19034375,25.7524375,33.64080078125,33.13293359375,22.553796875,31.96405078125,20.48128125,25.74318359375,31.208828125
10.0946875,11.3307109375,18.1388984375,7.2885859375,16.24679296875,19.56215234375,18.45279296875,17.5402421875,18.1033359375,17.43863671875,23.207046875,23.91444921875,22.8765546875,20.31802734375,20.30516796875,29.8881640625,29.044453125,18.940140625,25.76145703125,29.1664453125,26.95116796875,21.94034375,26.5084375,32.80580078125,32.25893359375,21.412796875,31.67505078125,21.38228125,25.79718359375,30.644828125
10.8676875,12.4207109375,19.1578984375,7.8755859375,13.37779296875,17.81715234375,17.29279296875,16.6682421875,16.3053359375,15.34563671875,21.520046875,22.77744921875,24.3795546875,19.54402734375,19.42816796875,28.8651640625,30.040453125,19.653140625,24.97745703125,27.6794453125,27.03116796875,22.63234375,26.6364375,30.85080078125,30.89393359375,20.314796875,30.31305078125,21.53528125,24.93418359375,28.960828125
11.8736875,13.3487109375,19.8628984375,8.2895859375,9.99179296875,15.28015234375,15.14779296875,15.2992421875,13.4863359375,12.82763671875,18.757046875,21.12644921875,25.2165546875,18.42402734375,18.21016796875,26.9741640625,27.632453125,19.774140625,23.47545703125,25.6614453125,26.73616796875,23.34134375,26.1334375,28.03880078125,29.10093359375,18.999796875,27.93005078125,20.61028125,23.01618359375,26.147828125
12.5496875,13.5187109375,19.7498984375,8.2695859375,6.83979296875,12.33615234375,12.05279296875,13.4062421875,10.5233359375,10.24463671875,15.105046875,19.10344921875,25.4225546875,17.14402734375,16.56316796875,24.2751640625,22.107453125,19.296140625,21.36045703125,23.2024453125,25.47616796875,23.87934375,24.9244375,24.68980078125,26.73493359375,17.009796875,24.66905078125,18.51028125,20.13718359375,22.431828125
12.3296875,12.4907109375,18.5038984375,7.7425859375,4.69879296875,9.37815234375,8.09079296875,10.9622421875,8.3153359375,8.01063671875,10.956046875,16.77944921875,24.9755546875,15.85902734375,14.47416796875,20.9341640625,14.937453125,18.212140625,18.81045703125,20.3184453125,22.72616796875,23.70534375,22.8334375,21.10580078125,23.56693359375,14.010796875,20.74105078125,15.43228125,16.61818359375,18.251828125
10.9436875,10.2167109375,16.1568984375,6.8265859375,4.05579296875,6.73615234375,3.50679296875,8.1222421875,7.3513359375,6.45563671875,6.857046875,14.24344921875,23.7485546875,14.58002734375,12.06616796875,17.2441640625,8.250453125,16.406140625,16.01645703125,17.0444453125,18.42216796875,22.01034375,19.6484375,17.50180078125,19.50493359375,10.105796875,16.41205078125,11.81528125,12.92918359375,14.163828125
8.5556875,7.0857109375,13.0768984375,5.7465859375,4.89779296875,4.59815234375,-1.26120703125,5.2682421875,7.5443359375,5.68963671875,3.337046875,11.66644921875,21.5805546875,13.15202734375,9.57216796875,13.5891640625,3.887453125,13.666140625,13.12145703125,13.5154453125,13.12316796875,18.04634375,15.2844375,13.99080078125,14.77093359375,5.888796875,12.00605078125,8.22928125,9.57318359375,10.709828125
5.6736875,3.7387109375,9.8118984375,4.7145859375,6.73079296875,2.93315234375,-5.71320703125,2.8562421875,8.3893359375,5.54063671875,0.733046875,9.28544921875,18.4725546875,11.35302734375,7.22516796875,10.3331640625,2.581453125,9.876140625,10.20145703125,9.9724453125,7.84516796875,11.70634375,9.9544375,10.63680078125,9.91293359375,2.226796875,7.90405078125,5.20828125,6.95918359375,8.271828125
2.9326875,0.804710937499999,6.8818984375,3.8425859375,8.75679296875,1.48315234375,-9.46920703125,1.1762421875,9.2583359375,5.60763671875,-0.935953124999999,7.29444921875,14.7305546875,9.05902734375,5.15116796875,7.7011640625,3.732453125,5.271140625,7.31045703125,6.7124453125,3.68416796875,3.96934375,4.2464375,7.52680078125,5.65293359375,-0.102203125000001,4.50305078125,3.10428125,5.29218359375,6.962828125
0.8576875,-1.3142890625,4.6188984375,3.1225859375,10.10479296875,-0.11084765625,-12.38520703125,0.1832421875,9.6393359375,5.37863671875,-1.986953125,5.70944921875,10.9195546875,6.36902734375,3.29416796875,5.6891640625,5.868453125,0.509140625000001,4.53845703125,3.9724453125,1.37216796875,-3.27665625,-0.9925625,4.80980078125,2.61893359375,-0.728203125,2.12705078125,2.01028125,4.52118359375,6.592828125
-0.3013125,-2.5212890625,3.0928984375,2.4155859375,10.05979296875,-2.14284765625,-14.57620703125,-0.5277578125,9.2213359375,4.40663671875,-2.934953125,4.29544921875,7.6335546875,3.58602734375,1.45616796875,4.0771640625,7.406453125,-3.542859375,2.03245703125,1.8494453125,0.970167968749999,-8.07465625,-4.9295625,2.67280078125,1.09393359375,0.137796874999999,0.940050781249999,1.81228125,4.42718359375,6.776828125
-0.6183125,-2.9872890625,2.1578984375,1.4885859375,8.27879296875,-4.70284765625,-16.34620703125,-1.5717578125,7.8933359375,2.49363671875,-4.248953125,2.64344921875,5.2535546875,1.10902734375,-0.56283203125,2.5671640625,7.234453125,-6.150859375,-0.00754296875000104,0.293445312499999,1.83816796875,-9.35565625,-7.0275625,1.30080078125,0.93693359375,1.781796875,0.908050781249999,2.32328125,4.78318359375,7.148828125
-0.4043125,-3.0212890625,1.5938984375,0.1205859375,4.94979296875,-7.61084765625,-18.02720703125,-3.4527578125,5.7503359375,-0.18436328125,-6.097953125,0.40444921875,3.8675546875,-0.70597265625,-2.76783203125,0.973164062499999,4.961453125,-6.967859375,-1.36354296875,-0.8035546875,2.96216796875,-7.36565625,-7.2015625,0.808800781250003,1.69493359375,3.308796875,1.82805078125,3.38428125,5.46518359375,7.528828125
-0.0523125000000002,-2.9212890625,1.2298984375,-1.7424140625,0.755792968750001,-10.41484765625,-19.75120703125,-6.2097578125,3.0943359375,-3.11736328125,-8.237953125,-2.46955078125,3.3415546875,-1.66197265625,-4.89783203125,-0.655835937500002,0.945453125,-6.111859375,-1.88454296875,-1.5145546875,3.45516796875,-3.41865625,-5.8035625,1.17880078125,2.83793359375,4.068796875,3.37905078125,4.84228125,6.41518359375,7.920828125
0.0956875000000004,-2.8772890625,0.9788984375,-3.9234140625,-3.35120703125,-12.48784765625,-21.31620703125,-9.2947578125,0.4083359375,-5.65936328125,-10.117953125,-5.60955078125,3.4615546875,-1.77797265625,-6.51483203125,-2.0748359375,-3.773546875,-4.080859375,-1.59554296875,-1.8405546875,2.96216796875,0.766343750000001,-3.4945625,2.19680078125,3.96393359375,3.922796875,5.16105078125,6.44928125,7.51018359375,8.377828125
-0.1793125,-2.9642890625,0.796898437499999,-6.0954140625,-6.46420703125,-13.26984765625,-22.25720703125,-11.8187578125,-1.7466640625,-7.27836328125,-11.140953125,-8.33755078125,4.0545546875,-1.27797265625,-7.21283203125,-2.9698359375,-7.713546875,-1.553859375,-0.733542968750001,-1.7555546875,1.74916796875,3.77734375,-1.0395625,3.47980078125,4.88193359375,3.209796875,6.78105078125,7.86228125,8.49718359375,8.891828125
-0.9403125,-3.1642890625,0.6608984375,-7.9344140625,-8.01620703125,-12.51784765625,-22.08920703125,-12.9987578125,-2.9156640625,-7.73236328125,-10.937953125,-9.91955078125,5.0285546875,-0.48797265625,-6.82083203125,-3.1018359375,-9.478546875,0.866140625,0.333457031249999,-1.2545546875,0.474167968749999,5.01634375,0.9464375,4.60680078125,5.59993359375,2.478796875,7.96005078125,8.76828125,9.08618359375,9.390828125
-2.0863125,-3.4122890625,0.5678984375,-9.2294140625,-7.96020703125,-10.42884765625,-20.58420703125,-12.5357578125,-2.9676640625,-7.13436328125,-9.545953125,-9.85955078125,6.2895546875,0.27702734375,-5.48983203125,-2.4078359375,-8.496546875,2.839140625,1.26145703125,-0.3935546875,-0.193832031250001,4.80734375,2.1794375,5.29580078125,6.23493359375,2.192796875,8.61705078125,9.04528125,9.08918359375,9.798828125
-3.4063125,-3.6312890625,0.5388984375,-9.9214140625,-6.78420703125,-7.59684765625,-17.93220703125,-10.7407578125,-2.2036640625,-5.89936328125,-7.423953125,-8.11655078125,7.6195546875,0.804027343750001,-3.65883203125,-1.0468359375,-5.516546875,4.320140625,1.85345703125,0.6894453125,0.0921679687499992,4.04734375,2.7394375,5.49380078125,6.90093359375,2.535796875,8.85205078125,8.80728125,8.50618359375,10.055828125
-4.6623125,-3.7832890625,0.5998984375,-10.1204140625,-5.28520703125,-4.82584765625,-14.75320703125,-8.4067578125,-1.2256640625,-4.57836328125,-5.284953125,-5.17655078125,8.6515546875,1.03302734375,-1.88883203125,0.629164062499999,-2.386546875,5.444140625,2.11545703125,1.7904453125,1.19916796875,3.60934375,2.9464375,5.35780078125,7.62193359375,3.370796875,8.85705078125,8.31128125,7.52018359375,10.102828125
-5.6633125,-3.8762890625,0.7798984375,-10.0784140625,-4.19020703125,-2.89184765625,-11.93020703125,-6.4907578125,-0.5956640625,-3.61936328125,-3.786953125,-1.91855078125,9.0145546875,1.08602734375,-0.63783203125,2.1741640625,-1.055546875,6.374140625,2.22945703125,2.7004453125,2.58216796875,3.84734375,3.1614375,5.15480078125,8.31193359375,4.311796875,8.81005078125,7.81628125,6.43518359375,9.904828125
-6.2823125,-3.9342890625,1.1118984375,-10.1244140625,-3.83320703125,-2.27584765625,-10.29020703125,-5.7077578125,-0.5166640625,-3.17736328125,-3.260953125,0.66344921875,8.5435546875,1.22702734375,-0.0688320312499999,3.1971640625,-2.395546875,7.198140625,2.46145703125,3.2804453125,3.54616796875,4.50534375,3.6324375,5.13480078125,8.81893359375,4.920796875,8.82205078125,7.48128125,5.59018359375,9.510828125
-6.4663125,-3.9472890625,1.6208984375,-10.5574140625,-4.10620703125,-2.99384765625,-10.26520703125,-6.2317578125,-0.786664062500001,-3.10236328125,-3.616953125,1.79544921875,7.4075546875,1.73702734375,-0.0448320312499999,3.4721640625,-5.644546875,7.899140625,3.01745703125,3.5094453125,3.58216796875,5.06434375,4.4184375,5.42480078125,9.02393359375,4.952796875,8.92305078125,7.32728125,5.25418359375,9.078828125
-6.2703125,-3.8962890625,2.2748984375,-11.5604140625,-4.66720703125,-4.65784765625,-11.75820703125,-7.6957578125,-1.0486640625,-3.10836328125,-4.479953125,1.18744921875,6.0325546875,2.72102734375,-0.27283203125,2.9821640625,-8.916546875,8.392140625,3.90045703125,3.4554453125,2.61916796875,5.21034375,5.4074375,5.97880078125,8.91093359375,4.523796875,9.05705078125,7.26328125,5.50018359375,8.794828125
-5.9033125,-3.8202890625,2.9368984375,-13.1764140625,-5.23520703125,-6.71984765625,-14.26820703125,-9.4987578125,-1.1246640625,-3.00736328125,-5.428953125,-0.87955078125,4.8725546875,3.97602734375,-0.51983203125,1.8871640625,-10.455546875,8.574140625,4.86345703125,3.2164453125,1.03516796875,5.04534375,6.3614375,6.59180078125,8.56693359375,4.027796875,9.10005078125,7.14528125,6.14318359375,8.726828125
-5.6633125,-3.8392890625,3.3858984375,-15.2824140625,-5.74920703125,-8.70084765625,-17.12020703125,-11.1557578125,-1.1526640625,-2.82636328125,-6.178953125,-3.65555078125,4.1665546875,5.03602734375,-0.71383203125,0.464164062499998,-9.750546875,8.362140625,5.50845703125,2.8674453125,-0.57183203125,4.87434375,6.9844375,6.98380078125,8.12293359375,3.826796875,8.89505078125,6.85728125,6.79918359375,8.756828125
-5.7643125,-4.0682890625,3.4248984375,-17.5454140625,-6.31520703125,-10.25484765625,-19.63320703125,-12.4497578125,-1.4376640625,-2.74636328125,-6.607953125,-6.20055078125,3.8525546875,5.40802734375,-0.89983203125,-0.953835937500002,-7.753546875,7.742140625,5.49945703125,2.4694453125,-1.69683203125,4.84934375,7.0294375,6.95780078125,7.68493359375,3.939796875,8.31905078125,6.36528125,7.07518359375,8.667828125
-6.1813125,-4.4932890625,3.0148984375,-19.4444140625,-7.04020703125,-11.13384765625,-21.24420703125,-13.3457578125,-2.1676640625,-2.93536328125,-6.697953125,-7.73655078125,3.6945546875,4.85502734375,-1.11283203125,-2.0608359375,-6.074546875,6.821140625,4.77045703125,2.0954453125,-2.13583203125,4.86134375,6.4144375,6.51380078125,7.29993359375,3.969796875,7.36105078125,5.71228125,6.75118359375,8.300828125
-6.6543125,-4.9602890625,2.3138984375,-20.4504140625,-7.91920703125,-11.23284765625,-21.65120703125,-13.8717578125,-3.2576640625,-3.43636328125,-6.486953125,-7.94755078125,3.5065546875,3.53602734375,-1.31183203125,-2.6598359375,-5.818546875,5.837140625,3.57845703125,1.8304453125,-1.99283203125,4.77834375,5.2834375,5.84880078125,6.95793359375,3.362796875,6.11905078125,4.92928125,5.82518359375,7.631828125
-6.8843125,-5.2972890625,1.5898984375,-20.3054140625,-8.87420703125,-10.68884765625,-20.94220703125,-14.0717578125,-4.4456640625,-4.19336328125,-6.094953125,-7.06555078125,3.2805546875,1.89102734375,-1.44883203125,-2.7598359375,-6.927546875,5.071140625,2.33345703125,1.6894453125,-1.56083203125,4.67534375,3.9194375,5.18580078125,6.56293359375,1.789796875,4.70005078125,3.92728125,4.40118359375,6.678828125
-6.7953125,-5.4812890625,1.0418984375,-19.2434140625,-9.90120703125,-9.90384765625,-19.57420703125,-14.0357578125,-5.5496640625,-5.17636328125,-5.767953125,-5.72555078125,3.0805546875,0.34702734375,-1.59383203125,-2.6008359375,-8.442546875,4.651140625,1.31245703125,1.5264453125,-1.20983203125,4.72134375,2.5504375,4.55380078125,5.90793359375,-0.636203125000002,3.09305078125,2.46628125,2.54218359375,5.369828125
-6.6503125,-5.7032890625,0.6578984375,-17.9554140625,-11.13120703125,-9.40484765625,-18.19620703125,-13.9287578125,-6.6236640625,-6.44736328125,-5.839953125,-4.66155078125,2.8075546875,-0.937972656249999,-1.98883203125,-2.5918359375,-9.381546875,4.385140625,0.460457031249999,1.0284453125,-1.32983203125,4.79134375,1.1814375,3.69780078125,4.67993359375,-3.470203125,1.12805078125,0.284281250000001,0.239183593749999,3.527828125
-6.9073125,-6.2522890625,0.2418984375,-17.2774140625,-12.68520703125,-9.60984765625,-17.41120703125,-13.9627578125,-7.8256640625,-8.05636328125,-6.569953125,-4.38055078125,2.1085546875,-2.08297265625,-2.91583203125,-3.1138359375,-9.424546875,3.807140625,-0.520542968750001,-0.122554687500001,-2.26783203125,4.26634375,-0.3775625,2.23180078125,2.60893359375,-6.202203125,-1.36894921875,-2.65871875,-2.46781640625,1.053828125
-7.8363125,-7.2572890625,-0.3711015625,-17.7124140625,-14.39220703125,-10.57984765625,-17.52520703125,-14.2827578125,-9.0906640625,-9.82236328125,-7.897953125,-4.93355078125,0.632554687500001,-3.22697265625,-4.41483203125,-4.2568359375,-8.850546875,2.500140625,-1.84454296875,-1.9735546875,-4.13283203125,2.36434375,-2.2755625,-0.00619921874999818,-0.26406640625,-8.437203125,-4.31494921875,-5.97871875,-5.30581640625,-1.825171875
-9.1773125,-8.4632890625,-1.0781015625,-19.0744140625,-15.66120703125,-11.90684765625,-18.38520703125,-14.8037578125,-9.9186640625,-11.21336328125,-9.330953125,-5.88355078125,-1.5364453125,-4.24097265625,-6.08283203125,-5.6508359375,-7.960546875,0.478140625,-3.32854296875,-4.0965546875,-6.57183203125,-1.21265625,-4.3545625,-2.66419921875,-3.37606640625,-9.887203125,-7.20194921875,-8.87971875,-7.69481640625,-4.467171875
-10.1473125,-9.2722890625,-1.4831015625,-20.5374140625,-15.70120703125,-12.85084765625,-19.42020703125,-15.1817578125,-9.5716640625,-11.51036328125,-10.094953125,-6.52955078125,-3.6864453125,-4.68997265625,-7.15683203125,-6.5728359375,-6.682546875,-1.691859375,-4.39854296875,-5.6915546875,-8.75983203125,-5.85565625,-6.1065625,-4.91519921875,-5.73806640625,-10.317203125,-9.21794921875,-10.45471875,-8.91081640625,-6.033171875
-9.8813125,-9.0792890625,-1.1391015625,-21.0964140625,-13.98820703125,-12.75384765625,-19.93920703125,-14.9997578125,-7.5966640625,-10.21736328125,-9.553953125,-6.29155078125,-4.7554453125,-4.12897265625,-6.92183203125,-6.3278359375,-4.717546875,-3.162859375,-4.42054296875,-5.9745546875,-9.72483203125,-10.23365625,-6.9255625,-5.85619921875,-6.37406640625,-9.569203125,-9.62494921875,-10.12271875,-8.40981640625,-5.900171875
-7.9903125,-7.6812890625,0.130898437499999,-20.1644140625,-10.67020703125,-11.46884765625,-19.53320703125,-14.0417578125,-4.2856640625,-7.43436328125,-7.614953125,-5.04255078125,-3.9464453125,-2.49097265625,-5.16683203125,-4.6808359375,-1.949546875,-3.298859375,-3.15154296875,-4.6345546875,-8.82783203125,-12.92365625,-6.4895625,-5.01519921875,-4.84106640625,-7.616203125,-8.15394921875,-7.93171875,-6.12781640625,-4.006171875
-4.8403125,-5.4602890625,2.0598984375,-17.8964140625,-6.61120703125,-9.47984765625,-18.27920703125,-12.4437578125,-0.6866640625,-3.92836328125,-4.860953125,-3.14855078125,-1.2404453125,-0.25797265625,-2.39683203125,-2.0418359375,1.335453125,-2.043859375,-0.976542968750001,-2.0385546875,-6.09283203125,-13.05965625,-4.9885625,-2.65119921875,-1.49906640625,-4.607203125,-5.18394921875,-4.55871875,-2.57481640625,-0.899171875
-1.3773125,-3.2072890625,4.0378984375,-15.0814140625,-3.04120703125,-7.60884765625,-16.61820703125,-10.6197578125,1.8903359375,-0.81836328125,-2.310953125,-1.23055078125,2.5375546875,1.73102734375,0.36316796875,0.688164062499999,4.550453125,0.0571406250000006,1.22145703125,0.906445312499999,-2.20983203125,-10.62765625,-3.0705625,0.328800781250003,2.62193359375,-0.926203125000001,-1.59494921875,-1.01371875,1.33318359375,2.503828125
1.3376875,-1.7322890625,5.3838984375,-12.7294140625,-0.994207031249999,-6.55484765625,-15.07420703125,-9.0637578125,2.5603359375,0.91863671875,-0.931953125,0.17144921875,6.1015546875,2.70002734375,2.04016796875,2.5381640625,7.037453125,2.163140625,2.47445703125,3.1644453125,1.75116796875,-6.35165625,-1.5365625,2.77380078125,6.26693359375,2.788796875,1.59405078125,1.77628125,4.62318359375,5.311828125
2.5636875,-1.5232890625,5.6358984375,-11.6294140625,-0.864207031249999,-6.59284765625,-14.02720703125,-8.1627578125,1.2933359375,0.86863671875,-1.208953125,0.81144921875,8.2885546875,2.30902734375,2.00216796875,2.8791640625,8.234453125,3.562140625,2.19745703125,4.0004453125,4.73016796875,-1.36065625,-0.9835625,3.78380078125,8.45293359375,5.745796875,3.61005078125,3.27828125,6.60018359375,6.967828125
2.1076875,-2.5922890625,4.7098984375,-12.0814140625,-2.31820703125,-7.54084765625,-13.62520703125,-8.0687578125,-1.1466640625,-0.69836328125,-2.973953125,0.741449218750001,8.4925546875,0.76902734375,0.28916796875,1.6261640625,7.755453125,3.949140625,0.445457031249998,3.2244453125,6.01516796875,3.16434375,-1.5865625,3.03580078125,8.77193359375,7.252796875,4.15605078125,3.44028125,7.03418359375,7.362828125
0.319687500000001,-4.5072890625,2.9058984375,-13.8364140625,-4.54920703125,-8.90784765625,-13.77820703125,-8.6597578125,-3.6596640625,-3.02836328125,-5.543953125,0.18144921875,6.8205546875,-1.30997265625,-2.45883203125,-0.796835937500002,5.500453125,3.475140625,-2.14354296875,1.2014453125,5.42516796875,6.23634375,-3.0715625,0.846800781250002,7.43793359375,6.996796875,3.41905078125,2.60028125,6.15418359375,6.765828125
-2.0833125,-6.5662890625,0.7798984375,-16.2484140625,-6.68020703125,-10.10884765625,-14.19520703125,-9.5967578125,-5.3206640625,-5.22636328125,-8.031953125,-0.61655078125,3.9865546875,-3.20297265625,-5.28583203125,-3.6528359375,1.848453125,2.611140625,-4.64354296875,-1.3195546875,3.33916796875,7.27034375,-4.8365625,-1.99519921875,5.14193359375,5.216796875,1.95105078125,1.32828125,4.54718359375,5.690828125
-4.2833125,-8.0422890625,-1.0421015625,-18.5404140625,-8.05220703125,-10.69784765625,-14.49620703125,-10.4937578125,-5.6776640625,-6.57936328125,-9.662953125,-1.42255078125,1.0795546875,-4.31997265625,-7.26183203125,-6.1038359375,-2.173546875,1.950140625,-6.18654296875,-3.4435546875,0.605167968749999,6.27434375,-6.1375625,-4.49419921875,2.84193359375,2.703796875,0.512050781249998,0.291281250000001,2.99918359375,4.768828125
-5.6263125,-8.4372890625,-2.0611015625,-20.0734140625,-8.34720703125,-10.54084765625,-14.36420703125,-11.0687578125,-4.7596640625,-6.76036328125,-10.003953125,-2.02155078125,-0.762445312500001,-4.35297265625,-7.76783203125,-7.4268359375,-5.015546875,2.017140625,-6.24254296875,-4.3795546875,-1.69183203125,3.95134375,-6.3055625,-5.74319921875,1.49493359375,0.590796874999999,-0.139949218750001,0.101281250000001,2.28718359375,4.591828125
-5.8153125,-7.6412890625,-2.0531015625,-20.5034140625,-7.59220703125,-9.81684765625,-13.65320703125,-11.2017578125,-2.9156640625,-5.88436328125,-9.074953125,-2.20555078125,-0.7274453125,-3.32597265625,-6.67583203125,-7.2038359375,-5.165546875,3.097140625,-4.76554296875,-3.6835546875,-2.57083203125,1.51734375,-4.9725625,-5.20219921875,1.77193359375,-0.0382031250000008,0.521050781249999,1.10028125,2.90518359375,5.501828125
-4.9793125,-5.9402890625,-1.1311015625,-19.8174140625,-6.10220703125,-8.90184765625,-12.41620703125,-10.8817578125,-0.626664062500001,-4.41136328125,-7.306953125,-1.81355078125,1.3255546875,-1.56897265625,-4.36983203125,-5.4618359375,-1.936546875,5.106140625,-2.19954296875,-1.4095546875,-1.50783203125,0.184343750000002,-2.2685625,-2.89019921875,3.79893359375,1.380796875,2.56605078125,3.18128125,4.84218359375,7.418828125
-3.5733125,-3.8782890625,0.3348984375,-18.3134140625,-4.34520703125,-8.19084765625,-10.89520703125,-10.1357578125,1.6333359375,-2.92236328125,-5.356953125,-0.81055078125,4.7505546875,0.408027343750001,-1.57983203125,-2.6638359375,4.052453125,7.556140625,0.687457031249998,1.8784453125,1.34516796875,0.529343750000001,1.1464375,0.595800781250002,7.08393359375,4.601796875,5.55205078125,5.76928125,7.54518359375,9.831828125
-2.1533125,-2.0222890625,1.9088984375,-16.5034140625,-2.78920703125,-7.95084765625,-9.45020703125,-9.0037578125,3.4623359375,-1.85236328125,-3.836953125,0.648449218750001,8.3675546875,2.08802734375,0.92316796875,0.447164062499999,11.089453125,9.711140625,3.09245703125,5.3064453125,5.23316796875,2.19734375,4.2764375,4.28180078125,10.69993359375,8.640796875,8.67605078125,8.02828125,10.12318359375,11.991828125
-1.1313125,-0.7402890625,3.2578984375,-14.9414140625,-1.76720703125,-8.20584765625,-8.41620703125,-7.5617578125,4.5333359375,-1.32836328125,-3.087953125,2.20844921875,10.9785546875,3.11602734375,2.62616796875,3.1001640625,17.127453125,10.872140625,4.48045703125,8.0024453125,9.10416796875,4.14534375,6.1844375,7.16080078125,13.65293359375,12.188796875,11.08105078125,9.20528125,11.69718359375,13.210828125
-0.6493125,-0.1132890625,4.2058984375,-14.0634140625,-1.43720703125,-8.73184765625,-7.95520703125,-5.9927578125,4.6093359375,-1.19236328125,-3.092953125,3.39644921875,11.8315546875,3.37302734375,3.41416796875,4.7241640625,20.557453125,10.657140625,4.72945703125,9.3924453125,11.97616796875,5.26834375,6.3724375,8.53580078125,15.24093359375,14.134796875,12.16605078125,8.92528125,11.73918359375,13.109828125
-0.603312499999999,-0.00128906249999972,4.6908984375,-14.0924140625,-1.79220703125,-9.18784765625,-8.00420703125,-4.6497578125,3.5913359375,-1.17636328125,-3.547953125,3.78944921875,10.7975546875,2.95802734375,3.51916796875,5.1141640625,20.630453125,9.125140625,4.10545703125,9.3734453125,13.22516796875,4.97334375,4.9694375,8.25180078125,15.27393359375,13.974796875,11.79005078125,7.33628125,10.27618359375,11.748828125
-0.7423125,-0.1742890625,4.7358984375,-15.0054140625,-2.67320703125,-9.31984765625,-8.35320703125,-3.9957578125,1.6263359375,-1.07736328125,-4.004953125,3.21044921875,8.2695546875,2.12402734375,3.35316796875,4.4861640625,17.538453125,6.722140625,3.10945703125,8.3404453125,12.75716796875,3.40634375,2.6584375,6.74380078125,14.09193359375,11.946796875,10.33105078125,5.05028125,7.88318359375,9.616828125
-0.7603125,-0.4062890625,4.4738984375,-16.5084140625,-3.79920703125,-9.07184765625,-8.74820703125,-4.3567578125,-0.8546640625,-0.83336328125,-4.045953125,1.85244921875,4.9785546875,1.19902734375,3.31816796875,3.4041640625,12.298453125,4.114140625,2.29145703125,7.0294453125,11.02016796875,1.30234375,0.3954375,4.87080078125,12.41193359375,8.891796875,8.56105078125,2.91828125,5.46318359375,7.465828125
-0.377312499999999,-0.5022890625,4.1468984375,-18.0414140625,-4.82520703125,-8.52384765625,-8.96320703125,-5.6437578125,-3.2236640625,-0.48536328125,-3.425953125,0.24344921875,1.8425546875,0.51302734375,3.65616796875,2.5771640625,6.498453125,2.003140625,2.08345703125,6.2394453125,8.87516796875,-0.336656249999999,-0.9375625,3.57480078125,11.06393359375,5.900796875,7.35305078125,1.69428125,3.88218359375,6.018828125
0.5566875,-0.3092890625,4.0378984375,-18.9244140625,-5.42520703125,-7.77584765625,-8.82320703125,-7.2687578125,-4.8406640625,-0.0923632812499999,-2.140953125,-0.947550781249999,-0.177445312500002,0.33302734375,4.39516796875,2.6001640625,1.884453125,0.975140625,2.69245703125,6.5374453125,7.33116796875,-0.559656249999998,-0.8105625,3.52780078125,10.72693359375,3.946796875,7.34705078125,1.76428125,3.63618359375,5.682828125
1.9766875,0.2547109375,4.3498984375,-18.6474140625,-5.34320703125,-6.87184765625,-8.23520703125,-8.4007578125,-5.2156640625,0.37063671875,-0.377953124999999,-1.16955078125,-0.2894453125,0.82302734375,5.40516796875,3.7631640625,-0.172546875,1.399140625,4.08245703125,8.0644453125,7.22216796875,1.28134375,0.832437500000001,4.91380078125,11.72593359375,3.621796875,8.72905078125,3.06228125,4.71318359375,6.430828125
3.6056875,1.1577109375,5.1008984375,-17.1154140625,-4.43920703125,-5.80584765625,-7.18520703125,-8.3897578125,-4.1246640625,1.02863671875,1.577046875,-0.21955078125,1.8225546875,2.00102734375,6.50716796875,5.9701640625,0.869453125,3.324140625,6.02145703125,10.5224453125,8.88716796875,5.25134375,3.5954375,7.40680078125,13.92893359375,4.971796875,11.18205078125,5.16328125,6.67518359375,7.873828125
5.0536875,2.2497109375,6.0928984375,-14.7124140625,-2.74420703125,-4.54584765625,-5.69820703125,-7.1027578125,-1.6686640625,2.02763671875,3.426046875,1.64144921875,5.7635546875,3.71002734375,7.53916796875,8.7571640625,4.555453125,6.375140625,8.13845703125,13.2814453125,11.98216796875,10.59534375,6.7644375,10.30980078125,16.74993359375,7.463796875,14.00705078125,7.45528125,8.85218359375,9.439828125
5.9636875,3.2957109375,6.9738984375,-12.1204140625,-0.488207031249999,-3.07784765625,-3.81120703125,-4.9867578125,1.7203359375,3.41963671875,4.923046875,3.78444921875,10.4755546875,5.64102734375,8.37216796875,11.4311640625,9.644453125,9.761140625,10.00445703125,15.5994453125,15.57016796875,15.77734375,9.5214375,12.79380078125,19.32293359375,10.158796875,16.36005078125,9.33328125,10.57618359375,10.582828125
6.1346875,4.0567109375,7.3958984375,-10.0234140625,1.96479296875,-1.45884765625,-1.58120703125,-2.8557578125,5.3723359375,5.10263671875,5.944046875,5.51744921875,14.6445546875,7.43102734375,8.93216796875,13.3361640625,14.586453125,12.500140625,11.25945703125,16.8834453125,18.51616796875,18.97234375,11.2004375,14.19480078125,20.81593359375,12.122796875,17.56505078125,10.38528125,11.39218359375,10.960828125
5.6026875,4.3887109375,7.2048984375,-8.8254140625,4.23279296875,0.16415234375,0.88179296875,-1.4937578125,8.5683359375,6.85363671875,6.543046875,6.42244921875,17.2955546875,8.79602734375,9.21916796875,14.1171640625,18.054453125,13.813140625,11.74245703125,16.9114453125,19.98916796875,18.88934375,11.5174375,14.23880078125,20.76693359375,12.849796875,17.36205078125,10.53528125,11.19118359375,10.530828125
4.6296875,4.3047109375,6.5348984375,-8.4994140625,5.99179296875,1.60915234375,3.41879296875,-1.2667578125,10.7193359375,8.38463671875,6.901046875,6.51144921875,18.2045546875,9.62402734375,9.29316796875,13.8291640625,19.358453125,13.476140625,11.53245703125,15.8784453125,19.78216796875,15.48634375,10.6484375,13.10880078125,19.24293359375,12.408796875,15.95805078125,10.03128125,10.19918359375,9.529828125
3.6076875,3.9477109375,5.7378984375,-8.6454140625,6.97879296875,2.73815234375,5.82779296875,-1.9627578125,11.4823359375,9.38863671875,7.162046875,6.07744921875,17.8845546875,9.94102734375,9.20616796875,12.8041640625,18.565453125,11.922140625,10.85645703125,14.2534453125,18.26216796875,10.13534375,9.1044375,11.28680078125,16.74193359375,11.221796875,13.87005078125,9.27428125,8.80618359375,8.326828125
2.8626875,3.4727109375,5.1728984375,-8.7624140625,6.99079296875,3.46215234375,7.84079296875,-2.9537578125,10.8023359375,9.58663671875,7.281046875,5.39744921875,17.1565546875,9.82102734375,8.91916796875,11.3891640625,16.304453125,9.984140625,9.93945703125,12.5154453125,16.03516796875,5.06134375,7.4774375,9.28480078125,13.90993359375,9.675796875,11.65105078125,8.56428125,7.34418359375,7.237828125
2.4986875,2.9277109375,5.0058984375,-8.5584140625,5.94979296875,3.69215234375,9.12379296875,-3.5767578125,8.8973359375,8.81563671875,7.014046875,4.53344921875,16.6225546875,9.28002734375,8.29216796875,9.7591640625,13.372453125,8.434140625,8.87945703125,10.9384453125,13.59016796875,2.26534375,6.1784375,7.41980078125,11.25293359375,7.874796875,9.65505078125,7.95128125,5.95718359375,6.396828125
2.3566875,2.2227109375,5.1368984375,-8.1234140625,3.98379296875,3.32115234375,9.39079296875,-3.4877578125,6.2113359375,7.11363671875,6.086046875,3.41044921875,16.3585546875,8.26902734375,7.16916796875,7.9461640625,10.399453125,7.601140625,7.63545703125,9.5434453125,11.18016796875,2.52834375,5.2934375,5.75480078125,9.01393359375,5.724796875,7.97705078125,7.27928125,4.62918359375,5.751828125
2.1036875,1.2147109375,5.2678984375,-7.8854140625,1.46979296875,2.26815234375,8.56779296875,-2.8287578125,3.2963359375,4.75763671875,4.446046875,2.06144921875,15.9995546875,6.75102734375,5.51716796875,6.0301640625,7.755453125,7.280140625,6.12245703125,8.2134453125,8.96516796875,5.07234375,4.6454375,4.21280078125,7.25493359375,3.265796875,6.56005078125,6.37228125,3.34818359375,5.181828125
1.3876875,-0.1812890625,5.0698984375,-8.4154140625,-1.00520703125,0.47215234375,6.83579296875,-2.1797578125,0.6683359375,2.20963671875,2.414046875,0.810449218750001,15.0555546875,4.79902734375,3.51316796875,4.3351640625,5.631453125,6.956140625,4.33945703125,6.8844453125,7.24716796875,8.03034375,3.9674375,2.77180078125,6.05293359375,0.995796875,5.38705078125,5.25428125,2.27318359375,4.670828125
-0.0273124999999999,-1.9392890625,4.3348984375,-10.2014140625,-2.79020703125,-2.15184765625,4.48479296875,-2.3097578125,-1.3136640625,-0.0283632812499999,0.605046875,0.22244921875,13.2105546875,2.63002734375,1.51516796875,3.4141640625,4.138453125,6.139140625,2.42945703125,5.6564453125,6.52316796875,9.38734375,3.0784375,1.58180078125,5.61093359375,-0.140203125000001,4.59805078125,4.20928125,1.77118359375,4.403828125
-2.1813125,-3.9542890625,3.0518984375,-13.4664140625,-3.40020703125,-5.70784765625,1.73179296875,-3.8237578125,-2.5116640625,-1.59136328125,-0.378953125,0.80944921875,10.4475546875,0.51202734375,-0.11583203125,3.7861640625,3.305453125,4.598140625,0.617457031249999,4.7304453125,7.26316796875,7.87034375,1.9514375,0.884800781250002,6.16493359375,0.797796875,4.41605078125,3.62928125,2.23818359375,4.669828125
-4.9233125,-6.1112890625,1.3648984375,-18.0464140625,-2.76720703125,-10.17384765625,-1.31220703125,-6.8257578125,-3.0286640625,-2.41836328125,-0.311953125,2.68644921875,6.9775546875,-1.39097265625,-1.21683203125,5.5681640625,3.020453125,2.393140625,-0.948542968750001,4.2284453125,9.52916796875,3.41634375,0.6584375,0.798800781250002,7.73593359375,4.086796875,4.93105078125,3.72428125,3.79018359375,5.613828125
-7.9783125,-8.3242890625,-0.5211015625,-23.4084140625,-1.34820703125,-15.23784765625,-4.54120703125,-10.8107578125,-3.1806640625,-2.78136328125,0.488046875,5.40744921875,3.1155546875,-3.11797265625,-1.93983203125,8.2711640625,3.008453125,-0.213859375,-2.31054296875,4.0384453125,12.76816796875,-2.88665625,-0.712562499999999,1.14080078125,9.96093359375,8.946796875,5.92105078125,4.31828125,6.07318359375,7.046828125
-7.9783125,-8.3242890625,-0.5211015625,-23.4084140625,-1.34820703125,-15.23784765625,-4.54120703125,-10.8107578125,-3.1806640625,-2.78136328125,0.488046875,5.40744921875,3.1155546875,-3.11797265625,-1.93983203125,8.2711640625,3.008453125,-0.213859375,-2.31054296875,4.0384453125,12.76816796875,-2.88665625,-0.712562499999999,1.14080078125,9.96093359375,8.946796875,5.92105078125,4.31828125,6.07318359375,7.046828125
