"Fp1","Fpz","Fp2","F7","F3","Fz","F4","F8","FC5","FC1","FC2","FC6","T7","C3","Cz","C4","T8","CP5","CP1","CP2","CP6","P7","P3","Pz","P4","P8","POz","O1","Oz","O2"
7.99009765625,10.0921953125,8.67462109375,3.09601953125,12.48910546875,12.0800859375,10.40265625,2.87315625,-0.38930078125,5.887484375,6.56078125,8.0794375,5.52594140625,20.77422265625,19.48965234375,8.8693125,0.11380078125,4.17030078125,13.6845703125,11.925140625,3.62001171875,5.7152109375,12.11519921875,8.26808984375,5.95191796875,-5.1167265625,2.751359375,1.8019921875,-2.9111015625,1.4924375
9.68609765625,10.7391953125,10.27762109375,4.42401953125,12.80310546875,12.3150859375,11.48665625,2.12515625,0.28869921875,7.218484375,8.50578125,8.7574375,11.54594140625,20.78322265625,19.34465234375,9.0153125,-0.21119921875,3.70430078125,12.7335703125,12.326140625,4.32201171875,6.6492109375,12.13719921875,8.82108984375,6.79791796875,-4.1977265625,3.562359375,1.9459921875,-2.7031015625,3.3224375
10.21709765625,10.6051953125,11.19862109375,4.64901953125,12.58310546875,11.9430859375,12.07865625,1.45015625,-0.0413007812500001,7.521484375,9.82678125,8.9614375,14.76094140625,19.88522265625,18.37265234375,8.7113125,-0.72419921875,2.49630078125,11.1755703125,11.907140625,4.37301171875,6.0122109375,11.19319921875,8.14208984375,6.79991796875,-3.8147265625,3.432359375,0.484992187500001,-4.0991015625,4.0594375
9.49109765625,9.6641953125,11.31362109375,3.78301953125,11.85510546875,10.8950859375,12.10465625,1.04115625,-1.08130078125,6.763484375,10.37178125,8.7734375,15.06494140625,18.11522265625,16.60065234375,8.0263125,-1.34819921875,0.76030078125,9.1605703125,10.679140625,3.77201171875,4.1342109375,9.47619921875,6.27908984375,6.01591796875,-3.9597265625,2.521359375,-2.1160078125,-6.6371015625,3.8034375
7.79209765625,8.1291953125,10.64162109375,2.20501953125,10.80110546875,9.2560859375,11.58165625,1.06215625,-2.15330078125,5.214484375,10.07578125,8.3894375,13.18494140625,15.81922265625,14.31865234375,7.1583125,-1.92519921875,-1.00069921875,7.0605703125,8.892140625,2.68801171875,1.9162109375,7.51619921875,3.69808984375,4.74191796875,-4.5037265625,1.300359375,-4.7920078125,-9.2471015625,2.9844375
5.65509765625,6.3491953125,9.30262109375,0.48101953125,9.64710546875,7.2030859375,10.55565625,1.49915625,-2.62930078125,3.278484375,8.91778125,7.9404375,10.24694140625,13.47222265625,11.91965234375,6.2793125,-2.30219921875,-2.26969921875,5.2615703125,6.871140625,1.34501171875,0.3022109375,5.87419921875,1.04808984375,3.31091796875,-5.2817265625,0.277359375,-6.4960078125,-10.8801015625,2.0814375
3.65309765625,4.6811953125,7.48562109375,-0.86398046875,8.55410546875,4.9490859375,9.07165625,2.10615625,-2.29530078125,1.338484375,6.90278125,7.3914375,7.32694140625,11.46522265625,9.72065234375,5.4453125,-2.42819921875,-2.77269921875,3.9685703125,4.871140625,-0.08398828125,-0.1847890625,4.88319921875,-1.08391015625,1.92991796875,-6.1587265625,-0.240640625,-6.7080078125,-11.0401015625,1.4104375
2.20709765625,3.4121953125,5.44462109375,-1.50698046875,7.58510546875,2.7050859375,7.19165625,2.51515625,-1.38230078125,-0.347515625,4.11078125,6.5714375,5.16994140625,9.98522265625,7.87065234375,4.6163125,-2.40719921875,-2.55769921875,3.1535703125,3.020140625,-1.51998828125,0.3832109375,4.54919921875,-2.34891015625,0.64291796875,-7.0557265625,-0.216640625,-5.5740078125,-9.9421015625,1.0584375
1.49609765625,2.7081953125,3.47262109375,-1.39998046875,6.72810546875,0.6690859375,5.04665625,2.42215625,-0.33430078125,-1.666515625,0.75678125,5.3204375,4.10694140625,9.02822265625,6.34565234375,3.7563125,-2.46119921875,-1.92469921875,2.6195703125,1.348140625,-2.95298828125,1.4592109375,4.61219921875,-2.70891015625,-0.59708203125,-7.9647265625,0.168359375,-3.7120078125,-8.3131015625,0.9254375
1.45809765625,2.5841953125,1.84662109375,-0.75898046875,5.94210546875,-1.0039140625,2.86165625,1.73315625,0.42769921875,-2.627515625,-2.79021875,3.6494375,4.11194140625,8.47822265625,5.02665234375,2.9193125,-2.80719921875,-1.26569921875,2.1245703125,-0.147859375,-4.37798828125,2.3212109375,4.68019921875,-2.41391015625,-1.83408203125,-8.9287265625,0.627359375,-1.9120078125,-7.0161015625,0.8094375
1.88909765625,2.9081953125,0.75762109375,0.04501953125,5.20410546875,-2.1999140625,0.93265625,0.59015625,0.64669921875,-3.297515625,-6.05421875,1.8034375,4.91694140625,8.20322265625,3.81165234375,2.2523125,-3.50119921875,-0.89369921875,1.5075703125,-1.433859375,-5.71198828125,2.4062109375,4.42419921875,-1.85491015625,-3.03608203125,-9.9747265625,0.898359375,-0.8420078125,-6.6791015625,0.5064375
2.54809765625,3.4691953125,0.26262109375,0.63401953125,4.55210546875,-2.8379140625,-0.43834375,-0.70184375,0.32469921875,-3.710515625,-8.53121875,0.2014375,6.16394140625,8.13722265625,2.74365234375,1.9693125,-4.38219921875,-0.92769921875,0.796570312500001,-2.381859375,-6.75498828125,1.5772109375,3.75419921875,-1.36791015625,-4.05808203125,-11.0267265625,0.874359375,-0.8110078125,-7.4231015625,-0.0545625
3.24209765625,4.0801953125,0.28562109375,0.78301953125,4.08610546875,-2.8569140625,-1.01934375,-1.79884375,-0.22930078125,-3.818515625,-9.80521875,-0.7245625,7.54194140625,8.31622265625,2.04865234375,2.2763125,-5.13819921875,-1.24069921875,0.234570312500001,-2.774859375,-7.21598828125,0.2062109375,2.92319921875,-1.05991015625,-4.68008203125,-11.8847265625,0.675359375,-1.6440078125,-8.8141015625,-0.7455625
3.84309765625,4.6501953125,0.64962109375,0.48301953125,3.92510546875,-2.2539140625,-0.73534375,-2.45984375,-0.53830078125,-3.531515625,-9.69821875,-0.7165625,8.85494140625,8.82622265625,2.04465234375,3.2893125,-5.46719921875,-1.52369921875,0.1805703125,-2.402859375,-6.84098828125,-0.9867890625,2.43819921875,-0.79691015625,-4.71308203125,-12.3117265625,0.604359375,-2.7410078125,-10.0611015625,-1.2905625
4.27109765625,5.1731953125,1.14662109375,-0.10298046875,4.12410546875,-1.1559140625,0.275656249999999,-2.63684375,-0.23230078125,-2.824515625,-8.39921875,0.1834375,9.99694140625,9.70322265625,2.93565234375,4.9323125,-5.22919921875,-1.43569921875,0.9035703125,-1.203859375,-5.56898828125,-1.2907890625,2.81419921875,-0.34391015625,-4.13608203125,-12.1577265625,0.972359375,-3.3720078125,-10.4151015625,-1.4485625
4.46709765625,5.6751953125,1.61862109375,-0.76598046875,4.60810546875,0.1520859375,1.66565625,-2.46984375,0.76069921875,-1.839515625,-6.45721875,1.6314375,10.86894140625,10.84122265625,4.61865234375,6.9143125,-4.51819921875,-0.79169921875,2.3825703125,0.619140625,-3.62298828125,-0.3837890625,4.27019921875,0.41508984375,-3.15808203125,-11.4767265625,1.884359375,-3.0720078125,-9.5651015625,-1.1805625
4.39309765625,6.1391953125,2.00862109375,-1.35598046875,5.17010546875,1.2830859375,2.97465625,-2.20284375,2.23069921875,-0.884515625,-4.60721875,3.0934375,11.33094140625,11.98622265625,6.64065234375,8.7943125,-3.63619921875,0.31130078125,4.2515703125,2.600140625,-1.47498828125,1.4842109375,6.55619921875,1.35608984375,-2.16608203125,-10.5107265625,3.123359375,-1.8930078125,-7.8031015625,-0.6795625
4.04509765625,6.4601953125,2.32662109375,-1.84098046875,5.54310546875,1.8760859375,3.75865625,-2.07284375,3.80669921875,-0.332515625,-3.51121875,4.0324375,11.24194140625,12.79522265625,8.34465234375,10.1243125,-2.95519921875,1.52130078125,5.9195703125,4.155140625,0.32101171875,3.6082109375,9.01719921875,2.15508984375,-1.55608203125,-9.5657265625,4.228359375,-0.3620078125,-5.8541015625,-0.2535625
3.46509765625,6.4591953125,2.57762109375,-2.27498046875,5.51510546875,1.7280859375,3.74165625,-2.22984375,5.07669921875,-0.461515625,-3.54021875,4.0874375,10.55894140625,12.95222265625,9.13065234375,10.6043125,-2.72819921875,2.38130078125,6.8005703125,4.803140625,1.34401171875,5.1772109375,10.86719921875,2.45608984375,-1.54108203125,-8.8407265625,4.710359375,0.8119921875,-4.4931015625,-0.1415625
2.74909765625,5.9751953125,2.69862109375,-2.72298046875,5.02310546875,0.8750859375,2.90365625,-2.69884375,5.71869921875,-1.325515625,-4.67021875,3.1954375,9.38794140625,12.29322265625,8.71765234375,10.1933125,-2.95119921875,2.55230078125,6.5625703125,4.371140625,1.47201171875,5.6602109375,11.51719921875,2.05708984375,-2.04408203125,-8.3287265625,4.292359375,1.0839921875,-4.1741015625,-0.3815625
2.05609765625,4.9861953125,2.57862109375,-3.17898046875,4.20010546875,-0.4009140625,1.51065625,-3.36984375,5.66669921875,-2.694515625,-6.51021875,1.6194375,7.95594140625,10.91622265625,7.28165234375,9.1473125,-3.34519921875,1.97830078125,5.2785703125,3.081140625,0.92501171875,5.0382109375,10.81819921875,1.02208984375,-2.72208203125,-7.8437265625,3.046359375,0.3119921875,-4.8611015625,-0.7995625
1.57609765625,3.6761953125,2.15662109375,-3.55598046875,3.33510546875,-1.6529140625,0.0326562499999996,-4.01884375,5.16469921875,-4.107515625,-8.43921875,-0.1325625,6.53094140625,9.19322265625,5.40865234375,7.9313125,-3.49119921875,0.91630078125,3.4255703125,1.484140625,0.15901171875,3.7702109375,9.09719921875,-0.32491015625,-3.13008203125,-7.1447265625,1.373359375,-1.2110078125,-6.1061015625,-1.1045625
1.46109765625,2.3751953125,1.52462109375,-3.76498046875,2.75110546875,-2.4139140625,-1.02734375,-4.37184375,4.62269921875,-5.048515625,-9.84121875,-1.4775625,5.36094140625,7.64222265625,3.84765234375,7.0493125,-3.05619921875,-0.19069921875,1.6855703125,0.232140625,-0.34398828125,2.5512109375,6.99819921875,-1.52991015625,-2.93708203125,-6.0727265625,-0.170640625,-2.8990078125,-7.3021015625,-1.0485625
1.74709765625,1.4131953125,0.93462109375,-3.80498046875,2.65110546875,-2.3809140625,-1.33734375,-4.20584375,4.38869921875,-5.165515625,-10.33921875,-1.9775625,4.66194140625,6.70522265625,3.17265234375,6.8333125,-1.97919921875,-0.92769921875,0.654570312500001,-0.199859375,-0.30498828125,1.9682109375,5.19019921875,-2.20991015625,-2.10908203125,-4.6557265625,-1.109640625,-4.1250078125,-7.9751015625,-0.5525625
2.31309765625,0.974195312499999,0.66762109375,-3.78998046875,3.02210546875,-1.5519140625,-0.885343750000001,-3.47484375,4.62969921875,-4.440515625,-9.94621875,-1.5105625,4.57794140625,6.56622265625,3.52165234375,7.3273125,-0.53719921875,-1.10469921875,0.580570312500001,0.266140625,0.22901171875,2.2442109375,4.08819921875,-2.23991015625,-0.97008203125,-3.1247265625,-1.266640625,-4.4880078125,-7.9811015625,0.2494375
2.91009765625,1.0391953125,0.81362109375,-3.86898046875,3.62610546875,-0.2469140625,0.0176562499999999,-2.36184375,5.33269921875,-3.203515625,-9.03921875,-0.3215625,5.06994140625,7.07622265625,4.55065234375,8.2833125,0.77980078125,-0.79769921875,1.2825703125,1.274140625,0.91501171875,3.1732109375,3.71619921875,-1.81991015625,-0.0830820312499999,-1.8527265625,-0.833640625,-3.9660078125,-7.5141015625,1.0744375
3.24109765625,1.4181953125,1.15662109375,-4.10698046875,4.11210546875,1.0170859375,0.89065625,-1.23184375,6.31469921875,-1.977515625,-8.16721875,1.1004375,5.83594140625,7.83722265625,5.62365234375,9.2813125,1.52480078125,-0.25469921875,2.2685703125,2.214140625,1.29201171875,4.2802109375,3.76719921875,-1.35891015625,-0.00908203124999987,-1.1927265625,-0.251640625,-2.8880078125,-6.9351015625,1.6134375
3.08109765625,1.8461953125,1.25862109375,-4.43498046875,4.18610546875,1.7560859375,1.30165625,-0.47084375,7.23469921875,-1.217515625,-7.78421875,2.2294375,6.38994140625,8.38822265625,6.14265234375,9.8983125,1.52480078125,0.27030078125,2.9975703125,2.525140625,1.01801171875,5.0952109375,3.81919921875,-1.24391015625,-1.03508203125,-1.3227265625,0.0413593749999999,-1.7410078125,-6.5161015625,1.6654375
2.38109765625,2.1071953125,0.74762109375,-4.68798046875,3.74310546875,1.7380859375,1.04565625,-0.31884375,7.70169921875,-1.098515625,-8.04221875,2.6914375,6.31594140625,8.41722265625,5.82465234375,9.8743125,0.93280078125,0.62430078125,3.1395703125,1.966140625,0.01501171875,5.3812109375,3.55119921875,-1.62991015625,-3.01608203125,-2.1637265625,-0.161640625,-0.9460078125,-6.2861015625,1.2244375
1.32209765625,2.1231953125,-0.39537890625,-4.70398046875,2.92410546875,1.1030859375,0.20865625,-0.79384375,7.44569921875,-1.448515625,-8.73921875,2.3664375,5.54394140625,7.91322265625,4.81465234375,9.1993125,0.0908007812499996,0.77230078125,2.7125703125,0.711140625,-1.51298828125,5.1842109375,2.86919921875,-2.38691015625,-5.41708203125,-3.4187265625,-0.772640625,-0.7230078125,-6.0821015625,0.4764375
0.26809765625,1.9741953125,-1.73837890625,-4.41098046875,2.05810546875,0.3080859375,-0.90234375,-1.71584375,6.41869921875,-1.850515625,-9.44021875,1.3844375,4.42994140625,7.16222265625,3.58265234375,8.1003125,-0.68619921875,0.75730078125,2.0365703125,-0.744859374999999,-3.19298828125,4.7432109375,1.89919921875,-3.17991015625,-7.54108203125,-4.7057265625,-1.501640625,-1.0800078125,-5.7251015625,-0.2775625
-0.36990234375,1.8391953125,-2.57537890625,-3.84898046875,1.52410546875,-0.0819140625000001,-1.89534375,-2.81584375,4.77569921875,-1.841515625,-9.69021875,0.0684374999999999,3.55794140625,6.59922265625,2.69365234375,6.9233125,-1.22519921875,0.66830078125,1.5415703125,-1.827859375,-4.64698828125,4.3242109375,0.90319921875,-3.65891015625,-8.81708203125,-5.7007265625,-2.042640625,-1.8770078125,-5.1861015625,-0.7505625
-0.33590234375,1.8671953125,-2.32037890625,-3.14198046875,1.58410546875,0.3380859375,-2.44434375,-3.84384375,2.83669921875,-1.130515625,-9.20421875,-1.1845625,3.38194140625,6.58022265625,2.54665234375,5.9853125,-1.49719921875,0.60930078125,1.5335703125,-2.148859375,-5.62498828125,4.0952109375,0.15519921875,-3.62391015625,-9.01308203125,-6.2527265625,-2.228640625,-2.8990078125,-4.6171015625,-0.7675625
0.33009765625,2.0711953125,-0.88337890625,-2.45598046875,2.24110546875,1.6030859375,-2.40034375,-4.65584375,1.04069921875,0.252484375,-7.99221875,-2.0475625,3.93594140625,7.18422265625,3.20365234375,5.4583125,-1.57119921875,0.65130078125,2.0375703125,-1.685859375,-6.05898828125,4.0622109375,-0.17980078125,-3.13091015625,-8.30508203125,-6.4107265625,-2.106640625,-3.9330078125,-4.2511015625,-0.3095625
1.29009765625,2.2891953125,1.18662109375,-1.94998046875,3.20410546875,3.3360859375,-1.85234375,-5.24584375,-0.18830078125,1.948484375,-6.37321875,-2.3885625,4.82294140625,8.14622265625,4.35165234375,5.3083125,-1.57719921875,0.77730078125,2.7845703125,-0.779859375,-6.04898828125,4.0842109375,-0.12880078125,-2.46291015625,-7.15808203125,-6.3657265625,-1.897640625,-4.8340078125,-4.2581015625,0.5044375
2.06509765625,2.2691953125,2.91062109375,-1.72098046875,4.01610546875,4.9020859375,-1.09134375,-5.72284375,-0.65830078125,3.406484375,-4.87521875,-2.2905625,5.46994140625,8.96122265625,5.43765234375,5.3263125,-1.67519921875,0.84730078125,3.3605703125,0.0481406250000003,-5.77898828125,3.9362109375,0.0881992187499998,-1.98491015625,-6.09208203125,-6.3317265625,-1.863640625,-5.5620078125,-4.6581015625,1.4604375
2.30509765625,1.8381953125,3.36462109375,-1.74998046875,4.29510546875,5.7210859375,-0.45634375,-6.20184375,-0.49230078125,4.129484375,-4.01321875,-1.9495625,5.46594140625,9.14022265625,5.93565234375,5.2753125,-1.98519921875,0.67530078125,3.4355703125,0.401140625,-5.40198828125,3.4422109375,0.17819921875,-1.93691015625,-5.42508203125,-6.4167265625,-2.143640625,-6.1290078125,-5.2961015625,2.3464375
1.98109765625,1.0441953125,2.17262109375,-1.86498046875,3.97210546875,5.5580859375,-0.146343750000001,-6.69684375,0.0516992187499998,3.910484375,-4.02321875,-1.5295625,4.77494140625,8.50822265625,5.63665234375,5.0783125,-2.51019921875,0.17430078125,2.9685703125,0.239140625,-4.94098828125,2.6052109375,-0.0428007812499995,-2.27791015625,-5.14008203125,-6.5637265625,-2.648640625,-6.4740078125,-5.8841015625,3.0524375
1.39309765625,0.1751953125,-0.26237890625,-1.80298046875,3.32910546875,4.6360859375,-0.12434375,-7.09084375,0.80569921875,2.919484375,-4.74221875,-1.0875625,3.72694140625,7.33622265625,4.75865234375,4.8953125,-3.11819921875,-0.53169921875,2.2395703125,-0.108859375,-4.28798828125,1.6682109375,-0.51980078125,-2.68891015625,-4.94208203125,-6.5927265625,-3.083640625,-6.3760078125,-6.0891015625,3.6174375
0.95209765625,-0.407804687500001,-2.94637890625,-1.34498046875,2.79110546875,3.4580859375,-0.22734375,-7.22684375,1.69969921875,1.564484375,-5.73721875,-0.6215625,2.79894140625,6.17722265625,3.77965234375,5.0083125,-3.62419921875,-1.14369921875,1.6555703125,-0.189859375,-3.33798828125,1.0132109375,-1.01680078125,-2.77691015625,-4.49608203125,-6.3437265625,-3.127640625,-5.5410078125,-5.6811015625,4.1504375
0.91109765625,-0.503804687500001,-4.80337890625,-0.48098046875,2.59410546875,2.4820859375,-0.37134375,-7.05084375,2.57569921875,0.229484375,-6.61021875,-0.1885625,2.34694140625,5.50622265625,3.10465234375,5.5603125,-3.92519921875,-1.39569921875,1.4425703125,0.223140625,-2.16698828125,0.8982109375,-1.33180078125,-2.36291015625,-3.70408203125,-5.8277265625,-2.675640625,-3.8620078125,-4.7041015625,4.6754375
1.21809765625,-0.216804687500001,-5.20937890625,0.54301953125,2.59710546875,1.8570859375,-0.686343750000001,-6.68884375,3.09369921875,-0.950515625,-7.24121875,0.0354374999999996,2.43594140625,5.40122265625,2.79365234375,6.3823125,-4.07819921875,-1.26369921875,1.4535703125,0.921140625,-1.11998828125,1.2112109375,-1.50880078125,-1.66491015625,-2.83008203125,-5.2737265625,-1.974640625,-1.6520078125,-3.5571015625,5.0254375
1.59709765625,0.108195312499999,-4.26137890625,1.34401953125,2.38210546875,1.4110859375,-1.42334375,-6.38184375,2.84969921875,-2.094515625,-7.78721875,-0.1635625,2.85294140625,5.51222265625,2.56065234375,7.0423125,-4.25119921875,-1.01569921875,1.2495703125,1.363140625,-0.69098828125,1.4732109375,-1.85580078125,-1.21791015625,-2.37708203125,-5.0147265625,-1.524640625,0.383992187500001,-2.8611015625,4.8894375
1.76109765625,0.100195312499999,-2.63737890625,1.62601953125,1.57410546875,0.8650859375,-2.71134375,-6.33484375,1.59969921875,-3.380515625,-8.46021875,-0.8765625,3.27094140625,5.31322265625,2.02665234375,7.0733125,-4.57419921875,-1.03069921875,0.4085703125,1.033140625,-1.25498828125,1.1272109375,-2.72680078125,-1.56791015625,-2.77208203125,-5.2807265625,-1.786640625,1.4939921875,-3.1321015625,4.0064375
1.60809765625,-0.411804687500001,-1.19337890625,1.37601953125,0.16010546875,0.0940859375,-4.36534375,-6.58184375,-0.57030078125,-4.818515625,-9.28721875,-1.9575625,3.43394140625,4.45922265625,1.00765234375,6.2473125,-5.01619921875,-1.54269921875,-1.1494296875,-0.202859375,-2.81398828125,-0.0797890625000002,-4.24180078125,-2.91991015625,-4.07808203125,-6.0487265625,-2.891640625,1.3039921875,-4.4711015625,2.3684375
1.28109765625,-1.2868046875,-0.52537890625,0.88101953125,-1.43489453125,-0.7299140625,-5.88734375,-6.96084375,-3.19730078125,-6.153515625,-10.03821875,-3.0825625,3.29394140625,3.01022265625,-0.34234765625,4.7253125,-5.39519921875,-2.49269921875,-3.0544296875,-1.974859375,-4.94098828125,-1.9197890625,-6.15580078125,-4.98891015625,-5.92308203125,-7.0597265625,-4.563640625,0.0349921875000003,-6.4821015625,0.2954375
1.05409765625,-2.1658046875,-0.73037890625,0.54101953125,-2.56489453125,-1.2329140625,-6.71834375,-7.21984375,-5.58230078125,-6.992515625,-10.37421875,-3.9325625,3.02394140625,1.39122265625,-1.62234765625,3.0013125,-5.50219921875,-3.59169921875,-4.6604296875,-3.611859375,-6.97498828125,-3.8377890625,-7.95580078125,-7.12191015625,-7.69308203125,-7.9767265625,-6.265640625,-1.6350078125,-8.4791015625,-1.6725625
1.11509765625,-2.6898046875,-1.47837890625,0.59601953125,-2.74489453125,-1.0849140625,-6.55634375,-7.17484375,-7.12330078125,-7.046515625,-10.11221875,-4.3755625,2.89494140625,0.12122265625,-2.44034765625,1.6643125,-5.23419921875,-4.50669921875,-5.3884296875,-4.518859375,-8.34198828125,-5.2787890625,-9.10480078125,-8.61591015625,-8.83708203125,-8.5507265625,-7.481640625,-2.9340078125,-9.8391015625,-3.0115625
1.40409765625,-2.7418046875,-2.27837890625,0.94601953125,-1.94789453125,-0.2499140625,-5.57134375,-6.81684375,-7.64530078125,-6.327515625,-9.40221875,-4.5145625,3.07494140625,-0.49177734375,-2.63534765625,1.1143125,-4.64519921875,-5.02769921875,-5.0344296875,-4.493859375,-8.81598828125,-5.9567890625,-9.27480078125,-9.05191015625,-9.11908203125,-8.6947265625,-7.935640625,-3.3550078125,-10.2701015625,-3.4285625
1.62909765625,-2.5088046875,-2.77337890625,1.20501953125,-0.62089453125,0.9550859375,-4.34834375,-6.30884375,-7.44230078125,-5.163515625,-8.69321875,-4.5795625,3.48794140625,-0.492777343749999,-2.35934765625,1.4003125,-3.89319921875,-5.11569921875,-3.8484296875,-3.799859375,-8.56798828125,-5.9057890625,-8.45080078125,-8.45791015625,-8.66808203125,-8.4657265625,-7.647640625,-2.8160078125,-9.8731015625,-2.9475625
1.46109765625,-2.3588046875,-2.87837890625,0.95501953125,0.57910546875,2.0250859375,-3.60834375,-5.87384375,-6.98930078125,-4.029515625,-8.50521875,-4.7535625,3.83894140625,-0.179777343750001,-1.96334765625,2.2593125,-3.16519921875,-4.84169921875,-2.3654296875,-2.983859375,-8.00898828125,-5.3317890625,-6.89680078125,-7.25291015625,-7.85708203125,-7.9927265625,-6.860640625,-1.6090078125,-8.9921015625,-1.8465625
0.74009765625,-2.6038046875,-2.75037890625,-0.00598046875000002,1.13010546875,2.5240859375,-3.86034375,-5.68284375,-6.62030078125,-3.327515625,-9.17121875,-5.0645625,3.80394140625,0.103222656250001,-1.81034765625,3.2793125,-2.61419921875,-4.31269921875,-1.1444296875,-2.586859375,-7.55898828125,-4.4237890625,-5.04580078125,-6.03591015625,-7.11608203125,-7.4327265625,-5.899640625,-0.2170078125,-8.0051015625,-0.5175625
-0.45290234375,-3.3448046875,-2.66037890625,-1.56598046875,0.85410546875,2.2700859375,-5.21034375,-5.79484375,-6.45930078125,-3.241515625,-10.71421875,-5.4085625,3.22494140625,0.115222656249999,-2.13934765625,4.0583125,-2.34419921875,-3.64569921875,-0.576429687499999,-2.934859375,-7.49698828125,-3.2907890625,-3.38280078125,-5.36191015625,-6.80308203125,-6.9567265625,-5.093640625,0.8489921875,-7.2051015625,0.6234375
-1.88790234375,-4.4588046875,-2.88337890625,-3.40798046875,-0.10189453125,1.3450859375,-7.36234375,-6.19084375,-6.52530078125,-3.734515625,-12.89321875,-5.6555625,2.16194140625,-0.24777734375,-3.01434765625,4.3093125,-2.42819921875,-3.01469921875,-0.832429687499999,-4.092859375,-7.93698828125,-2.0607890625,-2.36680078125,-5.59291015625,-7.14808203125,-6.7557265625,-4.742640625,1.1549921875,-6.7951015625,1.1874375
-3.31890234375,-5.7038046875,-3.59637890625,-5.18498046875,-1.42289453125,-0.00191406250000004,-9.79534375,-6.81084375,-6.82430078125,-4.612515625,-15.32521875,-5.7585625,0.79394140625,-0.993777343750001,-4.33034765625,3.9313125,-2.88919921875,-2.68469921875,-1.8884296875,-5.901859375,-8.86398828125,-1.0147890625,-2.35980078125,-6.83091015625,-8.22208203125,-6.9977265625,-5.084640625,0.4249921875,-6.9241015625,0.8894375
-4.58390234375,-6.8488046875,-4.82537890625,-6.64898046875,-2.78689453125,-1.4849140625,-11.97034375,-7.58684375,-7.34830078125,-5.612515625,-17.59621875,-5.7845625,-0.699058593749999,-2.04977734375,-5.84034765625,3.0293125,-3.67419921875,-2.95169921875,-3.5664296875,-8.050859375,-10.16498828125,-0.5647890625,-3.51480078125,-8.89291015625,-9.90408203125,-7.7397265625,-6.209640625,-1.3520078125,-7.6491015625,-0.3225625
-5.61390234375,-7.7578046875,-6.42637890625,-7.67498046875,-3.95689453125,-2.8479140625,-13.50034375,-8.44384375,-8.06630078125,-6.466515625,-19.35021875,-5.8595625,-2.15905859375,-3.26477734375,-7.22734765625,1.8783125,-4.61919921875,-3.97969921875,-5.5684296875,-10.137859375,-11.62998828125,-1.0287890625,-5.67480078125,-11.33791015625,-11.88008203125,-8.8397265625,-7.942640625,-3.8470078125,-8.8451015625,-2.1585625
-6.37690234375,-8.3768046875,-8.11337890625,-8.20198046875,-4.78589453125,-3.8919140625,-14.21234375,-9.27984375,-8.91830078125,-6.948515625,-20.35021875,-6.0865625,-3.40505859375,-4.40977734375,-8.19934765625,0.810312499999999,-5.47619921875,-5.64569921875,-7.5234296875,-11.772859375,-12.96998828125,-2.3677890625,-8.35680078125,-13.58391015625,-13.70608203125,-9.9697265625,-9.837640625,-6.4330078125,-10.1671015625,-4.0265625
-6.81190234375,-8.6698046875,-9.49037890625,-8.15798046875,-5.16189453125,-4.4629140625,-14.11634375,-9.95684375,-9.75130078125,-6.898515625,-20.50021875,-6.4655625,-4.20005859375,-5.21177734375,-8.58534765625,0.0983124999999987,-6.00219921875,-7.50869921875,-9.0594296875,-12.688859375,-13.88998828125,-4.0867890625,-10.86580078125,-15.10991015625,-14.96108203125,-10.7527265625,-11.314640625,-8.3940078125,-11.1441015625,-5.2695625
-6.78690234375,-8.5468046875,-10.10037890625,-7.42898046875,-4.98089453125,-4.4539140625,-13.32334375,-10.29684375,-10.29330078125,-6.241515625,-19.85021875,-6.8725625,-4.32705859375,-5.42677734375,-8.38634765625,-0.134687500000001,-6.05219921875,-8.94669921875,-9.8864296875,-12.818859375,-14.19598828125,-5.4367890625,-12.53480078125,-15.64391015625,-15.41508203125,-10.9487265625,-11.906640625,-9.2220078125,-11.3901015625,-5.4765625
-6.15090234375,-7.8828046875,-9.54337890625,-5.93498046875,-4.15889453125,-3.8509140625,-12.00134375,-10.13584375,-10.28830078125,-5.010515625,-18.59421875,-7.1035625,-3.71305859375,-4.96977734375,-7.77034765625,0.0663124999999987,-5.63019921875,-9.42969921875,-9.8814296875,-12.299859375,-13.88098828125,-5.7907890625,-12.96580078125,-15.25391015625,-15.11808203125,-10.5707265625,-11.481640625,-8.8560078125,-10.8191015625,-4.7025625
-4.83190234375,-6.6128046875,-7.66237890625,-3.75198046875,-2.71189453125,-2.7839140625,-10.38334375,-9.39484375,-9.72830078125,-3.388515625,-17.06121875,-6.9865625,-2.49705859375,-4.00577734375,-7.03034765625,0.532312499999999,-4.86819921875,-8.77069921875,-9.1454296875,-11.396859375,-13.13198828125,-4.9797890625,-12.17380078125,-14.28191015625,-14.37008203125,-9.8497265625,-10.300640625,-7.7390078125,-9.7301015625,-3.4545625
-2.93090234375,-4.8228046875,-4.70637890625,-1.19798046875,-0.82189453125,-1.5319140625,-8.76034375,-8.13984375,-8.91730078125,-1.696515625,-15.65221875,-6.4885625,-0.99005859375,-2.91177734375,-6.48334765625,1.0973125,-3.97219921875,-7.22269921875,-7.9724296875,-10.381859375,-12.23698828125,-3.3797890625,-10.55580078125,-13.14791015625,-13.55608203125,-9.0947265625,-8.883640625,-6.6270078125,-8.7011015625,-2.4335625
-0.71990234375,-2.7578046875,-1.31737890625,1.22801953125,1.17810546875,-0.4149140625,-7.40634375,-6.55184375,-8.28930078125,-0.296515625,-14.69621875,-5.7355625,0.444941406250001,-2.10777734375,-6.35534765625,1.7203125,-3.12519921875,-5.36369921875,-6.7264296875,-9.411859375,-11.42598828125,-1.7177890625,-8.68280078125,-12.13791015625,-12.94208203125,-8.5227265625,-7.760640625,-6.2550078125,-8.3151015625,-2.1775625
1.43609765625,-0.7448046875,1.69362109375,3.02701953125,2.88410546875,0.3460859375,-6.46834375,-4.84584375,-8.16730078125,0.549484375,-14.31621875,-4.9225625,1.49794140625,-1.84877734375,-6.66634765625,2.5223125,-2.41019921875,-3.82769921875,-5.6864296875,-8.472859375,-10.73898828125,-0.7277890625,-7.06280078125,-11.27791015625,-12.54308203125,-8.1657265625,-7.244640625,-7.0140078125,-8.8701015625,-2.8195625
3.20409765625,0.921195312499999,3.69162109375,3.90601953125,3.95610546875,0.7250859375,-5.89534375,-3.17384375,-8.66330078125,0.780484375,-14.38821875,-4.1805625,1.95894140625,-2.13877734375,-7.22534765625,3.6743125,-1.76919921875,-3.05869921875,-4.9564296875,-7.415859375,-10.01898828125,-0.8577890625,-5.97880078125,-10.38091015625,-12.12908203125,-7.8757265625,-7.342640625,-8.8110078125,-10.2391015625,-4.0845625
4.38409765625,2.0651953125,4.48562109375,3.90001953125,4.22710546875,0.8770859375,-5.45234375,-1.56584375,-9.69030078125,0.541484375,-14.61221875,-3.4875625,1.70794140625,-2.78977734375,-7.70634765625,5.2723125,-1.03619921875,-3.18569921875,-4.4734296875,-6.070859375,-9.00998828125,-2.1567890625,-5.47580078125,-9.20291015625,-11.37108203125,-7.4327265625,-7.815640625,-11.1730078125,-11.9501015625,-5.4955625
4.95009765625,2.6771953125,4.37962109375,3.34801953125,3.77910546875,1.0350859375,-4.83034375,0.06315625,-10.98330078125,0.106484375,-14.63621875,-2.6855625,0.691941406250001,-3.55077734375,-7.78734765625,7.2693125,-0.0251992187500005,-4.06269921875,-4.0874296875,-4.359859375,-7.52198828125,-4.3307890625,-5.43480078125,-7.61791015625,-10.02708203125,-6.6677265625,-8.319640625,-13.4850078125,-13.4031015625,-6.6125625
5.02809765625,2.8981953125,3.97062109375,2.72901953125,2.91910546875,1.3850859375,-3.79434375,1.83915625,-12.17230078125,-0.222515625,-14.18221875,-1.5735625,-1.04905859375,-4.21477734375,-7.27034765625,9.4993125,1.39280078125,-5.37969921875,-3.6424296875,-2.356859375,-5.54298828125,-6.8907890625,-5.66480078125,-5.69591015625,-8.06508203125,-5.5297265625,-8.545640625,-15.2260078125,-14.1101015625,-7.1795625
4.83209765625,2.9431953125,3.83362109375,2.45701953125,2.07610546875,1.9850859375,-2.30934375,3.81615625,-12.91230078125,-0.217515625,-13.14021875,-0.0405625000000001,-3.30505859375,-4.65977734375,-6.14134765625,11.7253125,3.22980078125,-6.77869921875,-3.0374296875,-0.260859375,-3.26698828125,-9.2817890625,-5.95280078125,-3.65491015625,-5.68208203125,-4.0777265625,-8.309640625,-16.1020078125,-13.8421015625,-7.1415625
4.60409765625,3.0241953125,4.25362109375,2.73201953125,1.64710546875,2.7510859375,-0.57134375,5.86515625,-13.00430078125,0.226484375,-11.59921875,1.8194375,-5.61805859375,-4.82077734375,-4.54434765625,13.6963125,5.35580078125,-7.92769921875,-2.2364296875,1.683140625,-1.02798828125,-10.9907890625,-6.08080078125,-1.74091015625,-3.21908203125,-2.4387265625,-7.587640625,-16.0710078125,-12.6601015625,-6.5665625
4.56109765625,3.2751953125,5.13862109375,3.50901953125,1.85510546875,3.5070859375,1.05565625,7.63615625,-12.41430078125,1.072484375,-9.80821875,3.6584375,-7.34205859375,-4.65277734375,-2.70634765625,15.1803125,7.45780078125,-8.56969921875,-1.2474296875,3.257140625,0.79601171875,-11.6337890625,-5.85880078125,-0.14091015625,-1.05908203125,-0.7817265625,-6.514640625,-15.2890078125,-10.8531015625,-5.5695625
4.82309765625,3.6881953125,6.09462109375,4.55901953125,2.64710546875,4.0330859375,2.13965625,8.59915625,-11.27330078125,2.137484375,-8.13121875,4.9094375,-7.87505859375,-4.14677734375,-0.87734765625,15.9633125,9.01980078125,-8.57369921875,-0.1234296875,4.289140625,1.85901171875,-11.0527890625,-5.18980078125,1.03608984375,0.43491796875,0.6572734375,-5.349640625,-14.0380078125,-8.8251015625,-4.2935625
5.31309765625,4.0621953125,6.59762109375,5.54401953125,3.67310546875,4.0900859375,2.26565625,8.16515625,-9.93930078125,3.094484375,-7.00521875,4.9144375,-6.96905859375,-3.41777734375,0.67365234375,15.7883125,9.38180078125,-7.98269921875,0.9975703125,4.608140625,1.88201171875,-9.3917890625,-4.16080078125,1.68608984375,0.94091796875,1.5542734375,-4.422640625,-12.6570078125,-6.9971015625,-2.9615625
5.71909765625,4.0191953125,6.17162109375,6.08701953125,4.36710546875,3.4420859375,1.11065625,5.89315625,-9.00530078125,3.507484375,-6.87121875,3.1324375,-4.89905859375,-2.74877734375,1.64365234375,14.3343125,7.91180078125,-7.03369921875,1.8545703125,4.022140625,0.68301171875,-7.0777890625,-3.06180078125,1.66608984375,0.23391796875,1.5392734375,-4.034640625,-11.4840078125,-5.7051015625,-1.8825625
5.59909765625,3.1591953125,4.55462109375,5.88101953125,4.16210546875,1.9360859375,-1.44034375,1.72915625,-9.07330078125,2.961484375,-8.02221875,-0.6105625,-2.37405859375,-2.50977734375,1.74865234375,11.3493125,4.31680078125,-6.07969921875,2.1285703125,2.401140625,-1.73298828125,-4.6697890625,-2.27480078125,0.84208984375,-1.70108203125,0.3532734375,-4.335640625,-10.7570078125,-5.1021015625,-1.3475625
4.60809765625,1.3021953125,1.82962109375,4.83201953125,2.74810546875,-0.3609140625,-5.14734375,-3.81384375,-10.39330078125,1.272484375,-10.41521875,-5.9245625,-0.19405859375,-2.94477734375,0.85965234375,6.9023125,-1.05119921875,-5.44169921875,1.6075703125,-0.142859375,-5.05098828125,-2.6177890625,-2.05880078125,-0.76091015625,-4.51908203125,-1.9197265625,-5.208640625,-10.5030078125,-5.0731015625,-1.4225625
2.72109765625,-1.3568046875,-1.54237890625,3.15201953125,0.26310546875,-3.0729140625,-9.35934375,-9.67384375,-12.70730078125,-1.354515625,-13.57521875,-11.8335625,1.11194140625,-4.01277734375,-0.863347656250001,1.5703125,-7.10819921875,-5.25469921875,0.3455703125,-3.123859375,-8.58498828125,-1.0817890625,-2.38280078125,-2.84991015625,-7.48708203125,-4.7187265625,-6.251640625,-10.4860078125,-5.2321015625,-1.8155625
0.29309765625,-4.3008046875,-4.85337890625,1.31401953125,-2.75089453125,-5.5949140625,-13.14934375,-14.52684375,-15.42230078125,-4.365515625,-16.70321875,-17.0265625,1.44394140625,-5.39377734375,-2.96534765625,-3.6246875,-12.30019921875,-5.42969921875,-1.3414296875,-5.750859375,-11.40698828125,0.0572109374999998,-2.93980078125,-4.89691015625,-9.66708203125,-7.0927265625,-6.914640625,-10.2930078125,-5.0671015625,-1.9685625
-2.09790234375,-6.9218046875,-7.44537890625,-0.14698046875,-5.56689453125,-7.3219140625,-15.62234375,-17.25284375,-17.92530078125,-7.086515625,-18.97821875,-20.2995625,1.02394140625,-6.67277734375,-4.85134765625,-7.5546875,-15.19619921875,-5.75669921875,-3.0254296875,-7.214859375,-12.66298828125,1.0102109375,-3.35080078125,-6.34891015625,-10.27208203125,-8.0627265625,-6.757640625,-9.5420078125,-4.1891015625,-1.3425625
-3.90390234375,-8.7788046875,-8.99837890625,-0.87298046875,-7.56789453125,-7.9189140625,-16.27234375,-17.38184375,-19.78430078125,-9.003515625,-19.88321875,-21.0235625,0.16394140625,-7.54077734375,-6.02034765625,-9.4176875,-15.10919921875,-6.05369921875,-4.3694296875,-7.046859375,-11.94398828125,1.8742109375,-3.40880078125,-6.87491015625,-9.02808203125,-7.0817265625,-5.687640625,-8.1030078125,-2.5621015625,0.2494375
-4.80390234375,-9.7088046875,-9.61437890625,-0.80698046875,-8.42589453125,-7.4379140625,-15.18134375,-15.26184375,-20.82030078125,-9.924515625,-19.38821875,-19.3745625,-0.898058593749999,-7.89977734375,-6.25934765625,-9.0656875,-12.39219921875,-6.26669921875,-5.2464296875,-5.347859375,-9.51798828125,2.5782109375,-3.19680078125,-6.51191015625,-6.33908203125,-4.3467265625,-4.030640625,-6.1790078125,-0.5801015625,2.4794375
-4.75990234375,-9.7778046875,-9.64337890625,-0.13098046875,-8.11489453125,-6.2409140625,-12.94034375,-11.87084375,-21.08830078125,-9.941515625,-17.89021875,-16.2105625,-2.01705859375,-7.83077734375,-5.67634765625,-7.0686875,-8.24719921875,-6.45969921875,-5.7234296875,-2.747859375,-6.26598828125,2.9722109375,-3.00780078125,-5.62691015625,-3.14608203125,-0.7687265625,-2.393640625,-4.2380078125,1.0808984375,4.6064375
-3.91390234375,-9.1398046875,-9.37837890625,0.91101953125,-6.80789453125,-4.7779140625,-10.35034375,-8.34784375,-20.77130078125,-9.278515625,-15.96021875,-12.6735625,-3.09005859375,-7.47077734375,-4.58734765625,-4.4826875,-4.13619921875,-6.72569921875,-5.9514296875,-0.143859375,-3.34798828125,2.9642109375,-3.15980078125,-4.72991015625,-0.55208203125,2.4062734375,-1.411640625,-2.8240078125,1.7548984375,5.7944375
-2.46490234375,-7.9328046875,-8.85237890625,2.16301953125,-4.77089453125,-3.3719140625,-8.06334375,-5.50584375,-20.03230078125,-8.140515625,-14.05521875,-9.7235625,-4.04905859375,-6.91577734375,-3.32434765625,-2.4126875,-1.15719921875,-7.10369921875,-6.0424296875,1.660140625,-1.74598828125,2.5672109375,-3.81980078125,-4.25391015625,0.60091796875,4.1102734375,-1.486640625,-2.3700078125,1.0708984375,5.4864375
-0.58890234375,-6.2588046875,-7.85537890625,3.60001953125,-2.29889453125,-2.1079140625,-6.37734375,-3.57684375,-18.93630078125,-6.645515625,-12.36021875,-7.8415625,-4.87605859375,-6.16577734375,-2.07934765625,-1.5696875,0.32780078125,-7.53169921875,-6.0094296875,2.243140625,-1.89198828125,1.8702109375,-4.92580078125,-4.38591015625,0.0409179687500001,3.8932734375,-2.629640625,-3.0550078125,-0.8701015625,3.6564375
1.56209765625,-4.2288046875,-6.15537890625,5.24601953125,0.29810546875,-0.8729140625,-5.24134375,-2.28084375,-17.52230078125,-4.861515625,-10.82921875,-6.9735625,-5.58805859375,-5.15277734375,-0.882347656250001,-2.0206875,0.66880078125,-7.83869921875,-5.7814296875,1.684140625,-3.54598828125,1.0182109375,-6.20080078125,-5.01591015625,-1.85208203125,2.0762734375,-4.431640625,-4.7040078125,-3.5001015625,0.8254375
3.79909765625,-2.0198046875,-3.73937890625,7.06001953125,2.70610546875,0.5180859375,-4.42434375,-1.13684375,-15.91230078125,-2.874515625,-9.36721875,-6.6985625,-6.14905859375,-3.81877734375,0.315652343749999,-3.2386875,0.58680078125,-7.80069921875,-5.2584296875,0.475140625,-5.95298828125,0.2072109375,-7.23580078125,-5.79891015625,-4.21308203125,-0.4327265625,-6.189640625,-6.7940078125,-5.9551015625,-2.1305625
5.86309765625,0.1031953125,-0.91637890625,8.85701953125,4.61310546875,2.1470859375,-3.72534375,0.19315625,-14.29930078125,-0.875515625,-8.00821875,-6.5095625,-6.42505859375,-2.18977734375,1.51265234375,-4.4006875,0.73880078125,-7.23669921875,-4.3864296875,-0.734859375,-8.19898828125,-0.3277890625,-7.62380078125,-6.32291015625,-6.03708203125,-2.5787265625,-7.184640625,-8.5850078125,-7.3731015625,-4.3235625
7.42609765625,1.8161953125,1.77062109375,10.32701953125,5.75310546875,3.8810859375,-3.11834375,1.69215625,-12.86530078125,0.817484375,-6.98821875,-6.0735625,-6.26605859375,-0.43977734375,2.57665234375,-4.8066875,1.38880078125,-6.12969921875,-3.2234296875,-1.452859375,-9.58798828125,-0.3837890625,-7.13980078125,-6.32391015625,-6.59508203125,-3.6427265625,-7.003640625,-9.4060078125,-7.2381015625,-5.1915625
8.16809765625,2.8091953125,3.76162109375,11.14701953125,5.96210546875,5.3620859375,-2.75534375,3.01215625,-11.75930078125,1.803484375,-6.66921875,-5.3715625,-5.66605859375,1.11622265625,3.25365234375,-4.2166875,2.34480078125,-4.68569921875,-1.9774296875,-1.554859375,-9.87898828125,0.0772109374999999,-5.88380078125,-5.83491015625,-5.71008203125,-3.5117265625,-5.756640625,-8.9740078125,-5.6141015625,-4.7035625
7.90609765625,2.8951953125,4.66662109375,11.11801953125,5.23310546875,6.1410859375,-2.86334375,3.68115625,-11.11930078125,1.727484375,-7.35521875,-4.6575625,-4.85405859375,2.08122265625,3.26365234375,-2.9396875,3.13680078125,-3.30069921875,-0.986429687499999,-1.297859375,-9.28798828125,0.8302109375,-4.31480078125,-5.20891015625,-3.79408203125,-2.6027265625,-4.072640625,-7.5860078125,-3.1651015625,-3.3435625
6.70909765625,2.1011953125,4.36962109375,10.26301953125,3.74510546875,5.8790859375,-3.58334375,3.38415625,-11.01730078125,0.442484375,-9.08321875,-4.2855625,-4.18005859375,2.12222265625,2.43765234375,-1.6136875,3.32280078125,-2.42469921875,-0.6124296875,-1.136859375,-8.30398828125,1.4252109375,-3.11180078125,-4.95791015625,-1.63208203125,-1.5587265625,-2.827640625,-6.0280078125,-0.8971015625,-1.8505625
4.91809765625,0.676195312499999,3.02062109375,8.82901953125,1.81510546875,4.5240859375,-4.86334375,2.14915625,-11.37130078125,-1.896515625,-11.49921875,-4.4955625,-3.90005859375,1.12122265625,0.818652343749999,-0.821687500000001,2.73880078125,-2.38269921875,-1.0934296875,-1.467859375,-7.42398828125,1.3792109375,-2.88980078125,-5.49691015625,-0.0370820312499999,-0.900726562500001,-2.750640625,-5.2160078125,0.2598984375,-0.8815625
3.02209765625,-0.987804687500001,0.99062109375,7.20401953125,-0.19889453125,2.3600859375,-6.46734375,0.35215625,-11.95630078125,-4.844515625,-13.93221875,-5.2775625,-4.03305859375,-0.73577734375,-1.31234765625,-0.783687500000001,1.59780078125,-3.22169921875,-2.4144296875,-2.434859375,-6.94398828125,0.4532109375,-3.89180078125,-6.89991015625,0.46591796875,-0.8167265625,-4.078640625,-5.7150078125,-0.1261015625,-0.7365625
1.47209765625,-2.4928046875,-1.21537890625,5.82001953125,-1.99389453125,-0.0809140625000002,-8.06434375,-1.43484375,-12.54130078125,-7.802515625,-15.62421875,-6.3585625,-4.38905859375,-2.98077734375,-3.50934765625,-1.2776875,0.39980078125,-4.65869921875,-4.2664296875,-3.869859375,-6.88898828125,-1.1457890625,-5.82280078125,-8.80891015625,-0.18908203125,-1.1637265625,-6.442640625,-7.4070078125,-1.7841015625,-1.2795625
0.53809765625,-3.5388046875,-3.05737890625,5.05001953125,-3.36189453125,-2.1959140625,-9.33434375,-2.66184375,-12.97530078125,-10.190515625,-16.02721875,-7.3275625,-4.71005859375,-4.99277734375,-5.30134765625,-1.7866875,-0.29819921875,-6.16069921875,-6.1244296875,-5.368859375,-7.07298828125,-2.7937890625,-7.94380078125,-10.55891015625,-1.64008203125,-1.6217265625,-9.033640625,-9.5110078125,-3.8621015625,-2.0665625
0.28409765625,-3.9508046875,-4.09737890625,5.11601953125,-4.18389453125,-3.4959140625,-10.02934375,-2.98584375,-13.15330078125,-11.609515625,-15.00721875,-7.7975625,-4.79505859375,-6.18777734375,-6.34334765625,-1.7576875,-0.12519921875,-7.13269921875,-7.4074296875,-6.458859375,-7.22998828125,-3.7467890625,-9.38580078125,-11.46591015625,-3.28508203125,-1.8967265625,-10.973640625,-10.9840078125,-5.3361015625,-2.6025625
0.62209765625,-3.6668046875,-4.11037890625,6.00701953125,-4.39789453125,-3.7319140625,-10.01634375,-2.34684375,-12.97930078125,-11.921515625,-12.87521875,-7.5445625,-4.55205859375,-6.20777734375,-6.51834765625,-0.846687500000001,0.96580078125,-7.15869921875,-7.6844296875,-6.774859375,-7.13598828125,-3.5257890625,-9.53780078125,-11.12091015625,-4.53608203125,-1.8377265625,-11.696640625,-11.0740078125,-5.4831015625,-2.5965625
1.40409765625,-2.7228046875,-3.13337890625,7.46801953125,-3.99289453125,-2.9379140625,-9.28734375,-0.93384375,-12.42030078125,-11.228515625,-10.23421875,-6.5385625,-3.99405859375,-5.03177734375,-5.94434765625,0.939312499999999,2.73580078125,-6.15069921875,-6.8284296875,-6.186859375,-6.66998828125,-2.1867890625,-8.29580078125,-9.54591015625,-5.01608203125,-1.4247265625,-11.137640625,-9.6960078125,-4.1851015625,-2.0695625
2.47509765625,-1.2568046875,-1.42937890625,9.08601953125,-3.02389453125,-1.3769140625,-7.95534375,0.92115625,-11.54630078125,-9.791515625,-7.71521875,-4.8935625,-3.23905859375,-2.97077734375,-4.88034765625,3.2673125,4.78880078125,-4.36469921875,-5.0584296875,-4.825859375,-5.82298828125,-0.3087890625,-6.05880078125,-7.15191015625,-4.63608203125,-0.716726562500001,-9.689640625,-7.4120078125,-1.9181015625,-1.2785625
3.68409765625,0.4941953125,0.61862109375,10.44101953125,-1.64389453125,0.5620859375,-6.23634375,2.86415625,-10.48830078125,-7.926515625,-5.72921875,-2.7845625,-2.49505859375,-0.531777343749999,-3.59334765625,5.6283125,6.70480078125,-2.29169921875,-2.8314296875,-3.019859375,-4.68498828125,1.2762109375,-3.51680078125,-4.53991015625,-3.56008203125,0.185273437499999,-7.985640625,-5.0890078125,0.5068984375,-0.5365625
4.85809765625,2.2181953125,2.64562109375,11.22701953125,-0.11489453125,2.4890859375,-4.40734375,4.60615625,-9.36830078125,-5.945515625,-4.35021875,-0.3995625,-2.01305859375,1.75022265625,-2.28534765625,7.5603125,8.12980078125,-0.47369921875,-0.6794296875,-1.164859375,-3.42498828125,1.8382109375,-1.37880078125,-2.27191015625,-2.09208203125,1.1332734375,-6.616640625,-3.4650078125,2.3058984375,-0.0425625
5.80209765625,3.5891953125,4.41662109375,11.31801953125,1.24410546875,4.1120859375,-2.73934375,5.97715625,-8.29630078125,-4.131515625,-3.37921875,2.0844375,-1.99805859375,3.46322265625,-1.08134765625,8.7923125,8.85080078125,0.66330078125,0.9595703125,0.420140625,-2.24998828125,1.0302109375,-0.14080078125,-0.69091015625,-0.55808203125,1.9522734375,-5.908640625,-2.8830078125,3.0258984375,0.1714375
6.35909765625,4.3851953125,5.87262109375,10.77501953125,2.18510546875,5.3260859375,-1.40634375,6.94915625,-7.35230078125,-2.698515625,-2.52521875,4.4974375,-2.50105859375,4.43322265625,-0.0583476562499996,9.2983125,8.86680078125,0.94730078125,1.8565703125,1.577140625,-1.34098828125,-0.9837890625,0.0231992187500003,0.13408984375,0.79791796875,2.5002734375,-5.825640625,-3.2440078125,2.6788984375,0.2034375
6.50009765625,4.5981953125,7.08662109375,9.83201953125,2.66210546875,6.2180859375,-0.41934375,7.63015625,-6.49430078125,-1.739515625,-1.59121875,6.6764375,-3.34405859375,4.77322265625,0.74865234375,9.2433125,8.41080078125,0.53030078125,2.0355703125,2.325140625,-0.79098828125,-3.5827890625,-0.71580078125,0.37308984375,1.85091796875,2.7252734375,-6.038640625,-4.1240078125,1.6858984375,0.1984375
6.35509765625,4.4541953125,8.15362109375,8.82301953125,2.84910546875,6.9850859375,0.36365625,8.18615625,-5.51830078125,-1.204515625,-0.60021875,8.4624375,-4.15505859375,4.82222265625,1.34365234375,8.8683125,7.86680078125,-0.17169921875,1.7385703125,2.774140625,-0.59998828125,-5.8847890625,-1.92080078125,0.30608984375,2.56391796875,2.6732734375,-6.127640625,-4.9700078125,0.6548984375,0.2614375
6.14309765625,4.2781953125,9.08462109375,8.05301953125,3.01310546875,7.7730859375,1.13065625,8.72815625,-4.19730078125,-0.955515625,0.19378125,9.6964375,-4.51505859375,4.95622265625,1.74365234375,8.3703125,7.60580078125,-0.63869921875,1.3045703125,3.015140625,-0.71098828125,-7.0607890625,-3.04980078125,0.18008984375,2.91391796875,2.4462734375,-5.792640625,-5.3190078125,0.0858984375,0.3924375
6.07109765625,4.3271953125,9.77962109375,7.69401953125,3.34310546875,8.5530859375,1.98265625,9.22615625,-2.49530078125,-0.859515625,0.41478125,10.2464375,-4.15205859375,5.38222265625,1.94765234375,7.8343125,7.80680078125,-0.48169921875,1.0145703125,3.062140625,-1.04698828125,-6.6637890625,-3.65780078125,0.11108984375,2.84991796875,2.1412734375,-4.995640625,-4.9750078125,0.1638984375,0.4684375
6.27809765625,4.6911953125,10.11662109375,7.77901953125,3.86810546875,9.1350859375,2.86565625,9.53815625,-0.62330078125,-0.850515625,-0.22021875,10.0644375,-3.05705859375,6.03722265625,1.94165234375,7.2713125,8.40180078125,0.38230078125,0.9945703125,2.882140625,-1.51998828125,-4.8517890625,-3.56180078125,0.0650898437499998,2.33291796875,1.8112734375,-3.951640625,-4.0850078125,0.7198984375,0.3094375
6.82509765625,5.3141953125,10.05962109375,8.26101953125,4.46910546875,9.2930859375,3.60465625,9.53015625,1.09769921875,-0.941515625,-1.72221875,9.2264375,-1.47705859375,6.64922265625,1.73565234375,6.6973125,9.15580078125,1.69930078125,1.2135703125,2.476140625,-2.02198828125,-2.3477890625,-2.87780078125,-0.0779101562500002,1.41991796875,1.4682734375,-2.999640625,-3.0460078125,1.3808984375,-0.1915625
7.66109765625,6.0371953125,9.68362109375,9.02601953125,4.95210546875,8.9060859375,3.99665625,9.18015625,2.37769921875,-1.197515625,-3.80421875,7.9434375,0.19294140625,6.90222265625,1.40065234375,6.1623125,9.83480078125,3.02030078125,1.5485703125,1.921140625,-2.42998828125,-0.1127890625,-1.92080078125,-0.42991015625,0.30791796875,1.1192734375,-2.419640625,-2.2930078125,1.8068984375,-0.9805625
8.56209765625,6.6091953125,9.10562109375,9.86001953125,5.10010546875,8.0130859375,3.91965625,8.59115625,2.98369921875,-1.706515625,-6.02421875,6.5064375,1.53994140625,6.58822265625,1.04265234375,5.6993125,10.33680078125,3.93930078125,1.8665703125,1.335140625,-2.64798828125,1.1162109375,-1.01680078125,-1.01691015625,-0.70008203125,0.787273437499999,-2.290640625,-2.0520078125,1.8888984375,-1.8375625
9.15009765625,6.7231953125,8.40362109375,10.43001953125,4.73910546875,6.7860859375,3.39665625,7.92515625,2.76769921875,-2.525515625,-7.97621875,5.2154375,2.25294140625,5.71022265625,0.75165234375,5.2633125,10.69980078125,4.29030078125,2.0825703125,0.808140625,-2.64498828125,1.1752109375,-0.33280078125,-1.76291015625,-1.31508203125,0.5132734375,-2.469640625,-2.2060078125,1.7938984375,-2.4735625
9.04709765625,6.1401953125,7.60662109375,10.41301953125,3.82410546875,5.4760859375,2.59165625,7.31315625,1.77269921875,-3.612515625,-9.41021875,4.3134375,2.19494140625,4.50222265625,0.573652343749999,4.7453125,11.02380078125,4.19130078125,2.1885703125,0.361140625,-2.46998828125,0.4742109375,0.17319921875,-2.51691015625,-1.38608203125,0.334273437499999,-2.677640625,-2.3480078125,1.8508984375,-2.6595625
8.09209765625,4.8611953125,6.74362109375,9.68501953125,2.51910546875,4.3480859375,1.73865625,6.80415625,0.30869921875,-4.781515625,-10.23821875,3.9384375,1.42094140625,3.34422265625,0.512652343749999,4.0523125,11.36980078125,3.94030078125,2.2375703125,-0.0358593749999998,-2.21798828125,-0.3177890625,0.65319921875,-3.11491015625,-0.95008203125,0.281273437499999,-2.650640625,-2.0120078125,2.3438984375,-2.3275625
6.47209765625,3.2051953125,5.87362109375,8.46401953125,1.19210546875,3.6260859375,1.04065625,6.34815625,-1.15030078125,-5.726515625,-10.49221875,4.0884375,0.13694140625,2.60422265625,0.568652343749999,3.1853125,11.72380078125,3.81330078125,2.2855703125,-0.415859375,-1.98498828125,-0.7077890625,1.19219921875,-3.45291015625,-0.19208203125,0.395273437499999,-2.276640625,-0.9490078125,3.3378984375,-1.5995625
4.67109765625,1.7181953125,5.06062109375,7.23601953125,0.28610546875,3.4200859375,0.58865625,5.85615625,-2.15630078125,-6.131515625,-10.25721875,4.6164375,-1.37705859375,2.47722265625,0.736652343749999,2.2603125,12.00780078125,3.89230078125,2.3145703125,-0.793859375,-1.83698828125,-0.6597890625,1.66819921875,-3.55391015625,0.64591796875,0.713273437499999,-1.656640625,0.6679921875,4.6068984375,-0.7485625
3.24909765625,0.934195312499999,4.32162109375,6.50401953125,0.10610546875,3.6870859375,0.35865625,5.26415625,-2.44730078125,-5.829515625,-9.63121875,5.2544375,-2.84105859375,2.91022265625,0.999652343749999,1.4693125,12.12680078125,3.99230078125,2.2055703125,-1.169859375,-1.80498828125,-0.5877890625,1.76219921875,-3.58591015625,1.34791796875,1.2242734375,-1.074640625,2.2429921875,5.6948984375,-0.1105625
2.56809765625,1.1021953125,3.58962109375,6.50501953125,0.65510546875,4.2140859375,0.24965625,4.57215625,-2.04030078125,-4.902515625,-8.71721875,5.6974375,-4.04105859375,3.63222265625,1.30365234375,0.994312499999999,12.01080078125,3.73230078125,1.7855703125,-1.559859375,-1.89398828125,-1.0717890625,1.11019921875,-3.81191015625,1.75691796875,1.8352734375,-0.890640625,2.9969921875,6.0798984375,0.0264375
2.59609765625,2.0301953125,2.72362109375,7.04501953125,1.59610546875,4.6840859375,0.14965625,3.82515625,-1.29630078125,-3.691515625,-7.64821875,5.7114375,-4.87205859375,4.25922265625,1.54965234375,0.901312499999999,11.64280078125,2.73330078125,0.917570312500001,-2.004859375,-2.08998828125,-2.4557890625,-0.48080078125,-4.47491015625,1.78491796875,2.3982734375,-1.367640625,2.3529921875,5.4058984375,-0.4715625
2.91709765625,3.1271953125,1.58362109375,7.58301953125,2.38610546875,4.7860859375,-0.0203437500000003,3.06315625,-0.81430078125,-2.669515625,-6.60421875,5.2264375,-5.33705859375,4.42222265625,1.61065234375,1.0903125,11.06880078125,0.84930078125,-0.4134296875,-2.555859375,-2.35898828125,-4.5817890625,-2.86280078125,-5.66991015625,1.41991796875,2.7892734375,-2.540640625,0.2729921875,3.6608984375,-1.5335625
2.94609765625,3.6711953125,0.13962109375,7.49801953125,2.51410546875,4.3460859375,-0.27734375,2.30515625,-1.12830078125,-2.254515625,-5.78621875,4.3584375,-5.50705859375,3.91122265625,1.36765234375,1.3203125,10.37580078125,-1.70669921875,-2.0694296875,-3.248859375,-2.66398828125,-6.8157890625,-5.55880078125,-7.27691015625,0.72291796875,2.9682734375,-4.178640625,-2.6670078125,1.2028984375,-2.8945625
2.24209765625,3.1501953125,-1.44837890625,6.39701953125,1.71410546875,3.3930859375,-0.58934375,1.55715625,-2.36430078125,-2.651515625,-5.33921875,3.3474375,-5.46505859375,2.74922265625,0.72765234375,1.3023125,9.64080078125,-4.39469921875,-3.8004296875,-4.085859375,-3.00198828125,-8.3577890625,-7.93380078125,-8.99391015625,-0.20208203125,2.9442734375,-5.892640625,-5.5280078125,-1.4051015625,-4.2115625
0.73909765625,1.4991953125,-2.84737890625,4.29301953125,0.0731054687499997,2.1270859375,-0.90234375,0.84815625,-4.15730078125,-3.787515625,-5.28921875,2.4354375,-5.24305859375,1.18522265625,-0.351347656250001,0.800312499999999,8.89780078125,-6.53969921875,-5.3334296875,-5.025859375,-3.42098828125,-8.6497890625,-9.44980078125,-10.45191015625,-1.23808203125,2.7192734375,-7.295640625,-7.4520078125,-3.6361015625,-5.2065625
-1.19290234375,-0.860804687500001,-3.67037890625,1.62001953125,-1.99989453125,0.8230859375,-1.16534375,0.25615625,-5.85830078125,-5.343515625,-5.51121875,1.7764375,-4.80705859375,-0.38877734375,-1.82234765625,-0.279687500000001,8.15180078125,-7.56769921875,-6.4474296875,-5.977859375,-3.98398828125,-7.6147890625,-9.83980078125,-11.33491015625,-2.26708203125,2.2642734375,-8.136640625,-8.0070078125,-5.1721015625,-5.7625625
-2.88390234375,-3.1948046875,-3.63937890625,-0.90498046875,-3.90189453125,-0.2709140625,-1.30334375,-0.08684375,-6.80230078125,-6.847515625,-5.73621875,1.4304375,-4.09705859375,-1.54477734375,-3.48534765625,-1.8246875,7.43080078125,-7.18669921875,-6.9854296875,-6.772859375,-4.69198828125,-5.6357890625,-9.13680078125,-11.45591015625,-3.15508203125,1.5682734375,-8.335640625,-7.2750078125,-5.9161015625,-5.8965625
-3.63890234375,-4.7328046875,-2.71837890625,-2.52198046875,-5.01789453125,-0.9899140625,-1.21534375,-0.04984375,-6.49230078125,-7.805515625,-5.63021875,1.3944375,-3.10405859375,-1.93677734375,-4.96834765625,-3.5106875,6.80580078125,-5.46269921875,-6.8464296875,-7.188859375,-5.42398828125,-3.3377890625,-7.58680078125,-10.78791015625,-3.75608203125,0.710273437499999,-7.948640625,-5.6850078125,-5.9071015625,-5.6765625
-3.03990234375,-4.9658046875,-1.14837890625,-2.69798046875,-4.93589453125,-1.2779140625,-0.81534375,0.41115625,-4.75930078125,-7.883515625,-4.93721875,1.6254375,-1.92005859375,-1.41877734375,-5.84434765625,-4.9196875,6.36080078125,-2.77569921875,-6.0054296875,-7.049859375,-5.97598828125,-1.3047890625,-5.55380078125,-9.47391015625,-3.97008203125,-0.125726562500001,-7.120640625,-3.7430078125,-5.2441015625,-5.1635625
-1.14590234375,-3.8478046875,0.62262109375,-1.34098046875,-3.61289453125,-1.1829140625,-0.111343750000001,1.17815625,-1.88830078125,-7.042515625,-3.62821875,2.0314375,-0.68505859375,-0.134777343750001,-5.84134765625,-5.7446875,6.11680078125,0.29430078125,-4.5834296875,-6.345859375,-6.15898828125,0.1182109375,-3.44180078125,-7.80891015625,-3.81808203125,-0.716726562500001,-6.046640625,-1.8480078125,-4.0621015625,-4.4275625
1.53509765625,-1.7808046875,2.10562109375,1.17101953125,-1.38689453125,-0.8239140625,0.76865625,1.99315625,1.43869921875,-5.567515625,-1.95021875,2.4564375,0.50394140625,1.51422265625,-5.01534765625,-5.9456875,5.99580078125,3.11530078125,-2.8894296875,-5.288859375,-5.91298828125,0.8752109375,-1.65180078125,-6.17191015625,-3.46008203125,-0.9017265625,-4.943640625,-0.2320078125,-2.5411015625,-3.5905625
4.28009765625,0.576195312499999,2.94262109375,4.15501953125,1.16410546875,-0.3439140625,1.63865625,2.57115625,4.42769921875,-3.944515625,-0.30721875,2.7154375,1.65094140625,3.01122265625,-3.73934765625,-5.7646875,5.84880078125,5.15230078125,-1.3654296875,-4.245859375,-5.35098828125,1.1042109375,-0.51980078125,-4.91691015625,-3.14708203125,-0.665726562500001,-4.004640625,0.9829921875,-0.9081015625,-2.8285625
6.44409765625,2.5831953125,3.02562109375,6.88701953125,3.45610546875,0.1280859375,2.33565625,2.72915625,6.48369921875,-2.657515625,0.92178125,2.6544375,2.81294140625,3.92222265625,-2.52334765625,-5.5926875,5.54380078125,6.06230078125,-0.438429687499999,-3.581859375,-4.71698828125,0.9812109375,-0.25080078125,-4.25891015625,-3.11708203125,-0.155726562500001,-3.369640625,1.7039921875,0.5778984375,-2.3325625
7.66909765625,3.8131953125,2.51662109375,8.83301953125,5.07710546875,0.4730859375,2.77865625,2.44515625,7.34869921875,-2.020515625,1.53978125,2.2184375,3.98894140625,4.02522265625,-1.79334765625,-5.7826875,5.04280078125,5.75430078125,-0.3704296875,-3.519859375,-4.29098828125,0.5972109375,-0.86280078125,-4.21791015625,-3.50608203125,0.379273437499999,-3.105640625,1.8199921875,1.6628984375,-2.2435625
7.94509765625,4.1301953125,1.76762109375,9.78201953125,5.87010546875,0.5900859375,2.97265625,1.85315625,7.08469921875,-2.108515625,1.58078125,1.4904375,5.05294140625,3.35822265625,-1.73834765625,-6.4646875,4.42580078125,4.39230078125,-1.1614296875,-4.064859375,-4.25898828125,-0.0587890625000003,-2.17180078125,-4.63291015625,-4.29308203125,0.677273437499999,-3.190640625,1.2409921875,2.1638984375,-2.5975625
7.53309765625,3.6691953125,1.18462109375,9.84101953125,5.89910546875,0.4220859375,2.96965625,1.18115625,6.01969921875,-2.776515625,1.24978125,0.6814375,5.79194140625,2.15622265625,-2.29334765625,-7.4626875,3.84180078125,2.35230078125,-2.5554296875,-5.026859375,-4.61798828125,-1.0317890625,-3.82280078125,-5.24691015625,-5.29708203125,0.5722734375,-3.514640625,-0.0190078124999995,2.0358984375,-3.2855625
6.80209765625,2.7341953125,1.05162109375,9.33401953125,5.35810546875,-0.00891406250000015,2.82165625,0.65615625,4.63869921875,-3.776515625,0.79178125,0.0464374999999997,6.04794140625,0.73522265625,-3.23134765625,-8.3926875,3.41580078125,0.12230078125,-4.1454296875,-6.117859375,-5.17798828125,-2.3027890625,-5.40280078125,-5.81191015625,-6.25008203125,0.0512734374999999,-3.899640625,-1.7760078125,1.4128984375,-4.0695625
6.03509765625,1.6571953125,1.38062109375,8.61401953125,4.46610546875,-0.6189140625,2.51665625,0.38115625,3.36469921875,-4.878515625,0.34378125,-0.2545625,5.81394140625,-0.663777343750001,-4.30934765625,-8.9156875,3.14980078125,-1.83369921875,-5.5514296875,-7.082859375,-5.66698828125,-3.7327890625,-6.58080078125,-6.18491015625,-6.90308203125,-0.7367265625,-4.162640625,-3.6890078125,0.5728984375,-4.6685625
5.29909765625,0.6351953125,1.86562109375,7.90001953125,3.39110546875,-1.3299140625,1.95865625,0.27115625,2.35869921875,-5.972515625,-0.12321875,-0.2645625,5.19694140625,-1.95377734375,-5.38234765625,-8.9936875,2.89080078125,-3.18769921875,-6.5624296875,-7.789859375,-5.88598828125,-5.0567890625,-7.20180078125,-6.35091015625,-7.11608203125,-1.5407265625,-4.180640625,-5.3160078125,-0.1391015625,-4.8675625
4.44009765625,-0.3428046875,2.00162109375,7.19701953125,2.24110546875,-2.1239140625,1.01865625,0.07515625,1.53369921875,-7.054515625,-0.72621875,-0.2365625,4.28594140625,-3.15877734375,-6.40434765625,-8.9346875,2.39680078125,-3.81369921875,-7.1614296875,-8.230859375,-5.79698828125,-5.9187890625,-7.27980078125,-6.37991015625,-6.88008203125,-2.1027265625,-3.933640625,-6.2050078125,-0.4271015625,-4.5695625
3.21409765625,-1.4338046875,1.35062109375,6.34601953125,1.09910546875,-3.0449140625,-0.36334375,-0.48484375,0.72369921875,-8.147515625,-1.52421875,-0.5015625,3.06494140625,-4.28677734375,-7.35434765625,-9.2056875,1.48880078125,-3.76369921875,-7.4474296875,-8.447859375,-5.49898828125,-5.9747890625,-6.91980078125,-6.34391015625,-6.26508203125,-2.2267265625,-3.503640625,-6.0060078125,-0.1401015625,-3.7935625
1.47709765625,-2.7878046875,-0.18137890625,5.14301953125,0.0531054687500001,-4.1349140625,-2.09334375,-1.53984375,-0.18830078125,-9.204515625,-2.42121875,-1.2625625,1.49794140625,-5.25277734375,-8.16234765625,-10.1516875,0.19180078125,-3.21469921875,-7.5274296875,-8.469859375,-5.11798828125,-5.0427890625,-6.23780078125,-6.28391015625,-5.37608203125,-1.8197265625,-3.023640625,-4.6150078125,0.6728984375,-2.6525625
-0.67590234375,-4.3778046875,-2.23237890625,3.47101953125,-0.78989453125,-5.3669140625,-3.90334375,-2.96884375,-1.25630078125,-10.083515625,-3.18521875,-2.4515625,-0.26205859375,-5.90777734375,-8.70734765625,-11.7936875,-1.23519921875,-2.39569921875,-7.4664296875,-8.305859375,-4.71498828125,-3.2387890625,-5.34280078125,-6.21391015625,-4.33708203125,-0.8967265625,-2.619640625,-2.2770078125,1.7638984375,-1.3515625
-2.88190234375,-5.9408046875,-4.14637890625,1.40401953125,-1.32889453125,-6.6009140625,-5.41934375,-4.42584375,-2.46030078125,-10.573515625,-3.54021875,-3.7415625,-1.74005859375,-6.13477734375,-8.88134765625,-13.7976875,-2.41519921875,-1.52469921875,-7.2904296875,-7.982859375,-4.27198828125,-0.9967890625,-4.35680078125,-6.15291015625,-3.31208203125,0.4042734375,-2.371640625,0.4409921875,2.7648984375,-0.1775625
-4.62590234375,-7.0538046875,-5.30537890625,-0.77998046875,-1.48889453125,-7.5949140625,-6.27034375,-5.50284375,-3.64030078125,-10.457515625,-3.25921875,-4.7235625,-2.29105859375,-5.91177734375,-8.66434765625,-15.5986875,-3.05319921875,-0.76569921875,-6.9994296875,-7.556859375,-3.74898828125,1.0702109375,-3.41580078125,-6.12791015625,-2.50108203125,1.8202734375,-2.299640625,2.8319921875,3.3178984375,0.5564375
-5.44390234375,-7.3328046875,-5.44737890625,-2.66298046875,-1.23489453125,-8.0639140625,-6.20934375,-5.92084375,-4.48830078125,-9.562515625,-2.23121875,-5.1125625,-1.50105859375,-5.32277734375,-8.13534765625,-16.6406875,-3.08219921875,-0.19069921875,-6.5684296875,-7.086859375,-3.14898828125,2.4022109375,-2.63980078125,-6.14491015625,-2.09008203125,2.9962734375,-2.373640625,4.2989921875,3.2048984375,0.6064375
-5.09090234375,-6.6038046875,-4.74237890625,-3.82498046875,-0.55889453125,-7.7589140625,-5.17634375,-5.65184375,-4.66730078125,-7.807515625,-0.47221875,-4.8645625,0.45694140625,-4.48277734375,-7.41034765625,-16.6006875,-2.66519921875,0.22830078125,-5.9534296875,-6.562859375,-2.52598828125,2.6952109375,-2.08780078125,-6.15591015625,-2.16208203125,3.5962734375,-2.518640625,4.5479921875,2.4218984375,-0.1255625
-3.59590234375,-4.9638046875,-3.59837890625,-3.98298046875,0.55110546875,-6.5179140625,-3.29034375,-4.88384375,-3.93430078125,-5.224515625,1.90478125,-4.1325625,2.80994140625,-3.44477734375,-6.52934765625,-15.4786875,-2.06819921875,0.60030078125,-5.0914296875,-5.858859375,-1.93598828125,1.9922109375,-1.71680078125,-6.03991015625,-2.63008203125,3.4382734375,-2.622640625,3.6649921875,1.1828984375,-1.5555625
-1.19290234375,-2.6988046875,-2.34637890625,-3.07498046875,2.12610546875,-4.3199140625,-0.787343750000001,-3.88684375,-2.17430078125,-1.974515625,4.72778125,-3.1155625,4.60594140625,-2.13577734375,-5.39434765625,-13.5356875,-1.50119921875,1.07230078125,-3.8984296875,-4.758859375,-1.37298828125,0.6622109375,-1.36680078125,-5.62191015625,-3.22108203125,2.5912734375,-2.533640625,2.0969921875,-0.1221015625,-3.4205625
1.76809765625,-0.1548046875,-1.07137890625,-1.29098046875,4.18210546875,-1.3289140625,2.02065625,-2.86284375,0.55969921875,1.638484375,7.76978125,-1.9415625,5.27094140625,-0.42477734375,-3.82034765625,-11.1536875,-1.03019921875,1.76230078125,-2.2974296875,-3.054859375,-0.77598828125,-0.7257890625,-0.80780078125,-4.73091015625,-3.56108203125,1.3512734375,-2.069640625,0.5379921875,-1.0231015625,-5.3215625
4.90709765625,2.3601953125,0.33162109375,0.97901953125,6.64010546875,2.0750859375,4.77765625,-1.87484375,3.94369921875,5.186484375,10.73878125,-0.6345625,4.94294140625,1.72922265625,-1.68334765625,-8.7156875,-0.59419921875,2.69330078125,-0.2914296875,-0.699859375,-0.07698828125,-1.6217890625,0.15319921875,-3.28291015625,-3.32508203125,0.1332734375,-1.070640625,-0.3190078125,-1.1251015625,-6.8315625
7.88009765625,4.6261953125,1.97362109375,3.27101953125,9.26710546875,5.3640859375,7.13265625,-0.83784375,7.37269921875,8.209484375,13.30778125,0.8124375,4.35694140625,4.15822265625,0.930652343749999,-6.5186875,-0.0771992187500001,3.77130078125,1.9825703125,2.109140625,0.73401171875,-1.7217890625,1.55819921875,-1.33491015625,-2.37108203125,-0.692726562500001,0.521359375,-0.1010078125,-0.2831015625,-7.6195625
10.43909765625,6.5531953125,3.83162109375,5.20901953125,11.72310546875,8.0360859375,8.82665625,0.41315625,10.18569921875,10.378484375,15.23478125,2.3674375,4.39894140625,6.50322265625,3.72465234375,-4.7006875,0.60280078125,4.81730078125,4.2535703125,4.971140625,1.61101171875,-1.0777890625,3.24919921875,0.92308984375,-0.80308203125,-0.921726562500001,2.593359375,1.0659921875,1.3288984375,-7.5295625
12.43909765625,8.1571953125,5.74662109375,6.61601953125,13.66410546875,9.7960859375,9.76965625,2.01715625,11.98369921875,11.622484375,16.46878125,3.9084375,5.60794140625,8.36222265625,6.30465234375,-3.2346875,1.44680078125,5.65830078125,6.2035703125,7.424140625,2.47701171875,-0.0137890625000003,4.92319921875,3.22508984375,1.07791796875,-0.5447265625,4.872359375,2.6399921875,3.2928984375,-6.5775625
13.78109765625,9.4821953125,7.48462109375,7.50601953125,14.85810546875,10.6360859375,10.04365625,3.96115625,12.79069921875,12.118484375,17.13478125,5.2454375,7.87394140625,9.44522265625,8.32965234375,-2.0206875,2.34780078125,6.20530078125,7.5615703125,9.084140625,3.25401171875,1.0852109375,6.24119921875,5.29908984375,2.88491796875,0.291273437499999,7.006359375,3.9919921875,5.1588984375,-4.9155625
14.36409765625,10.4941953125,8.82062109375,8.00001953125,15.23710546875,10.7620859375,9.84165625,6.02115625,12.97569921875,12.138484375,17.39978125,6.1734375,10.48894140625,9.65522265625,9.59265234375,-1.0156875,3.10280078125,6.47030078125,8.1585703125,9.738140625,3.85801171875,1.9632109375,6.93419921875,6.90308984375,4.26691796875,1.3662734375,8.675359375,4.7209921875,6.6258984375,-2.8005625
14.08809765625,11.0431953125,9.58662109375,8.21301953125,14.88510546875,10.4380859375,9.36565625,7.80115625,13.03969921875,11.860484375,17.32178125,6.5384375,12.49094140625,9.07522265625,10.00865234375,-0.299687500000001,3.44280078125,6.51430078125,7.9355703125,9.357140625,4.19001171875,2.5472109375,6.85819921875,7.85708984375,4.99791796875,2.4382734375,9.684359375,4.7949921875,7.6178984375,-0.5615625
12.93209765625,10.9151953125,9.69362109375,8.18901953125,13.95910546875,9.8300859375,8.73965625,8.85515625,13.37469921875,11.274484375,16.78078125,6.2694375,13.10594140625,7.88422265625,9.57565234375,-0.0406875000000007,3.08980078125,6.36230078125,6.9235703125,8.067140625,4.14101171875,2.8602109375,6.00219921875,8.07108984375,4.99991796875,3.2922734375,9.978359375,4.4409921875,8.2148984375,1.4524375
11.01309765625,9.9471953125,9.11462109375,7.90801953125,12.59210546875,8.9410859375,7.95465625,8.83215625,14.01069921875,10.212484375,15.55078125,5.3784375,12.06394140625,6.25322265625,8.34465234375,-0.393687500000001,1.85180078125,5.95830078125,5.2195703125,6.100140625,3.62001171875,2.8822109375,4.46019921875,7.57608984375,4.31091796875,3.7662734375,9.609359375,3.8989921875,8.4918984375,2.9384375
8.60609765625,8.1291953125,7.85562109375,7.34101953125,10.85110546875,7.6530859375,6.89965625,7.60115625,14.53869921875,8.498484375,13.45678125,3.9264375,9.65494140625,4.28022265625,6.42465234375,-1.4016875,-0.25019921875,5.18330078125,2.9765703125,3.735140625,2.59701171875,2.4862109375,2.40419921875,6.50408984375,3.04391796875,3.7822734375,8.676359375,3.2309921875,8.3948984375,3.6994375
6.08809765625,5.6531953125,5.92362109375,6.51801953125,8.76810546875,5.8510859375,5.45765625,5.32515625,14.35469921875,6.106484375,10.56078125,2.0104375,6.54994140625,2.01522265625,4.00865234375,-2.9256875,-2.90919921875,3.95430078125,0.4215703125,1.256140625,1.13901171875,1.5202109375,0.0771992187499997,5.05708984375,1.37991796875,3.3652734375,7.320359375,2.3389921875,7.7788984375,3.7264375
3.82409765625,2.8561953125,3.34662109375,5.54401953125,6.42610546875,3.5440859375,3.62865625,2.44315625,13.11069921875,3.258484375,7.25478125,-0.2345625,3.50294140625,-0.44677734375,1.37265234375,-4.6356875,-5.56219921875,2.33630078125,-2.1264296875,-1.063859375,-0.56298828125,-0.0107890625000002,-2.19480078125,3.46708984375,-0.42408203125,2.6582734375,5.752359375,1.1829921875,6.5798984375,3.2494375
2.03809765625,0.0981953124999997,0.25462109375,4.54701953125,4.01210546875,0.9180859375,1.58265625,-0.45184375,10.98469921875,0.381484375,4.17878125,-2.6195625,1.09394140625,-2.90777734375,-1.16234765625,-6.0976875,-7.56719921875,0.58530078125,-4.2944296875,-2.975859375,-2.21498828125,-1.8287890625,-4.03180078125,1.95508984375,-2.02808203125,1.9172734375,4.275359375,-0.0180078124999996,4.9898984375,2.7114375
0.76009765625,-2.3298046875,-3.02537890625,3.62501953125,1.81410546875,-1.7059140625,-0.375343750000001,-2.78184375,8.55769921875,-2.026515625,1.99878125,-4.8905625,-0.39105859375,-5.09877734375,-3.31034765625,-6.9516875,-8.45819921875,-0.90269921875,-5.7534296875,-4.269859375,-3.48098828125,-3.4427890625,-5.08780078125,0.69908984375,-3.07108203125,1.4652734375,3.237359375,-0.7890078125,3.4698984375,2.6054375
-0.0919023437500002,-4.2168046875,-5.94837890625,2.84801953125,0.15910546875,-3.9449140625,-1.89934375,-4.13884375,6.49869921875,-3.553515625,1.15078125,-6.7515625,-0.924058593749999,-6.74177734375,-4.88934765625,-7.0546875,-8.15519921875,-1.72769921875,-6.3244296875,-4.810859375,-4.07398828125,-4.3517890625,-5.16180078125,-0.20591015625,-3.28008203125,1.5992734375,2.896359375,-0.6490078125,2.5538984375,3.2604375
-0.56290234375,-5.3638046875,-7.87437890625,2.32601953125,-0.66389453125,-5.4529140625,-2.71234375,-4.35984375,5.32669921875,-3.984515625,1.68678125,-7.9245625,-0.64605859375,-7.59577734375,-5.83634765625,-6.5196875,-6.97719921875,-1.61369921875,-6.0034296875,-4.569859375,-3.85698828125,-4.2497890625,-4.26780078125,-0.73291015625,-2.58208203125,2.4612734375,3.306359375,0.6039921875,2.5888984375,4.6834375
-0.59590234375,-5.5528046875,-8.30237890625,2.23301953125,-0.49489453125,-6.0079140625,-2.70234375,-3.53384375,5.29069921875,-3.338515625,3.26878125,-8.2425625,0.22294140625,-7.49977734375,-6.17234765625,-5.6256875,-5.46119921875,-0.49269921875,-4.9234296875,-3.630859375,-2.87798828125,-3.1097890625,-2.61080078125,-0.88891015625,-1.13408203125,3.9682734375,4.292359375,2.7549921875,3.5818984375,6.5674375
-0.0959023437499997,-4.6428046875,-7.07837890625,2.72801953125,0.61010546875,-5.5909140625,-1.97234375,-1.95484375,6.30369921875,-1.845515625,5.32178125,-7.7055625,1.41394140625,-6.44677734375,-5.96634765625,-4.6806875,-4.07319921875,1.47930078125,-3.2984296875,-2.185859375,-1.33898828125,-1.1597890625,-0.49780078125,-0.65291015625,0.75091796875,5.8362734375,5.545359375,5.2779921875,5.2308984375,8.4394375
0.93509765625,-2.7038046875,-4.47337890625,3.81401953125,2.34110546875,-4.4169140625,-0.81434375,-0.0248437499999999,7.95269921875,0.119484375,7.26478125,-6.4845625,2.64394140625,-4.65277734375,-5.30534765625,-3.8846875,-3.00419921875,3.95030078125,-1.3714296875,-0.480859375,0.49701171875,1.1992109375,1.74819921875,0.0380898437499999,2.74691796875,7.6902734375,6.765359375,7.5629921875,7.0748984375,9.8664375
2.31009765625,-0.105804687500001,-1.12137890625,5.25201953125,4.19410546875,-2.8789140625,0.40165625,1.86015625,9.65969921875,2.127484375,8.72678125,-4.8475625,3.62594140625,-2.55977734375,-4.29234765625,-3.2626875,-2.16719921875,6.41530078125,0.593570312500001,1.253140625,2.40201171875,3.4552109375,3.83519921875,1.24508984375,4.62491796875,9.2032734375,7.746359375,9.1039921875,8.6508984375,10.6074375
3.67009765625,2.5351953125,2.15062109375,6.57301953125,5.62110546875,-1.4429140625,1.34965625,3.39315625,10.89269921875,3.780484375,9.62178125,-3.0785625,4.07894140625,-0.739777343749999,-3.05634765625,-2.7066875,-1.34719921875,8.29730078125,2.3185703125,2.838140625,4.21901171875,5.0602109375,5.49519921875,2.93508984375,6.25591796875,10.1902734375,8.374359375,9.5899921875,9.5948984375,10.6574375
4.56009765625,4.5091953125,4.51562109375,7.21401953125,6.19210546875,-0.5349140625,1.83065625,4.38815625,11.26169921875,4.760484375,10.06478125,-1.4115625,3.75494140625,0.269222656250001,-1.77834765625,-2.1136875,-0.376199218750001,9.08230078125,3.5255703125,4.144140625,5.83301171875,5.5592109375,6.49119921875,4.91608984375,7.55891796875,10.6352734375,8.588359375,8.9329921875,9.6988984375,10.1784375
4.55309765625,5.2211953125,5.35062109375,6.70701953125,5.72610546875,-0.4469140625,1.79265625,4.78915625,10.52469921875,4.875484375,10.22778125,-0.00856250000000047,2.53194140625,0.13022265625,-0.68534765625,-1.5136875,0.77280078125,8.48330078125,3.9685703125,5.044140625,7.13701171875,4.7752109375,6.65319921875,6.82608984375,8.44091796875,10.6602734375,8.353359375,7.3079921875,8.9598984375,9.4044375
3.40009765625,4.3971953125,4.40862109375,4.87801953125,4.33810546875,-1.2609140625,1.31565625,4.66915625,8.64169921875,4.114484375,10.25878125,1.0364375,0.521941406250001,-1.18377734375,-0.00934765625000011,-1.0546875,1.99680078125,6.56830078125,3.5125703125,5.395140625,8.01901171875,2.9402109375,5.95419921875,8.23508984375,8.80291796875,10.4452734375,7.684359375,5.1349921875,7.5838984375,8.5424375
1.15309765625,2.2051953125,1.92662109375,1.94401953125,2.39710546875,-2.8149140625,0.58565625,4.22915625,5.87769921875,2.679484375,10.29078125,1.6924375,-1.90405859375,-3.38777734375,0.0836523437499999,-0.873687500000001,3.13180078125,3.75630078125,2.1955703125,5.072140625,8.40001171875,0.6282109375,4.52819921875,8.77508984375,8.57291796875,10.1492734375,6.659359375,2.9489921875,5.9058984375,7.7114375
-1.81490234375,-0.793804687500001,-1.42437890625,-1.52998046875,0.38010546875,-4.7469140625,-0.159343750000001,3.75415625,2.77669921875,0.955484375,10.46178125,1.9724375,-4.23705859375,-6.01777734375,-0.44234765625,-0.982687500000001,4.03380078125,0.66430078125,0.226570312500001,4.034140625,8.27601171875,-1.4847890625,2.62219921875,8.25908984375,7.74791796875,9.8482734375,5.414359375,1.1819921875,4.2568984375,6.9174375
-4.94290234375,-3.8638046875,-4.76937890625,-4.83098046875,-1.30989453125,-6.6379140625,-0.71334375,3.49615625,-0.0373007812500001,-0.610515625,10.87778125,1.9244375,-6.05105859375,-8.61877734375,-1.49634765625,-1.2636875,4.60880078125,-2.10969921875,-2.0774296875,2.389140625,7.73301171875,-2.8837890625,0.51719921875,6.74208984375,6.40391796875,9.5242734375,4.098359375,0.0119921875000002,2.8678984375,6.0784375
-7.67890234375,-6.3788046875,-7.36337890625,-7.33698046875,-2.46089453125,-8.1489140625,-0.96934375,3.55415625,-2.06930078125,-1.664515625,11.55678125,1.6084375,-7.18505859375,-10.86677734375,-2.87934765625,-1.5546875,4.79880078125,-4.15569921875,-4.3684296875,0.419140625,6.92101171875,-3.3787890625,-1.50280078125,4.51208984375,4.69591796875,9.0702734375,2.850359375,-0.6200078125,1.8678984375,5.1134375
-9.62690234375,-7.9888046875,-8.82637890625,-8.69698046875,-3.04189453125,-9.0809140625,-0.91034375,3.83015625,-3.02730078125,-2.013515625,12.41178125,1.1154375,-7.75405859375,-12.56377734375,-4.30134765625,-1.7246875,4.56680078125,-5.29169921875,-6.2844296875,-1.466859375,6.01801171875,-3.0987890625,-3.14880078125,2.04508984375,2.85991796875,8.3452734375,1.778359375,-0.8780078125,1.3268984375,4.0314375
-10.56890234375,-8.6068046875,-9.17637890625,-8.85798046875,-3.09789453125,-9.3259140625,-0.55434375,4.10215625,-2.80330078125,-1.607515625,13.32378125,0.5844375,-8.01205859375,-13.54377734375,-5.38634765625,-1.6976875,3.92480078125,-5.51469921875,-7.4514296875,-2.815859375,5.20001171875,-2.3837890625,-4.11080078125,-0.0889101562500001,1.19791796875,7.2582734375,0.976359375,-0.8950078125,1.2878984375,2.9554375
-10.42190234375,-8.2978046875,-8.65237890625,-7.98898046875,-2.63789453125,-8.8049140625,0.103656249999999,4.17815625,-1.48330078125,-0.463515625,14.23078125,0.1954375,-8.14005859375,-13.62677734375,-5.72034765625,-1.4456875,2.96880078125,-4.91369921875,-7.5204296875,-3.269859375,4.62301171875,-1.6047890625,-4.10180078125,-1.34391015625,0.0349179687500001,5.8632734375,0.546359375,-0.6990078125,1.7468984375,2.0624375
-9.21490234375,-7.1928046875,-7.50537890625,-6.37698046875,-1.63589453125,-7.4689140625,1.06965625,4.00415625,0.66269921875,1.355484375,15.16678125,0.1004375,-8.13605859375,-12.66177734375,-4.98334765625,-0.980687500000001,1.87480078125,-3.62869921875,-6.2914296875,-2.691859375,4.40601171875,-1.0017890625,-2.95980078125,-1.34591015625,-0.36708203125,4.3822734375,0.587359375,-0.2200078125,2.6408984375,1.4964375
-7.13290234375,-5.4858046875,-5.91537890625,-4.36298046875,-0.13789453125,-5.3879140625,2.27765625,3.66215625,3.23669921875,3.699484375,16.22578125,0.3084375,-7.84505859375,-10.66277734375,-3.11734765625,-0.355687500000001,0.81680078125,-1.86969921875,-3.8474296875,-1.237859375,4.59701171875,-0.6167890625,-0.78180078125,-0.0199101562500001,0.0909179687500001,3.1372734375,1.168359375,0.649992187500001,3.8498984375,1.3134375
-4.58490234375,-3.5018046875,-4.05837890625,-2.33798046875,1.61110546875,-2.8539140625,3.52265625,3.26315625,5.77369921875,6.247484375,17.44878125,0.6224375,-7.11505859375,-7.92377734375,-0.43234765625,0.312312499999999,-0.12819921875,0.0553007812499998,-0.608429687499999,0.668140625,5.13601171875,-0.3377890625,2.02719921875,2.35208984375,1.28291796875,2.4232734375,2.260359375,1.9619921875,5.2158984375,1.4934375
-2.19490234375,-1.7058046875,-2.20237890625,-0.73098046875,3.14210546875,-0.3839140625,4.48865625,2.83715625,7.74169921875,8.505484375,18.71378125,0.6924375,-5.94905859375,-5.02577734375,2.43465234375,0.832312499999999,-1.00519921875,1.77230078125,2.7545703125,2.464140625,5.84301171875,-0.0297890625000004,4.83419921875,5.19608984375,2.87691796875,2.3932734375,3.700359375,3.6189921875,6.5758984375,1.9504375
-0.61290234375,-0.570804687500001,-0.69937890625,0.0820195312499999,3.91910546875,1.4370859375,4.88465625,2.33015625,8.62169921875,9.940484375,19.73678125,0.1934375,-4.53005859375,-2.66477734375,4.73765234375,0.973312499999999,-1.90419921875,2.93830078125,5.5495703125,3.655140625,6.48901171875,0.3322109375,6.99119921875,7.83008984375,4.45291796875,3.0312734375,5.221359375,5.3369921875,7.7758984375,2.5664375
-0.21490234375,-0.352804687500001,0.14762109375,-0.05698046875,3.61910546875,2.1990859375,4.63665625,1.70415625,8.13369921875,10.219484375,20.22778125,-0.9605625,-3.11905859375,-1.37077734375,5.92165234375,0.588312499999999,-2.81819921875,3.36730078125,7.3165703125,3.999140625,6.91801171875,0.6282109375,8.05419921875,9.70308984375,5.67891796875,4.1902734375,6.520359375,6.7119921875,8.6708984375,3.2174375
-0.90090234375,-0.918804687500001,0.23062109375,-0.96298046875,2.33010546875,1.8650859375,3.96765625,1.03515625,6.45269921875,9.396484375,20.08978125,-2.5145625,-1.92405859375,-1.26677734375,5.84965234375,-0.269687500000001,-3.56719921875,3.10830078125,7.9735703125,3.601140625,7.15301171875,0.6612109375,7.90619921875,10.56408984375,6.44591796875,5.6652734375,7.367359375,7.3599921875,9.1468984375,3.8164375
-2.16690234375,-1.8158046875,-0.34237890625,-2.15698046875,0.51310546875,0.7570859375,3.27965625,0.48215625,4.12969921875,7.894484375,19.49078125,-3.9735625,-1.05705859375,-2.05677734375,4.81465234375,-1.3226875,-3.84119921875,2.42530078125,7.7545703125,2.829140625,7.39101171875,0.3092109375,6.73919921875,10.49408984375,6.87091796875,7.2572734375,7.673359375,7.1129921875,9.1618984375,4.3344375
-3.43390234375,-2.5308046875,-1.34137890625,-3.09198046875,-1.26289453125,-0.6389140625,2.90765625,0.17415625,1.78969921875,6.285484375,18.73978125,-4.8515625,-0.574058593749999,-3.23477734375,3.33565234375,-2.1876875,-3.37119921875,1.68430078125,7.0085703125,2.114140625,7.86501171875,-0.3517890625,4.95419921875,9.80108984375,7.18991796875,8.7962734375,7.522359375,6.1469921875,8.8068984375,4.7934375
-4.37690234375,-2.7838046875,-2.54837890625,-3.42798046875,-2.62489453125,-1.9239140625,2.91365625,0.12015625,-0.14730078125,5.009484375,18.07878125,-4.9015625,-0.52405859375,-4.36877734375,1.88065234375,-2.5566875,-2.10219921875,1.18130078125,5.9995703125,1.735140625,8.69701171875,-1.0527890625,3.03019921875,8.84308984375,7.61291796875,10.1572734375,7.138359375,4.9579921875,8.3218984375,5.2504375
-5.06690234375,-2.6458046875,-3.81037890625,-3.20198046875,-3.56189453125,-2.9439140625,3.05465625,0.24615625,-1.54330078125,4.198484375,17.54878125,-4.2045625,-0.952058593749999,-5.29777734375,0.66265234375,-2.3346875,-0.267199218750001,1.00030078125,4.8115703125,1.706140625,9.81401171875,-1.4917890625,1.37919921875,7.87908984375,8.21491796875,11.2662734375,6.780359375,4.1239921875,7.9968984375,5.7514375
-5.84490234375,-2.4398046875,-5.03937890625,-2.81298046875,-4.36089453125,-3.7739140625,2.94165625,0.49115625,-2.51430078125,3.671484375,17.01978125,-3.0735625,-1.83705859375,-6.13677734375,-0.383347656250001,-1.6996875,1.69980078125,0.96030078125,3.3935703125,1.804140625,10.98401171875,-1.5527890625,0.21319921875,6.97508984375,8.90091796875,12.0932734375,6.613359375,3.9589921875,7.9898984375,6.2654375
-7.03890234375,-2.5088046875,-6.15437890625,-2.79498046875,-5.36189453125,-4.5799140625,2.28265625,0.86215625,-3.35430078125,3.103484375,16.32478125,-1.8645625,-3.05605859375,-7.12377734375,-1.47134765625,-1.0506875,3.34280078125,0.73430078125,1.6715703125,1.719140625,11.92601171875,-1.3887890625,-0.52280078125,6.02508984375,9.46591796875,12.6392734375,6.623359375,4.3069921875,8.1788984375,6.6414375
-8.69690234375,-2.9828046875,-7.04537890625,-3.50598046875,-6.67589453125,-5.4279140625,1.07765625,1.40015625,-4.34630078125,2.269484375,15.42878125,-0.8255625,-4.38305859375,-8.36677734375,-2.73634765625,-0.820687500000001,4.35380078125,0.0783007812499998,-0.2984296875,1.256140625,12.43301171875,-1.2847890625,-1.05080078125,4.89308984375,9.70491796875,12.9092734375,6.670359375,4.6409921875,8.2148984375,6.6824375
-10.49790234375,-3.6948046875,-7.56637890625,-4.91098046875,-8.05789453125,-6.1799140625,-0.356343750000001,2.06715625,-5.52130078125,1.232484375,14.48878125,-0.0435625000000002,-5.54505859375,-9.67377734375,-4.06934765625,-1.2466875,4.62780078125,-0.95269921875,-2.2374296875,0.486140625,12.45101171875,-1.4017890625,-1.55980078125,3.59208984375,9.53091796875,12.9052734375,6.635359375,4.4499921875,7.7438984375,6.2844375
-11.91590234375,-4.3048046875,-7.58237890625,-6.60798046875,-9.02289453125,-6.5529140625,-1.54734375,2.67915625,-6.58730078125,0.326484375,13.79678125,0.4794375,-6.31705859375,-10.58977734375,-5.13334765625,-2.2526875,4.20380078125,-1.97469921875,-3.7004296875,-0.281859375,12.05701171875,-1.6097890625,-2.04080078125,2.36908984375,8.99891796875,12.6132734375,6.543359375,3.6189921875,6.6528984375,5.5404375
-12.51690234375,-4.5208046875,-7.04937890625,-8.07498046875,-9.14389453125,-6.3129140625,-2.13134375,2.95915625,-7.14030078125,-0.045515625,13.60578125,0.7304375,-6.59105859375,-10.65877734375,-5.56434765625,-3.5256875,3.17280078125,-2.47969921875,-4.2844296875,-0.682859375,11.36901171875,-1.5677890625,-2.28280078125,1.61308984375,8.23491796875,11.9822734375,6.541359375,2.5349921875,5.1438984375,4.6854375
-12.18190234375,-4.2498046875,-6.05137890625,-8.93398046875,-8.29089453125,-5.4379140625,-2.00934375,2.70515625,-6.93330078125,0.332484375,14.01678125,0.6294375,-6.36405859375,-9.70277734375,-5.19334765625,-4.6986875,1.63380078125,-2.12669921875,-3.8364296875,-0.512859375,10.44801171875,-0.9707890625,-2.01780078125,1.62708984375,7.34391796875,10.9412734375,6.745359375,1.8389921875,3.6008984375,3.9334375
-11.08790234375,-3.5658046875,-4.75237890625,-9.05798046875,-6.65989453125,-4.1249140625,-1.31334375,1.94315625,-5.94830078125,1.395484375,14.97778125,0.0974374999999998,-5.65005859375,-7.90477734375,-4.11534765625,-5.4816875,-0.27719921875,-0.93169921875,-2.5264296875,0.174140625,9.29801171875,0.1912109375,-1.08580078125,2.45108984375,6.39291796875,9.4512734375,7.102359375,2.0099921875,2.3668984375,3.3424375
-9.51790234375,-2.5658046875,-3.30837890625,-8.50798046875,-4.60789453125,-2.6589140625,-0.24834375,0.96315625,-4.28630078125,2.879484375,16.36678125,-0.8245625,-4.41805859375,-5.67977734375,-2.60734765625,-5.7106875,-2.33719921875,0.76730078125,-0.7424296875,1.129140625,7.93101171875,1.5892109375,0.46819921875,3.82508984375,5.45691796875,7.5942734375,7.375359375,3.0719921875,1.5788984375,2.8134375
-7.69890234375,-1.2928046875,-1.80837890625,-7.42798046875,-2.46889453125,-1.2869140625,1.02065625,0.17715625,-2.10530078125,4.478484375,18.03278125,-1.9175625,-2.65105859375,-3.44877734375,-0.99334765625,-5.3666875,-4.22819921875,2.49830078125,1.0745703125,2.044140625,6.45201171875,2.7332109375,2.38819921875,5.32108984375,4.65891796875,5.6032734375,7.283359375,4.5979921875,1.1588984375,2.1904375
-5.80190234375,0.203195312499999,-0.32437890625,-6.01298046875,-0.48889453125,-0.1749140625,2.36865625,-0.10084375,0.35469921875,5.945484375,19.75678125,-2.8325625,-0.51205859375,-1.49277734375,0.42865234375,-4.5776875,-5.63719921875,3.87130078125,2.5635703125,2.672140625,5.06301171875,3.2562109375,4.29319921875,6.53908984375,4.13391796875,3.7992734375,6.684359375,5.9709921875,0.9208984375,1.3834375
-4.06190234375,1.7591953125,1.00662109375,-4.55098046875,1.12510546875,0.5610859375,3.65565625,0.19215625,2.76969921875,7.100484375,21.24278125,-3.2175625,1.53794140625,0.0682226562500006,1.40865234375,-3.5866875,-6.38019921875,4.68630078125,3.5185703125,2.896140625,4.00801171875,3.0942109375,5.78819921875,7.25808984375,3.95791796875,2.4652734375,5.669359375,6.7239921875,0.7218984375,0.4384375
-2.84690234375,3.0551953125,1.95362109375,-3.43698046875,2.14410546875,0.8330859375,4.71065625,0.87615625,4.77969921875,7.805484375,22.18978125,-2.8555625,2.83394140625,1.21222265625,1.77465234375,-2.6466875,-6.47319921875,4.92830078125,3.9015703125,2.764140625,3.48401171875,2.4782109375,6.60619921875,7.49608984375,4.10091796875,1.7452734375,4.546359375,6.7589921875,0.5628984375,-0.4555625
-2.60090234375,3.7011953125,2.24862109375,-3.09298046875,2.32710546875,0.6060859375,5.38365625,1.64215625,6.01869921875,7.946484375,22.41078125,-1.7425625,2.79994140625,1.92722265625,1.47665234375,-1.9206875,-6.07819921875,4.69330078125,3.8145703125,2.462140625,3.58501171875,1.7742109375,6.69019921875,7.44808984375,4.45291796875,1.6322734375,3.702359375,6.3169921875,0.6018984375,-1.0425625
-3.64090234375,3.3941953125,1.68262109375,-3.81198046875,1.50310546875,-0.0639140625000003,5.60765625,2.20015625,6.13369921875,7.455484375,21.89378125,-0.0955625000000002,1.28994140625,2.15422265625,0.59965234375,-1.4506875,-5.39619921875,4.10330078125,3.4275703125,2.226140625,4.27301171875,1.2812109375,6.19319921875,7.37008984375,4.89091796875,2.0252734375,3.448359375,5.7719921875,1.0608984375,-1.1045625
-5.96690234375,2.0781953125,0.20462109375,-5.58398046875,-0.31189453125,-1.0219140625,5.42865625,2.37715625,4.90569921875,6.351484375,20.77378125,1.7154375,-1.27405859375,1.80622265625,-0.67034765625,-1.1936875,-4.58919921875,3.26430078125,2.9005703125,2.228140625,5.38501171875,1.0952109375,5.38719921875,7.45108984375,5.34991796875,2.7892734375,3.877359375,5.4089921875,2.0908984375,-0.5605625
-9.17390234375,0.0151953124999995,-2.02337890625,-8.03698046875,-2.84889453125,-2.0499140625,4.97665625,2.16015625,2.46569921875,4.776484375,19.23278125,3.2894375,-4.05505859375,0.840222656250001,-2.10734765625,-1.0776875,-3.75619921875,2.26130078125,2.3315703125,2.477140625,6.67101171875,1.1052109375,4.53719921875,7.74008984375,5.82591796875,3.7802734375,4.823359375,5.3229921875,3.6608984375,0.4964375
-12.56790234375,-2.2858046875,-4.63337890625,-10.53698046875,-5.62989453125,-2.9689140625,4.38465625,1.66515625,-0.65030078125,2.982484375,17.39378125,4.3264375,-6.19905859375,-0.68777734375,-3.53034765625,-1.0886875,-2.96019921875,1.17230078125,1.7275703125,2.804140625,7.85201171875,1.0782109375,3.77919921875,8.13208984375,6.32391796875,4.8292734375,5.902359375,5.4509921875,5.5198984375,1.8214375
-15.41290234375,-4.2738046875,-7.15737890625,-12.41398046875,-8.12489453125,-3.7259140625,3.69365625,1.04515625,-3.70530078125,1.255484375,15.26578125,4.6854375,-7.21905859375,-2.63177734375,-4.85834765625,-1.3336875,-2.26519921875,0.0633007812499998,0.9905703125,2.914140625,8.67801171875,0.7922109375,3.06319921875,8.39008984375,6.77591796875,5.7262734375,6.626359375,5.6479921875,7.2348984375,3.0574375
-17.17190234375,-5.5568046875,-9.16937890625,-13.21798046875,-9.92889453125,-4.4119140625,2.84165625,0.40515625,-6.04930078125,-0.164515625,12.77878125,4.3804375,-7.13505859375,-4.78977734375,-6.11734765625,-2.0296875,-1.75819921875,-1.00869921875,-0.0394296874999993,2.492140625,8.97001171875,0.1452109375,2.20519921875,8.22508984375,7.00391796875,6.2262734375,6.558359375,5.7669921875,8.3208984375,3.8104375
-17.62590234375,-6.0058046875,-10.40037890625,-12.84098046875,-10.87589453125,-5.1589140625,1.72465625,-0.23584375,-7.28730078125,-1.128515625,9.91078125,3.5264375,-6.31205859375,-6.91277734375,-7.35634765625,-3.3736875,-1.53919921875,-1.98369921875,-1.4674296875,1.358140625,8.65001171875,-0.7837890625,1.03419921875,7.42608984375,6.78891796875,6.1172734375,5.484359375,5.7359921875,8.4388984375,3.7784375
-16.87890234375,-5.7538046875,-10.77637890625,-11.52398046875,-11.05289453125,-6.0219140625,0.30165625,-0.93084375,-7.33030078125,-1.586515625,6.79778125,2.2674375,-5.18905859375,-8.70477734375,-8.55934765625,-5.3866875,-1.70319921875,-2.76869921875,-3.2214296875,-0.439859375,7.77001171875,-1.7427890625,-0.44480078125,5.99008984375,5.97991796875,5.3192734375,3.506359375,5.6099921875,7.5608984375,2.8814375
-15.29990234375,-5.1318046875,-10.40037890625,-9.75698046875,-10.73889453125,-6.9359140625,-1.35434375,-1.75684375,-6.40630078125,-1.592515625,3.73378125,0.7234375,-4.13305859375,-9.88077734375,-9.62334765625,-7.8466875,-2.30319921875,-3.23269921875,-5.0154296875,-2.606859375,6.49901171875,-2.3897890625,-1.99180078125,4.16508984375,4.60591796875,3.9602734375,1.017359375,5.5579921875,5.9828984375,1.3144375
-13.40690234375,-4.5578046875,-9.50237890625,-8.11598046875,-10.28989453125,-7.7679140625,-3.06834375,-2.77084375,-4.99630078125,-1.290515625,1.06778125,-1.0165625,-3.47905859375,-10.25077734375,-10.41334765625,-10.3486875,-3.32119921875,-3.24469921875,-6.4324296875,-4.709859375,5.08901171875,-2.4367890625,-3.22280078125,2.36608984375,2.89191796875,2.3422734375,-1.449640625,5.7539921875,4.1758984375,-0.5415625
-11.69790234375,-4.3778046875,-8.34637890625,-7.07198046875,-9.99089453125,-8.4069140625,-4.60334375,-3.95784375,-3.60530078125,-0.857515625,-0.93121875,-2.8525625,-3.55805859375,-9.78477734375,-10.81934765625,-12.4466875,-4.65519921875,-2.71669921875,-7.0934296875,-6.310859375,3.81001171875,-1.7947890625,-3.79480078125,1.01508984375,1.19591796875,0.8202734375,-3.430640625,6.2559921875,2.5558984375,-2.2875625
-10.46590234375,-4.6958046875,-7.14237890625,-6.81398046875,-9.93989453125,-8.7979140625,-5.71134375,-5.20984375,-2.50730078125,-0.419515625,-2.14521875,-4.5965625,-4.58005859375,-8.61377734375,-10.78934765625,-13.7856875,-6.13019921875,-1.63569921875,-6.7864296875,-7.081859375,2.87501171875,-0.6127890625,-3.54080078125,0.41308984375,-0.0990820312499999,-0.346726562500001,-4.645640625,6.9949921875,1.3678984375,-3.6305625
-9.69090234375,-5.3108046875,-5.98337890625,-7.17198046875,-10.01389453125,-8.9099140625,-6.17634375,-6.34184375,-1.64330078125,0.032484375,-2.60421875,-5.9475625,-6.37005859375,-6.97077734375,-10.29534765625,-14.1946875,-7.50219921875,-0.0446992187500002,-5.5164296875,-6.845859375,2.40701171875,0.8362109375,-2.49280078125,0.69308984375,-0.68908203125,-1.0427265625,-4.978640625,7.8849921875,0.7418984375,-4.3975625
-9.09490234375,-5.7848046875,-4.84637890625,-7.67798046875,-9.95789453125,-8.6809140625,-5.86334375,-7.13484375,-0.73130078125,0.643484375,-2.42521875,-6.5665625,-8.23205859375,-5.12577734375,-9.30334765625,-13.7116875,-8.48919921875,1.97230078125,-3.4824296875,-5.583859375,2.43701171875,2.3192109375,-0.82480078125,1.83608984375,-0.40608203125,-1.2667265625,-4.391640625,8.9479921875,0.8098984375,-4.4725625
-8.31590234375,-5.6468046875,-3.63937890625,-7.79598046875,-9.53989453125,-8.0169140625,-4.75934375,-7.39584375,0.56669921875,1.608484375,-1.74421875,-6.2155625,-9.14705859375,-3.33677734375,-7.78934765625,-12.5156875,-8.82619921875,4.27230078125,-1.0084296875,-3.436859375,2.94901171875,3.7322109375,1.21719921875,3.68308984375,0.73991796875,-1.0737265625,-2.883640625,10.2969921875,1.7258984375,-3.7795625
-7.12990234375,-4.6418046875,-2.29637890625,-7.19098046875,-8.70989453125,-6.8749140625,-3.01034375,-7.01184375,2.47869921875,3.027484375,-0.71021875,-4.8915625,-8.27405859375,-1.84477734375,-5.79534765625,-10.8316875,-8.35519921875,6.59030078125,1.5375703125,-0.699859375,3.91301171875,5.0472109375,3.34419921875,5.94508984375,2.54991796875,-0.5417265625,-0.530640625,11.9869921875,3.5558984375,-2.3215625
-5.60290234375,-2.8928046875,-0.83437890625,-5.92798046875,-7.65989453125,-5.3659140625,-0.90334375,-5.96484375,4.96169921875,4.786484375,0.48178125,-2.8595625,-5.44605859375,-0.86677734375,-3.49534765625,-8.8706875,-7.08319921875,8.54830078125,3.7995703125,2.207140625,5.29201171875,6.2122109375,5.26019921875,8.23908984375,4.67791796875,0.2522734375,2.438359375,13.8849921875,6.1468984375,-0.2655625
-4.06690234375,-0.883804687500001,0.63462109375,-4.43798046875,-6.73189453125,-3.7889140625,1.22065625,-4.31084375,7.63469921875,6.561484375,1.58378125,-0.5255625,-1.34905859375,-0.54977734375,-1.19934765625,-6.8096875,-5.15819921875,9.75930078125,5.4935703125,4.829140625,7.02501171875,7.1092109375,6.72319921875,10.18408984375,6.73791796875,1.2452734375,5.637359375,15.6849921875,9.1108984375,2.0394375
-2.91990234375,0.761195312499999,1.97362109375,-3.28398046875,-6.21489453125,-2.5019140625,3.11865625,-2.11484375,9.95869921875,7.966484375,2.39478125,1.7664375,2.75194140625,-0.880777343749999,0.73965234375,-4.7736875,-2.78319921875,9.99630078125,6.4645703125,6.793140625,9.01101171875,7.5772109375,7.62419921875,11.53008984375,8.43591796875,2.4052734375,8.595359375,17.0519921875,11.9298984375,4.1424375
-2.40190234375,1.5761953125,3.08162109375,-2.86398046875,-6.16489453125,-1.7279140625,4.74665625,0.56515625,11.54669921875,8.747484375,2.89578125,3.8794375,5.54994140625,-1.63577734375,2.08165234375,-2.8216875,-0.14019921875,9.31130078125,6.7275703125,7.913140625,11.10001171875,7.5052109375,8.01519921875,12.22808984375,9.65791796875,3.7182734375,10.875359375,17.7659921875,14.1158984375,5.6304375
-2.49690234375,1.4381953125,3.90562109375,-3.25698046875,-6.37889453125,-1.4369140625,6.21465625,3.61915625,12.34469921875,8.888484375,3.28778125,5.8674375,6.20794140625,-2.44977734375,2.78965234375,-1.0026875,2.59880078125,8.01830078125,6.4565703125,8.212140625,13.08701171875,6.8932109375,8.05419921875,12.40208984375,10.43791796875,5.1412734375,12.170359375,17.7899921875,15.3318984375,6.2364375
-2.98290234375,0.573195312499999,4.41662109375,-4.23798046875,-6.52389453125,-1.3769140625,7.62765625,6.78615625,12.54069921875,8.573484375,3.85778125,7.8104375,4.61394140625,-2.99977734375,3.01365234375,0.556312499999999,5.20480078125,6.54330078125,5.9065703125,7.866140625,14.72201171875,5.8622109375,7.88519921875,12.23208984375,10.86691796875,6.5472734375,12.358359375,17.2109921875,15.4428984375,5.8744375
-3.56490234375,-0.5928046875,4.61562109375,-5.41698046875,-6.33189453125,-1.2189140625,8.92765625,9.62615625,12.38469921875,8.064484375,4.76478125,9.6214375,1.30594140625,-3.15977734375,2.98965234375,1.6093125,7.34080078125,5.24930078125,5.3235703125,7.118140625,15.73801171875,4.6062109375,7.53719921875,11.84708984375,10.99291796875,7.7062734375,11.511359375,16.1429921875,14.4938984375,4.6244375
-3.98790234375,-1.5998046875,4.56562109375,-6.39798046875,-5.71889453125,-0.7309140625,9.88965625,11.62515625,12.11769921875,7.581484375,5.91678125,10.9994375,-2.80805859375,-3.01877734375,2.92265234375,1.8733125,8.61580078125,4.31930078125,4.8835703125,6.221140625,15.90701171875,3.3262109375,6.92519921875,11.29208984375,10.78591796875,8.3432734375,9.861359375,14.6599921875,12.6658984375,2.7104375
-4.10390234375,-2.1138046875,4.39562109375,-6.92398046875,-4.80689453125,0.1180859375,10.24365625,12.38715625,11.94869921875,7.241484375,7.02178125,11.5644375,-6.77305859375,-2.77577734375,2.93065234375,1.1833125,8.73380078125,3.76830078125,4.6765703125,5.387140625,15.12201171875,2.1962109375,5.95219921875,10.55908984375,10.17291796875,8.2592734375,7.740359375,12.8159921875,10.2398984375,0.4604375
-3.89690234375,-2.0168046875,4.22062109375,-6.95498046875,-3.85089453125,1.1230859375,9.83265625,11.78515625,12.00969921875,7.052484375,7.76778125,11.0814375,-9.80105859375,-2.60977734375,3.01665234375,-0.403687500000001,7.64380078125,3.51030078125,4.7065703125,4.755140625,13.45401171875,1.3612109375,4.61919921875,9.64408984375,9.10891796875,7.4322734375,5.495359375,10.6999921875,7.5518984375,-1.7655625
-3.45290234375,-1.4008046875,4.06562109375,-6.66498046875,-3.12589453125,1.9330859375,8.71565625,10.01115625,12.30769921875,6.941484375,8.00478125,9.6304375,-11.33705859375,-2.59277734375,3.09465234375,-2.5996875,5.58880078125,3.43130078125,4.8895703125,4.362140625,11.14301171875,0.9132109375,3.07619921875,8.57208984375,7.62691796875,6.0302734375,3.399359375,8.4719921875,4.9308984375,-3.6735625
-2.88090234375,-0.485804687500001,3.87462109375,-6.32698046875,-2.81889453125,2.2060859375,7.15065625,7.49015625,12.78069921875,6.803484375,7.80378125,7.5814375,-11.08005859375,-2.68877734375,3.04265234375,-4.9556875,3.00180078125,3.43130078125,5.0845703125,4.151140625,8.55001171875,0.8512109375,1.56419921875,7.40108984375,5.86191796875,4.3092734375,1.602359375,6.3149921875,2.6218984375,-5.1085625
-2.25990234375,0.4811953125,3.59362109375,-6.17298046875,-2.98689453125,1.7720859375,5.48465625,4.73015625,13.37269921875,6.545484375,7.36078125,5.4224375,-9.06505859375,-2.79777734375,2.76265234375,-6.9806875,0.345800781249999,3.44030078125,5.1435703125,4.015140625,6.04901171875,1.0732109375,0.32319921875,6.22108984375,4.03591796875,2.5082734375,0.157359375,4.3859921875,0.7568984375,-6.0715625
-1.64090234375,1.2551953125,3.22662109375,-6.30298046875,-3.57789453125,0.7060859375,4.00565625,2.17015625,14.00869921875,6.100484375,6.83878125,3.5394375,-5.76105859375,-2.82577734375,2.24065234375,-8.2706875,-2.01019921875,3.44530078125,4.9735703125,3.860140625,3.95601171875,1.4452109375,-0.46680078125,5.16908984375,2.43591796875,0.8112734375,-0.883640625,2.8099921875,-0.5941015625,-6.6405625
-1.08590234375,1.6111953125,2.81662109375,-6.66498046875,-4.47189453125,-0.6909140625,2.87665625,0.10215625,14.52969921875,5.461484375,6.27378125,2.1124375,-2.03105859375,-2.72077734375,1.57265234375,-8.6066875,-3.82119921875,3.50230078125,4.5885703125,3.687140625,2.50101171875,1.9132109375,-0.68380078125,4.44508984375,1.38691796875,-0.6167265625,-1.376640625,1.7469921875,-1.3191015625,-6.8665625
-0.66790234375,1.3981953125,2.40462109375,-7.10398046875,-5.50889453125,-1.9859140625,2.16465625,-1.31784375,14.73769921875,4.707484375,5.62978125,1.1664375,1.15694140625,-2.47077734375,0.97365234375,-7.9696875,-4.94519921875,3.71930078125,4.1275703125,3.611140625,1.82801171875,2.5422109375,-0.25180078125,4.28308984375,1.19791796875,-1.5837265625,-1.107640625,1.4049921875,-1.2281015625,-6.7095625
-0.45290234375,0.618195312499999,2.02962109375,-7.44498046875,-6.50489453125,-2.7509140625,1.90765625,-2.02284375,14.51769921875,4.001484375,4.92778125,0.6894375,3.10394140625,-2.08877734375,0.722652343749999,-6.5066875,-5.33419921875,4.17330078125,3.7875703125,3.810140625,1.99101171875,3.4182109375,0.82419921875,4.84208984375,2.03991796875,-1.9307265625,0.0703593749999998,1.9359921875,-0.1641015625,-6.0885625
-0.49390234375,-0.5428046875,1.74162109375,-7.59698046875,-7.30989453125,-2.7229140625,2.12665625,-2.01484375,13.87769921875,3.527484375,4.31278125,0.7114375,3.58894140625,-1.62977734375,1.05565234375,-4.4946875,-5.05019921875,4.82630078125,3.7075703125,4.404140625,2.90301171875,4.5022109375,2.38719921875,6.08508984375,3.81891796875,-1.6227265625,2.063359375,3.2809921875,1.8278984375,-5.0195625
-0.86790234375,-1.8108046875,1.58962109375,-7.60898046875,-7.88289453125,-1.9169140625,2.76865625,-1.38684375,12.86169921875,3.387484375,3.97878125,1.2824375,2.79294140625,-1.23177734375,2.01765234375,-2.2986875,-4.27219921875,5.49430078125,3.8485703125,5.345140625,4.31601171875,5.5502109375,4.11619921875,7.73508984375,6.13391796875,-0.8247265625,4.487359375,5.0879921875,4.3958984375,-3.7005625
-1.69690234375,-2.9648046875,1.53462109375,-7.66698046875,-8.34389453125,-0.6569140625,3.65765625,-0.33684375,11.48069921875,3.516484375,4.03078125,2.3884375,1.05994140625,-1.11577734375,3.38465234375,-0.298687500000001,-3.26519921875,5.91230078125,3.9865703125,6.397140625,5.85601171875,6.1902109375,5.59519921875,9.33908984375,8.38791796875,0.1512734375,6.772359375,6.8079921875,6.9498984375,-2.4635625
-3.11190234375,-3.9378046875,1.38562109375,-8.00398046875,-8.95089453125,0.5230859375,4.49265625,0.84015625,9.76869921875,3.688484375,4.36378125,3.8674375,-1.31105859375,-1.52277734375,4.69965234375,1.2033125,-2.31819921875,5.84430078125,3.8215703125,7.223140625,7.13301171875,6.0962109375,6.46719921875,10.43108984375,10.00491796875,0.9682734375,8.390359375,7.9169921875,8.8768984375,-1.5995625
-5.16890234375,-4.8138046875,0.81962109375,-8.77698046875,-9.97789453125,1.0760859375,4.93365625,1.81415625,7.83369921875,3.607484375,4.67078125,5.4004375,-4.08705859375,-2.60077734375,5.45165234375,2.0413125,-1.66319921875,5.20230078125,3.1535703125,7.529140625,7.85701171875,5.1732109375,6.58019921875,10.70708984375,10.64791796875,1.4062734375,9.067359375,8.1549921875,9.7838984375,-1.1995625
-7.73890234375,-5.7038046875,-0.43337890625,-9.96598046875,-11.53789453125,0.6640859375,4.72765625,2.31515625,5.82769921875,3.058484375,4.58978125,6.6014375,-6.98905859375,-4.30277734375,5.30965234375,2.1983125,-1.39819921875,4.11630078125,2.0245703125,7.203140625,7.92901171875,3.6382109375,6.06219921875,10.15408984375,10.34191796875,1.4582734375,8.888359375,7.6319921875,9.6638984375,-1.1185625
-10.40690234375,-6.5768046875,-2.33937890625,-11.31498046875,-13.42589453125,-0.6639140625,3.84765625,2.25615625,3.92269921875,2.067484375,3.93578125,7.1844375,-9.54205859375,-6.32077734375,4.32565234375,1.7933125,-1.43319921875,2.91730078125,0.756570312500001,6.383140625,7.47501171875,1.9462109375,5.29119921875,9.09008984375,9.45591796875,1.3392734375,8.256359375,6.7599921875,8.8828984375,-1.0765625
-12.47090234375,-7.1368046875,-4.41237890625,-12.34298046875,-15.08989453125,-2.4139140625,2.57165625,1.82015625,2.33969921875,0.980484375,2.89778125,7.1224375,-11.09905859375,-8.10477734375,2.98565234375,1.0863125,-1.50319921875,2.04030078125,-0.140429687499999,5.451140625,6.83401171875,0.5812109375,4.75019921875,8.08008984375,8.56691796875,1.4182734375,7.718359375,6.0239921875,7.9918984375,-0.8065625
-13.12290234375,-6.8888046875,-5.82737890625,-12.48298046875,-15.80889453125,-3.7999140625,1.42765625,1.42115625,1.38269921875,0.374484375,2.02778125,6.6774375,-11.06805859375,-9.01777734375,2.04465234375,0.438312499999999,-1.26219921875,1.86630078125,-0.1584296875,4.899140625,6.44601171875,-0.1677890625,4.83619921875,7.72608984375,8.22991796875,2.0662734375,7.739359375,5.7449921875,7.4688984375,-0.1855625
-11.81190234375,-5.3988046875,-5.80037890625,-11.31498046875,-15.03589453125,-4.0749140625,0.97565625,1.50315625,1.34969921875,0.796484375,1.97578125,6.2704375,-9.24605859375,-8.59477734375,2.17165234375,0.183312499999999,-0.46019921875,2.56530078125,0.9505703125,5.114140625,6.66601171875,-0.3017890625,5.68419921875,8.38608984375,8.73991796875,3.4522734375,8.503359375,5.9639921875,7.5228984375,0.7144375
-8.60090234375,-2.6008046875,-4.02437890625,-8.80198046875,-12.73789453125,-2.9029140625,1.54765625,2.29015625,2.46669921875,2.444484375,3.09878125,6.2344375,-6.00505859375,-6.77077734375,3.60765234375,0.488312499999999,0.87180078125,4.00530078125,3.0035703125,6.152140625,7.57201171875,-0.0307890625000002,7.10219921875,9.95208984375,9.96591796875,5.3802734375,9.834359375,6.5119921875,8.0548984375,1.6684375
-4.25490234375,1.0791953125,-0.89937890625,-5.36498046875,-9.49389453125,-0.5239140625,3.09265625,3.65715625,4.94169921875,5.017484375,5.21378125,6.6234375,-2.17905859375,-3.90977734375,6.03665234375,1.3073125,2.34880078125,5.78830078125,5.4215703125,7.660140625,8.89501171875,0.3992109375,8.65819921875,11.83208984375,11.35791796875,7.2692734375,11.256359375,7.1869921875,8.7778984375,2.4124375
0.0530976562500003,4.8961953125,2.63362109375,-1.72998046875,-6.24589453125,2.3810859375,5.23365625,5.22615625,9.04669921875,7.836484375,7.67478125,7.2134375,1.29694140625,-0.620777343749999,8.76365234375,2.4603125,3.35580078125,7.40330078125,7.4735703125,9.028140625,10.14801171875,0.8552109375,9.87219921875,13.19308984375,12.17391796875,8.3582734375,12.204359375,7.8979921875,9.3918984375,2.7684375
3.29709765625,8.1561953125,5.58462109375,1.40801953125,-3.84489453125,5.0740859375,7.48965625,6.59415625,15.00869921875,10.199484375,9.75278125,7.6714375,3.77894140625,2.54522265625,11.09865234375,3.7573125,3.35480078125,8.44930078125,8.6195703125,9.706140625,10.88201171875,1.3362109375,10.41819921875,13.36808984375,11.82691796875,8.0572734375,12.274359375,8.6799921875,9.7228984375,2.7054375
5.09809765625,10.5651953125,7.45662109375,3.73701953125,-2.61489453125,7.1470859375,9.53765625,7.55915625,22.71269921875,11.764484375,11.05978125,7.7944375,5.15594140625,5.32122265625,12.71465234375,5.0803125,2.20580078125,8.81830078125,8.7495703125,9.501140625,10.93301171875,1.8862109375,10.26219921875,12.20108984375,10.19791796875,6.2782734375,11.420359375,9.5899921875,9.7578984375,2.3184375
5.90009765625,12.3591953125,8.49862109375,5.47101953125,-2.20989453125,8.7010859375,11.34765625,8.20315625,31.50469921875,12.722484375,11.75678125,7.6294375,5.83394140625,7.78522265625,13.77265234375,6.3853125,0.28880078125,8.73730078125,8.2235703125,8.684140625,10.50401171875,2.5082109375,9.66319921875,10.14708984375,7.72891796875,3.5502734375,9.974359375,10.6089921875,9.6038984375,1.7664375
5.90009765625,12.3591953125,8.49862109375,5.47101953125,-2.20989453125,8.7010859375,11.34765625,8.20315625,31.50469921875,12.722484375,11.75678125,7.6294375,5.83394140625,7.78522265625,13.77265234375,6.3853125,0.28880078125,8.73730078125,8.2235703125,8.684140625,10.50401171875,2.5082109375,9.66319921875,10.14708984375,7.72891796875,3.5502734375,9.974359375,10.6089921875,9.6038984375,1.7664375
