"Fp1","Fpz","Fp2","F7","F3","Fz","F4","F8","FC5","FC1","FC2","FC6","T7","C3","Cz","C4","T8","CP5","CP1","CP2","CP6","P7","P3","Pz","P4","P8","POz","O1","Oz","O2"
5.35946484375,3.17319140625,3.02923828125,-75.49151953125,-9.09538671875,35.22001171875,-28.0608203125,-18.0423515625,43.4336796875,6.42108203125,14.274078125,28.93684375,34.89155859375,22.64383203125,-34.98391796875,-14.81240625,-37.49483984375,83.63773046875,11.7404765625,-8.68212109375,35.2689921875,61.7003984375,31.309953125,30.5471015625,7.6013515625,40.90546484375,94.38446875,75.92397265625,99.94240234375,52.86584375
4.74046484375,4.60519140625,2.53823828125,-76.69851953125,-10.91138671875,36.55201171875,-28.8348203125,-19.2953515625,43.0036796875,8.47908203125,16.847078125,30.42984375,33.87955859375,22.99783203125,-32.26191796875,-13.35640625,-35.73483984375,83.75073046875,13.8694765625,-6.26012109375,37.3309921875,60.2633984375,32.406953125,33.5961015625,10.1123515625,41.40146484375,96.52446875,75.48197265625,101.01740234375,53.14384375
4.94046484375,5.86219140625,2.79123828125,-76.62651953125,-10.92938671875,38.56201171875,-28.0358203125,-19.0213515625,43.4216796875,10.78808203125,19.624078125,32.04784375,33.13255859375,23.96083203125,-29.24691796875,-11.53540625,-33.79783984375,83.71573046875,15.9014765625,-3.55912109375,39.3679921875,58.4403984375,33.147953125,36.3571015625,12.1373515625,41.96546484375,98.13146875,74.01997265625,101.07240234375,53.23084375
5.71946484375,6.83519140625,3.49923828125,-75.51251953125,-9.37038671875,41.02101171875,-25.9168203125,-17.5373515625,44.4466796875,13.18108203125,22.422078125,33.64884375,32.65455859375,25.40383203125,-26.10791796875,-9.52240625,-31.95883984375,83.41273046875,17.6254765625,-0.85612109375,41.0579921875,56.1993984375,33.419953125,38.5941015625,13.3583515625,42.33046484375,98.99146875,71.53297265625,99.93440234375,52.82584375
6.57146484375,7.45619140625,4.16723828125,-74.01051953125,-7.00138671875,43.46701171875,-23.1918203125,-15.6123515625,45.5426796875,15.38308203125,24.953078125,35.09684375,32.34255859375,26.98783203125,-23.11891796875,-7.61240625,-30.55283984375,82.75873046875,18.8504765625,1.44187890625,42.0579921875,53.6583984375,33.228953125,40.1241015625,13.5853515625,42.17946484375,98.98946875,68.34697265625,97.73240234375,51.65484375
7.06946484375,7.76119140625,4.48123828125,-72.75551953125,-4.62638671875,45.49701171875,-20.5388203125,-13.9083515625,46.2246796875,17.16708203125,27.000078125,36.42184375,32.03455859375,28.38283203125,-20.48091796875,-6.00540625,-29.69383984375,81.80173046875,19.5584765625,3.07087890625,42.2549921875,51.0963984375,32.744953125,40.9391015625,12.9363515625,41.40046484375,98.18146875,65.00597265625,94.85540234375,49.68584375
7.10246484375,7.91919140625,4.52623828125,-72.04151953125,-2.72638671875,46.97001171875,-18.2618203125,-12.6053515625,46.3076796875,18.47008203125,28.543078125,37.83784375,31.57055859375,29.41783203125,-18.19991796875,-4.64740625,-29.14483984375,80.73173046875,19.9744765625,4.09887890625,41.9249921875,48.8953984375,32.282953125,41.2661015625,11.8743515625,40.24046484375,96.80946875,62.10797265625,91.85840234375,47.24184375
6.87346484375,8.19119140625,4.69723828125,-71.79351953125,-1.42438671875,47.99701171875,-16.2858203125,-11.4303515625,45.9026796875,19.38008203125,29.750078125,39.60184375,30.84655859375,30.08983203125,-16.11991796875,-3.23940625,-28.42583984375,79.80573046875,20.4724765625,4.89687890625,41.6499921875,47.4203984375,32.177953125,41.4841015625,11.0523515625,39.23746484375,95.22546875,60.14597265625,89.27540234375,44.89384375
6.71146484375,8.81619140625,5.42423828125,-71.75351953125,-0.64838671875,48.76101171875,-14.3768203125,-9.9673515625,45.2416796875,20.03808203125,30.845078125,41.81284375,29.82055859375,30.48283203125,-14.06991796875,-1.41040625,-27.11383984375,79.20673046875,21.3804765625,5.91687890625,42.0419921875,46.8623984375,32.622953125,41.9421015625,11.0143515625,38.95646484375,93.73546875,59.34597265625,87.44140234375,43.20784375
6.85346484375,9.88419140625,6.91623828125,-71.70251953125,-0.28438671875,49.34301171875,-12.3738203125,-7.9873515625,44.4946796875,20.52408203125,31.966078125,44.31384375,28.48455859375,30.67083203125,-11.99391796875,1.06259375,-25.11583984375,78.93773046875,22.8064765625,7.44087890625,43.4369921875,47.1423984375,33.561953125,42.7901015625,11.9473515625,39.69346484375,92.47346875,59.58197265625,86.39340234375,42.47684375
7.31946484375,11.29219140625,9.06423828125,-71.56951953125,-0.25538671875,49.65801171875,-10.2958203125,-5.5983515625,43.6956796875,20.81408203125,33.090078125,46.76384375,26.84955859375,30.68083203125,-9.98991796875,4.12859375,-22.74383984375,78.83073046875,24.5884765625,9.44187890625,45.7459921875,47.9403984375,34.707953125,43.9261015625,13.6363515625,41.35346484375,91.38646875,60.46397265625,85.93440234375,42.64084375
7.92546484375,12.80919140625,11.50023828125,-71.41851953125,-0.53638671875,49.52401171875,-8.3298203125,-3.1843515625,42.7866796875,20.81808203125,34.079078125,48.81284375,24.96155859375,30.50983203125,-8.24791796875,7.48159375,-20.53783984375,78.62973046875,26.3634765625,11.62387890625,48.5409921875,48.8473984375,35.669953125,45.0691015625,15.6183515625,43.54546484375,90.33146875,61.52997265625,85.79440234375,43.37484375
8.39146484375,14.16519140625,13.74023828125,-71.33951953125,-1.11838671875,48.78801171875,-6.7388203125,-1.2113515625,41.6986796875,20.44208203125,34.750078125,50.23984375,22.93355859375,30.12783203125,-6.97291796875,10.66659375,-18.98083984375,78.10073046875,27.6844765625,13.56187890625,51.2679921875,49.5133984375,36.085953125,45.8721015625,17.3873515625,45.78546484375,89.16846875,62.41297265625,85.74340234375,44.26884375
8.47146484375,15.10219140625,15.32523828125,-71.36151953125,-1.97638671875,47.40701171875,-5.7708203125,-0.0263515625000004,40.4006796875,19.60308203125,34.908078125,50.94284375,20.91755859375,29.45483203125,-6.36091796875,13.18559375,-18.29683984375,77.09673046875,28.1164765625,14.81887890625,53.4509921875,49.7143984375,35.684953125,45.9891015625,18.5283515625,47.64846484375,87.76646875,62.87697265625,85.57740234375,44.94884375
8.00346484375,15.38319140625,15.90223828125,-71.47551953125,-3.07838671875,45.43501171875,-5.6158203125,0.2096484375,38.8656796875,18.21908203125,34.354078125,50.84584375,19.03455859375,28.32483203125,-6.62191796875,14.57259375,-18.43183984375,75.54973046875,27.2794765625,15.01687890625,54.7679921875,49.3223984375,34.285953125,45.0871015625,18.7343515625,48.82046484375,85.94546875,62.75797265625,85.05140234375,45.10684375
6.89146484375,14.81319140625,15.26123828125,-71.72351953125,-4.44938671875,42.95601171875,-6.4178203125,-0.5273515625,36.9986796875,16.20808203125,32.898078125,49.82684375,17.29255859375,26.51483203125,-7.97791796875,14.47759375,-19.18583984375,73.43773046875,24.9064765625,13.87987890625,55.0359921875,48.2803984375,31.800953125,42.8681015625,17.7943515625,49.09846484375,83.45946875,61.92797265625,83.87440234375,44.50384375
5.07746484375,13.29019140625,13.36723828125,-72.23751953125,-6.19338671875,40.03101171875,-8.2538203125,-2.1983515625,34.6356796875,13.53008203125,30.424078125,47.75884375,15.59055859375,23.84183203125,-10.59691796875,12.74759375,-20.37283984375,70.77273046875,20.9214765625,11.27987890625,54.1479921875,46.6053984375,28.274953125,39.1481015625,15.6153515625,48.38646484375,80.07346875,60.32397265625,81.81040234375,42.98384375
2.56446484375,10.84819140625,10.40623828125,-73.14051953125,-8.39438671875,36.70301171875,-11.0588203125,-4.6863515625,31.6616796875,10.23208203125,26.950078125,44.61384375,13.80555859375,20.29683203125,-14.48791796875,9.47259375,-21.89583984375,67.62473046875,15.5184765625,7.27487890625,52.0549921875,44.4233984375,23.936953125,33.9571015625,12.2583515625,46.70346484375,75.70846875,58.00197265625,78.79740234375,40.52084375
-0.52953515625,7.65819140625,6.76623828125,-74.42851953125,-11.01638671875,33.02101171875,-14.6028203125,-7.7693515625,28.1396796875,6.44208203125,22.627078125,40.53784375,11.89355859375,16.10083203125,-19.44891796875,4.94859375,-23.75583984375,64.14973046875,9.1674765625,2.10587890625,48.7689921875,41.9813984375,19.205953125,27.6201015625,7.9513515625,44.15846484375,70.53946875,55.13597265625,75.00840234375,37.26184375
-3.97153515625,3.99719140625,2.90123828125,-75.96451953125,-13.90338671875,29.04301171875,-18.5708203125,-11.1633515625,24.3256796875,2.32408203125,17.693078125,35.81984375,9.92255859375,11.64183203125,-25.09191796875,-0.41340625,-25.99883984375,60.57773046875,2.5304765625,-3.83912109375,44.3899921875,39.5833984375,14.618953125,20.7351015625,3.0653515625,40.91246484375,65.02346875,51.99397265625,70.79840234375,33.51984375
-7.45553515625,0.19319140625,-0.825761718750002,-77.55451953125,-16.85738671875,24.84901171875,-22.7048203125,-14.6243515625,20.5886796875,-1.94691796875,12.420078125,30.78984375,8.01055859375,7.33983203125,-30.91691796875,-6.16740625,-28.66083984375,57.16373046875,-3.6785234375,-10.07312109375,39.1359921875,37.4983984375,10.724953125,14.0981015625,-1.9396484375,37.14946484375,59.82046875,48.92697265625,66.63440234375,29.73584375
-10.65453515625,-3.39580859375,-4.21276171875,-78.99151953125,-19.67238671875,20.58601171875,-26.8228203125,-18.0063515625,17.3086796875,-6.16391796875,7.115078125,25.75584375,6.25055859375,3.55183203125,-36.37491796875,-11.85640625,-31.69983984375,54.14173046875,-8.8075234375,-16.02212109375,33.3799921875,35.8723984375,7.982953125,8.5701015625,-6.5496484375,33.08546484375,55.68746875,46.39897265625,63.04240234375,26.43084375
-13.24853515625,-6.41880859375,-7.15276171875,-80.04451953125,-22.09938671875,16.52901171875,-30.7218203125,-21.2243515625,14.8306796875,-10.02291796875,2.153078125,20.99184375,4.67455859375,0.555832031249999,-40.91791796875,-17.00740625,-34.93983984375,51.69773046875,-12.3455234375,-21.04812109375,27.6669921875,34.7083984375,6.682953125,4.9211015625,-10.2306484375,29.00846484375,53.31546875,44.94397265625,60.55640234375,24.12584375
-14.95853515625,-8.56080859375,-9.54376171875,-80.43251953125,-23.84138671875,13.08201171875,-34.0828203125,-24.1723515625,13.4236796875,-13.11691796875,-2.009921875,16.78384375,3.27655859375,-1.42916796875,-44.07391796875,-21.14340625,-38.05483984375,49.95973046875,-13.9945234375,-24.53312109375,22.6619921875,33.9073984375,6.876953125,3.6561015625,-12.5066484375,25.31546484375,53.15046875,44.99497265625,59.60640234375,23.21684375
-15.60653515625,-9.59880859375,-11.25676171875,-79.88451953125,-24.63638671875,10.68601171875,-36.5068203125,-26.6733515625,13.2326796875,-15.00691796875,-4.896921875,13.43984375,2.07355859375,-2.24916796875,-45.54091796875,-23.84140625,-40.61783984375,48.96773046875,-13.7315234375,-26.02412109375,19.0029921875,33.3493984375,8.352953125,4.8681015625,-13.0616484375,22.47646484375,55.22146875,46.63897265625,60.34640234375,23.83484375
-15.16253515625,-9.46180859375,-12.15876171875,-78.22051953125,-24.34038671875,9.67601171875,-37.6418203125,-28.4773515625,14.2376796875,-15.35891796875,-6.147921875,11.24484375,1.14455859375,-1.85816796875,-45.23591796875,-24.82840625,-42.22783984375,48.66873046875,-11.8305234375,-25.37312109375,17.1349921875,32.9643984375,10.686953125,8.2061015625,-11.8376484375,20.91246484375,59.09046875,49.50097265625,62.53240234375,25.78484375
-13.74453515625,-8.25780859375,-12.14976171875,-75.42951953125,-22.94538671875,10.17201171875,-37.3008203125,-29.3113515625,16.2686796875,-14.06991796875,-5.641921875,10.37984375,0.621558593749999,-0.351167968750001,-43.28391796875,-24.05340625,-42.64383984375,48.92873046875,-8.7835234375,-22.79112109375,17.1639921875,32.7563984375,13.393953125,12.9871015625,-9.0706484375,20.81346484375,63.94646875,52.85397265625,65.55940234375,28.59184375
-11.60653515625,-6.25180859375,-11.21876171875,-71.72551953125,-20.57238671875,12.05201171875,-35.5578203125,-29.0083515625,19.0466796875,-11.32491796875,-3.559921875,10.85584375,0.633558593749999,2.03183203125,-39.93791796875,-21.70340625,-41.88483984375,49.60073046875,-5.1415234375,-18.76212109375,18.8259921875,32.7573984375,16.075953125,18.4171015625,-5.2426484375,22.00946484375,68.84646875,55.89897265625,68.64240234375,31.62584375
-9.11053515625,-3.79780859375,-9.50876171875,-67.52851953125,-17.47838671875,14.98601171875,-32.7698203125,-27.6463515625,22.2136796875,-7.54191796875,-0.335921875,12.50984375,1.21555859375,4.94583203125,-35.51991796875,-18.16540625,-40.20783984375,50.59573046875,-1.3485234375,-13.89112109375,21.5689921875,32.9623984375,18.509953125,23.8061015625,-0.9596484375,23.99246484375,72.96346875,58.03397265625,71.05440234375,34.25284375
-6.63653515625,-1.24680859375,-7.31476171875,-63.34751953125,-14.01738671875,18.53501171875,-29.4808203125,-25.5563515625,25.4046796875,-3.22791796875,3.486078125,15.05684375,2.26655859375,8.03883203125,-30.38891796875,-13.92740625,-37.98783984375,51.92773046875,2.3524765625,-8.73512109375,24.7489921875,33.2813984375,20.645953125,28.6971015625,3.2113515625,26.10246484375,75.79446875,58.99197265625,72.33540234375,35.98384375
-4.45053515625,1.15319140625,-4.97076171875,-59.55851953125,-10.51438671875,22.27901171875,-26.1828203125,-23.1603515625,28.3636796875,1.20208203125,7.432078125,18.18884375,3.57955859375,11.06083203125,-24.90491796875,-9.45740625,-35.53083984375,53.69873046875,5.9394765625,-3.67412109375,27.8689921875,33.5763984375,22.572953125,32.9031015625,6.9043515625,27.80946484375,77.27046875,58.86797265625,72.41140234375,36.61384375
-2.59153515625,3.32719140625,-2.70776171875,-56.24351953125,-7.14438671875,25.91501171875,-23.1078203125,-20.7323515625,31.0126796875,5.53108203125,11.243078125,21.64784375,4.92455859375,13.95283203125,-19.38391796875,-5.08140625,-32.94183984375,56.01573046875,9.5414765625,1.13087890625,30.7479921875,33.7453984375,24.479953125,36.4621015625,10.0543515625,28.94746484375,77.72846875,58.04297265625,71.59140234375,36.30984375
-0.90253515625,5.36719140625,-0.587761718750001,-53.23351953125,-3.93438671875,29.29201171875,-20.1818203125,-18.2903515625,33.4116796875,9.71708203125,14.895078125,25.26584375,6.12055859375,16.81383203125,-14.06391796875,-0.92540625,-30.14783984375,58.85973046875,13.3044765625,5.69187890625,33.5139921875,33.7843984375,26.582953125,39.5391015625,12.8623515625,29.74646484375,77.76646875,57.03797265625,70.43040234375,35.54184375
0.82646484375,7.43719140625,1.43523828125,-50.31251953125,-0.87738671875,32.37401171875,-17.1748203125,-15.6643515625,35.6166796875,13.73508203125,18.490078125,28.92284375,7.04555859375,19.78183203125,-9.11491796875,3.04559375,-27.04983984375,61.99673046875,17.2564765625,10.07987890625,36.4209921875,33.7623984375,29.020953125,42.2991015625,15.6203515625,30.65746484375,77.98546875,56.29897265625,69.48740234375,34.88484375
2.67446484375,9.62219140625,3.39523828125,-47.44651953125,1.96861328125,35.15101171875,-13.9128203125,-12.6963515625,37.5606796875,17.40908203125,22.072078125,32.46084375,7.60655859375,22.87583203125,-4.68891796875,6.89559375,-23.72483984375,64.98973046875,21.1994765625,14.28987890625,39.5899921875,33.7303984375,31.729953125,44.7881015625,18.4763515625,32.03946484375,78.72746875,56.00397265625,69.08340234375,34.74484375
4.49046484375,11.80119140625,5.22923828125,-44.88451953125,4.43561328125,37.56601171875,-10.4388203125,-9.4573515625,39.0376796875,20.37108203125,25.483078125,35.61084375,7.70355859375,25.89683203125,-0.977917968749999,10.56559375,-20.53383984375,67.31573046875,24.7024765625,18.14287890625,42.8259921875,33.6173984375,34.393953125,46.8571015625,21.2513515625,33.91146484375,79.90246875,55.96997265625,69.15540234375,35.16584375
5.90646484375,13.65619140625,6.74723828125,-43.09351953125,6.25461328125,39.46801171875,-7.0658203125,-6.3493515625,39.7726796875,22.18308203125,28.365078125,37.98784375,7.23955859375,28.44583203125,1.77808203125,13.79759375,-18.04283984375,68.53973046875,27.2154765625,21.26587890625,45.6299921875,33.2173984375,36.511953125,48.1821015625,23.4593515625,35.90146484375,81.01946875,55.75097265625,69.28740234375,35.82884375
6.49246484375,14.81119140625,7.68923828125,-42.52851953125,7.13361328125,40.65501171875,-4.2758203125,-3.9963515625,39.5626796875,22.56508203125,30.310078125,39.22184375,6.15755859375,30.07683203125,3.36408203125,16.19559375,-16.77983984375,68.46873046875,28.2644765625,23.19187890625,47.3969921875,32.2933984375,37.570953125,48.3891015625,24.5143515625,37.44046484375,81.39646875,54.86897265625,68.91940234375,36.23684375
5.97246484375,15.01219140625,7.84923828125,-43.35951953125,6.91361328125,40.97101171875,-2.5018203125,-2.9403515625,38.3926796875,21.56808203125,31.058078125,39.13584375,4.47655859375,30.49683203125,3.70008203125,17.39259375,-16.96783984375,67.20573046875,27.6494765625,23.54587890625,47.6959921875,30.7353984375,37.235953125,47.2191015625,24.0253515625,38.04446484375,80.46246875,53.06197265625,67.61240234375,35.97484375
4.36246484375,14.22719140625,7.20623828125,-45.32251953125,5.68061328125,40.38501171875,-1.9158203125,-3.3353515625,36.4596796875,19.55108203125,30.607078125,37.85284375,2.29155859375,29.68283203125,2.88608203125,17.20659375,-18.39983984375,65.07973046875,25.5294765625,22.21787890625,46.4609921875,28.6523984375,35.459953125,44.6491015625,21.9883515625,37.52146484375,77.98346875,50.39597265625,65.24240234375,34.86784375
1.92846484375,12.62619140625,5.92123828125,-47.83251953125,3.70961328125,38.96901171875,-2.3968203125,-4.8733515625,34.0556796875,16.97208203125,29.167078125,35.72584375,-0.233441406250002,27.84683203125,1.13608203125,15.69959375,-20.55183984375,62.47273046875,22.3284765625,19.40487890625,43.9749921875,26.3343984375,32.459953125,40.8821015625,18.7663515625,35.97746484375,74.10846875,47.19597265625,62.00240234375,32.95584375
-0.98553515625,10.47019140625,4.21323828125,-50.28851953125,1.25761328125,36.79801171875,-3.6858203125,-6.9963515625,31.3846796875,14.14108203125,27.004078125,33.13084375,-2.89544140625,25.28083203125,-1.36691796875,13.11359375,-22.84183984375,59.64273046875,18.5354765625,15.49387890625,40.6769921875,24.1003984375,28.609953125,36.2331015625,14.8823515625,33.67246484375,69.25546875,43.85797265625,58.25540234375,30.35184375
-4.11953515625,7.99019140625,2.22823828125,-52.34051953125,-1.58538671875,33.88801171875,-5.5518203125,-9.1893515625,28.4746796875,11.08808203125,24.305078125,30.27084375,-5.48044140625,22.22183203125,-4.55591796875,9.73559375,-24.90383984375,56.65973046875,14.5094765625,10.89387890625,36.9309921875,22.1503984375,24.311953125,31.0011015625,10.7823515625,30.84246484375,63.91246875,40.66897265625,54.35140234375,27.13284375
-7.33353515625,5.33219140625,0.00923828124999826,-53.96551953125,-4.84138671875,30.22001171875,-7.8358203125,-11.1663515625,25.2556796875,7.62408203125,21.128078125,27.13884375,-7.82244140625,18.81283203125,-8.44991796875,5.80459375,-26.71483984375,53.47173046875,10.4114765625,5.92487890625,32.9109921875,20.5003984375,19.933953125,25.4181015625,6.7093515625,27.63746484375,58.50746875,37.73597265625,50.51540234375,23.34984375
-10.55053515625,2.57119140625,-2.41876171875,-55.36751953125,-8.49138671875,25.84801171875,-10.3988203125,-12.8723515625,21.7026796875,3.52908203125,17.491078125,23.65284375,-9.87844140625,15.15983203125,-13.01391796875,1.50759375,-28.52383984375,50.05673046875,6.2584765625,0.82587890625,28.6789921875,19.0303984375,15.802953125,19.7091015625,2.7543515625,24.18446484375,53.37146875,35.04897265625,46.87040234375,19.15284375
-13.68153515625,-0.194808593749999,-4.96476171875,-56.80151953125,-12.36638671875,20.98901171875,-13.0708203125,-14.3763515625,17.9366796875,-1.22991796875,13.495078125,19.83984375,-11.75044140625,11.41983203125,-18.02391796875,-2.93140625,-30.63183984375,46.51973046875,2.0754765625,-4.14412109375,24.3489921875,17.6073984375,12.242953125,14.2031015625,-0.9786484375,20.70746484375,48.81146875,32.63297265625,43.56440234375,14.92184375
-16.55453515625,-2.76280859375,-7.41376171875,-58.38751953125,-16.10838671875,16.07801171875,-15.6148203125,-15.7373515625,14.2576796875,-6.35891796875,9.420078125,15.93584375,-13.62844140625,7.86183203125,-22.99991796875,-7.16540625,-33.15183984375,43.12173046875,-1.9595234375,-8.61112109375,20.2289921875,16.2283984375,9.588953125,9.4061015625,-4.2256484375,17.59246484375,45.17746875,30.70497265625,40.90640234375,11.28984375
-18.88453515625,-4.81580859375,-9.43376171875,-59.98951953125,-19.19838671875,11.72601171875,-17.7218203125,-16.9143515625,11.1236796875,-11.20391796875,5.715078125,12.34584375,-15.64044140625,4.89283203125,-27.27791796875,-10.72740625,-35.87483984375,40.23173046875,-5.4455234375,-12.07612109375,16.7999921875,15.0923984375,8.170953125,5.9551015625,-6.5556484375,15.32846484375,42.86646875,29.72297265625,39.38640234375,9.02684375
-20.33053515625,-6.00380859375,-10.66876171875,-61.24351953125,-21.05738671875,8.58901171875,-19.0598203125,-17.7703515625,9.0546796875,-14.86391796875,2.877078125,9.50184375,-17.71544140625,2.98183203125,-30.17591796875,-13.15040625,-38.31683984375,38.22173046875,-7.8325234375,-14.03212109375,14.5539921875,14.5683984375,8.223953125,4.4371015625,-7.5036484375,14.33746484375,42.21846875,30.25997265625,39.53640234375,8.78884375000001
-20.67353515625,-6.10080859375,-10.91176171875,-61.75351953125,-21.28038671875,7.14601171875,-19.4138203125,-18.2103515625,8.4306796875,-16.43791796875,1.278078125,7.67884375,-19.58344140625,2.49783203125,-31.23091796875,-14.17640625,-39.93983984375,37.33773046875,-8.6425234375,-14.16912109375,13.7419921875,15.0053984375,9.760953125,5.1391015625,-6.8126484375,14.76346484375,43.34546875,32.69997265625,41.63940234375,10.82784375
-19.99953515625,-5.16680859375,-10.27176171875,-61.32351953125,-19.88738671875,7.48501171875,-18.8308203125,-18.3293515625,9.2726796875,-15.35591796875,1.000078125,6.87684375,-20.93844140625,3.49083203125,-30.39791796875,-13.91140625,-40.43083984375,37.55473046875,-7.7415234375,-12.57112109375,14.1999921875,16.4663984375,12.449953125,7.8361015625,-4.6306484375,16.32146484375,45.95146875,36.88297265625,45.42240234375,14.74984375
-18.73753515625,-3.61080859375,-9.19776171875,-60.05351953125,-17.39738671875,9.21501171875,-17.6358203125,-18.4243515625,11.1696796875,-11.66291796875,1.765078125,6.80884375,-21.64344140625,5.57183203125,-28.11791796875,-12.83440625,-39.89083984375,38.50173046875,-5.4915234375,-9.79212109375,15.3489921875,18.5473984375,15.596953125,11.7551015625,-1.5846484375,18.29946484375,49.29246875,41.91097265625,49.92340234375,19.48784375
-17.48053515625,-2.06580859375,-8.29576171875,-58.24951953125,-14.62938671875,11.60201171875,-16.2958203125,-18.8443515625,13.4316796875,-6.08791796875,3.034078125,7.04284375,-21.83444140625,7.98883203125,-25.15791796875,-11.59740625,-38.78783984375,39.54873046875,-2.6525234375,-6.68812109375,16.4259921875,20.4613984375,18.320953125,15.7971015625,1.3943515625,19.78746484375,52.35146875,46.32897265625,53.71140234375,23.57284375
-16.68753515625,-1.10780859375,-8.02676171875,-56.25351953125,-12.35638671875,13.87601171875,-15.1988203125,-19.7403515625,15.3846796875,0.186082031249999,4.259078125,7.22584375,-21.82044140625,9.93183203125,-22.28491796875,-10.69240625,-37.69983984375,40.05673046875,-0.0475234375000007,-4.07512109375,16.8579921875,21.3943984375,19.886953125,18.9691015625,3.4483515625,20.06446484375,54.21546875,48.69797265625,55.44340234375,25.68784375
-16.45953515625,-0.95680859375,-8.45976171875,-54.30851953125,-10.99138671875,15.55301171875,-14.4828203125,-20.9153515625,16.6466796875,5.98108203125,5.142078125,7.28284375,-21.86344140625,10.90683203125,-19.92391796875,-10.17840625,-36.98483984375,39.67173046875,1.8224765625,-2.35212109375,16.5569921875,20.9433984375,20.029953125,20.8051015625,4.2013515625,18.96046484375,54.48346875,48.27797265625,54.48540234375,25.23384375
-16.53653515625,-1.38980859375,-9.22276171875,-52.51651953125,-10.44638671875,16.58501171875,-13.9908203125,-21.8453515625,17.2286796875,10.54908203125,5.746078125,7.43184375,-22.04144140625,10.95183203125,-18.03091796875,-9.67040625,-36.60883984375,38.46473046875,2.9484765625,-1.35712109375,15.9539921875,19.3123984375,19.046953125,21.5061015625,3.9133515625,16.94146484375,53.41246875,45.35897265625,51.19740234375,22.57984375
-16.51553515625,-1.90680859375,-9.69976171875,-50.88751953125,-10.23738671875,17.26501171875,-13.3758203125,-21.9093515625,17.4106796875,13.75308203125,6.371078125,8.01284375,-22.28344140625,10.55683203125,-16.23791796875,-8.60540625,-36.21983984375,36.82173046875,3.6884765625,-0.52912109375,15.7299921875,17.1153984375,17.579953125,21.7041015625,3.2923515625,14.86546484375,51.70046875,41.01597265625,46.66940234375,18.81884375
-16.12553515625,-2.02480859375,-9.35876171875,-49.42851953125,-9.76838671875,17.97701171875,-12.3138203125,-20.7113515625,17.5166796875,15.93208203125,7.329078125,9.25184375,-22.52044140625,10.35183203125,-14.15091796875,-6.60040625,-35.39483984375,35.17873046875,4.4694765625,0.72187890625,16.4169921875,14.9813984375,16.237953125,22.0271015625,3.0853515625,13.56346484375,50.06446875,36.48697265625,42.11440234375,15.18884375
-15.36553515625,-1.49480859375,-8.01876171875,-48.17651953125,-8.62538671875,18.96801171875,-10.6758203125,-18.3083515625,17.7356796875,17.61508203125,8.768078125,11.11884375,-22.77544140625,10.78483203125,-11.59591796875,-3.66340625,-33.87983984375,33.81573046875,5.5284765625,2.68187890625,18.1339921875,13.2263984375,15.309953125,22.7561015625,3.7123515625,13.50546484375,48.89146875,32.60697265625,38.33540234375,12.53384375
-14.43853515625,-0.36780859375,-5.90576171875,-47.15551953125,-6.72838671875,20.25401171875,-8.5818203125,-15.2123515625,18.0996796875,19.24408203125,10.629078125,13.35384375,-23.13844140625,11.94283203125,-8.68591796875,-0.17840625,-31.71883984375,32.80373046875,6.8384765625,5.19887890625,20.5609921875,11.7903984375,14.704953125,23.7461015625,5.1163515625,14.65146484375,48.12046875,29.58397265625,35.52040234375,11.03584375
-13.60353515625,1.05819140625,-3.52876171875,-46.31251953125,-4.30138671875,21.62801171875,-6.3198203125,-12.1913515625,18.5416796875,20.98908203125,12.662078125,15.56084375,-23.69044140625,13.55783203125,-5.77291796875,3.25359375,-29.27383984375,32.05773046875,8.1474765625,7.74587890625,23.0999921875,10.3853984375,14.072953125,24.5651015625,6.8203515625,16.49946484375,47.33546875,27.11597265625,33.35840234375,10.28984375
-13.07153515625,2.34019140625,-1.49876171875,-45.54051953125,-1.78238671875,22.73301171875,-4.2558203125,-10.0153515625,18.9496796875,22.69608203125,14.480078125,17.30884375,-24.48244140625,15.13383203125,-3.34191796875,5.99859375,-27.13083984375,31.42373046875,9.0904765625,9.62087890625,25.0859921875,8.72139843750001,12.999953125,24.7081015625,8.1283515625,18.25246484375,45.96646875,24.68897265625,31.29740234375,9.57884375
-12.98953515625,3.03719140625,-0.357761718750002,-44.78351953125,0.272613281250001,23.17901171875,-2.7788203125,-9.2573515625,19.1666796875,23.97008203125,15.652078125,18.21584375,-25.53144140625,16.14383203125,-1.88091796875,7.55359375,-25.92583984375,30.75073046875,9.3304765625,10.20287890625,25.9879921875,6.6983984375,11.217953125,23.8161015625,8.3983515625,19.10446484375,43.55246875,21.90897265625,28.83940234375,8.25584375
-13.41853515625,2.88719140625,-0.405761718750002,-44.09351953125,1.36261328125,22.71201171875,-2.1978203125,-10.1363515625,19.0376796875,24.41008203125,15.864078125,18.05384375,-26.82044140625,16.25283203125,-1.70591796875,7.70459375,-26.10983984375,29.96473046875,8.7234765625,9.21887890625,25.5479921875,4.51139843750001,8.787953125,21.8421015625,7.3323515625,18.54746484375,39.99746875,18.75997265625,25.79540234375,6.06884375000001
-14.25353515625,1.93819140625,-1.54876171875,-43.55251953125,1.30061328125,21.38401171875,-2.5728203125,-12.4123515625,18.5336796875,23.87708203125,15.103078125,16.85784375,-28.25544140625,15.49783203125,-2.76991796875,6.62459375,-27.72183984375,29.13973046875,7.4574765625,6.91887890625,23.8749921875,2.6043984375,6.186953125,19.1471015625,5.1603515625,16.60146484375,35.72246875,15.70097265625,22.42540234375,3.31384375
-15.17553515625,0.590191406250001,-3.24676171875,-43.14451953125,0.38861328125,19.63101171875,-3.5788203125,-15.3833515625,17.8506796875,22.65908203125,13.750078125,14.98984375,-29.64544140625,14.31983203125,-4.57391796875,4.86459375,-30.29483984375,28.51573046875,6.0704765625,4.05087890625,21.4449921875,1.50839843750001,4.232953125,16.4631015625,2.6263515625,13.84246484375,31.59946875,13.53197265625,19.41540234375,0.747843750000001
-15.72253515625,-0.52480859375,-4.68476171875,-42.69951953125,-0.672386718749999,18.15101171875,-4.5648203125,-18.0773515625,17.3726796875,21.39808203125,12.501078125,13.06684375,-30.74644140625,13.38683203125,-6.29291796875,3.20859375,-32.95283984375,28.43373046875,5.2724765625,1.62087890625,19.0039921875,1.6313984375,3.805953125,14.6801015625,0.7453515625,11.22946484375,28.67746875,13.07997265625,17.65240234375,-0.722156249999998
-15.50453515625,-0.80180859375,-5.11976171875,-41.97851953125,-1.13838671875,17.59901171875,-4.8178203125,-19.6083515625,17.4546796875,20.78808203125,12.076078125,11.73584375,-31.36644140625,13.26983203125,-7.11991796875,2.39159375,-34.74183984375,29.16773046875,5.6374765625,0.48987890625,17.3389921875,3.07839843750001,5.458953125,14.4941015625,0.3953515625,9.73246484375,27.77146875,14.80397265625,17.85540234375,-0.440156249999994
-14.42953515625,0.0381914062500002,-4.23176171875,-40.81751953125,-0.58538671875,18.25701171875,-3.9028203125,-19.5413515625,18.2016796875,21.19308203125,12.849078125,11.38884375,-31.49244140625,14.14083203125,-6.66891796875,2.77959375,-35.04883984375,30.73873046875,7.2894765625,0.98787890625,16.9809921875,5.5823984375,9.085953125,16.0541015625,1.9123515625,9.92446484375,29.08946875,18.50797265625,20.20840234375,1.68784375000001
-12.79353515625,1.77019140625,-2.28376171875,-39.25151953125,0.906613281249999,19.86301171875,-1.8908203125,-18.0853515625,19.3526796875,22.41008203125,14.608078125,11.94384375,-31.33444140625,15.63383203125,-5.20791796875,4.17759375,-33.92183984375,32.81973046875,9.7814765625,2.73487890625,17.9599921875,8.5653984375,13.865953125,18.8161015625,4.8953515625,11.70446484375,32.08946875,23.30997265625,24.17040234375,5.09184375
-11.18853515625,3.73819140625,-0.0167617187500015,-37.55051953125,2.81361328125,21.71701171875,0.643179687499998,-16.0213515625,20.3656796875,23.74408203125,16.621078125,12.85684375,-31.26744140625,16.98983203125,-3.54991796875,5.89559375,-32.06183984375,34.80073046875,12.2544765625,4.80787890625,19.7409921875,11.3303984375,18.551953125,21.7451015625,8.3643515625,14.31846484375,35.66846875,27.94197265625,28.62840234375,8.74084375
-10.24453515625,5.17419140625,1.67823828125,-36.11651953125,4.43061328125,23.02701171875,2.8531796875,-14.3533515625,20.6536796875,24.37208203125,17.998078125,13.37784375,-31.65644140625,17.41583203125,-2.61991796875,7.07159375,-30.48783984375,36.02673046875,13.8314765625,6.18287890625,21.4429921875,13.3083984375,21.980953125,23.7861015625,11.2113515625,16.70446484375,38.63646875,31.24997265625,32.34540234375,11.56484375
-10.31953515625,5.58019140625,2.18123828125,-35.25451953125,5.24361328125,23.32501171875,4.0301796875,-13.8243515625,19.9076796875,23.81608203125,18.148078125,12.93584375,-32.67244140625,16.51483203125,-2.92891796875,7.08859375,-30.03983984375,36.10473046875,14.0704765625,6.26187890625,22.2459921875,14.2773984375,23.575953125,24.3761015625,12.7223515625,17.98046484375,40.23946875,32.66897265625,34.49540234375,12.90884375
-11.28853515625,4.96519140625,1.44223828125,-34.94051953125,5.23761328125,22.71801171875,3.9611796875,-14.5413515625,18.2986796875,22.23408203125,17.067078125,11.41984375,-34.18744140625,14.54383203125,-4.24891796875,5.87159375,-30.98283984375,35.10173046875,13.2114765625,5.17487890625,21.7819921875,14.4283984375,23.560953125,23.7111015625,12.8893515625,17.82446484375,40.46046875,32.40697265625,34.97640234375,12.80184375
-12.58453515625,3.82419140625,-0.025761718750001,-34.80251953125,4.91261328125,21.81801171875,3.0241796875,-15.9703515625,16.4416796875,20.38208203125,15.317078125,9.23084375,-35.82344140625,12.35083203125,-5.70091796875,3.91659375,-32.92783984375,33.53173046875,12.0694765625,3.71987890625,20.3029921875,14.2653984375,22.792953125,22.6161015625,12.3433515625,16.56946484375,39.94446875,31.25497265625,34.33740234375,11.86984375
-13.48853515625,2.87319140625,-1.43576171875,-34.35951953125,4.98461328125,21.39501171875,1.9571796875,-17.2673515625,15.1006796875,19.24408203125,13.741078125,7.07084375,-37.13044140625,11.00383203125,-6.18991796875,2.05459375,-35.06583984375,32.11373046875,11.6394765625,2.95487890625,18.5289921875,14.3573984375,22.317953125,22.1191015625,11.9753515625,14.98446484375,39.61846875,30.16797265625,33.40340234375,10.98684375
-13.49153515625,2.71019140625,-2.13176171875,-33.32851953125,5.96961328125,21.96501171875,1.4771796875,-17.7503515625,14.8226796875,19.54608203125,13.063078125,5.61584375,-37.81244140625,11.29983203125,-4.96091796875,1.09059375,-36.56783984375,31.45973046875,12.6074765625,3.69687890625,17.2739921875,15.0843984375,22.884953125,22.9501015625,12.4673515625,13.87146484375,40.21046875,29.83997265625,32.83440234375,10.83784375
-12.53053515625,3.54419140625,-1.85676171875,-31.79551953125,7.92661328125,23.54201171875,1.9811796875,-17.1833515625,15.6986796875,21.41208203125,13.571078125,5.24984375,-37.85744140625,13.40383203125,-1.95191796875,1.47659375,-36.94283984375,31.82173046875,15.0604765625,6.15887890625,17.0559921875,16.4933984375,24.646953125,25.2371015625,14.0023515625,13.69746484375,41.92846875,30.46697265625,32.86540234375,11.63784375
-10.99153515625,5.13819140625,-0.788761718750002,-30.15351953125,10.43161328125,25.66001171875,3.4381796875,-15.8053515625,17.3506796875,24.31908203125,15.043078125,5.95584375,-37.52144140625,16.79283203125,2.18408203125,3.17359375,-36.18183984375,33.02473046875,18.4724765625,9.89887890625,17.8979921875,18.3273984375,27.156953125,28.4881015625,16.2513515625,14.43346484375,44.39946875,31.74897265625,33.30040234375,13.09484375
-9.53153515625,6.94819140625,0.590238281249999,-28.91051953125,12.74261328125,27.61301171875,5.4381796875,-14.1553515625,19.0876796875,27.33808203125,16.888078125,7.39084375,-37.18444140625,20.47983203125,6.37308203125,5.73559375,-34.67983984375,34.55473046875,21.9574765625,14.03387890625,19.3689921875,20.1543984375,29.608953125,31.8271015625,18.5883515625,15.64146484375,46.86246875,33.06897265625,33.69940234375,14.59684375
-8.81353515625,8.37019140625,1.70323828125,-28.45851953125,14.06661328125,28.75001171875,7.3711796875,-12.8183515625,20.1726796875,29.50208203125,18.422078125,9.03984375,-37.16944140625,23.40983203125,9.54608203125,8.50659375,-33.03483984375,35.75573046875,24.5974765625,17.57987890625,20.8019921875,21.5053984375,31.157953125,34.3171015625,20.3643515625,16.71046484375,48.46546875,33.72797265625,33.58240234375,15.47184375
-9.25753515625,8.95419140625,2.07623828125,-28.90751953125,13.86161328125,28.68001171875,8.6571796875,-12.1973515625,20.0986796875,30.13308203125,19.115078125,10.36484375,-37.63144140625,24.81983203125,10.99808203125,10.83659375,-31.83883984375,36.04773046875,25.7244765625,19.76087890625,21.5639921875,22.0033984375,31.184953125,35.2331015625,21.0863515625,17.09146484375,48.54046875,33.16497265625,32.58340234375,15.21184375
-10.90553515625,8.50319140625,1.47123828125,-30.05451953125,12.02761328125,27.34501171875,8.9331796875,-12.3973515625,18.7586796875,28.99608203125,18.718078125,10.91284375,-38.53944140625,24.43883203125,10.54608203125,12.22859375,-31.51283984375,35.10473046875,25.0604765625,20.18687890625,21.2599921875,21.4613984375,29.446953125,34.2181015625,20.4943515625,16.45646484375,46.78646875,31.12997265625,30.52040234375,13.60084375
-13.45353515625,7.07919140625,-0.0907617187500014,-31.53051953125,8.89061328125,24.94801171875,8.1031796875,-13.2803515625,16.4236796875,26.29408203125,17.257078125,10.40984375,-39.74644140625,22.46383203125,8.47008203125,12.41259375,-32.19883984375,32.94573046875,22.7284765625,18.88087890625,19.8269921875,19.9763984375,26.102953125,31.3301015625,18.5763515625,14.75946484375,43.32246875,27.77897265625,27.43640234375,10.75384375
-16.41953515625,4.93919140625,-2.39576171875,-32.99351953125,5.02361328125,21.81901171875,6.2781796875,-14.6233515625,13.5746796875,22.53108203125,14.945078125,8.82084375,-41.07844140625,19.39583203125,5.31408203125,11.35659375,-33.74383984375,29.90973046875,19.1454765625,16.18487890625,17.5019921875,17.9423984375,21.653953125,26.9951015625,15.5503515625,12.22646484375,38.61746875,23.68097265625,23.62340234375,7.08184375
-19.32953515625,2.44019140625,-5.12176171875,-34.22351953125,1.06261328125,18.30101171875,3.7181796875,-16.2303515625,10.7206796875,18.32908203125,12.059078125,6.34984375,-42.39244140625,15.84083203125,1.65508203125,9.23659375,-35.77583984375,26.52473046875,14.8644765625,12.58987890625,14.6969921875,15.9333984375,16.807953125,21.8631015625,11.8103515625,9.26346484375,33.32346875,19.66997265625,19.58740234375,3.18284375
-21.83753515625,-0.0568085937499996,-7.90376171875,-35.06651953125,-2.39838671875,14.70101171875,0.798179687499999,-17.9513515625,8.2866796875,14.26408203125,8.858078125,3.37884374999999,-43.56944140625,12.34183203125,-2.05591796875,6.38159375,-37.84883984375,23.32373046875,10.4214765625,8.57787890625,11.8439921875,14.4913984375,12.299953125,16.6311015625,7.8283515625,6.34546484375,28.07446875,16.59597265625,15.92540234375,-0.312156249999994
-23.76253515625,-2.24180859375,-10.38876171875,-35.35651953125,-4.89638671875,11.30101171875,-2.0288203125,-19.6233515625,6.5626796875,10.76908203125,5.575078125,0.362843749999996,-44.50344140625,9.29183203125,-5.52691796875,3.23259375,-39.56083984375,20.67873046875,6.2594765625,4.54087890625,9.2859921875,13.9133984375,8.730953125,11.8751015625,4.0623515625,3.92446484375,23.35946875,15.02997265625,13.15940234375,-2.88515624999999
-25.06653515625,-3.86580859375,-12.28976171875,-34.90551953125,-6.19438671875,8.38301171875,-4.3138203125,-21.0273515625,5.6756796875,8.10808203125,2.478078125,-2.25215625,-45.09344140625,6.91083203125,-8.55091796875,0.30259375,-40.59483984375,18.70673046875,2.7154765625,0.79387890625,7.2579921875,14.1653984375,6.434953125,7.9541015625,0.9083515625,2.38246484375,19.47746875,15.04697265625,11.56040234375,-4.25915625
-25.79253515625,-4.75780859375,-13.42376171875,-33.58951953125,-6.33738671875,6.22101171875,-5.7028203125,-21.8973515625,5.5746796875,6.39508203125,-0.100921875000001,-4.10915625000001,-45.29944140625,5.26383203125,-10.92591796875,-1.90540625,-40.72983984375,17.28573046875,0.0224765624999996,-2.38112109375,5.9059921875,14.8943984375,5.408953125,4.9871015625,-1.3386484375,1.98246484375,16.54646875,16.15797265625,11.02840234375,-4.45615624999999
-26.01953515625,-4.87480859375,-13.73676171875,-31.45751953125,-5.62138671875,5.00901171875,-6.0018203125,-21.9833515625,6.0506796875,5.60808203125,-1.823921875,-5.01815625,-45.20644140625,4.29683203125,-12.45491796875,-3.03740625,-39.88283984375,16.12973046875,-1.7235234375,-4.74412109375,5.2969921875,15.5483984375,5.311953125,2.8971015625,-2.5216484375,2.79446484375,14.50646875,17.42297265625,11.10840234375,-3.79515625
-25.84553515625,-4.33280859375,-13.32576171875,-28.82051953125,-4.50238671875,4.77101171875,-5.2288203125,-21.1623515625,6.7786796875,5.59408203125,-2.474921875,-5.00915625,-45.05944140625,3.86183203125,-13.03691796875,-3.02140625,-38.17883984375,14.91173046875,-2.6145234375,-6.14812109375,5.4109921875,15.5323984375,5.574953125,1.4861015625,-2.6516484375,4.63146484375,13.16446875,17.77997265625,11.15140234375,-2.79515625
-25.40453515625,-3.39780859375,-12.42776171875,-26.24151953125,-3.46438671875,5.30901171875,-3.6178203125,-19.5153515625,7.3836796875,6.10608203125,-2.055921875,-4.33515625,-45.20744140625,3.73483203125,-12.75691796875,-2.08440625,-35.96283984375,13.38873046875,-2.9315234375,-6.61212109375,6.1109921875,14.4153984375,5.617953125,0.556101562499997,-1.9086484375,7.07346484375,12.28446875,16.48997265625,10.61540234375,-1.96615625
-24.86053515625,-2.40780859375,-11.36776171875,-24.37751953125,-2.88138671875,6.24801171875,-1.5638203125,-17.3433515625,7.5146796875,6.84308203125,-0.816921875000002,-3.39915625,-45.96844140625,3.64283203125,-11.91291796875,-0.66940625,-33.73283984375,11.48473046875,-3.0625234375,-6.33312109375,7.1419921875,12.0993984375,5.076953125,-0.0218984375000026,-0.5946484375,9.55946484375,11.70146875,13.50297265625,9.32340234375,-1.61515625
-24.38953515625,-1.69280859375,-10.46376171875,-23.70951953125,-2.88538671875,7.15201171875,0.489179687499998,-15.0883515625,6.9426796875,7.50508203125,0.792078125,-2.65715625,-47.49144140625,3.30683203125,-10.93791796875,0.72159375,-32.01083984375,9.29173046875,-3.3845234375,-5.65412109375,8.1419921875,8.8603984375,3.913953125,-0.295898437500004,0.9163515625,11.52146484375,11.35446875,9.47597265625001,7.49540234375,-1.76115624999999
-24.14453515625,-1.49380859375,-9.95976171875,-24.31551953125,-3.34038671875,7.66101171875,2.1571796875,-13.2233515625,5.6246796875,7.84008203125,2.246078125,-2.49715625,-49.68844140625,2.50783203125,-10.24991796875,1.67259375,-31.19583984375,7.01073046875,-4.1415234375,-4.95312109375,8.7049921875,5.22139843750001,2.377953125,-0.2758984375,2.2533515625,12.51146484375,11.24146875,5.42897265625,5.57240234375001,-2.22715624999999
-24.21353515625,-1.87480859375,-9.98676171875,-25.81151953125,-3.94838671875,7.60801171875,3.1801796875,-12.1083515625,3.7176796875,7.72308203125,3.128078125,-3.08515625,-52.25644140625,1.18083203125,-10.06391796875,1.97759375,-31.42083984375,4.88173046875001,-5.3215234375,-4.47712109375,8.5409921875,1.7723984375,0.877953125000001,0.0631015624999982,3.1773515625,12.34146484375,11.38246875,2.28897265625,3.97940234375001,-2.78015625
-24.54353515625,-2.65480859375,-10.51676171875,-27.46051953125,-4.37838671875,7.08001171875,3.4861796875,-11.8483515625,1.5846796875,7.24608203125,3.303078125,-4.26015625,-54.74544140625,-0.47516796875,-10.24491796875,1.70859375,-32.47583984375,3.16273046875,-6.5855234375,-4.18812109375,7.65099218749999,-0.959601562499998,-0.121046875000001,0.825101562499999,3.7203515625,11.17546484375,11.85146875,0.618972656250008,3.03540234375001,-3.19915624999999
-24.88553515625,-3.43080859375,-11.32076171875,-28.41651953125,-4.33838671875,6.38201171875,3.2321796875,-12.2103515625,-0.247320312499994,6.74408203125,2.981078125,-5.56215625,-56.66144140625,-1.96916796875,-10.31791796875,1.17659375,-33.85683984375,2.14673046875001,-7.3115234375,-3.72812109375,6.3829921875,-2.5716015625,-0.177046875000002,2.2201015625,4.2093515625,9.49446484375,12.80446875,0.581972656250002,2.96740234375001,-3.29015625
-24.85853515625,-3.74080859375,-12.00676171875,-28.03651953125,-3.61738671875,5.88101171875,2.7641796875,-12.7073515625,-1.2103203125,6.67008203125,2.591078125,-6.44015625,-57.60644140625,-2.65416796875,-9.68291796875,0.76959375,-34.97183984375,2.12273046875001,-6.8045234375,-2.60812109375,5.2719921875,-2.8396015625,1.005953125,4.4561015625,5.1073515625,7.88946484375,14.41646875,2.00497265625,3.88740234375001,-2.91815625
-24.15553515625,-3.29080859375,-12.19076171875,-26.17551953125,-2.17238671875,5.80601171875,2.4361796875,-12.8583515625,-0.941320312499997,7.35808203125,2.533078125,-6.55615625,-57.41044140625,-2.00316796875,-7.95491796875,0.73859375,-35.40883984375,3.27473046875001,-4.6215234375,-0.52012109375,4.7189921875,-1.79360156249999,3.427953125,7.5491015625,6.7193515625,6.77446484375,16.72046875,4.42997265625001,5.69040234375001,-2.10515624999999
-22.76753515625,-2.12080859375,-11.70976171875,-23.28051953125,-0.22638671875,6.10701171875,2.4021796875,-12.4833515625,0.514679687499999,8.82808203125,2.952078125,-5.98115625000001,-56.21544140625,0.122832031249999,-5.22091796875,1.06359375,-35.13683984375,5.56273046875,-0.835523437500001,2.42387890625,4.7409921875,0.229398437500002,6.700953125,11.1751015625,8.9573515625,6.18446484375,19.46446875,7.16097265625,7.95040234375001,-1.10415625
-21.04753515625,-0.60880859375,-10.71376171875,-20.19551953125,1.77961328125,6.48301171875,2.5631796875,-11.7713515625,2.6946796875,10.76108203125,3.679078125,-5.15115625,-54.43844140625,3.37383203125,-2.02391796875,1.49159375,-34.50783984375,8.67173046875,3.9444765625,5.68687890625,4.9659921875,2.6523984375,10.123953125,14.7241015625,11.3123515625,5.77446484375,22.10046875,9.39697265625001,9.97440234375001,-0.356156249999998
-19.54153515625,0.71919140625,-9.54676171875,-17.75051953125,3.38561328125,6.58601171875,2.7171796875,-11.0993515625,4.9426796875,12.67308203125,4.386078125,-4.59415625,-52.61644140625,7.05983203125,0.918082031250002,1.73059375,-34.02483984375,12.07773046875,8.8034765625,8.57387890625,4.8959921875,4.8423984375,12.942953125,17.5371015625,13.1083515625,5.06046484375,23.97546875,10.47597265625,11.04040234375,-0.296156249999996
-18.69653515625,1.47519140625,-8.52276171875,-16.39751953125,4.33561328125,6.25301171875,2.7701796875,-10.7303515625,6.7016796875,14.18508203125,4.840078125,-4.60615625000001,-51.22744140625,10.44883203125,3.09408203125,1.69159375,-34.02083984375,15.19273046875,12.9004765625,10.59287890625,4.2579921875,6.3333984375,14.655953125,19.2101015625,13.8673515625,3.75246484375,24.59946875,10.12997265625,10.71340234375,-1.10915625
-18.62953515625,1.62019140625,-7.77276171875,-16.08251953125,4.68261328125,5.63401171875,2.8451796875,-10.6383515625,7.7076796875,15.20708203125,5.088078125,-5.07415625,-50.54544140625,13.03883203125,4.44908203125,1.61559375,-34.41883984375,17.53373046875,15.7814765625,11.68887890625,3.2119921875,6.95339843750001,15.191953125,19.7461015625,13.5803515625,1.98046484375,23.85746875,8.59297265625001,9.04540234375001,-2.58915624999999
-19.07653515625,1.46019140625,-7.21876171875,-16.34551953125,4.74861328125,5.12301171875,3.2181796875,-10.5223515625,8.0366796875,15.93908203125,5.432078125,-5.54815625000001,-50.57744140625,14.69283203125,5.34508203125,1.96859375,-34.76783984375,18.83873046875,17.4654765625,12.20987890625,2.2709921875,6.7893984375,14.867953125,19.4831015625,12.6933515625,0.24546484375,22.02846875,6.47397265625001,6.53240234375001,-4.21015625
-19.54653515625,1.43219140625,-6.68476171875,-16.55651953125,4.97361328125,5.13301171875,4.1491796875,-9.9983515625,8.0046796875,16.69308203125,6.201078125,-5.52315625,-51.08244140625,15.57683203125,6.28508203125,3.15559375,-34.53083984375,19.10073046875,18.2914765625,12.62887890625,1.9929921875,6.0563984375,14.165953125,18.8521015625,11.8293515625,-0.87053515625,19.61246875,4.45897265625,3.86540234375001,-5.39115624999999
-19.58753515625,1.82719140625,-6.06076171875,-16.18651953125,5.70261328125,5.84301171875,5.6731796875,-8.8523515625,7.9976796875,17.66008203125,7.490078125,-4.74015625000001,-51.68344140625,15.96383203125,7.57508203125,5.23059375,-33.43083984375,18.51673046875,18.6424765625,13.22187890625,2.6369921875,4.9753984375,13.470953125,18.1221015625,11.4213515625,-1.05453515625,17.07746875,2.99897265625,1.60140234375001,-5.78615625
-19.03653515625,2.61619140625,-5.42476171875,-15.00651953125,6.97861328125,7.07401171875,7.4841796875,-7.2313515625,8.2776796875,18.76308203125,9.050078125,-3.34415625,-52.00544140625,16.04183203125,9.12908203125,7.77959375,-31.63883984375,17.39273046875,18.7204765625,13.88187890625,3.9959921875,3.7243984375,12.926953125,17.2831015625,11.4773515625,-0.448535156250003,14.67846875,2.17297265625,-0.0455976562499956,-5.45215624999999
-18.07953515625,3.48919140625,-5.03076171875,-13.12051953125,8.52061328125,8.36901171875,9.0321796875,-5.6033515625,8.9056796875,19.70808203125,10.395078125,-1.80515625,-51.80744140625,15.84783203125,10.51908203125,10.07759375,-29.68183984375,16.07973046875,18.4944765625,14.19187890625,5.4979921875,2.4743984375,12.480953125,16.1131015625,11.6213515625,0.43746484375,12.42046875,1.78297265625,-1.20259765624999,-4.78015625
-17.10453515625,4.04619140625,-5.15476171875,-10.81451953125,9.90861328125,9.25401171875,9.8291796875,-4.4983515625,9.8066796875,20.16608203125,11.061078125,-0.64815625,-51.02144140625,15.34083203125,11.21708203125,11.42359375,-28.14383984375,14.92573046875,17.8344765625,13.69587890625,6.5149921875,1.4343984375,12.036953125,14.3731015625,11.3503515625,1.01846484375,10.18246875,1.57697265625001,-2.14059765624999,-4.24115625
-16.46953515625,4.01919140625,-5.91576171875,-8.36051953125001,10.84161328125,9.48301171875,9.7281796875,-4.1983515625,10.8886796875,19.97208203125,10.846078125,-0.187156250000001,-49.71844140625,14.51183203125,10.88408203125,11.46159375,-27.36183984375,14.21773046875,16.6664765625,12.17387890625,6.6549921875,0.834398437500006,11.580953125,11.9851015625,10.3373515625,0.936464843750002,7.87246875000001,1.43197265625,-3.04459765624999,-4.11915625
-16.36053515625,3.37719140625,-7.22876171875,-5.95051953125001,11.22961328125,9.10601171875,8.9671796875,-4.6263515625,12.0596796875,19.18008203125,9.866078125,-0.41615625,-48.04744140625,13.39883203125,9.49508203125,10.28559375,-27.31783984375,14.06073046875,15.0344765625,9.73587890625,5.8849921875,0.809398437500001,11.145953125,9.0771015625,8.5903515625,0.19646484375,5.51846875000001,1.35697265625001,-3.90959765624999,-4.41315624999999
-16.80853515625,2.26419140625,-8.89176171875,-3.76851953125001,11.10161328125,8.31301171875,7.9571796875,-5.4743515625,13.1356796875,17.94608203125,8.398078125,-1.10815625,-46.22544140625,12.01183203125,7.26008203125,8.29359375,-27.75783984375,14.25073046875,12.9974765625,6.69587890625,4.4179921875,1.2683984375,10.676953125,5.8651015625,6.3913515625,-0.92853515625,3.22546875,1.34197265625001,-4.63459765624999,-4.94715624999999
-17.77653515625,0.84219140625,-10.71476171875,-2.05951953125,10.47761328125,7.23001171875,7.0111796875,-6.4423515625,13.7736796875,16.34808203125,6.649078125,-2.03315625,-44.53644140625,10.25783203125,4.42908203125,5.89659375,-28.42583984375,14.27573046875,10.5104765625,3.36787890625,2.4969921875,1.8493984375,9.912953125,2.5111015625,4.0873515625,-2.12953515625,1.05346875000001,1.22997265625001,-5.19659765624999,-5.57515624999999
-19.21553515625,-0.819808593749999,-12.56376171875,-1.10251953125001,9.34261328125,5.82701171875,6.2251796875,-7.3763515625,13.5386796875,14.32108203125,4.644078125,-3.10415625,-43.31044140625,7.96583203125,1.16808203125,3.33359375,-29.19583984375,13.48973046875,7.4274765625,-0.0411210937499999,0.272992187500002,2.03239843750001,8.479953125,-0.913898437500002,1.9323515625,-3.23353515625,-1.02953124999999,0.730972656250003,-5.74759765624999,-6.28015625
-21.05253515625,-2.70380859375,-14.31876171875,-1.08951953125001,7.70261328125,4.03401171875,5.5351796875,-8.2573515625,12.1026796875,11.77508203125,2.328078125,-4.34915625,-42.82744140625,5.03283203125,-2.39791796875,0.70459375,-30.02983984375,11.41773046875,3.6774765625,-3.37012109375,-2.1380078125,1.3733984375,6.134953125,-4.3198984375,0.0803515624999998,-4.19753515625,-3.07053124999999,-0.383027343749994,-6.50959765624999,-7.08415624999999
-23.14053515625,-4.72880859375,-15.82576171875,-1.99951953125,5.66261328125,1.90901171875,4.8661796875,-9.1013515625,9.4306796875,8.78308203125,-0.239921875,-5.77115625,-43.20744140625,1.55383203125,-6.06491796875,-1.86540625,-30.84083984375,7.99373046875,-0.5385234375,-6.37412109375,-4.5220078125,-0.2726015625,2.996953125,-7.4688984375,-1.3246484375,-4.98853515625,-5.00753125,-2.07702734375,-7.58059765624999,-7.88715625
-25.24353515625,-6.68980859375,-16.89676171875,-3.56351953125001,3.45461328125,-0.297988281249999,4.2431796875,-9.8613515625,5.8476796875,5.64608203125,-2.812921875,-7.24215625,-44.34544140625,-2.16916796875,-9.50091796875,-4.12640625,-31.43783984375,3.57773046875,-4.7145234375,-8.71212109375,-6.53500781250001,-2.6976015625,-0.450046875000002,-9.9848984375,-2.1016484375,-5.51153515625,-6.64853124999999,-4.02302734374999,-8.82859765625,-8.42915625
-27.10553515625,-8.33180859375,-17.40676171875,-5.34551953125001,1.36561328125,-2.26598828125,3.7841796875,-10.4213515625,1.9146796875,2.76108203125,-5.072921875,-8.53915625,-45.96644140625,-5.75216796875,-12.33191796875,-5.79940625,-31.60983984375,-1.23726953124999,-8.2335234375,-10.09312109375,-7.8260078125,-5.4726015625,-3.611046875,-11.5398984375,-2.1266484375,-5.66953515625,-7.78953125,-5.79802734375,-9.99259765625,-8.43815625
-28.55953515625,-9.49180859375,-17.40676171875,-6.93651953125001,-0.404386718750001,-3.82498828125,3.5641796875,-10.7043515625,-1.8163203125,0.400082031249999,-6.825921875,-9.47315625,-47.75344140625,-8.90116796875,-14.30891796875,-6.77640625,-31.28783984375,-5.89026953125,-10.6545234375,-10.46012109375,-8.2620078125,-8.18660156249999,-6.105046875,-12.0738984375,-1.4646484375,-5.50253515625,-8.39853124999999,-7.15902734374999,-10.90559765625,-7.87315624999999
-29.62053515625,-10.18780859375,-17.18076171875,-8.13351953125,-1.88038671875,-5.07898828125,3.4801796875,-10.7993515625,-5.0433203125,-1.43791796875,-8.118921875,-10.01615625,-49.47344140625,-11.50816796875,-15.40791796875,-7.24940625,-30.64883984375,-10.02426953125,-11.9025234375,-10.07912109375,-8.0750078125,-10.6326015625,-7.921046875,-11.8728984375,-0.4406484375,-5.26053515625,-8.68453124999999,-8.20702734374999,-11.65359765625,-7.06215624999999
-30.45853515625,-10.60280859375,-17.15176171875,-8.97051953125001,-3.28138671875,-6.33698828124999,3.2441796875,-10.9803515625,-7.7753203125,-2.98691796875,-9.179921875,-10.34215625,-51.02044140625,-13.61916796875,-15.80491796875,-7.65940625,-30.06883984375,-13.49626953125,-12.2475234375,-9.42412109375,-7.8170078125,-12.8436015625,-9.342046875,-11.4468984375,0.4433515625,-5.34953515625,-9.02853125,-9.31502734375,-12.55459765625,-6.62015624999999
-31.26453515625,-10.96980859375,-17.66976171875,-9.58051953125,-4.81738671875,-7.86998828125,2.5541796875,-11.5573515625,-10.1823203125,-4.52191796875,-10.253921875,-10.75615625,-52.35644140625,-15.29916796875,-15.73491796875,-8.48140625,-29.97383984375,-16.27226953125,-12.0965234375,-8.96012109375,-8.1420078125,-14.9596015625,-10.686046875,-11.2748984375,0.6963515625,-6.17853515625,-9.78753125,-10.87602734375,-13.96659765625,-7.17915625
-32.10853515625,-11.42980859375,-18.80476171875,-10.01351953125,-6.46338671875,-9.67798828124999,1.3271796875,-12.6633515625,-12.3713203125,-6.13891796875,-11.420921875,-11.52615625,-53.41744140625,-16.50716796875,-15.34191796875,-9.94540625,-30.62183984375,-18.30326953125,-11.7345234375,-8.91412109375,-9.4800078125,-17.0336015625,-12.050046875,-11.5498984375,0.0723515624999997,-7.96453515625,-11.09953125,-13.02502734375,-16.05159765625,-9.08115624999999
-32.87653515625,-11.91680859375,-20.28076171875,-10.14551953125,-7.89338671875,-11.38698828125,-0.1778203125,-14.1003515625,-14.2283203125,-7.61991796875,-12.486921875,-12.69815625,-54.06444140625,-17.02916796875,-14.56691796875,-11.82740625,-31.94183984375,-19.47126953125,-11.1485234375,-9.14812109375,-11.7600078125,-18.8906015625,-13.189046875,-12.0558984375,-1.2726484375,-10.57353515625,-12.74853125,-15.46302734375,-18.60359765625,-12.15315625
-33.28753515625,-12.13580859375,-21.54176171875,-9.71051953125,-8.57038671875,-12.36598828125,-1.3788203125,-15.3293515625,-15.4213203125,-8.45691796875,-12.993921875,-13.96215625,-54.10444140625,-16.51516796875,-13.14491796875,-13.43240625,-33.47683984375,-19.58026953125,-10.0195234375,-9.16412109375,-14.3140078125,-20.1296015625,-13.569046875,-12.2088984375,-2.7556484375,-13.47953515625,-14.16553125,-17.48502734375,-21.04259765625,-15.67515625
-32.95253515625,-11.65080859375,-21.91876171875,-8.39351953125001,-7.91338671875,-11.95798828125,-1.5148203125,-15.6153515625,-15.4993203125,-8.01891796875,-12.355921875,-14.68415625,-53.36244140625,-14.58816796875,-10.68991796875,-13.77940625,-34.46983984375,-18.41626953125,-7.8665234375,-8.25112109375,-16.0540078125,-20.2616015625,-12.558046875,-11.2648984375,-3.4976484375,-15.86953515625,-14.57553125,-18.21802734375,-22.57759765625,-18.56515625
-31.49453515625,-10.05680859375,-20.84376171875,-5.95451953125,-5.51138671875,-9.76898828125,0.0911796874999986,-14.2903515625,-14.0643203125,-5.81491796875,-10.086921875,-14.12215625,-51.73544140625,-11.01616796875,-6.86191796875,-11.96440625,-34.09583984375,-15.85026953125,-4.2845234375,-5.75312109375,-15.8750078125,-18.9206015625,-9.705046875,-8.6088984375,-2.6116484375,-16.89853515625,-13.27753125,-16.98502734375,-22.50959765625,-19.74615625
-28.73153515625,-7.18580859375,-18.09076171875,-2.37651953125001,-1.36938671875,-5.88998828125,3.7061796875,-11.0853515625,-11.0033203125,-1.76491796875,-6.060921875,-11.77315625,-49.25744140625,-5.90316796875,-1.59991796875,-7.56740625,-31.78183984375,-11.97026953125,0.786476562499999,-1.38812109375,-13.1540078125,-16.0506015625,-4.996046875,-4.06189843750001,0.4183515625,-16.01453515625,-9.98253124999999,-13.66502734375,-20.57059765625,-18.58215625
-24.86453515625,-3.26980859375,-13.95976171875,2.02048046874999,3.91161328125,-0.980988281249999,8.9141796875,-6.3773515625,-6.6603203125,3.62308203125,-0.695921875,-7.72315625,-46.12844140625,0.194832031249998,4.68508203125,-0.95140625,-27.52383984375,-7.17426953125,6.8904765625,4.50087890625,-8.1210078125,-11.9986015625,1.011953125,1.9141015625,5.4073515625,-13.25453515625,-5.06353125,-8.84502734375,-17.12159765625,-15.21215625
-20.52953515625,1.02419140625,-9.25376171875,6.59748046874999,9.21261328125,3.85901171875,14.6421796875,-1.1693515625,-1.8483203125,9.29508203125,5.047078125,-2.75815625,-42.70244140625,6.32283203125,11.07708203125,6.69259375,-22.03583984375,-2.14326953125,13.0714765625,10.90487890625,-1.8750078125,-7.4516015625,7.266953125,8.2291015625,11.3613515625,-9.34453515625,0.410468750000007,-3.67902734374999,-13.09759765625,-10.59015625
-16.61953515625,4.77719140625,-5.02476171875,10.57148046875,13.26861328125,7.44801171875,19.5211796875,3.2556484375,2.3826796875,13.97708203125,9.937078125,1.86584375,-39.41244140625,11.38983203125,16.40608203125,13.67659375,-16.56683984375,2.33673046875001,18.1344765625,16.41987890625,3.9949921875,-3.2336015625,12.539953125,13.4541015625,16.7293515625,-5.49453515625,4.97646875000001,0.546972656250006,-9.67059765625,-6.15215625
-13.94853515625,7.15419140625,-2.18676171875,13.28148046875,15.15361328125,8.95901171875,22.4211796875,5.8486484375,5.0986796875,16.64608203125,12.917078125,4.93684375,-36.64944140625,14.52383203125,19.67608203125,18.41759375,-12.42183984375,5.60873046875,21.0574765625,19.74387890625,8.0409921875,-0.0476015624999988,15.846953125,16.3121015625,19.9803515625,-2.90553515625,7.30346875000001,2.90997265625001,-7.79159765624999,-3.24215624999999
-12.94253515625,7.73919140625,-1.21076171875,14.40748046875,14.62161328125,8.21301171875,22.8601796875,6.2126484375,5.7856796875,16.90608203125,13.498078125,5.78884375,-34.66744140625,15.33883203125,20.43908203125,20.02859375,-10.40983984375,7.31873046875,21.3494765625,20.15087890625,9.4959921875,1.69739843750001,16.760953125,16.1241015625,20.1993515625,-2.25253515625,6.68746875000001,3.13497265625001,-7.86659765624999,-2.59815625
-13.52253515625,6.64619140625,-2.01776171875,14.05848046875,12.15161328125,5.67901171875,21.1181796875,4.7006484375,4.4656796875,15.04608203125,11.864078125,4.50584375,-33.56344140625,13.98283203125,18.89708203125,18.57459375,-10.55683984375,7.45473046875,19.1504765625,17.69587890625,8.4459921875,1.9153984375,15.451953125,12.9801015625,17.3943515625,-3.45053515625,3.25346875000001,1.53597265625,-9.71559765625,-4.16015624999999
-15.22153515625,4.38019140625,-4.10476171875,12.71148046875,8.70361328125,2.18201171875,18.0131796875,2.1736484375,1.6026796875,11.78808203125,8.669078125,1.72784375,-33.30944140625,10.99083203125,15.69608203125,14.89659375,-12.21783984375,6.24973046875,15.0824765625,13.07187890625,5.6139921875,0.7423984375,12.477953125,7.5921015625,12.3933515625,-5.82453515625,-2.20553124999999,-1.28502734375,-12.78559765625,-7.24415625
-17.43053515625,1.57519140625,-6.79676171875,11.00248046875,5.29861328125,-1.45698828125,14.5091796875,-0.426351562499999,-2.1333203125,7.93008203125,4.717078125,-1.71815625,-33.80844140625,7.04083203125,11.61108203125,10.16059375,-14.43983984375,4.04273046874999,9.9554765625,7.26687890625,1.9499921875,-1.5776015625,8.497953125,0.986101562499996,6.4383515625,-8.50053515625,-8.57953124999999,-4.75002734375,-16.41959765625,-10.91515625
-19.63853515625,-1.22680859375,-9.49576171875,9.47348046875,2.61961328125,-4.68598828125,11.3471796875,-2.4523515625,-6.1083203125,4.09608203125,0.705078125,-5.15215625,-34.91944140625,2.74283203125,7.30108203125,5.43759375,-16.36783984375,1.15173046875,4.5294765625,1.23587890625,-1.7140078125,-4.7406015625,4.076953125,-5.7918984375,0.7393515625,-10.75853515625,-14.76453125,-8.43402734375,-20.03459765625,-14.33115625
-21.54153515625,-3.66480859375,-11.80576171875,8.40148046874999,0.82261328125,-7.27298828124999,8.8781796875,-3.6863515625,-9.8593203125,0.651082031250001,-2.877921875,-8.18115625,-36.46244140625,-1.47316796875,3.23208203125,1.45359375,-17.48983984375,-2.18926953125001,-0.613523437500001,-4.27012109375,-4.8230078125,-8.3796015625,-0.363046875000002,-11.8648984375,-3.8386484375,-12.19353515625,-19.87553125,-12.02002734375,-23.18459765625,-16.91615625
-23.01753515625,-5.56480859375,-13.52476171875,7.78748046874999,-0.34138671875,-9.21698828125,7.1361796875,-4.2373515625,-13.1033203125,-2.24791796875,-5.759921875,-10.66015625,-38.23244140625,-5.37016796875,-0.28991796875,-1.44040625,-17.70383984375,-5.82826953125,-5.0725234375,-8.71912109375,-7.1080078125,-12.0666015625,-4.494046875,-16.6068984375,-6.8746484375,-12.71053515625,-23.34253125,-15.20102734375,-25.54259765625,-18.39315625
-24.05553515625,-6.88380859375,-14.59276171875,7.45848046875,-1.25438671875,-10.62198828125,6.0041796875,-4.3413515625,-15.6933203125,-4.56791796875,-7.842921875,-12.57915625,-40.01944140625,-8.84216796875,-3.05391796875,-3.18440625,-17.23283984375,-9.64326953125,-8.5905234375,-11.75812109375,-8.5190078125,-15.3686015625,-8.042046875,-19.6648984375,-8.3196484375,-12.43353515625,-24.93253125,-17.66302734375,-26.91659765625,-18.73815625
-24.69153515625,-7.65680859375,-15.05376171875,7.19248046874999,-2.17738671875,-11.60998828125,5.3291796875,-4.2323515625,-17.5863203125,-6.31191796875,-9.161921875,-13.96015625,-41.63344140625,-11.83516796875,-4.91791796875,-3.87840625,-16.46883984375,-13.47326953125,-11.0015234375,-13.19012109375,-9.15700781250001,-17.9626015625,-10.775046875,-20.9518984375,-8.3496484375,-11.63153515625,-24.74353125,-19.16802734375,-27.27959765625,-18.13015625
-24.96653515625,-7.93980859375,-15.03476171875,6.84748046874999,-3.13138671875,-12.28398828125,4.9811796875,-4.0943515625,-18.8123203125,-7.47391796875,-9.821921875,-14.82115625,-42.91244140625,-14.26216796875,-5.79691796875,-3.69440625,-15.79683984375,-17.07126953125,-12.2025234375,-12.99712109375,-9.2090078125,-19.7286015625,-12.538046875,-20.6008984375,-7.2396484375,-10.64253515625,-23.14053125,-19.66702734375,-26.79259765625,-16.89415625
-24.86453515625,-7.79180859375,-14.68776171875,6.46048046874999,-3.86638671875,-12.68098828125,4.8921796875,-4.0373515625,-19.4253203125,-8.01491796875,-9.927921875,-15.18915625,-43.69644140625,-15.95816796875,-5.66691796875,-2.84040625,-15.45083984375,-20.10026953125,-12.1355234375,-11.34112109375,-8.8870078125,-20.7406015625,-13.267046875,-18.8898984375,-5.2906484375,-9.80753515625,-20.64553125,-19.32202734375,-25.76959765625,-15.40415625
-24.28153515625,-7.25380859375,-14.10376171875,6.28748046874999,-3.95238671875,-12.74798828125,5.1061796875,-4.0593515625,-19.4443203125,-7.86491796875,-9.509921875,-15.12515625,-43.81144140625,-16.68116796875,-4.54191796875,-1.53540625,-15.43083984375,-22.18626953125,-10.7965234375,-8.51712109375,-8.3750078125,-21.1726015625,-12.978046875,-16.1478984375,-2.8106484375,-9.37753515625,-17.78253125,-18.42302734375,-24.55159765625,-13.95915625
-23.06153515625,-6.33680859375,-13.27276171875,6.70048046874999,-2.97638671875,-12.33198828125,5.7541796875,-4.0503515625,-18.8583203125,-6.93891796875,-8.484921875,-14.71015625,-43.07044140625,-16.18216796875,-2.44491796875,0.0235937499999999,-15.50883984375,-22.99526953125,-8.2355234375,-4.85312109375,-7.7960078125,-21.1476015625,-11.731046875,-12.6728984375,-0.0826484375000005,-9.42453515625,-14.93453125,-17.24302734375,-23.37359765625,-12.68315625
-21.10253515625,-5.03780859375,-12.11076171875,8.01348046874999,-0.76038671875,-11.23698828125,6.9821796875,-3.8493515625,-17.6763203125,-5.16791796875,-6.702921875,-14.00415625,-41.33244140625,-14.30316796875,0.587082031250002,1.69859375,-15.33383984375,-22.33826953125,-4.5755234375,-0.63612109375,-7.22100781250001,-20.6606015625,-9.604046875,-8.68689843750001,2.6593515625,-9.81853515625,-12.28453125,-15.93002734375,-22.29759765625,-11.50315625
-18.45153515625,-3.37480859375,-10.53776171875,10.32548046875,2.53961328125,-9.33298828125,8.8541796875,-3.3203515625,-15.9683203125,-2.55591796875,-4.090921875,-13.03915625,-38.58044140625,-11.07516796875,4.46908203125,3.41159375,-14.59583984375,-20.24726953125,-0.0255234375000004,3.89987890625,-6.7120078125,-19.5986015625,-6.722046875,-4.3658984375,5.2413515625,-10.32053515625,-9.88253125,-14.51602734375,-21.28359765625,-10.26115625
-15.33153515625,-1.44180859375,-8.54776171875,13.45748046875,6.49461328125,-6.66898828124999,11.2891796875,-2.4073515625,-13.8723203125,0.74508203125,-0.800921875,-11.85315625,-34.98644140625,-6.76316796875,8.99208203125,5.09759375,-13.18283984375,-17.03626953125,5.0954765625,8.50887890625,-6.3510078125,-17.8606015625,-3.320046875,0.0861015624999979,7.5383515625,-10.73553515625,-7.77953124999999,-13.03502734375,-20.33959765625,-8.87815625
-12.10153515625,0.574191406250001,-6.27776171875,16.99048046875,10.54461328125,-3.52698828125,14.0261796875,-1.1713515625,-11.5883203125,4.40708203125,2.746078125,-10.54915625,-30.90844140625,-1.85916796875,13.77008203125,6.67059375,-11.24383984375,-13.27626953125,10.3494765625,12.85787890625,-6.2430078125,-15.4956015625,0.215953124999999,4.3731015625,9.4483515625,-11.03353515625,-6.13553125,-11.62902734375,-19.63659765625,-7.47315625
-9.16253515625,2.42919140625,-4.01676171875,20.39548046875,14.15261328125,-0.355988281249999,16.6501796875,0.185648437500001,-9.3503203125,7.98708203125,5.974078125,-9.30515625,-26.79544140625,3.00383203125,18.28108203125,8.03759375,-9.11583984375,-9.67226953125,15.2134765625,16.52887890625,-6.4550078125,-12.7656015625,3.403953125,8.1041015625,10.8823515625,-11.34353515625,-5.18953124999999,-10.55602734375,-19.46659765625,-6.33115624999999
-6.82553515625,3.89919140625,-2.12276171875,23.25848046875,16.97461328125,2.38601171875001,18.7241796875,1.3926484375,-7.3423203125,11.06008203125,8.373078125,-8.31515625,-23.02244140625,7.19583203125,21.99408203125,9.14259375,-7.15483984375,-6.84526953125,19.1854765625,19.12587890625,-6.9630078125,-10.0756015625,5.810953125,10.8801015625,11.7653515625,-11.85253515625,-5.13853125,-10.08002734375,-20.06459765625,-5.74615625
-5.20853515625,4.84019140625,-0.875761718750002,25.46648046875,18.99061328125,4.41401171875,19.9881796875,2.2336484375,-5.6123203125,13.37208203125,9.697078125,-7.70115625,-19.75544140625,10.26683203125,24.54908203125,10.00359375,-5.56683984375,-5.11126953125,21.9154765625,20.42987890625,-7.6370078125,-7.8186015625,7.209953125,12.4171015625,12.0313515625,-12.68053515625,-6.00553124999999,-10.32002734375,-21.43659765625,-5.84415625
-4.24153515625,5.21619140625,-0.374761718750001,27.21548046875,20.46661328125,5.67001171875,20.4601796875,2.6466484375,-4.0603203125,14.87808203125,10.030078125,-7.45715625,-16.93144140625,12.04983203125,25.86008203125,10.68059375,-4.35583984375,-4.42126953125,23.2924765625,20.49187890625,-8.3160078125,-6.2306015625,7.657953125,12.6301015625,11.6283515625,-13.81953515625,-7.59953125,-11.19102734375,-23.31059765625,-6.53415625
-3.76753515625,5.07719140625,-0.554761718750002,28.81548046875,21.71561328125,6.25001171875,20.3571796875,2.7106484375,-2.57632031249999,15.66608203125,9.681078125,-7.48515625,-14.37144140625,12.63783203125,26.07208203125,11.20859375,-3.39683984375,-4.47126953125,23.4014765625,19.57587890625,-8.9200078125,-5.3396015625,7.410953125,11.6221015625,10.5013515625,-15.16053515625,-9.62253124999999,-12.45502734375,-25.28559765625,-7.60715625
-3.67053515625,4.49619140625,-1.27176171875,30.45048046875,22.83661328125,6.25001171875,19.9311796875,2.5626484375,-1.1993203125,15.80108203125,8.992078125,-7.68315625,-11.94544140625,12.24783203125,25.41108203125,11.52659375,-2.56183984375,-4.93826953125,22.3964765625,17.98687890625,-9.5260078125,-5.0326015625,6.729953125,9.5781015625,8.5993515625,-16.57153515625,-11.83053125,-13.85002734375,-27.04959765625,-8.88815624999999
-3.92553515625,3.52519140625,-2.35976171875,32.06048046875,23.64361328125,5.68001171875,19.3381796875,2.3246484375,-0.175320312499998,15.23108203125,8.162078125,-8.03515625,-9.70744140625,11.06283203125,24.02708203125,11.46559375,-1.80383984375,-5.67826953125,20.3694765625,15.88687890625,-10.3350078125,-5.1886015625,5.708953125,6.6401015625,5.8953515625,-17.95453515625,-14.18053125,-15.18602734375,-28.54259765625,-10.32415625
-4.57153515625,2.17319140625,-3.66176171875,33.36748046875,23.76361328125,4.47201171875,18.5951796875,2.0596484375,0.119679687500003,13.78708203125,7.171078125,-8.65615625,-7.90744140625,9.13783203125,21.92108203125,10.79459375,-1.16383984375,-6.79426953124999,17.2974765625,13.21487890625,-11.5570078125,-5.7746015625,4.202953125,2.8331015625,2.4253515625,-19.27053515625,-16.86253125,-16.40102734375,-29.96359765625,-11.96515625
-5.67353515625,0.43419140625,-5.05676171875,33.96748046875,22.81461328125,2.55701171875,17.5851796875,1.7326484375,-0.686320312499994,11.27308203125,5.819078125,-9.75815625,-6.90344140625,6.40283203125,18.98408203125,9.30759375,-0.740839843750003,-8.55926953125,13.0924765625,9.74187890625,-13.3090078125,-6.8506015625,1.898953125,-1.9048984375,-1.6836484375,-20.49953515625,-20.21453125,-17.54902734375,-31.63059765625,-13.87915625
-7.26953515625,-1.66380859375,-6.48076171875,33.46748046875,20.54661328125,-0.0569882812499998,16.1111796875,1.2176484375,-2.8183203125,7.60108203125,3.840078125,-11.55115625,-6.98944140625,2.75383203125,15.10508203125,6.91059375,-0.64583984375,-11.23626953125,7.7204765625,5.25087890625,-15.5490078125,-8.4836015625,-1.495046875,-7.5988984375,-6.1936484375,-21.58653515625,-24.53453125,-18.74102734375,-33.77659765625,-16.04215625
-9.28753515625,-4.01380859375,-7.88876171875,31.69948046875,16.99261328125,-3.23198828125,14.0331796875,0.3896484375,-6.2173203125,2.90808203125,1.051078125,-14.08815625,-8.21544140625,-1.78616796875,10.31508203125,3.70859375,-0.920839843750002,-14.90526953125,1.3454765625,-0.24012109375,-18.0800078125,-10.6246015625,-6.030046875,-14.0688984375,-10.7476484375,-22.40353515625,-29.86753125,-20.05502734375,-36.37659765625,-18.26515625
-11.47353515625,-6.39380859375,-9.18976171875,28.88348046875,12.55261328125,-6.68898828125,11.4351796875,-0.7313515625,-10.4883203125,-2.38991796875,-2.504921875,-17.12815625,-10.30344140625,-6.94216796875,4.90508203125,0.05459375,-1.44583984375,-19.36526953125,-5.5625234375,-6.32612109375,-20.5570078125,-13.0586015625,-11.359046875,-20.8108984375,-14.8676484375,-22.73553515625,-35.85253125,-21.46202734375,-39.09559765625,-20.17915625
-13.38953515625,-8.47880859375,-10.22676171875,25.62748046875,7.93161328125,-10.05998828125,8.6781796875,-1.9243515625,-14.9803203125,-7.64891796875,-6.494921875,-20.11615625,-12.71444140625,-12.16616796875,-0.549917968749998,-3.46240625,-1.89083984375,-24.15526953125,-12.2385234375,-12.20512109375,-22.5230078125,-15.4516015625,-16.745046875,-27.0128984375,-17.9786484375,-22.33053515625,-41.70453125,-22.81602734375,-41.38959765625,-21.31915625
-14.54253515625,-9.90580859375,-10.83076171875,22.71648046875,3.91961328125,-12.98698828125,6.2761796875,-2.8453515625,-18.9973203125,-12.15791796875,-10.361921875,-22.34815625,-14.84444140625,-16.75416796875,-5.28991796875,-6.15940625,-1.79183984375,-28.69326953125,-17.7925234375,-16.88112109375,-23.5100078125,-17.4756015625,-21.265046875,-31.7318984375,-19.5236484375,-20.98553515625,-46.39053125,-23.91202734375,-42.72859765625,-21.28415625
-14.56653515625,-10.40280859375,-10.88976171875,20.81748046875,1.13461328125,-15.24198828125,4.6871796875,-3.1983515625,-22.0283203125,-15.35391796875,-13.512921875,-23.27815625,-16.26044140625,-20.07116796875,-8.59191796875,-7.48940625,-0.765839843750001,-32.45526953125,-21.4735234375,-19.48212109375,-23.2130078125,-18.9436015625,-24.130046875,-34.1948984375,-19.1336484375,-18.69653515625,-48.94653125,-24.57002734375,-42.82159765625,-19.91315625
-13.37953515625,-9.92380859375,-10.39076171875,20.25948046875,-0.13938671875,-16.79598828125,4.1141796875,-2.8833515625,-23.8683203125,-17.00191796875,-15.550921875,-22.80315625,-16.83244140625,-21.75116796875,-10.01591796875,-7.27640625,1.26016015625,-35.11426953125,-22.9105234375,-19.58312109375,-21.6680078125,-19.8656015625,-24.983046875,-34.0718984375,-16.8156484375,-15.75453515625,-48.82653125,-24.68602734375,-41.74059765625,-17.39315625
-11.23253515625,-8.67880859375,-9.42976171875,20.94548046875,-0.0253867187499992,-17.80898828125,4.4111796875,-2.0573515625,-24.6363203125,-17.24891796875,-16.406921875,-21.35015625,-16.71944140625,-21.81016796875,-9.54491796875,-5.79540625,3.95216015625,-36.60326953125,-22.2055234375,-17.35512109375,-19.2990078125,-20.4246015625,-24.001046875,-31.5908984375,-13.0086484375,-12.73353515625,-46.11653125,-24.26402734375,-39.89259765625,-14.24215625
-8.61453515625,-7.02880859375,-8.17576171875,22.44648046875,1.01061328125,-18.52298828125,5.1621796875,-1.0463515625,-24.6613203125,-16.52691796875,-16.299921875,-19.66515625,-16.20344140625,-20.58816796875,-7.54291796875,-3.62840625,6.70016015625,-37.05526953125,-19.8395234375,-13.47112109375,-16.7560078125,-20.8686015625,-21.775046875,-27.4048984375,-8.4476484375,-10.28753515625,-41.49753125,-23.39902734375,-37.84359765625,-11.14815625
-6.03353515625,-5.30480859375,-6.78576171875,24.25948046875,2.36861328125,-19.11598828125,5.9161796875,-0.1333515625,-24.2993203125,-15.33891796875,-15.564921875,-18.40215625,-15.49044140625,-18.56716796875,-4.54591796875,-1.38240625,8.91716015625,-36.67326953125,-16.4265234375,-8.79312109375,-14.6120078125,-21.3696015625,-19.001046875,-22.2968984375,-3.8706484375,-8.86253515625,-35.97353125,-22.21002734375,-36.07159765625,-8.69415625
-3.79653515625,-3.66180859375,-5.30776171875,26.08048046875,3.59261328125,-19.59498828125,6.4621796875,0.647648437500001,-23.7583203125,-14.05591796875,-14.470921875,-17.78115625,-14.57844140625,-16.16716796875,-1.01891796875,0.59059375,10.33816015625,-35.60226953125,-12.4795234375,-4.01712109375,-13.0870078125,-21.9116015625,-16.173046875,-16.8798984375,0.2543515625,-8.48653515625,-30.49153125,-20.76802734375,-34.75959765625,-7.11715624999999
-1.92953515625,-2.06380859375,-3.67876171875,27.89948046875,4.52761328125,-19.80498828125,6.9301796875,1.5336484375,-23.0663203125,-12.80691796875,-13.129921875,-17.50615625,-13.28344140625,-13.62316796875,2.78208203125,2.27659375,11.13316015625,-33.91526953125,-8.2955234375,0.50787890625,-12.0100078125,-22.2746015625,-13.448046875,-11.4748984375,3.8133515625,-8.79253515625,-25.67353125,-19.06802734375,-33.75959765625,-6.24715625
-0.27553515625,-0.38380859375,-1.81476171875,29.84548046875,5.27161328125,-19.54498828125,7.6501796875,2.8356484375,-22.1723203125,-11.50691796875,-11.527921875,-16.99715625,-11.38244140625,-10.99016796875,6.76508203125,3.88859375,11.79216015625,-31.70926953125,-4.0065234375,4.72987890625,-11.0100078125,-22.1306015625,-10.736046875,-6.2018984375,6.9233515625,-9.24053515625,-21.76853125,-17.11002734375,-32.75259765625,-5.66515625
1.33946484375,1.46319140625,0.271238281249999,31.96548046875,6.01661328125,-18.69298828125,8.9071796875,4.6836484375,-21.0593203125,-9.96991796875,-9.619921875,-15.74715625,-8.76844140625,-8.23916796875,10.88208203125,5.65659375,12.84916015625,-29.20726953125,0.2884765625,8.69187890625,-9.8060078125,-21.2216015625,-7.919046875,-1.1618984375,9.6993515625,-9.41653515625,-18.77753125,-14.99602734375,-31.49259765625,-4.98815625
2.98746484375,3.41619140625,2.43923828125,34.13248046875,6.94561328125,-17.26598828125,10.7811796875,6.9136484375,-19.7763203125,-8.03491796875,-7.430921875,-13.60015625,-5.52944140625,-5.36516796875,15.00408203125,7.65059375,14.60116015625,-26.77226953125,4.4094765625,12.34287890625,-8.3960078125,-19.5246015625,-5.052046875,3.4141015625,12.0823515625,-9.22553515625,-16.64753125,-12.99602734375,-30.01059765625,-4.10115625
4.61646484375,5.25819140625,4.45523828125,36.12548046875,8.17161328125,-15.41498828125,13.0991796875,9.1456484375,-18.4133203125,-5.67691796875,-5.110921875,-10.83315625,-1.91944140625,-2.47016796875,18.87608203125,9.71959375,16.95416015625,-24.81726953125,8.0624765625,15.45687890625,-7.0670078125,-17.3246015625,-2.440046875,7.1541015625,13.8093515625,-8.90453515625,-15.40153125,-11.50602734375,-28.65459765625,-3.23015624999999
6.07446484375,6.68419140625,6.04523828125,37.76248046875,9.67461328125,-13.40698828125,15.4571796875,10.9466484375,-17.0953203125,-3.05191796875,-2.927921875,-8.03815625,1.73555859375,0.194832031249998,22.15408203125,11.54659375,19.47416015625,-23.64626953125,10.8804765625,17.69887890625,-6.2530078125,-15.1556015625,-0.556046875,9.6361015625,14.5263515625,-8.86253515625,-15.15353125,-10.92502734375,-27.94359765625,-2.82415624999999
7.19646484375,7.43919140625,6.97223828125,39.01148046875,11.28861328125,-11.56698828125,17.3301796875,12.0256484375,-15.9673203125,-0.45691796875,-1.184921875,-5.89015625,5.15955859375,2.29483203125,24.51508203125,12.78259375,21.61616015625,-23.33326953125,12.5414765625,18.75487890625,-6.3310078125,-13.5866015625,0.158953125,10.5441015625,13.9543515625,-9.46153515625,-16.03153125,-11.49602734375,-28.29959765625,-3.31715625
7.91846484375,7.43019140625,7.12923828125,40.04548046875,12.80961328125,-10.17698828125,18.2751796875,12.3656484375,-15.1173203125,1.79608203125,-0.104921875000002,-4.89615625,8.22755859375,3.57783203125,25.80508203125,13.17759375,22.98016015625,-23.67526953125,12.9194765625,18.47587890625,-7.4700078125,-12.9726015625,-0.490046875000001,9.7951015625,12.0243515625,-10.85453515625,-18.07853125,-13.19102734375,-29.84059765625,-4.92215624999999
8.35546484375,6.77319140625,6.61923828125,41.20148046875,14.15161328125,-9.36698828124999,18.1531796875,12.2146484375,-14.4793203125,3.52508203125,0.273078124999998,-5.22315625,11.00155859375,4.03983203125,26.14408203125,12.66859375,23.45916015625,-24.25826953125,12.1724765625,16.96187890625,-9.5720078125,-13.2676015625,-2.330046875,7.5901015625,8.9053515625,-12.94453515625,-21.19353125,-15.70602734375,-32.32259765625,-7.54215625
8.77546484375,5.75119140625,5.72123828125,42.82048046875,15.40361328125,-9.05198828125,17.2081796875,11.9096484375,-13.8123203125,4.75508203125,0.109078125,-6.66615625,13.68055859375,3.99483203125,25.89508203125,11.39459375,23.21116015625,-24.61526953125,10.7164765625,14.53887890625,-12.3400078125,-14.0186015625,-4.842046875,4.3481015625,4.9553515625,-15.45053515625,-25.12053125,-18.55302734375,-35.26159765625,-10.83215625
9.46246484375,4.70619140625,4.76623828125,45.04948046875,16.73961328125,-8.97398828124999,15.9491796875,11.6506484375,-12.8023203125,5.69408203125,-0.308921874999999,-8.76215625,16.47155859375,3.95683203125,25.51608203125,9.64859375,22.52616015625,-24.40526953125,9.0544765625,11.65187890625,-15.3880078125,-14.5316015625,-7.323046875,0.581101562499999,0.6223515625,-18.00553515625,-29.49153125,-21.21202734375,-38.12859765625,-14.33515625
10.57746484375,3.91219140625,4.01523828125,47.74848046875,18.29561328125,-8.81898828125,14.9391796875,11.4036484375,-11.2163203125,6.59608203125,-0.688921875000002,-10.97815625,19.46855859375,4.40583203125,25.33908203125,7.78759375,21.69616015625,-23.54526953125,7.5614765625,8.71787890625,-18.3560078125,-14.1546015625,-9.130046875,-3.2578984375,-3.6536484375,-20.25553515625,-33.91153125,-23.29002734375,-40.51659765625,-17.60815625
12.08446484375,3.47819140625,3.59323828125,50.55748046875,20.10461328125,-8.34998828125,14.6011796875,11.0106484375,-9.0323203125,7.59808203125,-0.856921875000001,-12.88715625,22.57755859375,5.53483203125,25.41908203125,6.12559375,20.96316015625,-22.23026953125,6.3264765625,6.01087890625,-20.9610078125,-12.5716015625,-9.905046875,-6.86989843750001,-7.5026484375,-21.93453515625,-38.03753125,-24.61002734375,-42.20759765625,-20.29615625
13.74646484375,3.32419140625,3.47923828125,53.01848046875,22.04961328125,-7.53798828124999,15.0581796875,10.3876484375,-6.5313203125,8.60108203125,-0.831921875000003,-14.24715625,25.52355859375,7.10483203125,25.49608203125,4.83959375,20.53316015625,-20.87726953125,5.1384765625,3.59887890625,-23.0220078125,-9.9646015625,-9.704046875,-10.1508984375,-10.6586484375,-22.90453515625,-41.64453125,-25.20702734375,-43.15459765625,-22.16315625
15.17946484375,3.21219140625,3.50723828125,54.68048046875,23.78861328125,-6.62798828125,16.0311796875,9.6056484375,-4.3213203125,9.23208203125,-0.850921875000001,-15.02315625,27.91055859375,8.45783203125,25.07408203125,3.89559375,20.57516015625,-20.02126953125,3.5904765625,1.33387890625,-24.4880078125,-7.0116015625,-8.999046875,-13.1868984375,-12.9986484375,-23.19053515625,-44.65853125,-25.28702734375,-43.43359765625,-23.12815625
15.96946484375,2.83219140625,3.40423828125,55.17748046875,24.76761328125,-6.10798828124999,16.8951796875,8.8606484375,-3.2213203125,8.94808203125,-1.340921875,-15.37915625,29.31755859375,8.73183203125,23.58708203125,3.03159375,21.17916015625,-20.20326953125,1.2694765625,-1.07812109375,-25.4590078125,-4.6916015625,-8.540046875,-16.2138984375,-14.5796484375,-22.99053515625,-47.16953125,-25.17302734375,-43.23959765625,-23.31115625
15.84846484375,1.92719140625,2.90323828125,54.35048046875,24.40861328125,-6.53198828124999,16.9361796875,8.3686484375,-3.9603203125,7.25508203125,-2.759921875,-15.61515625,29.43655859375,7.22883203125,20.64908203125,1.86659375,22.31616015625,-21.81726953125,-2.0325234375,-3.92512109375,-26.1270078125,-3.92160156249999,-9.059046875,-19.4788984375,-15.6006484375,-22.60453515625,-49.35753125,-25.22502734375,-42.84159765625,-22.99615625
14.88046484375,0.45019140625,1.90923828125,52.34648046875,22.42861328125,-8.22498828125,15.7261796875,8.2876484375,-6.8043203125,4.00908203125,-5.335921875,-16.03115625,28.22455859375,3.78383203125,16.31208203125,0.14459375,23.87016015625,-24.92926953125,-6.1305234375,-7.24212109375,-26.6290078125,-5.1526015625,-10.913046875,-23.0198984375,-16.2576484375,-22.26253515625,-51.34053125,-25.67702734375,-42.47059765625,-22.46715625
13.51746484375,-1.31380859375,0.606238281249999,49.63448046875,19.05961328125,-11.04898828125,13.3711796875,8.6686484375,-11.3393203125,-0.403917968750001,-8.828921875,-16.74915625,25.99955859375,-1.05116796875,11.20808203125,-2.02040625,25.72716015625,-29.16326953125,-10.3995234375,-10.62212109375,-26.8710078125,-8.12860156249999,-13.838046875,-26.4788984375,-16.5436484375,-21.93753515625,-52.99953125,-26.48802734375,-42.15959765625,-21.79915625
12.47346484375,-2.80280859375,-0.555761718750001,46.89848046875,15.03761328125,-14.38198828125,10.5131796875,9.4646484375,-16.5553203125,-5.12691796875,-12.492921875,-17.59115625,23.39355859375,-6.17716796875,6.44108203125,-4.06540625,27.86516015625,-33.75526953125,-13.9235234375,-13.23712109375,-26.5040078125,-11.9676015625,-16.999046875,-29.1228984375,-16.1766484375,-21.29753515625,-53.95353125,-27.33702734375,-41.70859765625,-20.78615625
12.44546484375,-3.39680859375,-1.00776171875,44.85148046875,11.35861328125,-17.34398828125,8.0791796875,10.6166484375,-21.1983203125,-9.15391796875,-15.345921875,-18.12115625,21.16455859375,-10.37516796875,3.22708203125,-5.17640625,30.35616015625,-37.78326953125,-15.8175234375,-14.13112109375,-25.0960078125,-15.5636015625,-19.342046875,-30.1138984375,-14.7186484375,-19.87853515625,-53.73353125,-27.80802734375,-40.82159765625,-19.07315625
13.80646484375,-2.70280859375,-0.292761718750001,44.00348046875,8.90861328125,-19.17398828125,6.8971796875,12.1176484375,-24.2243203125,-11.71991796875,-16.574921875,-17.84115625,19.93155859375,-12.78316796875,2.44208203125,-4.65440625,33.27816015625,-40.48226953125,-15.5715234375,-12.63812109375,-22.4210078125,-18.0526015625,-20.054046875,-28.8918984375,-11.8406484375,-17.38453515625,-52.04153125,-27.64402734375,-39.31559765625,-16.41815625
16.42346484375,-0.74080859375,1.71523828125,44.46848046875,8.09861328125,-19.53298828125,7.3441796875,13.9906484375,-25.1733203125,-12.57091796875,-15.870921875,-16.45115625,19.97655859375,-13.18016796875,4.30008203125,-2.24940625,36.59516015625,-41.47626953125,-13.2335234375,-8.71612109375,-18.6710078125,-19.0936015625,-18.885046875,-25.4388984375,-7.5556484375,-13.92453515625,-48.93353125,-26.89302734375,-37.26559765625,-12.90215625
19.68646484375,2.07219140625,4.73223828125,45.91548046875,8.70961328125,-18.60098828125,9.1921796875,16.1876484375,-24.2933203125,-11.99591796875,-13.520921875,-14.03115625,21.18355859375,-11.95216796875,8.30808203125,1.71959375,40.08316015625,-40.84426953125,-9.3635234375,-2.98812109375,-14.4730078125,-18.8466015625,-16.193046875,-20.2938984375,-2.3026484375,-10.04053515625,-44.82153125,-25.85102734375,-34.98159765625,-8.96515624999999
22.77246484375,5.08819140625,8.17823828125,47.74148046875,10.03861328125,-16.94398828125,11.7451796875,18.5386484375,-22.3733203125,-10.66591796875,-10.246921875,-11.05315625,23.15555859375,-9.84516796875,13.47708203125,6.47559375,43.36416015625,-39.02726953125,-4.8095234375,3.47287890625,-10.6760078125,-17.7486015625,-12.739046875,-14.3658984375,3.1563515625,-6.52653515625,-40.34453125,-24.88302734375,-32.87359765625,-5.25915625
25.00846484375,7.66819140625,11.41823828125,49.38148046875,11.26261328125,-15.24598828125,14.1791796875,20.7886484375,-20.3763203125,-9.35991796875,-6.907921875,-8.20115625,25.42655859375,-7.63616796875,18.68308203125,11.07459375,46.02916015625,-36.66226953125,-0.4325234375,9.52187890625,-8.0230078125,-16.2766015625,-9.374046875,-8.6368984375,7.9723515625,-4.12953515625,-36.17653125,-24.24102734375,-31.28659765625,-2.40315624999999
26.13546484375,9.39019140625,13.97923828125,50.54448046875,11.78261328125,-14.04098828125,15.8791796875,22.6836484375,-19.0713203125,-8.68791796875,-4.187921875,-6.08215625,27.67255859375,-5.90516796875,23.00508203125,14.73259375,47.80116015625,-34.40326953125,3.1114765625,14.27787890625,-6.8600078125,-14.8226015625,-6.775046875,-3.9118984375,11.4713515625,-3.27253515625,-32.87053125,-23.98602734375,-30.39259765625,-0.776156249999993
26.35446484375,10.15219140625,15.64023828125,51.26148046875,11.38661328125,-13.56998828125,16.6121796875,24.0316484375,-18.8093203125,-8.90791796875,-2.407921875,-4.97815625,29.81055859375,-4.94716796875,25.93108203125,17.05659375,48.64916015625,-32.78926953125,5.4644765625,17.30987890625,-7.0360078125,-13.6816015625,-5.309046875,-0.6768984375,13.3373515625,-3.91453515625,-30.76453125,-24.04602734375,-30.15859765625,-0.423156249999998
26.14446484375,10.11719140625,16.40223828125,51.76448046875,10.23361328125,-13.79398828125,16.4971796875,24.7206484375,-19.4983203125,-9.90691796875,-1.551921875,-4.80015625,31.95455859375,-4.82516796875,27.37408203125,18.05259375,48.76416015625,-32.17526953125,6.5314765625,18.59887890625,-8.0590078125,-13.0926015625,-5.054046875,0.900101562499998,13.6213515625,-5.64253515625,-30.00853125,-24.35502734375,-30.43259765625,-1.14015625
25.97046484375,9.54519140625,16.38723828125,52.29248046875,8.70561328125,-14.53798828125,15.8181796875,24.6946484375,-20.7593203125,-11.36291796875,-1.459921875,-5.26615625,34.24655859375,-5.49216796875,27.51408203125,17.92159375,48.42516015625,-32.74126953125,6.3574765625,18.33987890625,-9.4330078125,-13.2746015625,-5.949046875,0.846101562499999,12.5763515625,-7.93153515625,-30.65953125,-25.02202734375,-31.09959765625,-2.67215624999999
26.01846484375,8.60019140625,15.70923828125,52.91848046875,7.17461328125,-15.67398828125,14.7731796875,23.9056484375,-22.1923203125,-12.97991796875,-2.049921875,-6.17415625,36.67755859375,-6.90416796875,26.58108203125,16.80359375,47.82616015625,-34.53426953125,5.0014765625,16.70587890625,-10.9670078125,-14.4226015625,-7.949046875,-0.759898437499999,10.4253515625,-10.41953515625,-32.78453125,-26.38202734375,-32.22059765625,-4.90115624999999
26.10746484375,7.27419140625,14.39623828125,53.46248046875,5.78661328125,-17.20898828125,13.3371796875,22.2986484375,-23.5853203125,-14.65191796875,-3.403921875,-7.55815625,39.01855859375,-9.05416796875,24.71608203125,14.64559375,46.99616015625,-37.48226953125,2.4934765625,13.75287890625,-12.8690078125,-16.6516015625,-11.057046875,-3.8458984375,7.2273515625,-13.04453515625,-36.44353125,-28.86302734375,-34.03559765625,-7.90215625
25.83846484375,5.46719140625,12.43423828125,53.61848046875,4.43861328125,-19.19998828125,11.3421796875,19.9126484375,-24.9283203125,-16.42691796875,-5.635921875,-9.57415625,40.93555859375,-11.85816796875,21.99908203125,11.32259375,45.87316015625,-41.32026953125,-1.0605234375,9.52587890625,-15.5260078125,-19.8856015625,-15.199046875,-8.2548984375,2.9423515625,-15.95553515625,-41.54453125,-32.69102734375,-36.77959765625,-11.78215625
24.90746484375,3.15619140625,9.92723828125,53.21848046875,2.98761328125,-21.55998828125,8.7521796875,17.0576484375,-26.2243203125,-18.32791796875,-8.661921875,-12.22915625,42.23655859375,-14.99816796875,18.62608203125,6.89859375,44.49216015625,-45.51126953125,-5.3255234375,4.28187890625,-19.1310078125,-23.7666015625,-20.027046875,-13.5978984375,-2.3586484375,-19.27853515625,-47.67553125,-37.60902734375,-40.42959765625,-16.43615625
23.37046484375,0.542191406250001,7.24023828125,52.44248046875,1.48361328125,-23.92498828125,5.8811796875,14.3806484375,-27.2803203125,-20.16991796875,-12.053921875,-15.16415625,43.04355859375,-17.86716796875,15.04208203125,1.82659375,43.13216015625,-49.27526953125,-9.6785234375,-1.38012109375,-23.4040078125,-27.6646015625,-24.852046875,-19.1918984375,-8.2966484375,-22.89653515625,-54.07053125,-42.83802734375,-44.55859765625,-21.39315625
21.67746484375,-1.95280859375,4.96123828125,51.79148046875,0.208613281250001,-25.72098828125,3.3561796875,12.6766484375,-27.7033203125,-21.54691796875,-15.110921875,-17.69615625,43.78855859375,-19.72016796875,11.90408203125,-3.08340625,42.28416015625,-51.81526953125,-13.3535234375,-6.61712109375,-27.6330078125,-30.8486015625,-28.809046875,-24.1988984375,-14.1686484375,-26.38953515625,-59.81953125,-47.34902734375,-48.42459765625,-25.91815625
20.46346484375,-3.84080859375,3.69223828125,51.84048046875,-0.49238671875,-26.41798828125,1.8361796875,12.5486484375,-27.0993203125,-22.00991796875,-17.129921875,-19.11915625,44.99955859375,-19.99116796875,9.82908203125,-6.94240625,42.44916015625,-52.63826953125,-15.7425234375,-10.64312109375,-30.9960078125,-32.7406015625,-31.191046875,-27.9478984375,-19.1536484375,-29.19353515625,-64.22553125,-50.29702734375,-51.26259765625,-29.29815625
20.23246484375,-4.79380859375,3.78123828125,52.94648046875,-0.429386718749999,-25.82298828125,1.7001796875,14.1126484375,-25.3343203125,-21.33091796875,-17.744921875,-19.07315625,47.01755859375,-18.57316796875,9.09308203125,-9.15440625,43.86816015625,-51.78326953125,-16.6735234375,-13.05312109375,-32.9780078125,-33.1176015625,-31.765046875,-30.2418984375,-22.6416484375,-30.85653515625,-67.10753125,-51.36702734375,-52.62659765625,-31.15415625
21.10546484375,-4.81680859375,5.14623828125,55.04248046875,0.291613281249999,-24.22698828125,2.8501796875,16.9386484375,-22.6943203125,-19.70291796875,-17.135921875,-17.76015625,49.78255859375,-15.93116796875,9.44908203125,-9.68240625,46.37016015625,-49.84126953125,-16.5115234375,-14.00712109375,-33.6130078125,-32.1586015625,-30.891046875,-31.4678984375,-24.4956484375,-31.25453515625,-68.86053125,-50.85702734375,-52.57659765625,-31.57915625
22.74046484375,-4.24880859375,7.25823828125,57.59048046875,1.23661328125,-22.34898828125,4.7091796875,20.1966484375,-19.8703203125,-17.75791796875,-15.990921875,-15.88515625,52.81455859375,-12.99216796875,10.18708203125,-9.07440625,49.40716015625,-47.74426953125,-16.0195234375,-14.16412109375,-33.4370078125,-30.3326015625,-29.382046875,-32.4218984375,-25.0886484375,-30.62253515625,-70.24053125,-49.47102734375,-51.62759765625,-31.03615625
24.48346484375,-3.60580859375,9.32423828125,59.77148046875,1.77061328125,-21.07798828125,6.4091796875,22.9476484375,-17.7423203125,-16.36291796875,-15.241921875,-14.36115625,55.38255859375,-10.84216796875,10.40708203125,-8.22640625,52.26816015625,-46.42526953125,-16.0545234375,-14.39612109375,-33.2010078125,-28.2036015625,-28.166046875,-33.9258984375,-25.0886484375,-29.41453515625,-71.98253125,-47.97002734375,-50.48659765625,-30.09415625
25.68046484375,-3.35680859375,10.61723828125,60.84048046875,1.32061328125,-21.13798828125,7.1251796875,24.4746484375,-17.0353203125,-16.29391796875,-15.678921875,-13.92515625,56.81255859375,-10.34816796875,9.40508203125,-8.01140625,54.34716015625,-46.49126953125,-17.2155234375,-15.40212109375,-33.4920078125,-26.2396015625,-27.910046875,-36.4248984375,-25.1146484375,-28.08053515625,-74.45053125,-46.85102734375,-49.71459765625,-29.14415625
25.99846484375,-3.72580859375,10.78023828125,60.49448046875,-0.345386718749999,-22.83298828125,6.3981796875,24.5436484375,-18.0113203125,-17.92891796875,-17.654921875,-14.85515625,56.77755859375,-11.84316796875,6.96508203125,-8.92840625,55.35916015625,-48.02526953125,-19.6135234375,-17.40112109375,-34.4760078125,-24.7136015625,-28.766046875,-39.7798984375,-25.4456484375,-26.87753515625,-77.45453125,-46.21702734375,-49.49059765625,-28.25615625
25.54146484375,-4.63180859375,9.94023828125,58.97448046875,-3.02838671875,-25.98998828125,4.2631796875,23.4356484375,-20.4163203125,-21.12491796875,-20.984921875,-16.90615625,55.41555859375,-15.03416796875,3.42708203125,-10.91840625,55.41116015625,-50.61226953125,-22.8565234375,-20.04812109375,-35.8730078125,-23.6996015625,-30.365046875,-43.3408984375,-25.9256484375,-25.80653515625,-80.33253125,-45.86202734375,-49.59559765625,-27.23315625
24.73846484375,-5.75580859375,8.58323828125,56.86748046875,-6.25638671875,-30.09798828125,1.1541796875,21.7706484375,-23.6743203125,-25.31191796875,-25.077921875,-19.47815625,53.24655859375,-19.16116796875,-0.488917968749998,-13.42140625,54.90416015625,-53.56226953125,-26.2395234375,-22.60212109375,-37.1560078125,-23.1406015625,-32.036046875,-46.2408984375,-26.0856484375,-24.68153515625,-82.23553125,-45.48902734375,-49.58559765625,-25.81515625
24.10746484375,-6.69080859375,7.32723828125,54.79548046875,-9.49338671875,-34.51298828125,-2.2908203125,20.2286484375,-27.1733203125,-29.72291796875,-29.160921875,-21.88915625,50.94955859375,-23.30316796875,-3.96791796875,-15.60040625,54.35116015625,-56.19726953125,-29.0185234375,-24.22812109375,-37.8200078125,-22.8946015625,-33.108046875,-47.7338984375,-25.3936484375,-23.28953515625,-82.48253125,-44.88702734375,-49.03459765625,-23.86115625
24.06246484375,-7.08580859375,6.73823828125,53.18248046875,-12.27538671875,-38.60398828125,-5.3688203125,19.3396484375,-30.4403203125,-33.60991796875,-32.482921875,-23.60115625,49.13355859375,-26.65516796875,-6.31491796875,-16.64240625,54.19216015625,-58.06326953125,-30.5995234375,-24.26412109375,-37.5600078125,-22.7636015625,-33.139046875,-47.3958984375,-23.4836484375,-21.52853515625,-80.79953125,-43.97502734375,-47.69259765625,-21.40415625
24.82446484375,-6.71880859375,7.22523828125,52.20548046875,-14.24138671875,-41.80798828125,-7.4058203125,19.3866484375,-33.1623203125,-36.35891796875,-34.431921875,-24.29415625,48.18655859375,-28.69016796875,-7.03391796875,-15.97140625,54.72616015625,-58.98326953125,-30.6155234375,-22.36412109375,-36.2900078125,-22.4956015625,-31.987046875,-45.1588984375,-20.2646484375,-19.44753515625,-77.34553125,-42.71802734375,-45.51359765625,-18.57315625
26.40246484375,-5.52380859375,8.94123828125,51.84148046875,-15.18338671875,-43.67098828125,-7.8918203125,20.3986484375,-35.1333203125,-37.53291796875,-34.593921875,-23.81115625,48.23855859375,-29.21116796875,-5.84991796875,-13.37340625,56.12516015625,-59.00926953125,-28.9545234375,-18.53812109375,-34.0630078125,-21.8446015625,-29.779046875,-41.2588984375,-15.9266484375,-17.19153515625,-72.58853125,-41.06702734375,-42.60459765625,-15.49815625
28.61346484375,-3.60380859375,11.71423828125,51.98448046875,-15.10338671875,-43.94498828125,-6.6458203125,22.1816484375,-36.2303203125,-36.93091796875,-32.864921875,-22.12715625,49.20355859375,-28.36416796875,-2.76091796875,-9.06040625,58.44416015625,-58.35026953125,-25.8085234375,-13.15912109375,-31.0270078125,-20.7006015625,-26.880046875,-36.1938984375,-10.9226484375,-14.95753515625,-67.15153125,-39.02602734375,-39.21259765625,-12.31315625
31.11146484375,-1.28780859375,15.02123828125,52.52548046875,-14.23238671875,-42.73398828125,-3.9598203125,24.3836484375,-36.4443203125,-34.69691796875,-29.583921875,-19.40815625,50.83855859375,-26.61516796875,1.84608203125,-3.68940625,61.56916015625,-57.33726953125,-21.7475234375,-6.97012109375,-27.4730078125,-19.2376015625,-23.870046875,-30.7268984375,-5.9426484375,-13.01653515625,-61.75253125,-36.82002734375,-35.77659765625,-9.25815625
33.43346484375,0.89119140625,18.08323828125,53.37748046875,-12.98938671875,-40.55298828125,-0.605820312500001,26.5606484375,-35.9243203125,-31.39991796875,-25.568921875,-16.11315625,52.82555859375,-24.67516796875,7.14608203125,1.70459375,65.14216015625,-56.39926953125,-17.6875234375,-1.01412109375,-23.9170078125,-17.9516015625,-21.486046875,-25.8218984375,-1.8376484375,-11.74253515625,-57.18553125,-34.99102734375,-32.94559765625,-6.77215624999999
35.08446484375,2.31919140625,20.07823828125,54.45148046875,-11.87338671875,-38.21498828125,2.3501796875,28.2616484375,-34.9693203125,-27.93691796875,-21.911921875,-12.96515625,54.87455859375,-23.32316796875,12.02208203125,5.94859375,68.59716015625,-56.00526953125,-14.6745234375,3.58487890625,-21.0570078125,-17.5046015625,-20.441046875,-22.4548984375,0.5643515625,-11.55953515625,-54.22653125,-34.27702734375,-31.44559765625,-5.42515624999999
35.68946484375,2.53019140625,20.43223828125,55.66048046875,-11.29438671875,-36.53598828125,3.9181796875,29.1626484375,-33.9243203125,-25.25191796875,-19.599921875,-10.73415625,56.81855859375,-23.14116796875,15.39408203125,8.08659375,71.33816015625,-56.53626953125,-13.5325234375,5.95887890625,-19.5780078125,-18.4256015625,-21.191046875,-21.3148984375,0.7263515625,-12.76253515625,-53.44453125,-35.30402734375,-31.82559765625,-5.69715624999999
35.15146484375,1.39219140625,19.06523828125,56.98248046875,-11.38438671875,-36.01598828125,3.6011796875,29.1976484375,-33.0163203125,-23.99991796875,-19.136921875,-9.94615625,58.66755859375,-24.29516796875,16.59508203125,7.69359375,72.97516015625,-58.17426953125,-14.5555234375,5.78387890625,-19.8990078125,-20.8556015625,-23.748046875,-22.5668984375,-1.3916484375,-15.34753515625,-55.00553125,-38.29702734375,-34.21559765625,-7.74015625
33.72846484375,-0.84980859375,16.42923828125,58.49248046875,-11.93538671875,-36.67698828125,1.5971796875,28.5936484375,-32.2703203125,-24.31691796875,-20.395921875,-10.68115625,60.54055859375,-26.50116796875,15.58808203125,4.97559375,73.46116015625,-60.83126953125,-17.4155234375,3.35587890625,-22.0260078125,-24.4916015625,-27.683046875,-25.8178984375,-5.3256484375,-18.96553515625,-58.60053125,-42.98402734375,-38.26959765625,-11.29015625
31.94946484375,-3.68280859375,13.29623828125,60.28448046875,-12.54238671875,-38.13598828125,-1.3418203125,27.7356484375,-31.5613203125,-25.82691796875,-22.738921875,-12.60015625,62.54555859375,-29.17616796875,12.92908203125,0.64059375,73.06316015625,-64.17526953125,-21.3175234375,-0.58512109375,-25.5630078125,-28.7226015625,-32.279046875,-30.3028984375,-10.2866484375,-23.03653515625,-63.53653125,-48.71402734375,-43.28759765625,-15.75715625
30.43046484375,-6.49480859375,10.43623828125,62.36548046875,-12.82238671875,-39.81098828125,-4.2718203125,26.9626484375,-30.7313203125,-27.79191796875,-25.299921875,-15.12015625,64.69055859375,-31.66016796875,9.55108203125,-4.36540625,72.18816015625,-67.68326953125,-25.2805234375,-5.13112109375,-29.8490078125,-32.8556015625,-36.739046875,-35.1418984375,-15.4176484375,-26.94153515625,-68.92853125,-54.66002734375,-48.43559765625,-20.41015625
29.69946484375,-8.73980859375,8.40423828125,64.65548046875,-12.50938671875,-41.11298828125,-6.3868203125,26.4696484375,-29.6223203125,-29.34991796875,-27.256921875,-17.59815625,66.92055859375,-33.37116796875,6.48608203125,-9.11340625,71.21816015625,-70.71426953125,-28.4015234375,-9.45912109375,-34.1190078125,-36.2646015625,-40.334046875,-39.5508984375,-20.0076484375,-30.18353515625,-73.89753125,-59.98202734375,-52.92659765625,-24.54415625
30.09046484375,-10.04580859375,7.47923828125,67.09548046875,-11.40538671875,-41.56798828125,-7.1898203125,26.3546484375,-28.0523203125,-29.74191796875,-28.031921875,-19.47915625,69.21555859375,-33.87116796875,4.60008203125,-12.88040625,70.42316015625,-72.62926953125,-30.0435234375,-12.98312109375,-37.6740078125,-38.4686015625,-42.499046875,-42.9658984375,-23.6256484375,-32.48253515625,-77.75753125,-63.95302734375,-56.15859765625,-27.60615625
31.65046484375,-10.28980859375,7.67623828125,69.69548046875,-9.36838671875,-40.90198828125,-6.5588203125,26.6746484375,-25.8353203125,-28.53091796875,-27.392921875,-20.40215625,71.63555859375,-32.95116796875,4.37208203125,-15.27540625,69.95816015625,-72.97126953125,-29.9755234375,-15.44112109375,-40.0740078125,-39.1736015625,-42.937046875,-45.1448984375,-26.1876484375,-33.79853515625,-80.17953125,-66.09802734375,-57.83159765625,-29.32315625
34.09246484375,-9.64080859375,8.75223828125,72.45048046875,-6.41938671875,-39.11798828125,-4.7678203125,27.4156484375,-22.9243203125,-25.76091796875,-25.502921875,-20.30215625,74.24555859375,-30.74916796875,5.73708203125,-16.31240625,69.87616015625,-71.67026953125,-28.4565234375,-16.92412109375,-41.3060078125,-38.3276015625,-41.725046875,-46.2408984375,-27.9736484375,-34.33053515625,-81.29953125,-66.34502734375,-58.06359765625,-29.81015625
36.85646484375,-8.52880859375,10.26923828125,75.23148046875,-2.85638671875,-36.52298828125,-2.4228203125,28.4186484375,-19.5333203125,-21.97091796875,-22.874921875,-19.45015625,76.99055859375,-27.79516796875,8.10308203125,-16.39240625,70.13316015625,-69.12526953125,-26.1805234375,-17.83312109375,-41.8250078125,-36.1656015625,-39.350046875,-46.7738984375,-29.5256484375,-34.46853515625,-81.67553125,-65.07102734375,-57.38559765625,-29.57015625
39.30146484375,-7.51680859375,11.73723828125,77.75448046875,0.791613281249999,-33.65398828125,-0.252820312500003,29.3866484375,-16.1283203125,-18.03091796875,-20.223921875,-18.37315625,79.65655859375,-24.88316796875,10.57308203125,-16.15840625,70.58416015625,-66.07426953125,-24.0405234375,-18.70012109375,-42.3630078125,-33.1636015625,-36.577046875,-47.4408984375,-31.4256484375,-34.69353515625,-82.06853125,-62.96002734375,-56.56659765625,-29.31315625
40.94046484375,-7.10180859375,12.78023828125,79.66848046875,3.90661328125,-31.12098828125,1.1491796875,29.9846484375,-13.2853203125,-14.84091796875,-18.244921875,-17.65315625,81.92155859375,-22.79416796875,12.30508203125,-16.24940625,71.01916015625,-63.31526953125,-22.7975234375,-19.95212109375,-43.5800078125,-29.9336015625,-34.189046875,-48.8018984375,-34.0256484375,-35.40553515625,-83.10753125,-60.72302734375,-56.29659765625,-29.65215625
41.56746484375,-7.52080859375,13.22023828125,80.64448046875,5.92961328125,-29.45598828125,1.4701796875,29.9486484375,-11.5213203125,-13.06591796875,-17.415921875,-17.69715625,83.45955859375,-22.02716796875,12.79608203125,-17.05740625,71.22416015625,-61.45326953125,-22.8295234375,-21.72412109375,-45.7280078125,-27.0856015625,-32.731046875,-51.0278984375,-37.2566484375,-36.76753515625,-85.02353125,-58.86702734375,-56.92459765625,-30.83715625
41.25146484375,-8.70780859375,13.05323828125,80.45748046875,6.44261328125,-29.02898828125,0.6821796875,29.1746484375,-11.1833203125,-12.99891796875,-17.917921875,-18.59815625,84.02655859375,-22.67916796875,11.99008203125,-18.60440625,71.06916015625,-60.77926953125,-24.0785234375,-23.81512109375,-48.5300078125,-25.1116015625,-32.379046875,-53.8418984375,-40.6366484375,-38.63853515625,-87.58753125,-57.62002734375,-58.37359765625,-32.66915625
40.25046484375,-10.35180859375,12.43923828125,79.06648046875,5.25961328125,-29.99098828125,-1.0258203125,27.7836484375,-12.3743203125,-14.57991796875,-19.657921875,-20.10815625,83.52955859375,-24.48016796875,10.18808203125,-20.54240625,70.59916015625,-61.28226953125,-26.1705234375,-25.77212109375,-51.2800078125,-24.2876015625,-32.970046875,-56.6498984375,-43.4286484375,-40.60853515625,-90.22553125,-57.00002734375,-60.26559765625,-34.62315625
38.94846484375,-12.01580859375,11.70223828125,76.67848046875,2.52361328125,-32.20898828125,-3.2818203125,26.1676484375,-14.9123203125,-17.45591796875,-22.306921875,-21.71315625,82.06355859375,-26.92416796875,7.90608203125,-22.25540625,70.10916015625,-62.71026953125,-28.5655234375,-27.01712109375,-53.0900078125,-24.5966015625,-34.095046875,-58.7488984375,-44.8316484375,-42.07153515625,-92.22153125,-56.87902734375,-62.08959765625,-36.02015625
37.81846484375,-13.21280859375,11.31223828125,73.73448046875,-1.28338671875,-35.22798828125,-5.5808203125,24.9446484375,-18.3303203125,-21.04591796875,-25.310921875,-22.76415625,79.92255859375,-29.39616796875,5.76208203125,-23.00340625,70.14016015625,-64.63126953125,-30.6695234375,-26.96212109375,-53.1550078125,-25.6886015625,-35.200046875,-59.4918984375,-44.1416484375,-42.33153515625,-92.89453125,-56.98102734375,-63.32259765625,-36.17915625
37.35646484375,-13.48880859375,11.75723828125,70.79648046875,-5.43238671875,-38.32798828125,-7.3588203125,24.7706484375,-21.9733203125,-24.63891796875,-27.949921875,-22.68015625,77.52355859375,-31.32916796875,4.36908203125,-22.12440625,71.30216015625,-66.53826953125,-31.9215234375,-25.15312109375,-50.9980078125,-26.9796015625,-35.720046875,-58.4318984375,-40.9156484375,-40.78253515625,-91.76853125,-56.86702734375,-63.50359765625,-34.55415625
37.94446484375,-12.55480859375,13.36123828125,68.36848046875,-9.13938671875,-40.76698828125,-8.1468203125,26.0726484375,-25.1783203125,-27.55791796875,-29.526921875,-21.17015625,75.27955859375,-32.35016796875,4.18808203125,-19.29740625,73.97216015625,-67.98826953125,-31.9275234375,-21.45012109375,-46.6520078125,-27.8886015625,-35.271046875,-55.4538984375,-35.1676484375,-37.17653515625,-88.73553125,-56.06802734375,-62.36259765625,-30.92015625
39.68146484375,-10.43880859375,16.11323828125,66.72648046875,-11.79438671875,-42.08298828125,-7.7358203125,28.8346484375,-27.4823203125,-29.36791796875,-29.650921875,-18.39415625,73.48455859375,-32.41916796875,5.37308203125,-14.73540625,78.03916015625,-68.78526953125,-30.6145234375,-16.17112109375,-40.7210078125,-28.1196015625,-33.849046875,-50.8708984375,-27.5066484375,-31.85153515625,-84.15953125,-54.35102734375,-59.96059765625,-25.55015625
42.29446484375,-7.51380859375,19.63823828125,65.84048046875,-13.15638671875,-42.27998828125,-6.2728203125,32.5546484375,-28.7663203125,-30.00591796875,-28.408921875,-14.92215625,72.27755859375,-31.82916796875,7.71008203125,-9.15840625,82.89416015625,-69.03326953125,-28.2755234375,-10.06412109375,-34.2180078125,-27.7856015625,-31.850046875,-45.3658984375,-19.0376484375,-25.69753515625,-78.79953125,-51.90602734375,-56.72559765625,-19.23115625
45.25846484375,-4.34580859375,23.35923828125,65.47448046875,-13.39138671875,-41.75098828125,-4.1908203125,36.4586484375,-29.2163203125,-29.72591796875,-26.302921875,-11.49015625,71.70755859375,-31.03616796875,10.73408203125,-3.50740625,87.69416015625,-69.02526953125,-25.4275234375,-4.05212109375,-28.2290078125,-27.2636015625,-29.863046875,-39.7578984375,-11.0176484375,-19.82653515625,-73.51553125,-49.27102734375,-53.25659765625,-13.00015625
48.05946484375,-1.45280859375,26.76723828125,65.41348046875,-12.90038671875,-40.99198828125,-1.9808203125,39.8616484375,-29.1293203125,-28.91691796875,-23.981921875,-8.68915625,71.82055859375,-30.39916796875,13.95108203125,1.42659375,91.73616015625,-69.02126953125,-22.5675234375,1.09187890625,-23.5490078125,-26.8996015625,-28.343046875,-34.7168984375,-4.4146484375,-15.12353515625,-68.94353125,-47.02702734375,-50.04459765625,-7.73815625
50.41146484375,0.85219140625,29.58823828125,65.63748046875,-12.08938671875,-40.35998828125,-0.0178203124999996,42.4036484375,-28.7343203125,-27.94791796875,-21.989921875,-6.79815625000001,72.67955859375,-30.03616796875,16.96308203125,5.20059375,94.67816015625,-69.11426953125,-20.0225234375,4.91687890625,-20.5200078125,-26.8256015625,-27.446046875,-30.6428984375,0.3053515625,-11.98953515625,-65.37953125,-45.53502734375,-47.33259765625,-3.89815624999999
52.21646484375,2.42719140625,31.68023828125,66.25448046875,-11.30438671875,-40.04698828125,1.3941796875,43.9956484375,-28.1823203125,-27.15791796875,-20.703921875,-5.87915625,74.27955859375,-29.92716796875,19.40308203125,7.63559375,96.47516015625,-69.28526953125,-18.0215234375,7.20187890625,-19.1630078125,-26.9936015625,-27.138046875,-27.7878984375,3.0503515625,-10.41653515625,-62.94153125,-44.90602734375,-45.23759765625,-1.56515624999999
53.36146484375,3.17319140625,32.79223828125,67.27148046875,-10.93838671875,-40.23798828125,1.8181796875,44.5256484375,-27.6893203125,-26.93491796875,-20.416921875,-6.00215625,76.44255859375,-30.13116796875,20.79608203125,8.57859375,97.14816015625,-69.56426953125,-16.8565234375,7.72587890625,-19.4400078125,-27.3496015625,-27.443046875,-26.4678984375,3.7963515625,-10.27353515625,-61.83653125,-45.14602734375,-43.97159765625,-0.720156249999995
53.58646484375,2.94619140625,32.46823828125,68.46348046875,-11.47838671875,-41.20798828125,0.640179687499998,43.6886484375,-27.5923203125,-27.71991796875,-21.405921875,-7.36715625,78.83855859375,-30.90216796875,20.55608203125,7.78659375,96.62416015625,-70.11326953125,-16.9355234375,6.17787890625,-21.4160078125,-27.9346015625,-28.563046875,-27.1188984375,2.4013515625,-11.50853515625,-62.43453125,-46.27702734375,-43.91559765625,-1.42815624999999
52.62146484375,1.63519140625,30.28823828125,69.49848046875,-13.31238671875,-43.21198828125,-2.6508203125,41.1576484375,-28.2103203125,-29.84091796875,-23.847921875,-10.17915625,81.13055859375,-32.54516796875,18.25008203125,5.06859375,94.79216015625,-71.13526953125,-18.5865234375,2.34187890625,-25.1630078125,-28.8396015625,-30.745046875,-30.0648984375,-1.2696484375,-14.12853515625,-65.05053125,-48.31602734375,-45.41359765625,-3.76715624999999
50.46446484375,-0.67780859375,26.26223828125,70.18348046875,-16.44338671875,-46.24998828125,-8.0258203125,36.9556484375,-29.6063203125,-33.26191796875,-27.616921875,-14.37615625,83.15055859375,-35.13116796875,13.95708203125,0.57059375,91.73716015625,-72.69126953125,-21.7665234375,-3.58512109375,-30.5050078125,-30.0836015625,-34.004046875,-35.1638984375,-7.0156484375,-17.99153515625,-69.58653125,-51.14902734375,-48.44759765625,-7.58115624999999
47.56346484375,-3.59980859375,21.07523828125,70.61148046875,-20.35438671875,-49.91798828125,-14.6928203125,31.7046484375,-31.4833203125,-37.46991796875,-32.169921875,-19.43915625,84.96855859375,-38.33016796875,8.44808203125,-5.01640625,87.92516015625,-74.59126953125,-25.8875234375,-10.78512109375,-36.8310078125,-31.5356015625,-37.948046875,-41.5888984375,-14.0426484375,-22.61553515625,-75.31753125,-54.44102734375,-52.44459765625,-12.29415625
47.56346484375,-3.59980859375,21.07523828125,70.61148046875,-20.35438671875,-49.91798828125,-14.6928203125,31.7046484375,-31.4833203125,-37.46991796875,-32.169921875,-19.43915625,84.96855859375,-38.33016796875,8.44808203125,-5.01640625,87.92516015625,-74.59126953125,-25.8875234375,-10.78512109375,-36.8310078125,-31.5356015625,-37.948046875,-41.5888984375,-14.0426484375,-22.61553515625,-75.31753125,-54.44102734375,-52.44459765625,-12.29415625
