"Fp1","Fpz","Fp2","F7","F3","Fz","F4","F8","FC5","FC1","FC2","FC6","T7","C3","Cz","C4","T8","CP5","CP1","CP2","CP6","P7","P3","Pz","P4","P8","POz","O1","Oz","O2"
-3.35646875,-5.35259375,-1.78982421875,-6.1909296875,-4.80972265625,-6.24091796875,-9.630328125,-3.99746875,-2.874984375,-3.0367734375,-4.8128828125,-7.730453125,-2.705265625,-1.489796875,-11.64501953125,-7.37497265625,-3.23148046875,-2.25421875,-10.17115625,-9.78697265625,-4.88946484375,-0.3492890625,-6.33374609375,-9.0645234375,-1.8645390625,-13.8176328125,-7.26353515625,1.971640625,1.5114609375,-1.0576171875
-1.82646875,-3.65159375,-0.82582421875,-1.5829296875,-1.84172265625,-3.43791796875,-6.338328125,-3.08346875,-1.915984375,0.179226562499999,-1.7768828125,-3.941453125,-3.120265625,0.354203125000001,-8.66201953125,-4.18397265625,0.24351953125,-2.14521875,-7.65215625,-6.52897265625,-1.47446484375,-3.2812890625,-5.31574609375,-6.1655234375,1.2414609375,-11.1476328125,-4.46353515625,0.746640625,2.0134609375,1.0483828125
-0.80446875,-2.63959375,0.16617578125,1.0000703125,0.351277343750001,-1.45691796875,-3.690328125,-2.28346875,-1.558984375,2.4202265625,0.3661171875,-1.501453125,-3.004265625,1.265203125,-6.44301953125,-2.06397265625,2.55351953125,-2.31221875,-5.94315625,-4.51997265625,0.47053515625,-5.4372890625,-4.76774609375,-4.2835234375,3.1064609375,-10.0166328125,-2.78853515625,-0.171359375,1.5954609375,1.8313828125
-0.15546875,-2.26059375,1.17617578125,1.8710703125,1.81227734375,-0.23291796875,-1.773328125,-1.50046875,-1.481984375,3.6742265625,1.6411171875,-0.373453125,-2.071265625,1.473203125,-4.90901953125,-0.971972656249999,3.75851953125,-2.38821875,-4.90415625,-3.71897265625,1.04953515625,-6.3482890625,-4.42274609375,-3.3475234375,3.7454609375,-10.2176328125,-2.12453515625,-0.359359375,0.6944609375,1.5223828125
0.36453125,-2.27859375,2.10817578125,1.9580703125,2.73727734375,0.50708203125,-0.590328125,-0.69746875,-1.171984375,4.1752265625,2.3161171875,-0.175453125,-0.364265625,1.472203125,-3.81801953125,-0.57997265625,4.17951953125,-1.96221875,-4.19115625,-3.74397265625,0.79253515625,-5.8252890625,-3.90774609375,-3.0495234375,3.5034609375,-11.1116328125,-2.10953515625,0.431640625,-0.0365390625000002,0.6503828125
0.87853125,-2.45459375,2.76417578125,2.1810703125,3.29327734375,1.02608203125,-0.140328125,-0.00746875000000036,-0.251984375,4.2362265625,2.7321171875,-0.477453125,1.436734375,1.703203125,-2.95401953125,-0.48697265625,4.16551953125,-0.88321875,-3.50815625,-4.11797265625,0.31053515625,-4.1622890625,-3.03274609375,-3.0925234375,2.8284609375,-12.0676328125,-2.43553515625,1.975640625,-0.2575390625,-0.4026171875
1.29953125,-2.61859375,2.93617578125,3.0010703125,3.59927734375,1.50808203125,-0.361328125,0.34453125,1.375015625,4.1992265625,3.2151171875,-0.958453125,2.155734375,2.401203125,-2.16301953125,-0.32597265625,4.07051953125,0.66678125,-2.69315625,-4.39397265625,0.0845351562499999,-2.0592890625,-1.87174609375,-3.2635234375,2.1474609375,-12.6936328125,-2.96253515625,3.577640625,-0.1585390625,-1.5646171875
1.50253125,-2.64059375,2.58517578125,4.4030703125,3.84427734375,2.13208203125,-0.958328125,0.25953125,3.622015625,4.4742265625,4.0711171875,-1.375453125,0.738734374999999,3.667203125,-1.24601953125,0.24602734375,4.34951953125,2.34378125,-1.63715625,-4.14797265625,0.46053515625,-0.3042890625,-0.63474609375,-3.3515234375,1.8954609375,-12.7566328125,-3.58453515625,4.416640625,-0.2295390625,-2.8516171875
1.53253125,-2.38059375,1.97117578125,6.1720703125,4.35327734375,3.14008203125,-1.371328125,-0.0664687500000003,6.363015625,5.5132265625,5.5741171875,-1.475453125,-2.978265625,5.556203125,0.09398046875,1.53502734375,5.49451953125,3.85078125,-0.21015625,-2.98197265625,1.69653515625,0.5647109375,0.51325390625,-3.0685234375,2.5244609375,-12.0396328125,-4.08053515625,3.991640625,-0.8225390625,-4.0496171875
1.62953125,-1.72059375,1.59417578125,8.1190703125,5.46327734375,4.73408203125,-1.007328125,-0.22746875,9.420015625,7.6192265625,7.8401171875,-1.012453125,-7.828265625,8.024203125,2.12098046875,3.69702734375,7.72251953125,4.99078125,1.66284375,-0.66597265625,3.88953515625,0.3987109375,1.49425390625,-2.1355234375,4.3694609375,-10.3866328125,-4.15653515625,2.321640625,-1.9235390625,-4.6996171875
2.01253125,-0.66559375,1.94217578125,10.0890703125,7.24427734375,6.85808203125,0.379671875,0.12953125,12.393015625,10.6692265625,10.6651171875,0.109546875,-11.668265625,10.761203125,4.81498046875,6.55102734375,10.61351953125,5.58678125,3.82484375,2.64102734375,6.80053515625,-0.6792890625,2.20625390625,-0.5145234375,7.3814609375,-7.9426328125,-3.68753515625,-0.211359375,-3.2905390625,-4.4466171875
2.67253125,0.57040625,3.20717578125,11.8300703125,9.30527734375,9.05808203125,2.490671875,1.07153125,14.563015625,13.9652265625,13.4741171875,1.680546875,-12.503265625,13.133203125,7.70998046875,9.52002734375,13.06651953125,5.40578125,5.79784375,6.28302734375,9.77053515625,-2.4852890625,2.40525390625,1.4304765625,10.9804609375,-5.3176328125,-2.91653515625,-3.192359375,-4.7675390625,-3.4356171875
3.31053125,1.58840625,5.16117578125,12.9270703125,10.87427734375,10.58308203125,4.611671875,2.35253125,15.078015625,16.4322265625,15.4861171875,3.172546875,-9.704265625,14.357203125,10.00198046875,11.80202734375,13.76851953125,4.24178125,6.91884375,9.27002734375,11.89353515625,-4.8762890625,1.76925390625,3.0204765625,14.2154609375,-3.4086328125,-2.39253515625,-6.351359375,-6.4035390625,-2.3326171875
3.47553125,1.97340625,7.24917578125,12.9110703125,11.16427734375,10.70108203125,5.969671875,3.56453125,13.386015625,17.0932265625,16.0551171875,3.933546875,-4.439265625,13.883203125,10.90798046875,12.72902734375,11.97051953125,2.10278125,6.67884375,10.68502734375,12.41853515625,-7.6702890625,0.13525390625,3.5964765625,16.1854609375,-2.9406328125,-2.62553515625,-9.466359375,-8.2865390625,-1.9026171875
2.80353125,1.52140625,8.85517578125,11.5190703125,9.82427734375,9.09508203125,6.086671875,4.35353125,9.644015625,15.5942265625,14.9951171875,3.496546875,1.053734375,11.719203125,10.08798046875,12.09502734375,8.06651953125,-0.65521875,5.03284375,10.11702734375,11.15053515625,-10.4782890625,-2.26774609375,2.8914765625,16.4624609375,-4.0556328125,-3.72753515625,-12.162359375,-10.2655390625,-2.4706171875
1.27753125,0.37740625,9.57117578125,8.9530703125,7.18027734375,6.09608203125,4.987671875,4.60153125,4.819015625,12.4322265625,12.7081171875,1.839546875,4.810734375,8.504203125,7.86498046875,10.27002734375,3.54451953125,-3.35921875,2.51684375,7.88302734375,8.58353515625,-12.6252890625,-4.78274609375,1.2054765625,15.2714609375,-6.2166328125,-5.27853515625,-13.835359375,-11.8445390625,-3.6846171875
-0.64246875,-1.00159375,9.35817578125,5.9290703125,4.14027734375,2.62808203125,3.180671875,4.49253125,0.378015625,8.7792265625,10.0421171875,-0.542453125,6.158734375,5.288203125,5.11698046875,8.04502734375,0.27051953125,-5.19821875,0.08284375,4.91102734375,5.71453515625,-13.2542890625,-6.51774609375,-0.7095234375,13.3564609375,-8.4556328125,-6.50453515625,-13.785359375,-12.3165390625,-4.6876171875
-2.18046875,-2.05959375,8.50117578125,3.4250703125,1.78827734375,-0.15491796875,1.409671875,4.40453125,-2.282984375,5.9692265625,7.9501171875,-2.804453125,5.823734375,3.131203125,2.90398046875,6.29102734375,-0.44548046875,-5.47121875,-1.27515625,2.35602734375,3.62953515625,-11.6142890625,-6.70174609375,-1.9835234375,11.6404609375,-9.7866328125,-6.64153515625,-11.488359375,-11.0695390625,-4.5716171875
-2.65146875,-2.39559375,7.40717578125,2.1920703125,0.88127734375,-1.40191796875,0.260671875,4.65653125,-2.414984375,4.9112265625,7.0641171875,-4.117453125,5.194734375,2.679203125,1.98098046875,5.58202734375,1.54051953125,-3.87021875,-0.97315625,1.09202734375,3.05653515625,-7.4662890625,-5.04374609375,-2.0365234375,10.8384609375,-9.5866328125,-5.32253515625,-6.902359375,-7.9085390625,-2.8146171875
-1.86646875,-1.96159375,6.36517578125,2.3250703125,1.49027734375,-0.98991796875,-0.130328125,5.26653125,-0.225984375,5.6822265625,7.3841171875,-4.083453125,5.275734375,3.869203125,2.42198046875,5.93302734375,5.21751953125,-0.71921875,0.82684375,1.31502734375,4.05553515625,-1.4362890625,-1.96374609375,-0.8865234375,11.1554609375,-7.8396328125,-2.82153515625,-0.684359375,-3.2765390625,0.4513828125
-0.23946875,-1.09959375,5.44317578125,3.1940703125,2.93827734375,0.39208203125,-0.120328125,5.89753125,3.196015625,7.4862265625,8.2361171875,-2.944453125,5.985734375,5.893203125,3.54198046875,6.79002734375,8.97151953125,2.96578125,3.19284375,2.44302734375,5.99053515625,4.9187109375,1.42625390625,0.7824765625,12.2034609375,-5.1326328125,-0.0415351562500001,5.803640625,1.7514609375,4.4563828125
1.39553125,-0.40359375,4.54617578125,3.7760703125,4.10527734375,1.56108203125,-0.327328125,6.02953125,6.312015625,9.0062265625,8.5541171875,-1.456453125,6.201734375,7.475203125,4.18298046875,7.28402734375,11.29951953125,5.72178125,4.76184375,3.38602734375,7.80353515625,9.5227109375,3.67825390625,1.8894765625,13.1694609375,-2.4096328125,1.79746484375,10.816640625,5.7644609375,8.0413828125
2.14453125,-0.44859375,3.57917578125,3.2200703125,3.94127734375,1.41508203125,-1.301328125,5.25153125,7.723015625,9.0092265625,7.4021171875,-0.470453125,4.547734375,7.394203125,3.27598046875,6.65802734375,11.38051953125,6.20778125,4.34184375,3.07802734375,8.49853515625,10.5907109375,3.60125390625,1.4534765625,13.1954609375,-0.5856328125,1.67846484375,12.845640625,7.5274609375,10.0933828125
1.43753125,-1.49759375,2.58417578125,1.2950703125,1.96927734375,-0.51691796875,-3.215328125,3.51753125,6.679015625,6.9212265625,4.4491171875,-0.504453125,0.473734375,5.015203125,0.38598046875,4.63002734375,9.28851953125,3.83278125,1.48384375,1.00502734375,7.56853515625,7.5027109375,0.82425390625,-0.9225234375,11.7654609375,-0.2286328125,-0.74053515625,11.270640625,6.5044609375,9.9613828125
-0.68246875,-3.37559375,1.75917578125,-1.5069296875,-1.49072265625,-3.83291796875,-5.725328125,1.24953125,3.314015625,3.0812265625,0.1741171875,-1.537453125,-5.077265625,0.593203125,-4.04201953125,1.51402734375,5.83051953125,-0.90521875,-3.26615625,-2.55597265625,5.17753515625,1.1987109375,-3.99174609375,-4.8275234375,8.9194609375,-1.4246328125,-4.95053515625,6.688640625,3.1054609375,7.6953828125
-3.52046875,-5.54159375,1.34317578125,-4.2599296875,-5.46772265625,-7.45691796875,-8.108328125,-0.81446875,-1.463984375,-1.4207734375,-4.3268828125,-3.101453125,-9.950265625,-4.813796875,-8.86601953125,-1.94397265625,2.12951953125,-6.58221875,-8.56315625,-6.68097265625,2.01353515625,-6.2022890625,-9.40674609375,-9.2155234375,5.2084609375,-3.8266328125,-9.80953515625,0.669640625,-1.5115390625,3.9833828125
-6.03146875,-7.34059375,1.42217578125,-6.0629296875,-8.76172265625,-10.16091796875,-9.621328125,-1.96846875,-6.310984375,-5.2297734375,-7.8158828125,-4.545453125,-11.964265625,-9.739796875,-12.74001953125,-4.89597265625,-0.842480468750001,-11.43221875,-12.80715625,-10.21697265625,-1.05146484375,-12.3432890625,-13.79474609375,-12.8435234375,1.4574609375,-6.7966328125,-14.00753515625,-4.908359375,-5.9435390625,-0.1526171875
-7.27546875,-8.26959375,1.80017578125,-6.3999296875,-10.40672265625,-11.10091796875,-9.866328125,-1.85946875,-9.858984375,-7.2677734375,-9.4068828125,-5.294453125,-10.249265625,-12.825796875,-14.64101953125,-6.69697265625,-2.55348046875,-14.02921875,-14.75615625,-12.23197265625,-3.27646484375,-15.5952890625,-15.94574609375,-14.7385234375,-1.5195390625,-9.5746328125,-16.53453515625,-8.562359375,-9.0875390625,-3.7286171875
-6.76746875,-8.13059375,2.07217578125,-5.2529296875,-9.97872265625,-10.08091796875,-8.904328125,-0.57846875,-11.093984375,-7.0847734375,-8.8408828125,-5.013453125,-5.790265625,-13.257796875,-14.20801953125,-7.05797265625,-2.92548046875,-13.76121875,-13.93815625,-12.30197265625,-4.23046484375,-15.5402890625,-15.42574609375,-14.4935234375,-3.1375390625,-11.4496328125,-16.93653515625,-9.622359375,-10.4485390625,-6.0706171875
-4.57946875,-7.04659375,1.88417578125,-3.0139296875,-7.67672265625,-7.50091796875,-7.102328125,1.49753125,-9.657984375,-4.9327734375,-6.4728828125,-3.671453125,-0.759265625,-11.009796875,-11.78301953125,-6.05897265625,-2.18148046875,-10.97221875,-10.74915625,-10.57397265625,-3.82046484375,-12.9032890625,-12.63274609375,-12.3325234375,-3.1525390625,-11.9316328125,-15.35653515625,-8.332359375,-10.1835390625,-6.9426171875
-1.26446875,-5.36559375,1.17717578125,-0.3379296875,-4.19972265625,-4.12091796875,-4.913328125,3.90053125,-6.004984375,-1.5897734375,-3.0528828125,-1.549453125,2.843734375,-6.856796875,-8.23001953125,-4.06797265625,-0.68748046875,-6.77921875,-6.26615625,-7.65797265625,-2.27646484375,-9.1232890625,-8.59774609375,-8.9795234375,-1.7095390625,-10.9176328125,-12.41153515625,-5.690359375,-8.9415390625,-6.5336171875
2.32053125,-3.52459375,0.25517578125,2.0210703125,-0.48672265625,-0.77091796875,-2.717328125,6.17453125,-1.294984375,1.9642265625,0.5641171875,0.833546875,4.269734375,-2.108796875,-4.58301953125,-1.62597265625,1.13751953125,-2.61921875,-1.84015625,-4.38597265625,-0.0874648437499999,-5.7452890625,-4.59774609375,-5.3865234375,0.7024609375,-8.7686328125,-8.96853515625,-3.033359375,-7.5515390625,-5.3206171875
5.29853125,-1.91359375,-0.36282421875,3.4280703125,2.60827734375,1.89808203125,-0.736328125,7.93253125,3.010015625,4.8972265625,3.6991171875,2.897546875,4.165734375,1.861203125,-1.67801953125,0.72402734375,2.89651953125,0.31878125,1.41184375,-1.51897265625,2.15253515625,-3.8412890625,-1.67374609375,-2.3775234375,3.4184609375,-6.1916328125,-5.83953515625,-1.450359375,-6.6175390625,-3.8396171875
7.09453125,-0.77359375,-0.21582421875,3.6120703125,4.59227734375,3.58008203125,0.984671875,8.94253125,5.695015625,6.7712265625,6.0081171875,4.239546875,3.863734375,4.135203125,0.10898046875,2.60702734375,4.32351953125,1.54478125,2.99784375,0.51502734375,3.96753515625,-3.6632890625,-0.26174609375,-0.3655234375,5.8404609375,-3.9466328125,-3.52253515625,-1.312359375,-6.2535390625,-2.4566171875
7.60553125,-0.15959375,0.84017578125,2.7920703125,5.43527734375,4.34008203125,2.507671875,9.19253125,6.222015625,7.5902265625,7.4871171875,4.767546875,4.384734375,4.545203125,0.89698046875,3.91902734375,5.38051953125,1.34878125,3.14484375,1.72002734375,5.17153515625,-4.7212890625,-0.11874609375,0.7314765625,7.6334609375,-2.5356328125,-2.10353515625,-2.209359375,-6.1125390625,-1.2886171875
7.11753125,0.02840625,2.49817578125,1.5890703125,5.47827734375,4.48408203125,3.827671875,8.86253125,4.860015625,7.6652265625,8.3231171875,4.665546875,5.782734375,3.629203125,1.11198046875,4.78402734375,6.24551953125,0.52378125,2.55784375,2.41102734375,5.86753515625,-6.1932890625,-0.56474609375,1.3224765625,8.7624609375,-2.0526328125,-1.36853515625,-3.342359375,-5.7275390625,-0.2946171875
6.09853125,-0.0395937500000001,4.08217578125,0.7510703125,5.21927734375,4.38308203125,4.758671875,8.21053125,2.460015625,7.4052265625,8.7141171875,4.208546875,7.186734375,2.293203125,1.21098046875,5.41402734375,7.13651953125,-0.10021875,2.01584375,2.98602734375,6.28353515625,-7.3762890625,-0.88174609375,1.8614765625,9.3824609375,-2.2806328125,-0.99953515625,-4.013359375,-4.8605390625,0.5593828125
5.02453125,-0.20959375,4.86817578125,0.8430703125,5.11727734375,4.34708203125,5.012671875,7.46953125,0.0630156250000002,7.1622265625,8.7871171875,3.598546875,7.461734375,1.401203125,1.47698046875,5.97602734375,8.08551953125,-0.00121874999999994,2.03884375,3.70802734375,6.60453515625,-7.9052890625,-0.61174609375,2.6254765625,9.6924609375,-2.9066328125,-0.71653515625,-3.895359375,-3.6005390625,1.2293828125
4.28053125,-0.36359375,4.46517578125,2.0730703125,5.48727734375,4.59408203125,4.423671875,6.80553125,-1.464984375,7.1922265625,8.6331171875,2.920546875,6.082734375,1.488203125,1.99498046875,6.56102734375,8.87151953125,0.96178125,2.79284375,4.65602734375,6.91553515625,-7.6762890625,0.36725390625,3.6924765625,9.8714609375,-3.6766328125,-0.26453515625,-2.961359375,-2.1595390625,1.6893828125
4.09053125,-0.39559375,3.04417578125,4.3060703125,6.50827734375,5.25208203125,3.130671875,6.33353125,-1.628984375,7.7032265625,8.3991171875,2.206546875,3.684734375,2.680203125,2.74998046875,7.22102734375,9.16651953125,2.67578125,4.18784375,5.77902734375,7.26353515625,-6.6622890625,1.96725390625,5.0474765625,10.0874609375,-4.4016328125,0.64446484375,-1.245359375,-0.5625390625,2.0903828125
4.48453125,-0.20259375,1.22717578125,7.1670703125,8.20727734375,6.33408203125,1.557671875,6.11753125,-0.351984375,8.8222265625,8.2731171875,1.490546875,1.865734375,4.731203125,3.69998046875,7.96202734375,8.78251953125,4.90178125,5.99784375,6.96502734375,7.70853515625,-4.8532890625,3.99825390625,6.6344765625,10.4834609375,-4.9156328125,2.29046484375,1.239640625,1.4274609375,2.7783828125
5.33853125,0.24740625,-0.27582421875,10.1330703125,10.39327734375,7.67108203125,0.195671875,6.16353125,2.058015625,10.4812265625,8.3621171875,0.792546875,2.273734375,7.116203125,4.72798046875,8.66602734375,7.82251953125,7.29778125,7.89384375,8.01302734375,8.26353515625,-2.3832890625,6.17925390625,8.2874765625,11.0814609375,-5.0886328125,4.73846484375,4.346640625,4.0744609375,4.0643828125
6.43553125,0.83240625,-1.06282421875,12.5980703125,12.62127734375,8.89708203125,-0.659328125,6.37853125,5.020015625,12.3262265625,8.5641171875,0.0855468749999999,5.507734375,9.166203125,5.56498046875,9.03802734375,6.64651953125,9.40178125,9.43384375,8.60802734375,8.81053515625,0.3197109375,8.09025390625,9.6274765625,11.6684609375,-4.9156328125,7.62246484375,7.576640625,7.2684609375,5.9023828125
7.48253125,1.27840625,-1.21382421875,13.9720703125,14.25827734375,9.52308203125,-1.074328125,6.55453125,7.822015625,13.7582265625,8.5421171875,-0.692453125,10.600734375,10.247203125,5.79598046875,8.66502734375,5.69151953125,10.69578125,10.11284375,8.34302734375,9.06953515625,2.5467109375,9.19025390625,10.0844765625,11.7764609375,-4.5876328125,10.10146484375,10.024640625,10.3084609375,7.7083828125
8.10853125,1.25240625,-1.19782421875,13.8190703125,14.66527734375,9.08508203125,-1.452328125,6.38053125,9.757015625,14.1242265625,7.8541171875,-1.598453125,15.465734375,9.922203125,4.97298046875,7.19202734375,5.20651953125,10.73078125,9.46484375,6.83802734375,8.67753515625,3.5027109375,8.93725390625,9.0524765625,10.8004609375,-4.4796328125,11.07946484375,10.625640625,12.0334609375,8.4913828125
7.96353125,0.52040625,-1.56882421875,12.0330703125,13.41327734375,7.31908203125,-2.290328125,5.56153125,10.226015625,12.9352265625,6.1541171875,-2.654453125,17.982734375,8.054203125,2.79998046875,4.49502734375,5.04951953125,9.27078125,7.21284375,3.88202734375,7.34253515625,2.6107109375,6.96025390625,6.1354765625,8.2234609375,-5.0216328125,9.61246484375,8.597640625,11.3004609375,7.2573828125
6.86553125,-0.94159375,-2.65482421875,8.9320703125,10.45127734375,4.30008203125,-3.873328125,4.00053125,8.853015625,10.0642265625,3.3931171875,-3.844453125,16.976734375,4.827203125,-0.70301953125,0.79202734375,4.71651953125,6.39278125,3.40784375,-0.42897265625,5.00953515625,-0.1942890625,3.24525390625,1.3694765625,3.8934609375,-6.4946328125,5.36246484375,3.900640625,7.5804609375,3.5183828125
4.89353125,-2.92559375,-4.40382421875,5.1880703125,6.17027734375,0.46208203125,-6.104328125,1.90053125,5.645015625,5.8432265625,-0.0918828124999997,-5.139453125,12.498734375,0.708203125,-5.12801953125,-3.37797265625,3.61951953125,2.50378125,-1.51315625,-5.62197265625,1.94953515625,-4.3622890625,-1.77774609375,-4.6645234375,-1.7925390625,-8.8806328125,-1.14953515625,-2.601359375,1.3184609375,-2.3976171875
2.35453125,-5.06659375,-6.44982421875,1.5800703125,1.32427734375,-3.50291796875,-8.561328125,-0.28146875,1.115015625,1.0302265625,-3.6598828125,-6.509453125,5.491734375,-3.645796875,-9.74101953125,-7.28297265625,1.45351953125,-1.74621875,-6.77815625,-10.89597265625,-1.26646484375,-8.9232890625,-7.28474609375,-10.9275234375,-7.9015390625,-11.8286328125,-8.62253515625,-9.431359375,-6.1615390625,-9.3716171875
-0.27146875,-6.95759375,-8.29782421875,-1.2349296875,-3.14172265625,-6.81791796875,-10.683328125,-2.01746875,-3.750984375,-3.3707734375,-6.5688828125,-7.891453125,-2.676265625,-7.499796875,-13.67001953125,-10.19897265625,-1.55848046875,-5.61721875,-11.43515625,-15.29497265625,-3.91346484375,-12.8562890625,-12.26574609375,-16.1775234375,-13.1855390625,-14.7386328125,-15.36053515625,-15.061359375,-13.1285390625,-15.8406171875
-2.36146875,-8.23959375,-9.49982421875,-2.8429296875,-6.32572265625,-8.81891796875,-11.950328125,-2.87346875,-7.748984375,-6.3837734375,-8.1968828125,-9.108453125,-10.404265625,-10.165796875,-16.12301953125,-11.57997265625,-4.68248046875,-8.42521875,-14.55415625,-17.93697265625,-5.29746484375,-15.3832890625,-15.75974609375,-19.3055234375,-16.4305390625,-16.8836328125,-19.77553515625,-18.405359375,-18.0055390625,-20.2446171875
-3.27246875,-8.65659375,-9.75782421875,-3.0659296875,-7.61072265625,-9.12591796875,-12.041328125,-2.63046875,-9.877984375,-7.3467734375,-8.2008828125,-9.825453125,-15.853265625,-11.128796875,-16.59601953125,-11.16597265625,-6.91348046875,-9.65121875,-15.44815625,-18.23597265625,-4.93646484375,-16.0542890625,-17.07174609375,-19.6345234375,-16.7885390625,-17.5576328125,-20.82653515625,-18.999359375,-19.7815390625,-21.4506171875
-2.62346875,-8.09359375,-8.98682421875,-1.9819296875,-6.84772265625,-7.77691796875,-10.962328125,-1.34346875,-9.748984375,-6.1367734375,-6.5988828125,-9.643453125,-17.233265625,-10.191796875,-15.00701953125,-9.02797265625,-7.35948046875,-9.04921875,-13.88215625,-16.07897265625,-2.70246484375,-14.7242890625,-15.94274609375,-17.1075234375,-14.0425390625,-16.2726328125,-18.28553515625,-16.955359375,-18.2265390625,-19.0386171875
-0.56746875,-6.62759375,-7.35382421875,0.0260703124999995,-4.43472265625,-5.25391796875,-9.055328125,0.63453125,-7.734984375,-3.2357734375,-3.7848828125,-8.349453125,-13.620265625,-7.591796875,-11.75001953125,-5.58797265625,-5.64348046875,-6.76121875,-10.20615625,-11.89497265625,1.07953515625,-11.5952890625,-12.65974609375,-12.3295234375,-8.7185390625,-13.0026328125,-12.80853515625,-12.857359375,-13.9105390625,-13.4466171875
2.19453125,-4.58059375,-5.25082421875,2.2850703125,-1.21972265625,-2.34591796875,-6.846328125,2.74053125,-4.771984375,0.420226562499999,-0.4458828125,-6.121453125,-5.848265625,-3.985796875,-7.61801953125,-1.54697265625,-2.18248046875,-3.35321875,-5.31215625,-6.58597265625,5.65053515625,-7.2872890625,-8.01874609375,-6.4225234375,-1.9975390625,-8.3296328125,-5.73353515625,-7.639359375,-8.0275390625,-5.8806171875
4.70653125,-2.46659375,-3.18282421875,4.0070703125,1.79027734375,0.12508203125,-4.800328125,4.37753125,-1.888984375,3.7692265625,2.6331171875,-3.530453125,3.407734375,-0.255796875,-3.57001953125,2.28402734375,1.85951953125,0.33078125,-0.36815625,-1.28397265625,9.98853515625,-2.7532890625,-3.08174609375,-0.6855234375,4.5964609375,-3.3616328125,1.32546484375,-2.371359375,-2.0325390625,1.9783828125
6.16353125,-0.81459375,-1.60382421875,4.5610703125,3.78627734375,1.58608203125,-3.173328125,5.12553125,0.239015625,6.0212265625,4.8111171875,-1.298453125,10.760734375,2.792203125,-0.43701953125,5.21502734375,4.99451953125,3.47478125,3.56884375,2.96802734375,13.09353515625,1.0547109375,1.19925390625,3.8064765625,9.6304609375,0.5913671875,6.99246484375,2.049640625,2.7974609375,8.4263828125
6.20753125,0.0234062500000001,-0.76482421875,3.7290703125,4.42827734375,1.87808203125,-2.008328125,4.86553125,1.469015625,6.9132265625,5.7651171875,-0.00645312500000017,13.822734375,4.688203125,1.31998046875,6.85402734375,6.04351953125,5.59578125,5.89584375,5.49302734375,14.27753515625,3.5607109375,4.30525390625,6.5084765625,12.1564609375,2.4703671875,10.49646484375,5.153640625,5.7134609375,12.1983828125
5.00653125,-0.02859375,-0.65382421875,1.8100703125,3.88427734375,1.23208203125,-1.246328125,3.78253125,2.040015625,6.7042265625,5.5381171875,0.0795468749999999,12.310734375,5.384203125,1.68898046875,7.14602734375,4.65351953125,6.67278125,6.59484375,6.11602734375,13.37053515625,4.7367109375,6.23525390625,7.4734765625,11.9404609375,1.8403671875,11.79246484375,6.948640625,6.6444609375,12.8053828125
3.09053125,-0.81259375,-1.05782421875,-0.495929687500001,2.65127734375,0.08908203125,-0.832328125,2.25953125,2.231015625,5.9272265625,4.4351171875,-1.007453125,7.901734375,5.174203125,1.01998046875,6.29502734375,1.39251953125,7.05078125,6.13784375,5.13602734375,10.76253515625,4.9547109375,7.35925390625,7.2064765625,9.4714609375,-0.964632812500001,11.42446484375,7.772640625,6.1064609375,10.6513828125
1.05153125,-2.05059375,-1.72882421875,-2.3999296875,1.28327734375,-1.13291796875,-0.802328125,0.68353125,2.107015625,5.0982265625,2.8751171875,-3.045453125,3.124734375,4.525203125,-0.14601953125,4.65602734375,-2.57548046875,7.22278125,5.24584375,3.19702734375,7.28053515625,4.6957109375,8.17225390625,6.4204765625,5.7754609375,-4.9866328125,10.24846484375,8.076640625,4.9484609375,6.8723828125
-0.70446875,-3.41559375,-2.53182421875,-3.3529296875,0.19927734375,-2.15991796875,-1.255328125,-0.69546875,1.522015625,4.5412265625,1.2761171875,-5.701453125,0.190734374999999,3.920203125,-1.23901953125,2.66002734375,-6.01048046875,7.62078125,4.61384375,1.10902734375,3.95353515625,4.3437109375,9.09825390625,5.8034765625,2.1114609375,-8.9856328125,9.14946484375,8.285640625,4.0424609375,2.9723828125
-1.95646875,-4.54859375,-3.43982421875,-3.1939296875,-0.33872265625,-2.80491796875,-2.175328125,-1.75646875,0.396015625,4.4222265625,0.0381171875000001,-8.513453125,0.320734375,3.787203125,-1.74501953125,0.81802734375,-8.00048046875,8.51678125,4.74584375,-0.30797265625,1.74953515625,4.1667109375,10.42625390625,5.8974765625,-0.3625390625,-11.8016328125,8.83846484375,8.765640625,4.0294609375,0.3743828125
-2.50346875,-5.08159375,-4.39282421875,-2.0689296875,-0.14272265625,-2.82691796875,-3.236328125,-2.34346875,-0.990984375,4.8792265625,-0.4328828125,-10.852453125,3.617734375,4.472203125,-1.26001953125,-0.29597265625,-8.12348046875,10.03678125,5.89784375,-0.38197265625,1.34553515625,4.4057109375,12.31625390625,7.0464765625,-0.8645390625,-12.6266328125,9.73646484375,9.810640625,5.2104609375,0.0383828125000001
-2.10946875,-4.73159375,-5.18182421875,-0.247929687500001,0.92327734375,-1.91391796875,-3.832328125,-2.15746875,-1.964984375,6.0812265625,0.2111171875,-12.001453125,9.186734375,6.171203125,0.42298046875,-0.15497265625,-6.43848046875,12.16578125,8.05484375,1.23402734375,2.95853515625,5.2847109375,14.78425390625,9.3404765625,0.813460937499999,-11.1426328125,11.90446484375,11.575640625,7.5084609375,2.2213828125
-0.68546875,-3.46159375,-5.50082421875,1.9370703125,2.84227734375,0.10608203125,-3.398328125,-0.90246875,-1.807984375,8.0882265625,2.0631171875,-11.413453125,15.366734375,8.777203125,3.16898046875,1.47402734375,-3.44648046875,14.69378125,10.88684375,4.37302734375,6.23153515625,6.8917109375,17.60125390625,12.5204765625,4.2184609375,-7.6076328125,14.97646484375,13.941640625,10.4774609375,6.4093828125
1.46753125,-1.59759375,-5.15782421875,4.0380703125,5.27327734375,2.97208203125,-1.821328125,1.41153125,-0.256984375,10.6222265625,4.7421171875,-9.068453125,20.065734375,11.730203125,6.38298046875,4.25902734375,-0.0684804687500007,17.11578125,13.70984375,8.24302734375,10.22753515625,8.9837109375,20.17725390625,15.8804765625,8.2854609375,-2.8716328125,18.13146484375,16.404640625,13.3264609375,11.4183828125
3.61853125,0.21540625,-4.26182421875,5.4470703125,7.49527734375,5.87908203125,0.392671875,4.23553125,2.192015625,12.9552265625,7.3511171875,-5.670453125,21.315734375,14.043203125,9.05298046875,7.25202734375,2.50951953125,18.62478125,15.55784375,11.55402734375,13.61953515625,10.8867109375,21.59125390625,18.3274765625,11.5954609375,1.7413671875,20.20546484375,18.106640625,15.0404609375,15.6783828125
4.87653125,1.26940625,-3.23282421875,5.5430703125,8.64427734375,7.75708203125,2.330671875,6.58253125,4.465015625,14.1292265625,8.7931171875,-2.466453125,18.013734375,14.632203125,10.09898046875,9.19402734375,3.24251953125,18.34178125,15.48584375,12.95902734375,15.12253515625,11.6487109375,20.88125390625,18.7224765625,12.8564609375,4.8143671875,20.02446484375,18.095640625,14.6744609375,17.7143828125
4.64053125,1.17140625,-2.58882421875,4.0350703125,8.17827734375,7.84608203125,3.168671875,7.46353125,5.501015625,13.4882265625,8.3471171875,-0.673453125,10.626734375,12.871203125,8.91598046875,9.14902734375,1.77451953125,15.77078125,13.05584375,11.69202734375,14.07553515625,10.4697109375,17.55525390625,16.4344765625,11.4794609375,5.4313671875,16.94646484375,15.770640625,11.7734609375,16.7343828125
2.96753125,0.11140625,-2.62182421875,1.2980703125,6.28727734375,6.21108203125,2.652671875,6.44053125,4.876015625,11.1782265625,6.1821171875,-0.811453125,1.367734375,9.048203125,5.83198046875,7.09202734375,-1.23348046875,11.20478125,8.72084375,8.06802734375,10.85453515625,7.1897109375,12.02325390625,11.8144765625,7.9564609375,3.6713671875,11.31146484375,11.291640625,6.7164609375,13.0623828125
0.64453125,-1.19559375,-3.17682421875,-1.6219296875,3.90327734375,3.81008203125,1.291671875,3.93853125,3.020015625,8.2082265625,3.3881171875,-2.396453125,-6.463265625,4.356203125,2.07498046875,4.02202734375,-4.33648046875,5.75878125,3.78584375,3.44602734375,6.78353515625,2.5167109375,5.58825390625,6.2004765625,3.7034609375,0.630367187499999,4.46446484375,5.672640625,0.7164609375,8.0813828125
-1.17946875,-1.89459375,-3.72682421875,-3.4659296875,2.21927734375,1.99108203125,0.0636718749999998,1.07453125,0.897015625,5.9552265625,1.4251171875,-4.238453125,-9.849265625,0.336203125,-0.80801953125,1.45202734375,-6.06548046875,0.90278125,-0.15915625,-0.40697265625,3.49953515625,-2.2212890625,-0.0737460937500001,1.3394765625,0.3834609375,-2.1396328125,-1.77153515625,0.442640625,-4.6225390625,3.6303828125
-1.63246875,-1.47259375,-3.70982421875,-3.4629296875,2.01727734375,1.71308203125,-0.186328125,-0.91846875,-0.596984375,5.4062265625,1.3001171875,-5.161453125,-7.418265625,-1.883796875,-1.76301953125,0.57502734375,-5.73648046875,-2.19721875,-1.99815625,-2.20197265625,2.09953515625,-5.6702890625,-3.64674609375,-1.4305234375,-0.931539062500001,-3.4566328125,-5.89553515625,-2.993359375,-7.9745390625,1.1513828125
-0.61846875,-0.0175937500000001,-2.87582421875,-1.7709296875,3.27727734375,3.02408203125,0.757671875,-1.32646875,-1.075984375,6.6662265625,3.0291171875,-4.659453125,-0.0242656250000005,-2.063796875,-0.72501953125,1.65002734375,-3.78648046875,-3.14421875,-1.57815625,-1.70197265625,2.64653515625,-7.0422890625,-4.68574609375,-1.7465234375,-0.2165390625,-3.0376328125,-7.33453515625,-3.922359375,-8.8235390625,1.0863828125
1.20053125,1.87540625,-1.40682421875,0.6680703125,5.30027734375,5.13908203125,2.444671875,-0.23246875,-0.675984375,9.0112265625,5.7121171875,-3.068453125,9.725734375,-0.774796875,1.47298046875,3.98602734375,-1.42448046875,-2.29221875,0.39584375,0.34902734375,4.30553515625,-6.3582890625,-3.61274609375,-0.2055234375,1.6924609375,-1.4486328125,-6.51453515625,-2.547359375,-7.5645390625,2.8473828125
2.88553125,3.45040625,0.21817578125,2.7330703125,7.19327734375,6.98008203125,4.132671875,1.66253125,0.251015625,11.3662265625,8.1021171875,-1.228453125,18.610734375,1.085203125,3.66098046875,6.43402734375,0.101519531249999,-0.37221875,2.88884375,2.78602734375,5.95353515625,-4.2412890625,-1.31874609375,2.1194765625,3.7064609375,0.3823671875,-4.46053515625,0.223640625,-5.1925390625,5.2733828125
3.74653125,4.14840625,1.46117578125,3.7400703125,8.35327734375,7.76308203125,5.204671875,3.45353125,1.451015625,12.8462265625,9.2451171875,0.058546875,23.936734375,2.799203125,4.93498046875,8.00502734375,0.12951953125,1.93678125,5.09784375,4.65502734375,6.79353515625,-1.5102890625,1.31625390625,4.2504765625,5.0584609375,1.6703671875,-2.25853515625,3.232640625,-2.8175390625,7.2173828125
3.60653125,3.80340625,1.92517578125,3.6660703125,8.64727734375,7.26408203125,5.383671875,4.40953125,2.855015625,13.0392265625,8.8321171875,0.390546875,24.293734375,4.072203125,4.96798046875,8.25802734375,-1.20848046875,4.23378125,6.69984375,5.53002734375,6.62353515625,1.1577109375,3.70125390625,5.6334765625,5.5334609375,2.0333671875,-0.66453515625,5.532640625,-1.2645390625,7.9743828125
2.76353125,2.63940625,1.49417578125,2.9890703125,8.32127734375,5.76708203125,4.747671875,4.18953125,4.466015625,12.0102265625,7.1841171875,-0.155453125,19.872734375,4.976203125,3.98598046875,7.35202734375,-3.18648046875,6.37078125,7.78084375,5.50002734375,5.74253515625,3.3567109375,5.58325390625,6.1804765625,5.3714609375,1.5123671875,0.0514648437499998,6.706640625,-0.8275390625,7.4533828125
1.78653125,1.15040625,0.38917578125,2.3310703125,7.76427734375,3.83108203125,3.674671875,2.91553125,6.200015625,10.1502265625,5.0121171875,-1.166453125,12.392734375,5.751203125,2.52998046875,5.85802734375,-4.84748046875,8.31778125,8.59684375,4.96202734375,4.69853515625,4.9587109375,6.97125390625,6.1424765625,5.0414609375,0.4873671875,0.0964648437500002,6.958640625,-1.2065390625,6.1323828125
1.23653125,-0.08459375,-0.90382421875,2.1420703125,7.30627734375,2.03108203125,2.701671875,1.07753125,7.812015625,7.9832265625,3.0861171875,-2.108453125,4.606734375,6.592203125,1.17998046875,4.45502734375,-5.39948046875,10.02478125,9.35384375,4.37202734375,4.01253515625,6.0337109375,8.00225390625,5.9064765625,4.9934609375,-0.4826328125,-0.0235351562499999,6.918640625,-1.6965390625,4.7943828125
1.36453125,-0.61859375,-1.86782421875,2.5280703125,7.08327734375,0.74008203125,2.266671875,-0.74546875,8.918015625,5.9582265625,1.9061171875,-2.572453125,-0.654265625000001,7.480203125,0.30798046875,3.60402734375,-4.57348046875,11.31878125,10.04384375,4.01702734375,3.94953515625,6.7127109375,8.77525390625,5.7754765625,5.4314609375,-0.9346328125,0.18446484375,7.196640625,-1.6155390625,4.0983828125
1.97553125,-0.34159375,-2.20782421875,3.2740703125,6.98427734375,0.00108203125000017,2.456671875,-2.20446875,9.103015625,4.2782265625,1.4971171875,-2.474453125,-1.662265625,8.137203125,-0.07601953125,3.32502734375,-2.83848046875,11.87878125,10.40984375,3.85902734375,4.37853515625,7.0437109375,9.21025390625,5.7734765625,6.1514609375,-0.7806328125,0.88046484375,7.960640625,-0.7455390625,4.2103828125
2.55553125,0.45140625,-1.98782421875,4.0250703125,6.73427734375,-0.41891796875,2.950671875,-3.31046875,8.100015625,2.8642265625,1.4421171875,-2.110453125,1.352734375,8.152203125,-0.29101953125,3.21602734375,-1.24848046875,11.37178125,10.07584375,3.57602734375,4.83253515625,6.9717109375,9.06025390625,5.6384765625,6.6144609375,-0.3486328125,1.80946484375,8.838640625,0.5404609375,4.7843828125
2.58653125,1.21540625,-1.55382421875,4.5180703125,6.09927734375,-0.83391796875,3.227671875,-4.28546875,5.999015625,1.5132265625,1.1711171875,-1.971453125,6.308734375,7.274203125,-0.74001953125,2.75102734375,-0.88948046875,9.71378125,8.81884375,2.81702734375,4.79853515625,6.4747109375,8.13225390625,5.0514765625,6.2854609375,-0.116632812500001,2.51746484375,9.236640625,1.5894609375,5.3213828125
1.83953125,1.48040625,-1.33482421875,4.7210703125,5.09927734375,-1.41791796875,2.888671875,-5.26646875,3.343015625,0.144226562499999,0.3361171875,-2.434453125,10.413734375,5.670203125,-1.61001953125,1.66202734375,-2.24448046875,7.29678125,6.80584375,1.50002734375,4.04553515625,5.7407109375,6.53825390625,3.9444765625,5.0224609375,-0.3386328125,2.71246484375,8.788640625,1.9474609375,5.5903828125
0.48253125,1.12340625,-1.62682421875,4.7920703125,4.04727734375,-2.11391796875,1.863671875,-6.13146875,0.975015625,-1.0827734375,-0.9968828125,-3.518453125,11.691734375,3.912203125,-2.72301953125,0.12802734375,-4.93748046875,4.90878125,4.57184375,-0.07097265625,2.75753515625,5.1697109375,4.74125390625,2.6094765625,3.2124609375,-0.879632812500001,2.45146484375,7.603640625,1.6354609375,5.7313828125
-1.00446875,0.39940625,-2.44682421875,4.9310703125,3.36427734375,-2.71191796875,0.434671875,-6.58646875,-0.346984375,-1.8927734375,-2.4248828125,-4.856453125,9.911734375,2.671203125,-3.66701953125,-1.33697265625,-8.01648046875,3.35878125,2.74584375,-1.37197265625,1.38653515625,5.1597109375,3.31825390625,1.5204765625,1.5394609375,-1.3586328125,2.02646484375,6.135640625,1.0484609375,5.9903828125
-2.05046875,-0.25459375,-3.50482421875,5.2170703125,3.30927734375,-3.01191796875,-0.921328125,-6.39046875,-0.335984375,-2.1207734375,-3.4638828125,-5.880453125,6.459734375,2.320203125,-4.05501953125,-2.18297265625,-10.48848046875,3.03578125,1.70184375,-1.96797265625,0.36753515625,5.8417109375,2.62325390625,1.0194765625,0.560460937499999,-1.4286328125,1.70246484375,4.846640625,0.6214609375,6.3903828125
-2.29046875,-0.47559375,-4.33382421875,5.5460703125,3.82327734375,-2.94891796875,-1.770328125,-5.54746875,0.686015625,-1.8417734375,-3.7938828125,-6.103453125,3.409734375,2.725203125,-3.74501953125,-2.09797265625,-11.73148046875,3.73578125,1.39484375,-1.72697265625,-0.0774648437500001,6.9597109375,2.60925390625,1.1144765625,0.4054609375,-0.9776328125,1.51146484375,3.936640625,0.5614609375,6.6533828125
-1.74946875,-0.14159375,-4.51082421875,5.6750703125,4.59127734375,-2.60691796875,-1.902328125,-4.31946875,1.989015625,-1.3187734375,-3.3598828125,-5.378453125,2.444734375,3.371203125,-2.85701953125,-1.12797265625,-11.58748046875,4.84278125,1.46684375,-0.84397265625,0.0295351562499997,7.9987109375,2.91625390625,1.5214765625,0.7754609375,-0.108632812500001,1.26446484375,3.324640625,0.8134609375,6.4203828125
-0.79246875,0.62240625,-3.85682421875,5.3590703125,5.24727734375,-2.11791796875,-1.356328125,-3.06246875,2.853015625,-0.820773437500001,-2.3318828125,-3.982453125,4.140734375,3.702203125,-1.65401953125,0.38702734375,-10.25548046875,5.72278125,1.53384375,0.31602734375,0.53753515625,8.4767109375,3.14325390625,1.8724765625,1.2114609375,1.0023671875,0.73046484375,2.830640625,1.2324609375,5.5673828125
0.10753125,1.53640625,-2.50082421875,4.4990703125,5.56627734375,-1.57191796875,-0.330328125,-2.03946875,2.934015625,-0.486773437500001,-0.9908828125,-2.490453125,7.818734375,3.436203125,-0.38901953125,1.97102734375,-8.15548046875,6.03878125,1.42384375,1.41702734375,1.28153515625,8.2177109375,3.09025390625,1.9444765625,1.4264609375,2.2463671875,-0.16853515625,2.370640625,1.7584609375,4.3493828125
0.58453125,2.29140625,-0.82882421875,3.1840703125,5.50927734375,-1.01591796875,0.895671875,-1.35746875,2.360015625,-0.310773437500001,0.3651171875,-1.492453125,11.869734375,2.661203125,0.76898046875,3.18802734375,-5.87248046875,5.81178125,1.21684375,2.27102734375,2.13253515625,7.3997109375,2.80225390625,1.7324765625,1.4504609375,3.5783671875,-1.29153515625,2.001640625,2.4384609375,3.2403828125
0.46453125,2.66240625,0.64217578125,1.6420703125,5.16527734375,-0.49391796875,2.001671875,-1.04846875,1.574015625,-0.204773437500001,1.4851171875,-1.301453125,14.382734375,1.716203125,1.75098046875,3.78102734375,-4.04848046875,5.26178125,1.12784375,2.86902734375,2.97253515625,6.3767109375,2.45825390625,1.4024765625,1.5614609375,4.9423671875,-2.36753515625,1.794640625,3.2854609375,2.6363828125
-0.19146875,2.61140625,1.46317578125,0.1990703125,4.71727734375,-0.0349179687499999,2.745671875,-1.12746875,1.077015625,-0.0247734375000004,2.2661171875,-1.794453125,13.903734375,1.013203125,2.60598046875,3.79202734375,-3.16548046875,4.62778125,1.38584375,3.37202734375,3.72153515625,5.4347109375,2.23525390625,1.2014765625,2.1204609375,6.2473671875,-3.09853515625,1.715640625,4.1744609375,2.6673828125
-1.06446875,2.33940625,1.47917578125,-0.739929687500001,4.43527734375,0.45408203125,3.135671875,-1.55046875,1.256015625,0.444226562499999,2.8491171875,-2.443453125,10.158734375,0.920203125,3.54398046875,3.61302734375,-3.28648046875,4.11778125,2.19484375,4.09802734375,4.41553515625,4.7187109375,2.27925390625,1.4224765625,3.4334609375,7.4433671875,-3.22153515625,1.669640625,4.8954609375,3.2293828125
-1.65146875,2.23740625,0.93917578125,-0.7839296875,4.64727734375,1.23908203125,3.492671875,-2.14846875,2.276015625,1.4752265625,3.6211171875,-2.551453125,4.369734375,1.682203125,4.90398046875,3.88502734375,-3.96848046875,3.93978125,3.72484375,5.44102734375,5.23953515625,4.3317109375,2.74025390625,2.3574765625,5.6774609375,8.5783671875,-2.52453515625,1.671640625,5.3204609375,4.1463828125
-1.51346875,2.70640625,0.38817578125,0.2500703125,5.60127734375,2.64808203125,4.262671875,-2.63946875,4.001015625,3.2682265625,5.0291171875,-1.592453125,-1.192265625,3.340203125,6.98298046875,5.20102734375,-4.44848046875,4.29978125,6.04684375,7.68502734375,6.42053515625,4.4277109375,3.75725390625,4.1934765625,8.8014609375,9.7483671875,-0.90953515625,1.949640625,5.5124609375,5.2773828125
-0.53846875,3.92340625,0.36617578125,2.1860703125,7.28727734375,4.82608203125,5.714671875,-2.73746875,5.987015625,5.7712265625,7.2971171875,0.503546875,-4.296265625,5.647203125,9.79498046875,7.74902734375,-4.03248046875,5.29778125,9.00384375,10.77302734375,8.04053515625,5.1637109375,5.35325390625,6.8424765625,12.4424609375,10.9663671875,1.49946484375,2.829640625,5.6714609375,6.5003828125
0.99953125,5.70540625,1.12617578125,4.5250703125,9.36127734375,7.57108203125,7.761671875,-2.25046875,7.597015625,8.5992265625,10.2391171875,3.313546875,-3.836265625,8.090203125,12.93898046875,11.12802734375,-2.45248046875,6.80578125,12.14784375,14.20702734375,9.91253515625,6.5267109375,7.32825390625,9.8474765625,15.9414609375,12.0823671875,4.30746484375,4.481640625,5.9734609375,7.6603828125
2.60053125,7.58340625,2.52317578125,6.6470703125,11.26327734375,10.37508203125,10.036671875,-1.13746875,8.264015625,11.1432265625,13.3091171875,6.130546875,-0.159265625000001,10.056203125,15.70398046875,14.47602734375,-0.0184804687500009,8.45278125,14.83084375,17.17802734375,11.62653515625,8.2127109375,9.26625390625,12.4924765625,18.5134609375,12.8413671875,6.93646484375,6.700640625,6.4304609375,8.5613828125
3.76753125,9.04340625,4.09917578125,8.0410703125,12.46727734375,12.61308203125,12.063671875,0.45053125,7.742015625,12.8162265625,15.8311171875,8.283546875,5.419734375,11.062203125,17.35798046875,16.82502734375,2.49951953125,9.74178125,16.41784375,18.87102734375,12.72453515625,9.6737109375,10.67625390625,14.0644765625,19.5204609375,13.0233671875,8.82346484375,8.908640625,6.8654609375,9.0143828125
4.16253125,9.75140625,5.29617578125,8.4350703125,12.69527734375,13.78408203125,13.431671875,2.15253125,6.198015625,13.2702265625,17.2531171875,9.357546875,11.362734375,10.931203125,17.44398046875,17.48102734375,4.19951953125,10.25278125,16.51284375,18.77702734375,12.87953515625,10.3427109375,11.18125390625,14.1254765625,18.6914609375,12.5533671875,9.61246484375,10.386640625,7.0164609375,8.8973828125
3.68553125,9.64840625,5.69217578125,7.8500703125,11.98927734375,13.67408203125,13.892671875,3.46553125,4.135015625,12.4952265625,17.3121171875,9.245546875,16.370734375,9.841203125,15.95998046875,16.26402734375,4.45551953125,9.84778125,15.10984375,16.88602734375,12.02453515625,9.9557109375,10.68125390625,12.6784765625,16.2254609375,11.5633671875,9.28146484375,10.651640625,6.7244609375,8.2243828125
2.47353125,8.89940625,5.17417578125,6.5990703125,10.65327734375,12.41608203125,13.414671875,3.92053125,2.217015625,10.7942265625,16.0871171875,8.084546875,19.497734375,8.248203125,13.35298046875,13.53902734375,3.20451953125,8.77778125,12.61884375,13.70202734375,10.38953515625,8.7717109375,9.42725390625,10.1704765625,12.7344609375,10.3683671875,8.14746484375,9.731640625,6.0784609375,7.1603828125
0.78753125,7.77340625,3.94817578125,5.1680703125,9.08227734375,10.39508203125,12.149671875,3.28053125,1.024015625,8.6492265625,13.9411171875,6.146546875,20.176734375,6.689203125,10.33798046875,10.03402734375,0.94351953125,7.57778125,9.72484375,10.04702734375,8.41253515625,7.4927109375,7.91725390625,7.3254765625,9.0214609375,9.3073671875,6.71646484375,8.128640625,5.3804609375,5.9423828125
-1.13546875,6.52040625,2.40217578125,4.0050703125,7.57427734375,8.07108203125,10.339671875,1.61253125,0.811015625,6.5252265625,11.3661171875,3.739546875,18.255734375,5.528203125,7.60198046875,6.51602734375,-1.56148046875,6.76078125,7.10584375,6.73002734375,6.53253515625,6.8277109375,6.62825390625,4.8364765625,5.7454609375,8.5133671875,5.42346484375,6.440640625,4.8974609375,4.7103828125
-3.13246875,5.29840625,0.90517578125,3.3360703125,6.23527734375,5.83508203125,8.271671875,-0.74846875,1.398015625,4.7072265625,8.8161171875,1.176546875,14.001734375,4.787203125,5.54498046875,3.50502734375,-3.63748046875,6.48678125,5.17884375,4.24102734375,5.00153515625,7.0027109375,5.75225390625,3.0924765625,3.1624609375,7.8063671875,4.41846484375,4.935640625,4.6124609375,3.3943828125
-5.01046875,4.19440625,-0.30282421875,3.1530703125,5.05027734375,3.98508203125,6.287671875,-3.28746875,2.318015625,3.2792265625,6.6401171875,-1.192453125,8.063734375,4.212203125,4.23298046875,1.19202734375,-4.89748046875,6.47678125,4.01184375,2.66502734375,3.84253515625,7.5717109375,5.13525390625,2.0954765625,1.1344609375,6.8443671875,3.56046484375,3.432640625,4.2204609375,1.7813828125
-6.48946875,3.29540625,-1.15282421875,3.3250703125,4.03327734375,2.75908203125,4.756671875,-5.44546875,3.118015625,2.2112265625,5.0611171875,-2.971453125,1.453734375,3.500203125,3.51398046875,-0.46197265625,-5.22248046875,6.23978125,3.43084375,1.80702734375,2.95153515625,7.7227109375,4.46125390625,1.5944765625,-0.652539062500001,5.4263671875,2.59946484375,1.552640625,3.3584609375,-0.2806171875
-7.29346875,2.72240625,-1.70882421875,3.6850703125,3.28027734375,2.28308203125,3.921671875,-6.82246875,3.568015625,1.4232265625,4.1491171875,-3.843453125,-4.535265625,2.499203125,3.16598046875,-1.59197265625,-4.67848046875,5.40878125,3.16284375,1.36202734375,2.19053515625,6.8107109375,3.49825390625,1.2724765625,-2.4485390625,3.6353671875,1.36646484375,-0.893359375,1.8834609375,-2.7376171875
-7.34646875,2.56540625,-2.10182421875,4.0480703125,2.86727734375,2.46308203125,3.747671875,-7.33346875,3.640015625,0.773226562499999,3.7611171875,-3.750453125,-8.585265625,1.239203125,2.93998046875,-2.37597265625,-3.47248046875,3.95478125,2.91684375,1.02402734375,1.42853515625,4.7797109375,2.22525390625,0.8524765625,-4.3435390625,1.7593671875,-0.14853515625,-3.690359375,-0.00753906250000003,-5.3196171875
-6.84346875,2.78640625,-2.42282421875,4.2160703125,2.70327734375,2.94308203125,3.935671875,-7.17846875,3.326015625,0.0232265624999988,3.5581171875,-3.002453125,-9.764265625,-0.176796875,2.56098046875,-3.01097265625,-1.93548046875,2.17878125,2.41384375,0.52502734375,0.56553515625,2.2147109375,0.80325390625,0.1384765625,-6.2685390625,0.1083671875,-1.82953515625,-6.276359375,-1.8405390625,-7.6336171875
-6.17846875,3.18340625,-2.65982421875,4.0130703125,2.48627734375,3.21208203125,4.067671875,-6.67346875,2.503015625,-1.1337734375,3.1121171875,-2.165453125,-7.885265625,-1.699796875,1.73398046875,-3.68097265625,-0.467480468750001,0.50578125,1.40984375,-0.34497265625,-0.43046484375,0.0187109374999999,-0.56874609375,-0.9745234375,-8.0785390625,-1.1006328125,-3.52553515625,-8.037359375,-3.0965390625,-9.3036171875
-5.80346875,3.45540625,-2.75182421875,3.3120703125,1.80827734375,2.78508203125,3.749671875,-6.08646875,0.966015625,-2.9657734375,2.0501171875,-1.809453125,-3.605265625,-3.384796875,0.21698046875,-4.52397265625,0.55751953125,-0.77521875,-0.27115625,-1.70697265625,-1.49146484375,-1.0912890625,-1.79874609375,-2.5185234375,-9.6595390625,-1.7736328125,-5.15053515625,-8.669359375,-3.4945390625,-10.1306171875
-6.04746875,3.34640625,-2.68882421875,2.0630703125,0.38627734375,1.40508203125,2.735671875,-5.57646875,-1.352984375,-5.5537734375,0.191117187500001,-2.230453125,1.788734375,-5.312796875,-2.07801953125,-5.59897265625,0.88451953125,-1.63821875,-2.65115625,-3.55897265625,-2.46946484375,-0.9432890625,-2.95574609375,-4.4565234375,-11.0055390625,-1.9356328125,-6.72353515625,-8.358359375,-3.1715390625,-10.1826171875
-6.95846875,2.77340625,-2.55282421875,0.3440703125,-1.74272265625,-0.83191796875,1.042671875,-5.18346875,-4.169984375,-8.6877734375,-2.3728828125,-3.315453125,6.820734375,-7.448796875,-4.97801953125,-6.86197265625,0.44851953125,-2.25721875,-5.51715625,-5.72497265625,-3.18246484375,0.0807109374999997,-4.18574609375,-6.6655234375,-12.2095390625,-1.7116328125,-8.31353515625,-7.650359375,-2.5785390625,-9.7436171875
-8.25346875,1.87740625,-2.48982421875,-1.5899296875,-4.18172265625,-3.49491796875,-1.012328125,-4.84846875,-6.853984375,-11.8827734375,-5.2778828125,-4.604453125,10.276734375,-9.564796875,-8.04101953125,-8.15197265625,-0.60448046875,-2.81221875,-8.41315625,-7.86797265625,-3.47846484375,1.3657109375,-5.56374609375,-8.9025234375,-13.3595390625,-1.2656328125,-9.92853515625,-7.102359375,-2.1675390625,-9.1156171875
-9.47346875,0.95340625,-2.63382421875,-3.3219296875,-6.33872265625,-5.98991796875,-2.922328125,-4.46746875,-8.702984375,-14.5397734375,-8.0028828125,-5.534453125,11.447734375,-11.325796875,-10.67701953125,-9.22797265625,-1.96648046875,-3.35721875,-10.78015625,-9.56697265625,-3.30046484375,2.4327109375,-7.00174609375,-10.8385234375,-14.4285390625,-0.709632812500001,-11.44253515625,-6.970359375,-2.0955390625,-8.4366171875
-10.24446875,0.30640625,-3.07282421875,-4.3829296875,-7.70572265625,-7.81491796875,-4.227328125,-3.98646875,-9.296984375,-16.1777734375,-10.0488828125,-5.708453125,10.086734375,-12.460796875,-12.37001953125,-9.85197265625,-3.27748046875,-3.83321875,-12.18615625,-10.47197265625,-2.70446484375,3.1287109375,-8.28674609375,-12.1365234375,-15.2395390625,-0.0486328125000002,-12.61753515625,-7.133359375,-2.1595390625,-7.6166171875
-10.46346875,0.10040625,-3.79682421875,-4.4139296875,-8.09272265625,-8.75191796875,-4.700328125,-3.47646875,-8.695984375,-16.6347734375,-11.1158828125,-5.078453125,6.243734375,-12.902796875,-12.88701953125,-9.89697265625,-4.25448046875,-4.17521875,-12.49515625,-10.43097265625,-1.84346484375,3.5587109375,-9.19174609375,-12.5755234375,-15.5325390625,0.819367187499999,-13.20053515625,-7.251359375,-1.9695390625,-6.4346171875
-10.30846875,0.28340625,-4.67382421875,-3.3559296875,-7.69672265625,-8.91791796875,-4.420328125,-3.13546875,-7.374984375,-16.1207734375,-11.1968828125,-3.948453125,0.261734374999999,-12.779796875,-12.35601953125,-9.41797265625,-4.77248046875,-4.39121875,-11.89115625,-9.53897265625,-0.91046484375,3.9067109375,-9.56974609375,-12.1105234375,-15.0915390625,2.0273671875,-13.01153515625,-6.999359375,-1.2065390625,-4.7116171875
-10.14846875,0.64440625,-5.46482421875,-1.5719296875,-6.98272265625,-8.66891796875,-3.728328125,-3.22346875,-5.986984375,-15.0957734375,-10.5598828125,-2.830453125,-6.996265625,-12.292796875,-11.17201953125,-8.63897265625,-4.84948046875,-4.53021875,-10.72815625,-8.07297265625,-0.0814648437500005,4.3067109375,-9.35274609375,-10.8595234375,-13.8765390625,3.6323671875,-11.98953515625,-6.213359375,0.2204609375,-2.4386171875
-10.37746875,0.96340625,-5.91382421875,0.2260703125,-6.43472265625,-8.41591796875,-3.097328125,-3.93646875,-5.066984375,-14.0327734375,-9.6008828125,-2.216453125,-13.910265625,-11.549796875,-9.76501953125,-7.85697265625,-4.58648046875,-4.57821875,-9.32015625,-6.35997265625,0.51653515625,4.8287109375,-8.49574609375,-9.0105234375,-12.0675390625,5.5223671875,-10.16653515625,-4.904359375,2.1644609375,0.1723828125
-11.19146875,1.16140625,-5.82382421875,1.3010703125,-6.28872265625,-8.38791796875,-2.882328125,-5.25546875,-4.823984375,-13.1697734375,-8.6228828125,-2.359453125,-18.283265625,-10.462796875,-8.36001953125,-7.28697265625,-4.08048046875,-4.37621875,-7.76415625,-4.62397265625,0.84553515625,5.5277109375,-6.93074609375,-6.7135234375,-9.9835390625,7.4083671875,-7.62953515625,-3.201359375,4.3604609375,2.7553828125
-12.40346875,1.35640625,-5.11982421875,1.3200703125,-6.39072265625,-8.47491796875,-3.085328125,-6.82346875,-5.066984375,-12.3837734375,-7.6608828125,-3.158453125,-18.116265625,-8.783796875,-6.85901953125,-6.93497265625,-3.34448046875,-3.64921875,-5.90215625,-2.88997265625,1.00353515625,6.4617109375,-4.58274609375,-4.0115234375,-7.9175390625,8.9273671875,-4.47353515625,-1.263359375,6.5774609375,4.9263828125
-13.47446875,1.79140625,-3.89482421875,0.5800703125,-6.25572265625,-8.25691796875,-3.319328125,-7.99646875,-5.281984375,-11.2647734375,-6.4818828125,-4.192453125,-12.706265625,-6.257796875,-4.92501953125,-6.56497265625,-2.29748046875,-2.13021875,-3.44715625,-1.00197265625,1.22953515625,7.6417109375,-1.44974609375,-0.8675234375,-6.0015390625,9.8233671875,-0.79553515625,0.789640625,8.7154609375,6.4633828125
-13.78346875,2.67840625,-2.43182421875,-0.1489296875,-5.31672265625,-7.22991796875,-3.043328125,-8.10146875,-4.844984375,-9.3447734375,-4.7788828125,-4.913453125,-3.322265625,-2.822796875,-2.24001953125,-5.81797265625,-0.83648046875,0.26878125,-0.22615625,1.24502734375,1.83153515625,8.9757109375,2.30825390625,2.7344765625,-4.1845390625,10.0893671875,3.27146484375,2.890640625,10.8084609375,7.4043828125
-12.94446875,4.05540625,-1.13982421875,-0.1009296875,-3.25072265625,-5.10091796875,-1.896328125,-6.77146875,-3.311984375,-6.3777734375,-2.4278828125,-4.910453125,7.132734375,1.240203125,1.22498046875,-4.41497265625,1.04651953125,3.33178125,3.61284375,3.91502734375,3.02453515625,10.2527109375,6.31525390625,6.6494765625,-2.3625390625,9.9743671875,7.48746484375,4.985640625,12.9184609375,8.0013828125
-10.98146875,5.72040625,-0.36482421875,1.0200703125,-0.22172265625,-2.00091796875,0.0976718749999999,-4.16146875,-0.663984375,-2.5497734375,0.3501171875,-4.112453125,15.349734375,5.293203125,5.06398046875,-2.35997265625,3.15551953125,6.51678125,7.53884375,6.79102734375,4.74753515625,11.2107109375,9.99925390625,10.4824765625,-0.553539062500001,9.8203671875,11.45346484375,6.951640625,14.9724609375,8.5303828125
-8.32446875,7.27840625,-0.22282421875,2.8370703125,3.12127734375,1.50908203125,2.538671875,-0.93446875,2.607015625,1.5202265625,3.0391171875,-2.812453125,18.944734375,8.515203125,8.53798046875,0.00402734375000025,5.06751953125,9.07578125,10.77284375,9.39002734375,6.60153515625,11.6177109375,12.70625390625,13.6384765625,1.0024609375,9.8233671875,14.62446484375,8.529640625,16.6724609375,9.0623828125
-5.66846875,8.29940625,-0.59582421875,4.4970703125,5.90627734375,4.64708203125,4.807671875,1.98453125,5.671015625,5.0022265625,5.0501171875,-1.496453125,17.205734375,10.223203125,10.88998046875,2.12602734375,6.22351953125,10.31978125,12.59884375,11.15402734375,7.97953515625,11.3547109375,13.91625390625,15.5244765625,1.9444609375,9.9003671875,16.45946484375,9.380640625,17.5664609375,9.4023828125
-3.72946875,8.51240625,-1.24782421875,5.1660703125,7.46327734375,6.74808203125,6.345671875,3.76253125,7.726015625,7.2302265625,6.0201171875,-0.574453125,11.052734375,10.209203125,11.72398046875,3.50602734375,6.14951953125,9.92878125,12.69684375,11.73902734375,8.36153515625,10.4727109375,13.48025390625,15.8244765625,2.0394609375,9.7573671875,16.65446484375,9.254640625,17.2794609375,9.2073828125
-2.93346875,7.94940625,-1.95182421875,4.5450703125,7.65427734375,7.56708203125,6.913671875,3.99253125,8.372015625,8.0092265625,6.0041171875,-0.156453125,2.524734375,8.903203125,11.21498046875,3.95602734375,4.72251953125,8.15278125,11.33584375,11.21802734375,7.58453515625,9.2127109375,11.74625390625,14.6844765625,1.4114609375,9.1123671875,15.33246484375,8.166640625,15.7564609375,8.2313828125
-3.21046875,6.94540625,-2.54582421875,3.0560703125,6.91327734375,7.36408203125,6.683671875,2.83953125,7.776015625,7.6812265625,5.4531171875,-0.0344531250000002,-5.879265625,7.217203125,10.02598046875,3.68002734375,2.31351953125,5.73978125,9.27984375,10.07402734375,5.95253515625,7.9347109375,9.45125390625,12.6814765625,0.5654609375,7.9023671875,13.03746484375,6.428640625,13.3354609375,6.4833828125
-4.06546875,5.99840625,-2.92882421875,1.5760703125,5.98327734375,6.72308203125,6.106671875,0.92053125,6.519015625,6.9012265625,4.9731171875,0.155546875,-11.831265625,6.114203125,8.96298046875,3.15102734375,-0.31248046875,3.60878125,7.44084375,8.96802734375,4.09553515625,6.9737109375,7.41725390625,10.5824765625,0.1554609375,6.3373671875,10.51546484375,4.515640625,10.6244609375,4.2483828125
-4.86146875,5.54540625,-3.05782421875,0.8740703125,5.51327734375,6.22408203125,5.647671875,-0.98546875,5.234015625,6.2772265625,5.0321171875,0.678546875,-13.735265625,6.136203125,8.58798046875,2.84402734375,-2.30848046875,2.42178125,6.45384375,8.42502734375,2.69353515625,6.4857109375,6.19925390625,9.0194765625,0.656460937499999,4.7913671875,8.40046484375,2.848640625,8.2504609375,1.9843828125
-5.11846875,5.75740625,-2.93982421875,1.1380703125,5.73327734375,6.17408203125,5.584671875,-2.22346875,4.256015625,6.0692265625,5.7511171875,1.534546875,-11.210265625,7.147203125,8.97298046875,3.01102734375,-3.10048046875,2.31278125,6.43084375,8.60402734375,2.21753515625,6.3947109375,5.88325390625,8.2514765625,2.1254609375,3.6293671875,6.98146484375,1.654640625,6.6404609375,0.1753828125
-4.68446875,6.45440625,-2.63382421875,1.9170703125,6.38027734375,6.50708203125,5.938671875,-2.44446875,3.501015625,6.1152265625,6.8971171875,2.464546875,-5.327265625,8.433203125,9.71998046875,3.59102734375,-2.58948046875,2.89378125,6.97884375,9.25702734375,2.78153515625,6.4407109375,6.11325390625,8.0944765625,4.1924609375,3.0763671875,6.13846484375,0.938640625,5.9124609375,-0.8206171875
-3.75446875,7.19740625,-2.27282421875,2.4420703125,6.87027734375,6.86308203125,6.490671875,-1.65946875,2.603015625,5.9902265625,8.0201171875,3.123546875,1.627734375,9.062203125,10.19098046875,4.28502734375,-1.10448046875,3.48678125,7.43084375,9.86602734375,4.15253515625,6.2977109375,6.29125390625,8.0514765625,6.2394609375,3.1613671875,5.45246484375,0.529640625,5.8714609375,-0.9126171875
-2.76546875,7.51240625,-2.05782421875,2.0890703125,6.61027734375,6.78508203125,6.881671875,-0.20946875,1.207015625,5.2842265625,8.6641171875,3.297546875,6.976734375,8.314203125,9.81398046875,4.71702734375,0.808519531249999,3.42678125,7.13284375,9.85902734375,5.85053515625,5.6797109375,5.82625390625,7.5284765625,7.6374609375,3.7293671875,4.39646484375,0.134640625,6.0884609375,-0.3336171875
-2.17546875,7.11940625,-2.18182421875,0.6700703125,5.28327734375,5.93208203125,6.785671875,1.33953125,-0.783984375,3.8002265625,8.5311171875,3.006546875,8.716734375,5.967203125,8.30798046875,4.58102734375,2.57451953125,2.30078125,5.67684375,8.81802734375,7.30153515625,4.4247109375,4.33025390625,6.0534765625,7.9414609375,4.4803671875,2.53246484375,-0.578359375,6.0284609375,0.4033828125
-2.23346875,6.01540625,-2.70982421875,-1.5559296875,2.94927734375,4.22008203125,6.067671875,2.38753125,-3.152984375,1.6122265625,7.5421171875,2.435546875,6.278734375,2.353203125,5.75498046875,3.71802734375,3.69051953125,0.0687812500000001,3.01784375,6.60202734375,7.99253515625,2.5637109375,1.72925390625,3.4474765625,6.9774609375,5.0573671875,-0.32353515625,-1.860359375,5.2304609375,0.6993828125
-2.89946875,4.42940625,-3.50482421875,-4.0799296875,0.00127734375000044,1.85208203125,4.824671875,2.50153125,-5.465984375,-0.998773437500001,5.8311171875,1.784546875,0.631734375,-1.771796875,2.56498046875,2.16702734375,3.80451953125,-2.88221875,-0.48015625,3.43502734375,7.64953515625,0.3717109375,-1.66574609375,-0.0655234375,4.9014609375,5.1933671875,-3.97653515625,-3.698359375,3.5244609375,0.1613828125
-3.94846875,2.70640625,-4.25682421875,-6.3619296875,-2.99272265625,-0.75791796875,3.298671875,1.60053125,-7.272984375,-3.6347734375,3.7091171875,1.209546875,-6.230265625,-5.459796875,-0.61801953125,0.20902734375,2.84951953125,-5.77621875,-4.08715625,-0.08097265625,6.39553515625,-1.6262890625,-5.15974609375,-3.8205234375,2.2374609375,4.8903671875,-7.80053515625,-5.700359375,1.1904609375,-1.1226171875
-5.12146875,1.18140625,-4.61482421875,-7.9769296875,-5.45472265625,-3.11091796875,1.753671875,0.0165312499999997,-8.288984375,-5.8687734375,1.6201171875,0.857546875,-12.132265625,-7.856796875,-3.07801953125,-1.65997265625,1.14851953125,-7.65521875,-6.89515625,-3.08497265625,4.77653515625,-2.8052890625,-7.82674609375,-6.8715234375,-0.1965390625,4.4693671875,-10.85953515625,-7.165359375,-1.0905390625,-2.5446171875
-6.19846875,0.07240625,-4.35482421875,-8.6879296875,-6.97972265625,-4.77891796875,0.410671875,-1.62046875,-8.507984375,-7.3597734375,0.0291171875000007,0.901546875,-15.575265625,-8.484796875,-4.26501953125,-2.88297265625,-0.63348046875,-7.77121875,-8.14115625,-4.76497265625,3.53953515625,-2.7082890625,-8.85474609375,-8.3535234375,-1.5555390625,4.3773671875,-12.24453515625,-7.390359375,-2.5495390625,-3.2836171875
-6.99746875,-0.56659375,-3.49082421875,-8.4879296875,-7.45272265625,-5.55091796875,-0.585328125,-2.67346875,-8.151984375,-7.9667734375,-0.7518828125,1.480546875,-16.197265625,-7.419796875,-4.02201953125,-3.08897265625,-1.73748046875,-5.98621875,-7.54215625,-4.72197265625,3.24753515625,-1.3152890625,-7.91174609375,-7.8845234375,-1.3615390625,4.8553671875,-11.47553515625,-6.038359375,-2.7085390625,-2.7686171875
-7.38446875,-0.81059375,-2.28382421875,-7.6089296875,-7.05972265625,-5.49691796875,-1.181328125,-2.83946875,-7.513984375,-7.7967734375,-0.7148828125,2.581546875,-14.626265625,-5.248796875,-2.66901953125,-2.29297265625,-1.64148046875,-2.92221875,-5.44915625,-3.17697265625,3.95853515625,0.8967109375,-5.33374609375,-5.7665234375,0.2324609375,5.7173671875,-8.72653515625,-3.332359375,-1.5935390625,-1.0166171875
-7.29646875,-0.78459375,-1.10782421875,-6.4649296875,-6.19872265625,-4.92691796875,-1.426328125,-2.31946875,-6.806984375,-7.1737734375,-0.167882812499999,3.968546875,-11.888265625,-2.851796875,-0.86901953125,-0.93097265625,-0.34348046875,0.24278125,-2.72215625,-0.90797265625,5.17153515625,3.1257109375,-2.01874609375,-2.8705234375,2.4544609375,6.4143671875,-4.77853515625,-0.00635937499999994,0.2994609375,1.3393828125
-6.77046875,-0.63459375,-0.27882421875,-5.5209296875,-5.36272265625,-4.26491796875,-1.449328125,-1.69746875,-6.153984375,-6.5607734375,0.375117187500001,5.205546875,-8.933265625,-1.108796875,0.60598046875,0.27502734375,1.54851953125,2.23978125,-0.41615625,1.05702734375,6.05853515625,4.5437109375,0.89025390625,-0.2985234375,4.2254609375,6.3203671875,-0.73953515625,2.936640625,2.2154609375,3.3323828125
-5.97846875,-0.53659375,0.05917578125,-5.1269296875,-5.00772265625,-3.91391796875,-1.429328125,-1.61246875,-5.686984375,-6.4347734375,0.4101171875,5.797546875,-6.529265625,-0.638796875,1.13498046875,0.59302734375,3.00851953125,2.24078125,0.60684375,1.83502734375,5.86653515625,4.6027109375,2.42025390625,1.0334765625,4.6004609375,5.0773671875,2.33846484375,4.587640625,3.4314609375,4.0853828125
-5.23446875,-0.66259375,-0.0518242187499998,-5.3759296875,-5.39172265625,-4.12591796875,-1.540328125,-2.40146875,-5.591984375,-7.1027734375,-0.3188828125,5.414546875,-5.280265625,-1.591796875,0.47998046875,-0.38097265625,3.06751953125,0.22978125,0.00284375000000003,1.04502734375,4.31753515625,3.2867109375,2.15525390625,0.7644765625,3.2054609375,2.8373671875,3.84346484375,4.509640625,3.5524609375,3.2373828125
-4.86846875,-1.04859375,-0.417824218749999,-6.0299296875,-6.40672265625,-4.86691796875,-1.827328125,-3.88446875,-5.979984375,-8.4727734375,-1.6308828125,4.133546875,-5.394265625,-3.537796875,-1.06001953125,-2.43197265625,1.37251953125,-2.92121875,-1.86715625,-0.96497265625,1.83253515625,1.2137109375,0.46425390625,-0.7155234375,0.4634609375,0.294367187499999,3.88246484375,3.003640625,2.7454609375,1.1753828125
-4.98446875,-1.47959375,-0.73282421875,-6.5769296875,-7.52472265625,-5.76091796875,-2.055328125,-5.37346875,-6.703984375,-9.9837734375,-2.8978828125,2.517546875,-6.338265625,-5.561796875,-2.67501953125,-4.69397265625,-1.52548046875,-5.77721875,-4.02215625,-3.19697265625,-0.56246484375,-0.5192890625,-1.59274609375,-2.3695234375,-2.5045390625,-1.5376328125,3.28146484375,1.066640625,1.7394609375,-1.0796171875
-5.30646875,-1.54459375,-0.66882421875,-6.4699296875,-8.02172265625,-6.21291796875,-1.744328125,-5.97346875,-7.328984375,-10.8097734375,-3.3058828125,1.395546875,-6.911265625,-6.629796875,-3.36401953125,-5.98797265625,-4.40848046875,-6.98621875,-5.25115625,-4.40897265625,-1.69546484375,-0.8292890625,-2.72674609375,-2.9605234375,-4.3645390625,-1.7846328125,3.20546484375,-0.0543593749999999,1.4994609375,-2.3616171875
-5.35746875,-0.89559375,-0.04982421875,-5.4929296875,-7.38472265625,-5.75091796875,-0.491328125,-5.09746875,-7.374984375,-10.2957734375,-2.3218828125,1.391546875,-5.941265625,-6.100796875,-2.43701953125,-5.44097265625,-6.04248046875,-5.94321875,-4.69515625,-3.73597265625,-0.86046484375,0.7567109375,-2.06474609375,-1.6735234375,-4.2255390625,-0.1586328125,4.52146484375,0.476640625,2.6814609375,-1.9806171875
-4.84046875,0.47140625,0.98917578125,-3.9669296875,-5.64672265625,-4.35191796875,1.616671875,-2.89846875,-6.651984375,-8.3537734375,-0.0658828124999999,2.513546875,-3.181265625,-4.064796875,0.10198046875,-2.98497265625,-5.86648046875,-3.09121875,-2.27015625,-1.12997265625,1.77553515625,3.7587109375,0.40225390625,1.4474765625,-2.0885390625,2.8753671875,7.29346484375,2.591640625,5.2064609375,-0.0796171874999999
-3.87846875,2.15740625,2.02817578125,-2.6019296875,-3.38772265625,-2.47291796875,3.913671875,-0.29346875,-5.405984375,-5.5217734375,2.7041171875,4.134546875,0.343734374999999,-1.273796875,3.54098046875,0.59702734375,-4.24448046875,0.33478125,1.31584375,2.64002734375,5.25653515625,6.9507109375,3.83725390625,5.5374765625,1.2024609375,6.3713671875,10.73846484375,5.354640625,8.2684609375,2.4993828125
-2.87846875,3.58340625,2.61317578125,-2.0319296875,-1.37972265625,-0.75691796875,5.537671875,1.53453125,-4.149984375,-2.6507734375,5.0181171875,5.405546875,2.920734375,1.297203125,6.84898046875,4.12202734375,-2.12348046875,2.98278125,4.96384375,6.43902734375,8.36453515625,9.0377109375,7.04925390625,9.3874765625,4.4494609375,9.4083671875,13.68946484375,7.530640625,10.7934609375,4.7353828125
-2.20146875,4.34540625,2.55217578125,-2.3659296875,-0.14572265625,0.36508203125,5.986671875,1.82653125,-3.320984375,-0.446773437500001,6.2461171875,5.827546875,3.240734375,2.967203125,9.19498046875,6.64202734375,-0.37848046875,4.08678125,7.72384375,9.34602734375,10.24853515625,9.3927109375,9.12625390625,12.0674765625,6.7284609375,11.5143671875,15.26146484375,8.338640625,12.0684609375,5.9833828125
-1.95146875,4.42340625,2.04517578125,-3.0909296875,0.30427734375,0.88508203125,5.404671875,0.67253125,-3.000984375,0.8552265625,6.4081171875,5.554546875,1.172734375,3.635203125,10.29398046875,7.84302734375,0.723519531249999,3.79278125,9.15884375,11.01902734375,10.79553515625,8.3697109375,9.83525390625,13.2994765625,7.7734609375,12.7813671875,15.27846484375,7.874640625,12.1084609375,6.2523828125
-1.99246875,4.12740625,1.56117578125,-3.3959296875,0.38527734375,1.12808203125,4.420671875,-1.11046875,-2.902984375,1.4712265625,6.0461171875,5.234546875,-2.334265625,3.689203125,10.39498046875,8.03602734375,1.56451953125,2.93978125,9.37684375,11.67202734375,10.53853515625,7.0167109375,9.58125390625,13.4184765625,7.9554609375,13.6843671875,14.26046484375,6.948640625,11.5474609375,6.0803828125
-2.12446875,3.81940625,1.55317578125,-2.6949296875,0.58627734375,1.46208203125,3.709671875,-2.50346875,-2.631984375,1.7922265625,5.7861171875,5.517546875,-6.013265625,3.646203125,9.98598046875,7.78202734375,2.76551953125,2.45478125,8.78584375,11.74802734375,10.22753515625,6.3797109375,8.99825390625,13.0044765625,7.9114609375,14.7243671875,13.00746484375,6.472640625,11.1634609375,6.1133828125
-2.26246875,3.65640625,2.19217578125,-1.0389296875,1.10227734375,2.02208203125,3.586671875,-2.86046875,-2.054984375,2.0372265625,5.9021171875,6.581546875,-9.086265625,3.763203125,9.42898046875,7.47202734375,4.63451953125,2.73978125,7.76984375,11.54802734375,10.32553515625,6.8617109375,8.48425390625,12.4544765625,8.0784609375,16.0933671875,12.08746484375,6.847640625,11.3474609375,6.6593828125
-2.50846875,3.51540625,3.24417578125,0.8510703125,1.68727734375,2.60508203125,3.861671875,-2.18546875,-1.479984375,2.1142265625,6.1521171875,8.007546875,-11.545265625,3.864203125,8.75798046875,7.10802734375,6.88451953125,3.42778125,6.48084375,11.03302734375,10.72553515625,8.0207109375,7.97225390625,11.7574765625,8.3994609375,17.5153671875,11.52846484375,7.718640625,11.8644609375,7.4573828125
-3.05946875,3.13140625,4.18717578125,1.9540703125,1.83427734375,2.80808203125,4.014671875,-1.00646875,-1.487984375,1.7222265625,5.9771171875,9.034546875,-13.804265625,3.479203125,7.73298046875,6.38402734375,8.77751953125,3.63278125,4.84784375,9.90002734375,10.84253515625,8.8497109375,7.02225390625,10.5624765625,8.3544609375,18.3253671875,10.85446484375,8.187640625,11.9834609375,7.7773828125
-3.99846875,2.31940625,4.52217578125,1.5230703125,1.12427734375,2.28808203125,3.580671875,0.0155312499999998,-2.497984375,0.604226562499999,4.8811171875,9.009546875,-16.070265625,2.188203125,6.07998046875,4.96902734375,9.54251953125,2.52278125,2.75584375,7.83702734375,9.97753515625,8.3627109375,5.16525390625,8.4544765625,7.2884609375,17.7983671875,9.42446484375,7.329640625,10.8944609375,6.8163828125
-5.15246875,1.11940625,4.07017578125,-0.4949296875,-0.48772265625,0.98308203125,2.447671875,0.43553125,-4.395984375,-1.2497734375,2.7461171875,7.736546875,-18.002265625,-0.0587968749999996,3.71298046875,2.77902734375,8.75751953125,-0.14121875,0.24784375,4.79502734375,7.73753515625,6.1557109375,2.25125390625,5.2824765625,4.8524609375,15.5473671875,6.86646484375,4.729640625,8.1864609375,4.1743828125
-6.17946875,-0.21059375,3.06017578125,-3.4379296875,-2.62472265625,-0.84591796875,0.884671875,0.18053125,-6.496984375,-3.5507734375,-0.116882812499999,5.553546875,-18.886265625,-2.829796875,0.84898046875,0.0800273437500003,6.48751953125,-3.78621875,-2.38315625,1.11702734375,4.27553515625,2.6707109375,-1.35574609375,1.3514765625,1.2814609375,11.8013671875,3.37246484375,0.777640625,4.1484609375,0.1723828125
-6.77046875,-1.30959375,1.96617578125,-6.2819296875,-4.66672265625,-2.72591796875,-0.653328125,-0.49346875,-7.892984375,-5.8087734375,-3.1188828125,3.175546875,-18.086265625,-5.351796875,-2.04201953125,-2.58997265625,3.22351953125,-7.25521875,-4.63415625,-2.51897265625,0.26253515625,-0.9482890625,-4.84874609375,-2.5985234375,-2.6125390625,7.3873671875,-0.28753515625,-3.412359375,-0.2385390625,-4.1796171875
-6.78246875,-1.85059375,1.25317578125,-8.0909296875,-6.02372265625,-4.13191796875,-1.729328125,-1.11946875,-7.935984375,-7.4917734375,-5.6038828125,1.414546875,-15.354265625,-6.823796875,-4.36401953125,-4.61397265625,-0.25548046875,-9.31821875,-5.95615625,-5.29997265625,-3.34646484375,-3.3322890625,-7.25774609375,-5.6265234375,-5.7445390625,3.4333671875,-3.03653515625,-6.404359375,-3.6255390625,-7.5546171875
-6.23546875,-1.64959375,1.18317578125,-8.3529296875,-6.36072265625,-4.65691796875,-2.052328125,-1.19946875,-6.595984375,-8.1927734375,-7.0408828125,0.887546875,-10.924265625,-6.745796875,-5.58701953125,-5.51897265625,-3.03448046875,-9.23121875,-5.95215625,-6.56197265625,-5.67146484375,-3.5042890625,-7.84774609375,-6.9495234375,-7.2075390625,0.8983671875,-3.93353515625,-7.026359375,-4.8205390625,-8.8656171875
-5.29846875,-0.75459375,1.72017578125,-7.0989296875,-5.71472265625,-4.17291796875,-1.574328125,-0.44146875,-4.488984375,-7.7847734375,-7.1838828125,1.767546875,-5.603265625,-5.155796875,-5.44701953125,-5.16197265625,-4.29848046875,-7.08721875,-4.59515625,-6.05897265625,-6.25746484375,-1.3442890625,-6.46374609375,-6.2905234375,-6.6875390625,0.169367187499999,-2.60253515625,-4.870359375,-3.3165390625,-7.7686171875
-4.28546875,0.53440625,2.53417578125,-4.8419296875,-4.47472265625,-2.93991796875,-0.565328125,1.03153125,-2.562984375,-6.5077734375,-6.1788828125,3.684546875,-0.811265625000001,-2.674796875,-4.10601953125,-3.82997265625,-3.67648046875,-3.80721875,-2.33715625,-4.12297265625,-5.27446484375,2.2947109375,-3.66674609375,-4.0625234375,-4.6575390625,0.909367187499999,0.52946484375,-0.525359375,0.4224609375,-4.8476171875
-3.59646875,1.73940625,3.14017578125,-2.3819296875,-3.22372265625,-1.54591796875,0.438671875,2.66753125,-1.629984375,-4.9507734375,-4.5708828125,5.833546875,1.732734375,-0.303796875,-2.16301953125,-2.17197265625,-1.51348046875,-0.77021875,-0.03115625,-1.60397265625,-3.46346484375,5.8927109375,-0.57574609375,-1.2575234375,-2.2045390625,2.2453671875,4.34446484375,4.592640625,5.0814609375,-1.4006171875
-3.52546875,2.37140625,3.13017578125,-0.5529296875,-2.54472265625,-0.68191796875,0.842671875,3.71253125,-2.042984375,-3.8747734375,-3.1418828125,7.299546875,0.790734375,0.936203125,-0.48501953125,-0.97697265625,1.19151953125,0.73078125,1.34684375,0.42002734375,-1.82046484375,7.8407109375,1.54425390625,0.9084765625,-0.5745390625,3.2053671875,7.44846484375,8.714640625,8.9934609375,1.1133828125
-4.11346875,2.13040625,2.39417578125,-0.00692968750000045,-2.84372265625,-0.85791796875,0.255671875,3.55253125,-3.671984375,-3.9507734375,-2.6378828125,7.433546875,-3.568265625,0.386203125000001,0.10898046875,-0.86397265625,3.23951953125,-0.02721875,1.07284375,1.04902734375,-1.18946484375,7.0467109375,1.74825390625,1.4784765625,-0.635539062499999,3.1423671875,8.71546484375,10.318640625,10.7674609375,1.6623828125
-5.14546875,1.03740625,1.18517578125,-1.0479296875,-4.25172265625,-2.20891796875,-1.357328125,1.98753125,-6.111984375,-5.4877734375,-3.4878828125,6.120546875,-9.713265625,-2.006796875,-0.81601953125,-2.04297265625,3.82051953125,-2.96621875,-1.03615625,-0.08097265625,-1.93946484375,3.3547109375,-0.23374609375,0.1224765625,-2.5295390625,1.9593671875,7.72146484375,8.667640625,9.8014609375,0.0293828125000001
-6.26446875,-0.55259375,0.00817578125000029,-3.5059296875,-6.57172265625,-4.44191796875,-3.642328125,-0.64646875,-8.867984375,-8.2627734375,-5.6078828125,3.839546875,-15.083265625,-5.646796875,-3.09101953125,-4.20097265625,2.87551953125,-7.26121875,-4.49515625,-2.63297265625,-3.83846484375,-2.3792890625,-3.89074609375,-2.7265234375,-5.6375390625,0.0773671875000002,4.89246484375,4.099640625,6.4684609375,-3.1566171875
-7.06846875,-2.08459375,-0.59382421875,-6.7129296875,-9.29872265625,-6.91191796875,-5.912328125,-3.51146875,-11.397984375,-11.5407734375,-8.3798828125,1.484546875,-17.444265625,-9.468796875,-5.95701953125,-6.58697265625,1.03051953125,-11.65521875,-8.29415625,-5.67397265625,-6.16146484375,-8.5742890625,-8.12574609375,-6.0525234375,-8.8565390625,-1.7896328125,1.31546484375,-2.063359375,1.9354609375,-6.7146171875
-7.19346875,-3.02559375,-0.30582421875,-9.7049296875,-11.75272265625,-8.84091796875,-7.339328125,-5.52646875,-13.135984375,-14.3357734375,-10.8658828125,0.022546875,-16.071265625,-12.315796875,-8.36501953125,-8.29197265625,-0.807480468750001,-14.91621875,-11.27515625,-8.06897265625,-8.01246484375,-13.5222890625,-11.67474609375,-8.6915234375,-11.0695390625,-2.9546328125,-1.74853515625,-8.025359375,-2.3465390625,-9.4196171875
-6.43046875,-3.07259375,0.78917578125,-11.5849296875,-13.30772265625,-9.60991796875,-7.272328125,-5.79746875,-13.589984375,-15.7927734375,-12.1888828125,0.120546875,-12.096265625,-13.371796875,-9.42501953125,-8.62897265625,-1.92748046875,-16.27421875,-12.60815625,-8.96497265625,-8.72246484375,-16.0072890625,-13.59274609375,-9.8235234375,-11.5965390625,-3.0406328125,-3.40053515625,-12.217359375,-5.2375390625,-10.4976171875
-4.80946875,-2.24859375,2.23217578125,-11.8499296875,-13.60072265625,-8.98891796875,-5.527328125,-4.01646875,-12.506984375,-15.5107734375,-11.8878828125,1.915546875,-7.800265625,-12.434796875,-8.75401953125,-7.40197265625,-2.07348046875,-15.60921875,-12.08715625,-8.13497265625,-8.12046484375,-15.6722890625,-13.53974609375,-9.2655234375,-10.4015390625,-2.0996328125,-3.41853515625,-13.832359375,-6.2885390625,-9.8706171875
-2.61146875,-0.87159375,3.44217578125,-10.4809296875,-12.62372265625,-7.19491796875,-2.484328125,-0.60946875,-9.990984375,-13.6497734375,-10.0858828125,5.002546875,-5.393265625,-9.902796875,-6.58801953125,-4.96797265625,-1.41748046875,-13.36221875,-10.11915625,-5.99497265625,-6.55346484375,-12.9942890625,-11.79374609375,-7.4415234375,-7.9965390625,-0.5276328125,-2.20153515625,-12.956359375,-5.7635390625,-8.0536171875
-0.29546875,0.54840625,4.02317578125,-7.8519296875,-10.73672265625,-4.81291796875,1.015671875,3.41953125,-6.532984375,-10.8547734375,-7.4458828125,8.566546875,-6.042265625,-6.583796875,-3.66601953125,-2.11097265625,-0.36248046875,-10.31421875,-7.49315625,-3.39697265625,-4.71346484375,-8.9922890625,-9.05774609375,-5.1365234375,-5.1615390625,1.1163671875,-0.48353515625,-10.351359375,-4.3805390625,-5.8556171875
1.56253125,1.45540625,3.91417578125,-4.6309296875,-8.60872265625,-2.65891796875,3.906671875,6.80453125,-2.966984375,-8.0757734375,-4.9738828125,11.579546875,-9.545265625,-3.458796875,-1.01301953125,0.19002734375,0.63551953125,-7.37321875,-5.10915625,-1.31997265625,-3.40646484375,-4.8622890625,-6.23274609375,-3.2155234375,-2.6835390625,2.2903671875,0.98146484375,-7.083359375,-2.9685390625,-4.0376171875
2.39453125,1.43740625,3.31717578125,-1.6959296875,-7.06272265625,-1.56791796875,5.200671875,8.39853125,-0.301984375,-6.3027734375,-3.6938828125,13.052546875,-14.523265625,-1.458796875,0.37898046875,1.04302734375,1.19451953125,-5.38321875,-3.74815625,-0.56997265625,-3.28846484375,-1.6492890625,-4.17374609375,-2.3695234375,-1.1435390625,2.6243671875,1.64146484375,-4.157359375,-2.1645390625,-3.0596171875
1.88553125,0.40740625,2.50717578125,0.0470703124999998,-6.78272265625,-2.08291796875,4.377671875,7.58453125,0.589015625,-6.2287734375,-4.2488828125,12.355546875,-18.946265625,-1.208796875,-0.09401953125,-0.0289726562499997,1.09951953125,-4.89321875,-3.84615625,-1.49897265625,-4.61346484375,0.0127109375000001,-3.43874609375,-2.9055234375,-0.7495390625,2.0863671875,1.31146484375,-2.224359375,-2.1955390625,-2.9156171875
0.22653125,-1.32559375,1.68417578125,-0.0129296875000002,-7.99672265625,-4.17291796875,1.665671875,4.54553125,-0.665984375,-7.9497734375,-6.5968828125,9.513546875,-20.882265625,-2.790796875,-2.36501953125,-2.84497265625,0.373519531249999,-5.92721875,-5.32015625,-3.84997265625,-7.06646484375,0.0717109374999998,-4.08374609375,-4.6225234375,-1.2635390625,1.0803671875,0.24346484375,-1.393359375,-2.7955390625,-3.1336171875
-1.89246875,-3.19059375,0.91917578125,-1.9199296875,-10.35272265625,-7.20091796875,-2.023328125,0.23053125,-3.742984375,-10.9047734375,-10.0168828125,5.261546875,-19.312265625,-5.670796875,-5.69901953125,-6.58597265625,-0.75848046875,-7.92921875,-7.58315625,-6.84397265625,-9.86346484375,-0.9542890625,-5.62474609375,-6.8735234375,-2.1195390625,0.3083671875,-0.97553515625,-1.264359375,-3.3585390625,-3.0066171875
-3.62146875,-4.62859375,0.19917578125,-5.1279296875,-13.09572265625,-10.23191796875,-5.534328125,-4.05946875,-7.742984375,-14.1257734375,-13.4638828125,0.774546875,-14.536265625,-8.908796875,-9.03801953125,-10.13597265625,-2.00848046875,-9.98821875,-9.80915625,-9.53497265625,-12.11546484375,-2.2112890625,-7.25774609375,-8.8635234375,-2.7625390625,0.406367187499999,-1.70253515625,-1.185359375,-3.2755390625,-2.0066171875
-4.37446875,-5.34759375,-0.46082421875,-8.7539296875,-15.43872265625,-12.47791796875,-7.969328125,-7.20446875,-11.551984375,-16.6887734375,-16.0448828125,-2.798453125,-7.919265625,-11.557796875,-11.48901953125,-12.55797265625,-3.19748046875,-11.26021875,-11.31415625,-11.23497265625,-13.24446484375,-2.9192890625,-8.23874609375,-10.0125234375,-2.9725390625,1.5563671875,-1.56553515625,-0.627359375,-2.3015390625,-0.1376171875
-4.04346875,-5.39059375,-0.90882421875,-11.9089296875,-16.87872265625,-13.57891796875,-8.930328125,-8.63546875,-14.217984375,-18.0597734375,-17.3208828125,-4.744453125,-1.227265625,-13.013796875,-12.65801953125,-13.43297265625,-4.31348046875,-11.33321875,-11.81215625,-11.74797265625,-13.18646484375,-2.7202890625,-8.20874609375,-10.1745234375,-2.9395390625,3.3733671875,-0.61953515625,0.542640625,-0.6835390625,2.0313828125
-2.92646875,-5.01559375,-0.87682421875,-13.9299296875,-17.26072265625,-13.57891796875,-8.468328125,-8.40446875,-15.143984375,-18.1567734375,-17.3028828125,-4.923453125,3.933734375,-13.118796875,-12.63701953125,-12.86497265625,-5.40548046875,-10.30321875,-11.39815625,-11.29397265625,-12.26346484375,-1.7702890625,-7.25974609375,-9.5495234375,-3.0255390625,5.1633671875,0.76946484375,2.072640625,1.0244609375,3.7213828125
-1.50446875,-4.46459375,-0.12982421875,-14.4349296875,-16.62572265625,-12.67591796875,-6.877328125,-6.98246875,-14.110984375,-17.1427734375,-16.2168828125,-3.627453125,6.459734375,-12.007796875,-11.71201953125,-11.23197265625,-6.39548046875,-8.57221875,-10.31715625,-10.20397265625,-10.88946484375,-0.5132890625,-5.73274609375,-8.3975234375,-3.4015390625,6.3683671875,2.22946484375,3.586640625,2.3434609375,4.4443828125
-0.17546875,-3.79959375,1.35917578125,-13.2729296875,-15.00872265625,-10.97691796875,-4.513328125,-4.91846875,-11.227984375,-15.1677734375,-14.2668828125,-1.293453125,6.000734375,-9.890796875,-10.05301953125,-8.89597265625,-6.96348046875,-6.53921875,-8.71415625,-8.64397265625,-9.31646484375,0.6417109375,-3.93974609375,-6.8015234375,-3.8615390625,6.8813671875,3.62746484375,4.862640625,3.1334609375,4.3023828125
0.94353125,-2.90459375,3.34617578125,-10.4889296875,-12.39472265625,-8.43691796875,-1.692328125,-2.55746875,-6.932984375,-12.2867734375,-11.5638828125,1.708546875,3.078734375,-6.962796875,-7.62201953125,-6.07097265625,-6.62348046875,-4.45521875,-6.58415625,-6.56197265625,-7.59946484375,1.4987109375,-2.03974609375,-4.6655234375,-3.9495390625,7.0423671875,5.06746484375,5.889640625,3.5694609375,3.8623828125
1.99653125,-1.66059375,5.38617578125,-6.3929296875,-8.87072265625,-5.02691796875,1.303671875,0.0165312499999997,-1.995984375,-8.5857734375,-8.2328828125,5.094546875,-1.126265625,-3.478796875,-4.36401953125,-2.91797265625,-4.98248046875,-2.47421875,-3.91715625,-3.87197265625,-5.72546484375,1.9887109375,-0.10974609375,-1.9415234375,-3.2915390625,7.3503671875,6.67546484375,6.708640625,3.8814609375,3.7313828125
3.17153125,-0.12059375,6.98317578125,-1.6469296875,-4.81172265625,-0.97491796875,4.149671875,2.78853125,2.573015625,-4.3597734375,-4.5768828125,8.554546875,-5.284265625,0.136203125000001,-0.45101953125,0.29002734375,-2.03848046875,-0.78121875,-0.88215625,-0.69297265625,-3.77346484375,2.0287109375,1.71725390625,1.1594765625,-1.8795390625,8.1133671875,8.37846484375,7.242640625,4.1314609375,4.1843828125
4.45353125,1.43640625,7.75417578125,2.7970703125,-0.88272265625,3.15408203125,6.464671875,5.59553125,5.795015625,-0.145773437500001,-1.1048828125,11.675546875,-8.370265625,3.327203125,3.62198046875,3.12702734375,1.69851953125,0.42178125,2.14784375,2.57202734375,-1.96046484375,1.5277109375,3.25225390625,4.1624765625,-0.0845390625000002,9.2683671875,9.88546484375,7.339640625,4.2244609375,5.0793828125
5.61853125,2.62940625,7.58317578125,6.0020703125,2.19427734375,6.62308203125,7.918671875,8.07353125,7.085015625,3.4362265625,1.6171171875,14.002546875,-9.808265625,5.611203125,7.18698046875,5.14202734375,5.35851953125,1.04778125,4.76184375,5.36502734375,-0.55446484375,0.5507109375,4.36525390625,6.5404765625,1.5734609375,10.4643671875,10.87346484375,6.958640625,4.1014609375,6.0743828125
6.40853125,3.17240625,6.67217578125,7.4050703125,3.92927734375,8.81408203125,8.377671875,9.77853125,6.466015625,5.8902265625,3.1911171875,15.190546875,-9.369265625,6.769203125,9.64698046875,6.04402734375,8.04151953125,1.19778125,6.68784375,7.19902734375,0.23053515625,-0.6172890625,5.05725390625,7.9394765625,2.6894609375,11.2583671875,11.16046484375,6.264640625,3.8544609375,6.8573828125
6.68553125,3.00440625,5.42817578125,6.9580703125,4.22927734375,9.42908203125,7.912671875,10.34653125,4.490015625,6.9622265625,3.5231171875,15.127546875,-7.098265625,6.869203125,10.65698046875,5.80502734375,9.11751953125,1.06278125,7.82484375,7.80402734375,0.26853515625,-1.6352890625,5.37425390625,8.2464765625,3.0874609375,11.3083671875,10.72046484375,5.469640625,3.6214609375,7.2333828125
6.45953125,2.31340625,4.23417578125,5.0260703125,3.37427734375,8.56308203125,6.706671875,9.60453125,1.978015625,6.6832265625,2.8251171875,13.970546875,-3.418265625,6.177203125,10.22098046875,4.66302734375,8.38951953125,0.77278125,8.18684375,7.19902734375,-0.46946484375,-2.3432890625,5.28025390625,7.5494765625,2.7954609375,10.4943671875,9.59946484375,4.614640625,3.4044609375,7.1003828125
5.86553125,1.45140625,3.30817578125,2.2320703125,1.92427734375,6.69408203125,5.014671875,7.68853125,-0.202984375,5.3962265625,1.5691171875,12.136546875,0.756734375,5.088203125,8.72998046875,3.09602734375,6.16451953125,0.38678125,7.89784375,5.73202734375,-1.84146484375,-2.8162890625,4.69625390625,6.1044765625,2.0244609375,9.0163671875,7.91546484375,3.565640625,3.0594609375,6.4823828125
5.18753125,0.80940625,2.73117578125,-0.646929687500001,0.60027734375,4.59808203125,3.212671875,5.12953125,-1.252984375,3.7442265625,0.3891171875,10.228546875,4.235734375,4.098203125,6.90998046875,1.74502734375,3.21651953125,0.0187812500000001,7.24184375,4.04002734375,-3.44546484375,-3.1772890625,3.67925390625,4.3524765625,1.1594609375,7.3923671875,5.94646484375,2.249640625,2.4804609375,5.6093828125
4.80053125,0.68240625,2.54717578125,-2.7899296875,0.0962773437500002,3.12808203125,1.793671875,2.74753125,-0.588984375,2.5072265625,-0.1098828125,8.861546875,6.123734375,3.706203125,5.57798046875,1.22002734375,0.57851953125,-0.11021875,6.61384375,2.85002734375,-4.70746484375,-3.4072890625,2.51625390625,2.8344765625,0.6574609375,6.2623671875,4.13546484375,0.845640625,1.7474609375,4.8923828125
4.98353125,1.14840625,2.77117578125,-3.5599296875,0.80427734375,2.85408203125,1.158671875,1.29253125,1.867015625,2.2712265625,0.3571171875,8.382546875,6.344734375,4.165203125,5.25898046875,1.79202734375,-0.858480468750001,0.16478125,6.30184375,2.61802734375,-5.17446484375,-3.3832890625,1.56125390625,1.9394765625,0.7934609375,6.0173671875,2.85746484375,-0.329359375,1.0204609375,4.6683828125
5.72853125,2.01740625,3.28117578125,-2.7689296875,2.58927734375,3.77908203125,1.371671875,1.06753125,5.445015625,3.0972265625,1.5531171875,8.647546875,5.600734375,5.257203125,5.87398046875,3.16002734375,-0.752480468750001,0.72678125,6.23884375,3.23102734375,-4.83546484375,-3.1002890625,0.94425390625,1.6404765625,1.4194609375,6.4883671875,2.11746484375,-1.136359375,0.2934609375,4.9013828125
6.72653125,2.88540625,3.76117578125,-0.7759296875,4.79727734375,5.34308203125,2.085671875,1.82753125,8.842015625,4.4872265625,2.8061171875,9.091546875,4.778734375,6.337203125,6.78398046875,4.55002734375,0.556519531249999,1.14078125,6.01684375,4.04902734375,-4.14046484375,-2.8022890625,0.43925390625,1.4844765625,1.9844609375,7.0143671875,1.48546484375,-1.764359375,-0.6855390625,5.1223828125
7.54953125,3.33340625,3.81717578125,1.6570703125,6.58227734375,6.76608203125,2.752671875,3.02353125,10.711015625,5.6952265625,3.4011171875,9.095546875,4.329734375,6.708203125,7.21598046875,5.16102734375,2.29751953125,0.94178125,5.19984375,4.31802734375,-3.67346484375,-2.8332890625,-0.31574609375,0.9264765625,1.8804609375,6.8933671875,0.41846484375,-2.547359375,-2.1825390625,4.7693828125
7.88253125,3.14940625,3.20117578125,3.6910703125,7.34427734375,7.48208203125,2.914671875,4.14453125,10.417015625,6.2022265625,3.0171171875,8.405546875,4.119734375,6.086203125,6.77598046875,4.64202734375,3.73051953125,0.0247812500000001,3.71884375,3.66702734375,-3.73146484375,-3.3252890625,-1.44974609375,-0.2355234375,0.8464609375,5.8943671875,-1.28453515625,-3.610359375,-4.1495390625,3.6473828125
7.64253125,2.43540625,1.96817578125,4.7240703125,6.99827734375,7.38208203125,2.405671875,4.89053125,8.398015625,5.9622265625,1.8731171875,7.247546875,3.728734375,4.767203125,5.65398046875,3.24302734375,4.51251953125,-1.22321875,1.98284375,2.29702734375,-4.18246484375,-4.0532890625,-2.68674609375,-1.6925234375,-0.889539062500001,4.4013671875,-3.28353515625,-4.727359375,-6.1365390625,2.1003828125
6.97353125,1.49640625,0.45017578125,4.5690703125,5.90227734375,6.74208203125,1.355671875,5.13253125,5.859015625,5.2962265625,0.4901171875,6.073546875,2.793734375,3.375203125,4.39698046875,1.53802734375,4.70751953125,-2.18621875,0.60284375,0.74002734375,-4.70346484375,-4.6082890625,-3.56274609375,-2.8915234375,-2.8475390625,3.0753671875,-4.95053515625,-5.516359375,-7.5815390625,0.7183828125
6.12053125,0.61640625,-0.95182421875,3.4240703125,4.54027734375,5.92908203125,0.045671875,4.79453125,3.991015625,4.5372265625,-0.7298828125,5.178546875,1.141734375,2.383203125,3.45198046875,-0.0359726562499998,4.49751953125,-2.49421875,-0.05915625,-0.59197265625,-5.16046484375,-4.7562890625,-3.82974609375,-3.4945234375,-4.6745390625,2.3163671875,-5.86153515625,-5.797359375,-8.2355390625,-0.1596171875
5.24553125,-0.13559375,-2.00782421875,1.6670703125,3.21627734375,5.09908203125,-1.311328125,3.80853125,3.262015625,3.7402265625,-1.7938828125,4.468546875,-1.222265625,1.758203125,2.81898046875,-1.46497265625,3.85251953125,-2.34021875,-0.18715625,-1.71797265625,-5.81446484375,-4.6782890625,-3.72874609375,-3.6905234375,-6.3935390625,1.9383671875,-6.13053515625,-5.793359375,-8.3875390625,-0.7396171875
4.32553125,-0.90859375,-2.77082421875,-0.3559296875,1.92027734375,4.08708203125,-2.706328125,2.17053125,3.216015625,2.6452265625,-3.0838828125,3.543546875,-4.083265625,0.979203125,2.04598046875,-3.10697265625,2.47851953125,-2.40921875,-0.44615625,-3.04797265625,-7.19946484375,-4.8942890625,-3.89774609375,-4.1265234375,-8.3315390625,1.2603671875,-6.35853515625,-6.019359375,-8.7155390625,-1.6646171875
3.24553125,-1.90659375,-3.46782421875,-2.4149296875,0.45927734375,2.58108203125,-4.257328125,0.0595312499999998,2.904015625,0.921226562499999,-5.0308828125,2.006546875,-6.898265625,-0.585796875,0.56298046875,-5.35397265625,0.11651953125,-3.43121875,-1.56815625,-5.04097265625,-9.72446484375,-5.9022890625,-4.96274609375,-5.4705234375,-10.7915390625,-0.4216328125,-7.20553515625,-6.922359375,-9.8315390625,-3.5326171875
2.02253125,-3.16759375,-4.23782421875,-4.3299296875,-1.27172265625,0.46908203125,-5.963328125,-2.09446875,1.629015625,-1.4697734375,-7.6948828125,-0.183453125,-8.832265625,-3.180796875,-1.83601953125,-8.20797265625,-3.03748046875,-5.62921875,-3.82415625,-7.75697265625,-13.23946484375,-7.7492890625,-7.04974609375,-7.8815234375,-13.6545390625,-3.2696328125,-8.86953515625,-8.501359375,-11.8005390625,-6.3716171875
0.91953125,-4.45959375,-4.94482421875,-5.8639296875,-3.04972265625,-1.90691796875,-7.524328125,-3.69746875,-0.490984375,-4.0427734375,-10.5458828125,-2.553453125,-9.077265625,-6.358796875,-4.69101953125,-11.07797265625,-6.16748046875,-8.41621875,-6.72615625,-10.61597265625,-16.88346484375,-9.8132890625,-9.53574609375,-10.7165234375,-16.2215390625,-6.6316328125,-10.81453515625,-10.152359375,-13.9325390625,-9.4216171875
0.35353125,-5.35959375,-5.22882421875,-6.7169296875,-4.32972265625,-3.80991796875,-8.416328125,-4.21646875,-2.522984375,-5.9097734375,-12.6318828125,-4.298453125,-7.262265625,-9.103796875,-6.98001953125,-12.96897265625,-8.13748046875,-10.57621875,-9.18615625,-12.56997265625,-19.37846484375,-11.0172890625,-11.25574609375,-12.7435234375,-17.4465390625,-9.2826328125,-11.97653515625,-10.910359375,-15.0755390625,-11.4426171875
0.68653125,-5.47759375,-4.74982421875,-6.6179296875,-4.52272265625,-4.47491796875,-8.167328125,-3.43446875,-3.280984375,-6.2387734375,-13.0618828125,-4.746453125,-3.633265625,-10.342796875,-7.64101953125,-12.99297265625,-8.09448046875,-10.89721875,-10.07915625,-12.64497265625,-19.66846484375,-10.3922890625,-11.10974609375,-12.7855234375,-16.5045390625,-10.0786328125,-11.36953515625,-9.980359375,-14.2605390625,-11.4056171875
2.03753125,-4.67859375,-3.44582421875,-5.4599296875,-3.39372265625,-3.56191796875,-6.652328125,-1.59546875,-2.080984375,-4.7857734375,-11.5308828125,-3.807453125,1.059734375,-9.543796875,-6.22201953125,-10.91497265625,-5.96848046875,-8.87521875,-8.88715625,-10.53597265625,-17.53846484375,-7.6702890625,-8.71274609375,-10.4355234375,-13.3405390625,-8.6386328125,-8.71053515625,-7.243359375,-11.3215390625,-9.1456171875
4.16653125,-3.19159375,-1.63982421875,-3.4319296875,-1.31672265625,-1.41391796875,-4.251328125,0.62053125,0.802015625,-2.1497734375,-8.5688828125,-2.110453125,5.758734375,-7.046796875,-3.23801953125,-7.38397265625,-2.56748046875,-5.05821875,-6.03115625,-6.87797265625,-13.81546484375,-3.5272890625,-4.67674609375,-6.3585234375,-8.8645390625,-5.6216328125,-4.67953515625,-3.375359375,-7.0675390625,-5.5406171875
6.48353125,-1.53959375,0.06317578125,-1.0559296875,0.81927734375,1.03608203125,-1.772328125,2.32653125,4.230015625,0.440226562499999,-5.3588828125,-0.702453125,9.301734375,-3.927796875,0.01698046875,-3.68097265625,0.78351953125,-0.78821875,-2.68715625,-2.99697265625,-10.02546484375,0.7217109375,-0.33474609375,-2.0015234375,-4.5995390625,-2.4356328125,-0.60453515625,0.491640625,-2.8925390625,-2.0716171875
8.25453125,-0.30559375,1.05917578125,0.9320703125,2.01027734375,2.71408203125,-0.117328125,2.80553125,6.767015625,1.7102265625,-3.1878828125,-0.469453125,10.712734375,-1.483796875,2.10298046875,-1.10897265625,2.83451953125,2.47278125,-0.20315625,-0.27097265625,-7.68346484375,3.7987109375,2.91725390625,1.1344765625,-1.9925390625,-0.5386328125,2.20546484375,3.352640625,-0.0635390625000001,-0.0556171874999999
8.96353125,0.11240625,1.02217578125,1.8690703125,1.62227734375,2.93308203125,0.135671875,1.87653125,7.374015625,0.957226562499999,-2.8518828125,-1.663453125,9.574734375,-0.651796875,2.14898046875,-0.39497265625,2.91351953125,3.81378125,0.54484375,0.50102734375,-7.61646484375,5.0467109375,4.25625390625,2.1884765625,-1.7575390625,-0.733632812500001,3.07146484375,4.732640625,0.8524609375,-0.0436171874999999
8.56853125,-0.34159375,0.0331757812500002,1.4620703125,-0.32172265625,1.69308203125,-1.017328125,-0.00046875000000024,5.836015625,-1.6507734375,-4.3438828125,-3.813453125,6.222734375,-1.660796875,0.21698046875,-1.42897265625,1.11951953125,3.14578125,-0.51615625,-0.62097265625,-9.68746484375,4.5487109375,3.67025390625,1.2354765625,-3.6495390625,-2.8706328125,2.14146484375,4.681640625,0.0844609375000001,-1.7046171875
7.46353125,-1.41859375,-1.52182421875,-0.0929296875000003,-3.20672265625,-0.41391796875,-3.092328125,-2.01946875,2.758015625,-5.2237734375,-6.9708828125,-6.052453125,1.547734375,-4.065796875,-2.83201953125,-3.44897265625,-1.85648046875,1.01678125,-2.76515625,-2.89897265625,-13.01346484375,2.8187109375,1.75425390625,-0.9375234375,-6.7355390625,-6.0516328125,0.12646484375,3.471640625,-1.6605390625,-4.1926171875
6.20353125,-2.72459375,-3.15882421875,-2.2309296875,-6.14172265625,-2.57791796875,-5.411328125,-3.50946875,-0.782984375,-8.6047734375,-9.7568828125,-7.608453125,-3.395265625,-7.048796875,-5.82901953125,-5.50997265625,-5.10548046875,-1.78821875,-5.28315625,-5.37997265625,-16.45246484375,0.4197109375,-0.69174609375,-3.3265234375,-9.9235390625,-9.1496328125,-2.17353515625,1.347640625,-3.6525390625,-6.6586171875
5.24553125,-3.88259375,-4.43982421875,-4.2839296875,-8.33672265625,-4.14491796875,-7.349328125,-4.26046875,-3.672984375,-10.8667734375,-11.8658828125,-8.150453125,-7.640265625,-9.772796875,-7.83401953125,-6.91497265625,-7.85548046875,-4.54821875,-7.27315625,-7.33097265625,-19.06046484375,-2.1632890625,-2.98874609375,-5.1715234375,-12.4215390625,-11.2896328125,-4.20053515625,-1.447359375,-5.3855390625,-8.5816171875
4.83753125,-4.62059375,-5.02382421875,-5.7289296875,-9.33772265625,-4.79891796875,-8.453328125,-4.45946875,-5.075984375,-11.5887734375,-12.8258828125,-7.797453125,-10.293265625,-11.605796875,-8.43901953125,-7.40397265625,-9.62348046875,-6.69221875,-8.28715625,-8.42097265625,-20.30746484375,-4.4042890625,-4.67074609375,-6.1345234375,-13.8955390625,-12.0696328125,-5.69353515625,-4.446359375,-6.5715390625,-9.7826171875
4.99753125,-4.78859375,-4.69882421875,-6.3319296875,-9.09072265625,-4.55791796875,-8.497328125,-4.38846875,-4.612984375,-10.8667734375,-12.5308828125,-6.873453125,-10.575265625,-12.221796875,-7.76601953125,-7.07897265625,-10.21148046875,-7.78821875,-8.24415625,-8.65497265625,-20.08746484375,-5.6942890625,-5.46374609375,-6.2415234375,-14.3655390625,-11.5126328125,-6.55253515625,-6.898359375,-7.0325390625,-10.2496171875
5.53053125,-4.37559375,-3.47582421875,-6.1719296875,-7.88372265625,-3.68091796875,-7.551328125,-4.18346875,-2.453984375,-9.1517734375,-11.1528828125,-5.656453125,-8.197265625,-11.618796875,-6.27601953125,-6.23197265625,-9.63648046875,-7.61321875,-7.36815625,-8.23397265625,-18.63246484375,-5.5722890625,-5.30074609375,-5.7375234375,-14.0345390625,-9.8986328125,-6.74953515625,-8.063359375,-6.6975390625,-10.0076171875
6.12153125,-3.53259375,-1.64982421875,-5.5349296875,-6.23472265625,-2.56491796875,-5.970328125,-3.83146875,0.680015625,-7.0607734375,-9.0628828125,-4.299453125,-3.817265625,-10.117796875,-4.56101953125,-5.20997265625,-8.11448046875,-6.31421875,-6.10715625,-7.45297265625,-16.43346484375,-4.0842890625,-4.39574609375,-4.9865234375,-13.1915390625,-7.6366328125,-6.37653515625,-7.687359375,-5.7175390625,-9.1516171875
6.48853125,-2.57159375,0.25217578125,-4.7389296875,-4.75072265625,-1.63691796875,-4.289328125,-3.32246875,3.690015625,-5.2207734375,-6.7818828125,-2.920453125,1.010734375,-8.296796875,-3.18901953125,-4.36597265625,-6.05048046875,-4.46421875,-5.03215625,-6.68097265625,-14.16846484375,-1.9322890625,-3.26474609375,-4.4185234375,-12.1925390625,-5.2276328125,-5.73553515625,-6.268359375,-4.5465390625,-7.9846171875
6.49853125,-1.86759375,1.66917578125,-3.9939296875,-3.95772265625,-1.26291796875,-3.047328125,-2.79546875,5.470015625,-4.1397734375,-4.9198828125,-1.727453125,4.577734375,-6.819796875,-2.59601953125,-4.02697265625,-3.98948046875,-2.88321875,-4.68615625,-6.33197265625,-12.57746484375,-0.2012890625,-2.56974609375,-4.4525234375,-11.4415390625,-3.2656328125,-5.32953515625,-4.872359375,-3.8655390625,-7.0796171875
6.15653125,-1.71559375,2.21517578125,-3.3999296875,-4.15472265625,-1.67191796875,-2.635328125,-2.52246875,5.335015625,-4.1007734375,-4.0458828125,-1.049453125,5.938734375,-6.212796875,-3.00201953125,-4.44297265625,-2.47248046875,-2.27421875,-5.39415625,-6.75397265625,-12.26046484375,0.1607109375,-2.83374609375,-5.3575234375,-11.3205390625,-2.3516328125,-5.70153515625,-4.600359375,-4.3315390625,-7.1166171875
5.53853125,-2.23159375,1.82717578125,-3.0469296875,-5.34472265625,-2.89791796875,-3.190328125,-2.75446875,3.273015625,-5.1077734375,-4.5298828125,-1.241453125,5.288734375,-6.675796875,-4.36001953125,-5.70597265625,-1.86248046875,-2.90021875,-7.12215625,-8.08897265625,-13.45746484375,-1.2002890625,-4.18574609375,-7.1225234375,-12.0575390625,-2.9096328125,-7.17353515625,-6.016359375,-6.2475390625,-8.5396171875
4.73353125,-3.34759375,0.77317578125,-3.0629296875,-7.26172265625,-4.76791796875,-4.552328125,-3.52646875,-0.0789843750000001,-6.8937734375,-6.3818828125,-2.517453125,3.570734375,-8.020796875,-6.38101953125,-7.69597265625,-2.20748046875,-4.50121875,-9.47515625,-10.16197265625,-15.91346484375,-3.9192890625,-6.28274609375,-9.4135234375,-13.6105390625,-4.9636328125,-9.64253515625,-8.862359375,-9.3315390625,-11.2386171875
3.82553125,-4.85559375,-0.47782421875,-3.5399296875,-9.45472265625,-6.92791796875,-6.336328125,-4.61546875,-3.696984375,-8.9847734375,-9.1998828125,-4.783453125,1.688734375,-9.756796875,-8.60001953125,-10.06197265625,-3.25448046875,-6.44221875,-11.83015625,-12.49397265625,-18.92546484375,-7.1142890625,-8.45874609375,-11.6495234375,-15.6215390625,-8.0306328125,-12.55053515625,-12.185359375,-12.7545390625,-14.4786171875
2.87353125,-6.45659375,-1.48182421875,-4.4099296875,-11.39072265625,-8.93491796875,-8.079328125,-5.68146875,-6.501984375,-10.7967734375,-12.2398828125,-7.572453125,-0.0402656250000005,-11.250796875,-10.48401953125,-12.26597265625,-4.58248046875,-8.00421875,-13.55415625,-14.41797265625,-21.56846484375,-9.7882890625,-9.98174609375,-13.1865234375,-17.5015390625,-11.2286328125,-15.06453515625,-14.795359375,-15.4695390625,-17.1916171875
1.94453125,-7.78359375,-1.99682421875,-5.4119296875,-12.56072265625,-10.35191796875,-9.395328125,-6.48446875,-7.657984375,-11.7587734375,-14.6218828125,-10.126453125,-1.865265625,-11.920796875,-11.52801953125,-13.68397265625,-5.75948046875,-8.64921875,-14.18815625,-15.27297265625,-23.01946484375,-11.1962890625,-10.32474609375,-13.5035234375,-18.6085390625,-13.5686328125,-16.38553515625,-15.806359375,-16.6765390625,-18.4436171875
1.19653125,-8.46659375,-2.00682421875,-6.1979296875,-12.58072265625,-10.82591796875,-10.010328125,-6.97746875,-6.757984375,-11.4417734375,-15.5798828125,-11.632453125,-4.116265625,-11.378796875,-11.33801953125,-13.76797265625,-6.41748046875,-8.17021875,-13.54115625,-14.58597265625,-22.80646484375,-11.0752890625,-9.30974609375,-12.3375234375,-18.4585390625,-14.2956328125,-16.01753515625,-14.987359375,-16.1485390625,-17.8276171875
0.90153125,-8.22359375,-1.59882421875,-6.4799296875,-11.28972265625,-10.13491796875,-9.751328125,-7.22446875,-3.902984375,-9.6817734375,-14.6988828125,-11.530453125,-6.657265625,-9.528796875,-9.73001953125,-12.23497265625,-6.24248046875,-6.68621875,-11.68915625,-12.21297265625,-20.92846484375,-9.6542890625,-7.11274609375,-9.7435234375,-16.8845390625,-13.1326328125,-13.89853515625,-12.757359375,-14.2525390625,-15.5506171875
1.34953125,-6.97059375,-0.85782421875,-6.1459296875,-8.83672265625,-8.26191796875,-8.552328125,-7.24246875,0.309015625,-6.6667734375,-12.0778828125,-9.760453125,-8.697265625,-6.611796875,-6.83201953125,-9.22297265625,-5.02348046875,-4.56321875,-8.95415625,-8.43297265625,-17.81646484375,-7.5272890625,-4.19774609375,-6.0965234375,-14.1085390625,-10.3666328125,-10.40653515625,-9.911359375,-11.7105390625,-12.2686171875
2.68653125,-4.90259375,0.13217578125,-5.2609296875,-5.73472265625,-5.47191796875,-6.487328125,-6.89946875,4.860015625,-2.9777734375,-8.3608828125,-6.835453125,-9.138265625,-3.224796875,-3.17401953125,-5.35897265625,-2.79148046875,-2.34421875,-5.88915625,-3.96397265625,-14.20446484375,-5.4522890625,-1.23074609375,-2.0965234375,-10.7375390625,-6.7826328125,-6.29153515625,-7.279359375,-9.2995390625,-8.8426171875
4.88453125,-2.47659375,1.24417578125,-3.9649296875,-2.80172265625,-2.29391796875,-3.716328125,-5.90546875,8.541015625,0.482226562499999,-4.5888828125,-3.675453125,-7.266265625,-0.231796875,0.35298046875,-1.64097265625,0.0365195312499997,-0.67621875,-3.21515625,0.13702734375,-10.92846484375,-4.1312890625,1.01925390625,1.3154765625,-7.6205390625,-3.4616328125,-2.53153515625,-5.477359375,-7.6415390625,-6.1296171875
7.86053125,-0.27459375,2.30817578125,-2.3269296875,-0.92872265625,0.64308203125,-0.367328125,-3.89646875,10.307015625,2.7462265625,-1.8498828125,-1.247453125,-3.259265625,1.492203125,2.75598046875,0.88502734375,2.73051953125,-0.15221875,-1.63315625,2.78502734375,-8.68346484375,-3.9972890625,1.86025390625,3.1974765625,-5.5865390625,-1.4356328125,-0.0635351562499999,-4.793359375,-7.0855390625,-4.7996171875
11.55353125,1.22640625,3.18217578125,-0.3129296875,-0.72172265625,2.87508203125,3.521671875,-0.60346875,9.664015625,3.1702265625,-0.8528828125,-0.164453125,1.918734375,1.414203125,3.34998046875,1.55402734375,4.58051953125,-1.08921875,-1.55215625,3.29102734375,-7.79346484375,-5.0942890625,0.93925390625,2.9734765625,-5.1255390625,-1.3106328125,0.55646484375,-5.177359375,-7.6665390625,-5.1486171875
15.86853125,1.88640625,3.83217578125,2.1050703125,-2.19072265625,4.30708203125,7.913671875,3.93453125,6.871015625,1.7582265625,-1.6128828125,-0.449453125,7.231734375,-0.388796875,2.10898046875,0.38802734375,5.30851953125,-3.35721875,-2.87915625,1.70702734375,-8.11346484375,-7.1172890625,-1.57974609375,0.7404765625,-6.1715390625,-3.0096328125,-0.58453515625,-6.320359375,-9.1265390625,-6.9756171875
20.56753125,1.99040625,4.35317578125,4.8030703125,-4.68572265625,5.23708203125,12.649671875,9.26353125,2.865015625,-0.772773437500001,-3.4398828125,-1.566453125,12.280734375,-3.215796875,-0.25901953125,-1.88597265625,5.26751953125,-6.38521875,-5.02615625,-1.13697265625,-9.10046484375,-9.5742890625,-5.01174609375,-2.6855234375,-8.1075390625,-5.7846328125,-2.75753515625,-7.791359375,-11.0095390625,-9.6176171875
20.56753125,1.99040625,4.35317578125,4.8030703125,-4.68572265625,5.23708203125,12.649671875,9.26353125,2.865015625,-0.772773437500001,-3.4398828125,-1.566453125,12.280734375,-3.215796875,-0.25901953125,-1.88597265625,5.26751953125,-6.38521875,-5.02615625,-1.13697265625,-9.10046484375,-9.5742890625,-5.01174609375,-2.6855234375,-8.1075390625,-5.7846328125,-2.75753515625,-7.791359375,-11.0095390625,-9.6176171875
