"Fp1","Fpz","Fp2","F7","F3","Fz","F4","F8","FC5","FC1","FC2","FC6","T7","C3","Cz","C4","T8","CP5","CP1","CP2","CP6","P7","P3","Pz","P4","P8","POz","O1","Oz","O2"
5.66462890625,-1.5541015625,-3.16937890625,8.7147109375,2.46916015625,0.18676953125,8.42653125,6.03450390625,-2.184515625,-2.06335546875,6.2200546875,8.486125,7.72240625,-3.434265625,1.44065234375,2.717421875,11.33245703125,-6.1403046875,-3.1091640625,1.2031328125,0.224195312500001,0.0980742187499998,-6.31353125,2.384578125,-9.16373828125,-4.9098125,-9.195625,-3.829625,-2.56462890625,-12.01593359375
9.84062890625,3.5978984375,2.24062109375,10.7097109375,-2.94383984375,1.18976953125,5.46053125,8.78250390625,-4.214515625,-2.44935546875,6.7570546875,6.486125,6.13740625,-5.617265625,1.33565234375,0.526421875,8.33545703125,-8.2933046875,-4.5121640625,-0.0518671875000001,-1.8428046875,-1.79492578125,-7.71153125,1.669578125,-11.17773828125,-7.4168125,-8.412625,-5.524625,-3.63762890625,-12.03893359375
13.45762890625,8.3258984375,7.39062109375,12.4007109375,-4.21483984375,3.87076953125,4.87553125,10.57250390625,-4.755515625,-0.227355468749999,8.9680546875,6.791125,4.65040625,-5.358265625,3.33165234375,0.534421875,7.47945703125,-8.8743046875,-3.5371640625,0.6011328125,-2.4188046875,-2.34992578125,-7.19353125,2.562578125,-11.59273828125,-8.2768125,-6.755625,-5.961625,-3.16062890625,-10.92793359375
15.88162890625,12.0108984375,11.84062109375,13.3797109375,-1.26883984375,7.96976953125,6.71353125,11.43350390625,-3.750515625,4.37964453125,12.8280546875,9.209125,3.11140625,-2.623265625,7.38365234375,2.937421875,8.70845703125,-7.7933046875,-0.1831640625,3.2781328125,-1.1548046875,-1.50892578125,-4.76853125,5.078578125,-10.19373828125,-7.2268125,-4.419625,-5.280625,-1.39362890625,-8.78293359375
16.45962890625,13.9378984375,14.98462109375,13.1807109375,4.45216015625,12.42776953125,10.21353125,11.63850390625,-1.699515625,10.04864453125,17.5790546875,12.772125,1.23040625,1.688734375,12.56165234375,7.140421875,11.19445703125,-5.5403046875,4.6148359375,7.3571328125,1.7851953125,0.24307421875,-1.18753125,8.568578125,-7.35873828125,-4.5798125,-2.078625,-4.166625,0.68837109375,-6.26993359375
14.88162890625,13.6578984375,16.27562109375,11.5167109375,10.59416015625,15.79476953125,14.09853125,11.50050390625,0.566484375,14.88164453125,21.9470546875,16.248125,-1.28659375,6.106734375,17.36465234375,11.922421875,13.79945703125,-3.0073046875,9.3498359375,11.6661328125,5.6821953125,2.03407421875,2.35446875,11.943578125,-3.98373828125,-1.1758125,-0.623625,-3.525625,1.83837109375,-4.38693359375
11.48362890625,11.3438984375,15.57262109375,8.5297109375,14.85416015625,16.85676953125,17.03853125,11.25250390625,2.262484375,17.19864453125,24.6360546875,18.654125,-4.47159375,9.173734375,20.29865234375,15.871421875,15.69045703125,-1.1143046875,12.5498359375,14.9091328125,9.4761953125,3.00007421875,4.74146875,14.132578125,-1.14673828125,1.9211875,-0.714625,-3.957625,1.20037109375,-3.97593359375
7.25762890625,7.9088984375,13.41162109375,4.8577109375,15.86916015625,15.24476953125,18.20053125,11.01950390625,2.975484375,16.26564453125,24.8960546875,19.530125,-7.84259375,10.022734375,20.49865234375,17.923421875,16.75945703125,-0.4183046875,13.3718359375,16.1841328125,12.1781953125,2.73407421875,5.42746875,14.563578125,0.35726171875,3.8731875,-2.370625,-5.345625,-1.17062890625,-5.22093359375
3.49762890625,4.7038984375,10.91862109375,1.4117109375,13.65116015625,11.64876953125,17.61153125,10.84150390625,2.735484375,12.59764453125,22.8620546875,18.949125,-10.44159375,8.647734375,18.06865234375,17.736421875,17.54845703125,-0.9133046875,11.8688359375,15.3191328125,13.2601953125,1.50207421875,4.63146875,13.403578125,0.334261718750001,4.4401875,-4.899625,-6.864625,-4.28862890625,-7.48193359375
1.21662890625,2.8538984375,9.28062109375,-1.0182890625,9.35816015625,7.48776953125,15.99853125,10.70650390625,1.815484375,7.65164453125,19.4490546875,17.306125,-11.28059375,5.754734375,13.96365234375,15.695421875,18.70445703125,-2.1493046875,8.8188359375,12.8271328125,12.7951953125,0.0510742187499998,3.09146875,11.384578125,-0.819738281249999,4.0371875,-7.260625,-7.453625,-6.77662890625,-9.60093359375
0.70162890625,2.6398984375,9.02962109375,-2.1022890625,4.60616015625,4.19676953125,14.18353125,10.58250390625,0.479484375,3.10464453125,15.8640546875,15.062125,-9.94759375,2.336734375,9.51665234375,12.596421875,20.36545703125,-3.5413046875,5.2618359375,9.5681328125,11.3151953125,-0.83692578125,1.58146875,9.370578125,-2.41373828125,3.4741875,-8.606625,-6.456625,-7.60562890625,-10.47993359375
1.48062890625,3.3758984375,9.72362109375,-2.0492890625,0.726160156250001,2.54976953125,12.48653125,10.41650390625,-1.115515625,0.155644531250001,13.0260546875,12.563125,-6.92359375,-0.713265625,5.90165234375,9.250421875,21.99645703125,-4.6233046875,2.0898359375,6.3661328125,9.5151953125,-0.75192578125,0.53546875,7.945578125,-3.79373828125,3.5501875,-8.645625,-4.005625,-6.58062890625,-9.58493359375
2.70662890625,3.9288984375,10.29662109375,-1.3852890625,-1.66483984375,2.43276953125,10.64153125,10.10850390625,-2.811515625,-0.828355468749999,11.2380546875,10.026125,-3.32659375,-2.812265625,3.79565234375,6.218421875,22.76645703125,-5.1433046875,-0.1571640625,3.7891328125,7.9791953125,0.21707421875,-0.0205312500000003,7.242578125,-4.56173828125,4.7071875,-7.640625,-0.910625,-4.30962890625,-7.10693359375
3.67162890625,3.5078984375,9.84662109375,-0.5972890625,-2.67883984375,3.10476953125,8.21753125,9.53650390625,-4.334515625,-0.27935546875,10.2300546875,7.631125,-0.29659375,-3.738265625,3.28265234375,3.760421875,22.12845703125,-5.0433046875,-1.2931640625,2.0871328125,7.0091953125,1.63507421875,-0.30753125,7.031578125,-4.62173828125,6.8751875,-6.147625,1.822375,-1.77362890625,-3.76093359375
4.11362890625,2.1558984375,8.23762109375,0.1167109375,-2.88583984375,3.70676953125,5.13453125,8.64650390625,-5.335515625,0.859644531250001,9.4730546875,5.604125,1.54540625,-3.640265625,3.92465234375,1.898421875,20.09945703125,-4.4143046875,-1.4481640625,1.2131328125,6.5791953125,3.00207421875,-0.57453125,6.927578125,-4.14673828125,9.5251875,-4.725625,3.527375,0.20237109375,-0.39793359375
4.18662890625,0.632898437499999,6.10562109375,0.8497109375,-2.95383984375,3.65476953125,1.84053125,7.51450390625,-5.562515625,1.51964453125,8.4860546875,4.187125,2.20940625,-2.970265625,4.92265234375,0.515421874999999,17.08945703125,-3.4703046875,-1.0191640625,0.8651328125,6.4131953125,3.96407421875,-0.98553125,6.575578125,-3.48373828125,11.9131875,-3.760625,4.144375,1.27537109375,2.34206640625
4.19762890625,-0.194101562500001,4.28662109375,1.7917109375,-3.36183984375,2.75476953125,-0.940468749999999,6.29950390625,-5.008515625,0.90464453125,6.9930546875,3.490125,2.06340625,-2.333265625,5.34965234375,-0.586578125,13.53345703125,-2.5063046875,-0.5871640625,0.5701328125,6.1251953125,4.37407421875,-1.61653125,5.742578125,-3.05173828125,13.3901875,-3.432625,4.087375,1.58537109375,4.17606640625
4.33562890625,0.00489843749999874,3.18662109375,3.0127109375,-4.22683984375,1.10876953125,-2.67646875,5.13950390625,-3.884515625,-1.20735546875,4.9250546875,3.324125,1.44440625,-2.263265625,4.45565234375,-1.667578125,9.70945703125,-1.8603046875,-0.7711640625,-0.1838671875,5.3671953125,4.21207421875,-2.53953125,4.312578125,-3.23273828125,13.6171875,-3.789625,3.844375,1.48137109375,5.11006640625
4.56562890625,0.819898437499999,2.57362109375,4.3657109375,-5.25783984375,-1.01423046875,-3.34746875,4.10750390625,-2.463515625,-4.35135546875,2.4220546875,3.201125,0.48640625,-3.002265625,1.98065234375,-2.994578125,5.86145703125,-1.8353046875,-2.0041640625,-1.7408671875,3.9531953125,3.48007421875,-3.86353125,2.269578125,-4.26973828125,12.5941875,-4.816625,3.596375,1.19437109375,5.26806640625
4.72662890625,1.4908984375,1.98262109375,5.5557109375,-5.83283984375,-3.19123046875,-3.36446875,3.25850390625,-0.930515625,-7.49235546875,-0.125945312500001,2.595125,-0.73959375,-4.373265625,-1.63134765625,-4.667578125,2.42945703125,-2.5933046875,-4.2851640625,-4.0528671875,1.9671953125,2.16207421875,-5.66753125,-0.259421875,-6.13173828125,10.5721875,-6.422625,3.109375,0.70237109375,4.78806640625
4.78362890625,1.5948984375,1.34262109375,6.3247109375,-5.21183984375,-4.80723046875,-3.14146875,2.71050390625,0.675484375,-9.32635546875,-2.0389453125,1.346125,-1.95059375,-5.778265625,-5.23534765625,-6.404578125,0.096457031249999,-4.0293046875,-7.0231640625,-6.5268671875,-0.1768046875,0.29707421875,-7.82353125,-2.894421875,-8.40473828125,7.9311875,-8.343625,1.944375,-0.14762890625,3.80706640625
5.01262890625,1.4908984375,1.22862109375,6.6467109375,-2.85283984375,-5.08923046875,-2.67646875,2.70150390625,2.418484375,-8.72435546875,-2.4469453125,-0.089875000000001,-2.54159375,-6.378265625,-7.30434765625,-7.470578125,-0.477542968750001,-5.7213046875,-9.1161640625,-8.1118671875,-1.8138046875,-1.92592578125,-9.87353125,-4.958421875,-10.31373828125,5.0511875,-10.080625,-0.194625,-1.41162890625,2.49206640625
5.94862890625,2.1418984375,2.50162109375,6.8057109375,1.30616015625,-3.32823046875,-1.47846875,3.57550390625,4.388484375,-5.18235546875,-0.569945312500002,-0.781875000000001,-1.81559375,-5.410265625,-6.49334765625,-6.920578125,0.920457031249999,-7.0153046875,-9.3281640625,-7.6738671875,-2.2818046875,-4.15792578125,-11.10853125,-5.624421875,-10.97173828125,2.1671875,-11.032625,-3.235625,-2.95462890625,0.99306640625
8.03262890625,4.4398984375,5.60762109375,7.2827109375,6.75416015625,0.756769531249999,1.07653125,5.61350390625,6.603484375,0.90064453125,3.9020546875,0.175125,0.59640625,-2.523265625,-2.25234765625,-4.068578125,3.78345703125,-7.2463046875,-6.8301640625,-4.5438671875,-1.2388046875,-5.97392578125,-10.83553125,-4.228421875,-9.77573828125,-0.7048125,-10.747625,-6.721625,-4.53562890625,-0.64293359375
11.19262890625,8.4948984375,10.07662109375,8.4747109375,12.56516015625,6.70976953125,5.19153125,8.75150390625,8.958484375,8.28164453125,10.4750546875,3.121125,4.45740625,2.031734375,4.80665234375,1.048421875,6.99845703125,-5.9713046875,-1.6251640625,1.0791328125,1.1611953125,-7.00292578125,-8.69453125,-0.608421874999999,-6.73073828125,-3.7068125,-9.147625,-9.978625,-5.94362890625,-2.51993359375
14.64762890625,13.3358984375,14.52162109375,10.4217109375,17.67316015625,13.27076953125,10.25553125,12.36250390625,11.207484375,15.23664453125,17.8070546875,7.527125,8.98640625,7.436734375,12.99565234375,7.512421875,9.30845703125,-3.1483046875,5.3248359375,8.0651328125,4.3021953125,-7.01492578125,-4.85253125,4.721578125,-2.52273828125,-6.9498125,-6.565625,-12.326625,-7.06362890625,-4.81393359375
17.12562890625,17.1728984375,17.12862109375,12.7077109375,21.12016015625,18.67476953125,14.88353125,15.35450390625,13.034484375,20.10064453125,24.0400546875,12.112125,13.20740625,12.534734375,20.08365234375,13.740421875,9.88645703125,0.8296953125,12.3768359375,14.6971328125,7.3091953125,-5.95292578125,0.0124687499999996,10.665578125,1.68326171875,-10.3518125,-3.610625,-13.269625,-7.84562890625,-7.60393359375
17.45062890625,18.1818984375,16.45162109375,14.6327109375,22.25916015625,21.27976953125,17.46153125,16.63350390625,14.161484375,21.79764453125,27.4890546875,15.336125,16.34340625,16.198734375,24.13365234375,18.047421875,8.73745703125,5.2476953125,17.7778359375,19.2781328125,9.3441953125,-3.91892578125,4.92346875,15.876578125,4.67126171875,-13.5778125,-0.924625,-12.591625,-8.22562890625,-10.68993359375
15.20462890625,15.4808984375,12.21662109375,15.5847109375,20.94916015625,20.29376953125,16.98753125,15.67450390625,14.463484375,20.21764453125,27.3640546875,16.088125,18.04740625,17.717734375,24.28765234375,19.328421875,6.71945703125,9.3076953125,20.3318359375,20.7761328125,9.9151953125,-1.12692578125,8.95446875,19.230578125,5.66626171875,-16.0698125,1.065375,-10.365625,-8.06462890625,-13.52893359375
11.08862890625,9.8028984375,5.70362109375,15.3957109375,17.66416015625,16.23776953125,13.74953125,12.86350390625,13.992484375,16.28564453125,24.1500546875,14.229125,18.35440625,17.033734375,21.11665234375,17.540421875,5.10945703125,12.3616953125,19.8458359375,19.2041328125,9.0831953125,2.12607421875,11.53846875,20.207578125,4.66426171875,-17.1788125,2.289375,-6.919625,-7.19162890625,-15.37893359375
6.69862890625,3.3488984375,-0.645378906249999,14.4257109375,13.39916015625,10.82076953125,9.34153125,9.39250390625,12.877484375,11.59464453125,19.3990546875,10.707125,17.41540625,14.675734375,16.30365234375,13.719421875,4.95345703125,13.9966953125,17.0908359375,15.5421328125,7.4421953125,5.44707421875,12.54846875,18.986578125,2.40326171875,-16.3728125,2.960375,-2.808625,-5.55862890625,-15.62893359375
3.77462890625,-1.2101015625,-4.31337890625,13.3067109375,9.33316015625,6.22476953125,5.91953125,6.74250390625,11.213484375,7.74364453125,15.0360546875,7.163125,15.26240625,11.448734375,11.82865234375,9.506421875,6.56745703125,14.0146953125,13.3368359375,11.2461328125,5.8671953125,8.33207421875,12.17946875,16.244578125,0.00626171875000026,-13.4618125,3.363375,1.243375,-3.39662890625,-14.13293359375
3.35862890625,-2.0711015625,-3.95537890625,12.5167109375,6.41716015625,4.14676953125,5.11353125,5.98450390625,9.058484375,5.71764453125,12.5270546875,5.221125,11.82240625,8.092734375,9.10765234375,6.429421875,9.49945703125,12.3976953125,9.7648359375,7.6361328125,5.1661953125,10.25707421875,10.77346875,12.826578125,-1.50073828125,-8.6978125,3.673375,4.503375,-1.20162890625,-11.30793359375
5.30362890625,0.810898437499999,-0.0763789062499995,12.0527109375,5.11516015625,5.07876953125,7.22253125,7.23550390625,6.517484375,5.61664453125,12.3170546875,5.808125,7.15840625,5.103734375,8.50665234375,5.310421875,12.87245703125,9.3676953125,7.0638359375,5.4451328125,5.7781953125,10.86807421875,8.71946875,9.469578125,-1.56573828125,-2.7238125,3.914375,6.468375,0.49937109375,-7.95193359375
8.37362890625,5.7268984375,5.20362109375,11.3867109375,5.32716015625,8.15076953125,11.10553125,9.58150390625,3.798484375,6.75564453125,13.7620546875,8.755125,1.69440625,2.691734375,9.36565234375,6.012421875,15.77745703125,5.4176953125,5.3188359375,4.6601328125,7.5931953125,10.15207421875,6.38546875,6.636578125,-0.287738281249999,3.5721875,4.005375,7.046375,1.41237109375,-4.92893359375
10.81662890625,10.0268984375,9.12462109375,9.7167109375,6.44816015625,11.53976953125,14.74453125,11.53450390625,1.129484375,7.99164453125,15.4930546875,12.844125,-3.81759375,0.779734375,10.40565234375,7.574421875,17.46345703125,1.2256953125,4.1228359375,4.6121328125,9.9571953125,8.44807421875,4.03146875,4.442578125,1.62726171875,9.1941875,3.812375,6.550375,1.58437109375,-2.85993359375
11.13462890625,11.3128984375,9.52162109375,6.4157109375,7.46916015625,13.22676953125,16.15453125,11.74050390625,-1.368515625,8.11764453125,16.0270546875,16.288125,-8.57859375,-0.954265625,10.27965234375,8.644421875,17.37345703125,-2.5833046875,2.8068359375,4.2961328125,11.8911953125,6.28007421875,1.71846875,2.669578125,3.12926171875,13.2331875,3.177375,5.510375,1.31637109375,-1.96193359375
8.75962890625,8.5178984375,5.78262109375,1.4507109375,7.21116015625,11.80776953125,14.22653125,9.58450390625,-3.737515625,6.26664453125,14.3590546875,17.485125,-12.03059375,-2.928265625,8.11065234375,8.062421875,15.24745703125,-5.6313046875,0.7588359375,2.8171328125,12.4901953125,4.14307421875,-0.66753125,0.911578125,3.25026171875,15.1221875,1.991375,4.432375,0.96337109375,-2.02493359375
4.33962890625,2.4148984375,-0.84537890625,-4.4162890625,4.76616015625,7.08176953125,9.14153125,5.44650390625,-6.085515625,2.27364453125,10.3440546875,15.676125,-13.94559375,-5.410265625,3.84065234375,5.361421875,11.37845703125,-7.8323046875,-2.2751640625,-0.1798671875,11.3231953125,2.36307421875,-3.26053125,-1.186421875,1.54026171875,14.8671875,0.287375,3.641375,0.78737109375,-2.54493359375
-0.52637109375,-4.6881015625,-7.77437890625,-9.8402890625,0.0431601562500004,0.180769531249999,2.20653125,0.548503906249999,-8.428515625,-3.17135546875,4.7640546875,11.206125,-14.29659375,-8.292265625,-1.71534765625,0.956421874999999,6.76645703125,-9.2543046875,-5.9961640625,-4.2988671875,8.6181953125,1.08807421875,-6.00953125,-3.687421875,-1.69773828125,13.0751875,-1.685625,3.261375,0.90237109375,-2.92193359375
-4.03437109375,-9.9871015625,-12.20437890625,-13.4112890625,-5.90383984375,-6.83323046875,-4.71146875,-3.54949609375,-10.572515625,-8.68235546875,-0.960945312500002,5.301125,-13.09359375,-11.038265625,-7.15134765625,-4.058578125,2.89745703125,-9.9453046875,-9.5901640625,-8.5188671875,5.1441953125,0.36507421875,-8.55553125,-6.244421875,-5.51973828125,10.7201875,-3.462625,3.301375,1.34637109375,-2.66593359375
-5.04537109375,-11.4821015625,-12.39637890625,-14.2552890625,-11.12183984375,-11.79023046875,-9.87346875,-5.63549609375,-12.116515625,-12.64835546875,-5.3319453125,-0.467875000000001,-10.34259375,-12.838265625,-11.00534765625,-8.378578125,1.08645703125,-9.8303046875,-11.9951640625,-11.6018671875,1.8611953125,0.21807421875,-10.27453125,-8.200421875,-8.72973828125,8.7441875,-4.468625,3.728375,2.16137109375,-1.54793359375
-3.59237109375,-8.9121015625,-8.48237890625,-12.3602890625,-13.59383984375,-13.30423046875,-12.18346875,-5.39349609375,-12.569515625,-13.85235546875,-7.3669453125,-4.746875,-6.16459375,-12.918265625,-12.32234765625,-10.994578125,1.76545703125,-8.7493046875,-12.3371640625,-12.6218671875,-0.4718046875,0.65207421875,-10.49753125,-8.885421875,-10.40673828125,7.6531875,-4.237625,4.470375,3.38037109375,0.295066406249999
-0.76037109375,-3.8341015625,-2.39337890625,-8.4952890625,-12.24583984375,-11.29823046875,-11.42146875,-3.49649609375,-11.527515625,-11.96035546875,-6.9259453125,-6.789875,-0.97559375,-10.885265625,-10.98134765625,-11.532578125,4.16545703125,-6.5933046875,-10.3261640625,-11.3508671875,-1.5838046875,1.59007421875,-8.83253125,-7.966421875,-10.31373828125,7.2721875,-2.688625,5.344375,4.91237109375,2.32606640625
1.98962890625,1.2298984375,3.11462109375,-3.7822890625,-7.49283984375,-6.89123046875,-8.17946875,-1.17249609375,-8.811515625,-7.62735546875,-4.6269453125,-6.572875,4.49640625,-6.913265625,-7.63134765625,-10.281578125,6.68145703125,-3.4323046875,-6.4031640625,-8.3438671875,-1.7298046875,2.83807421875,-5.39353125,-5.664421875,-8.99473828125,6.7811875,-0.280625,6.035375,6.44037109375,3.70706640625
3.64062890625,4.1408984375,5.87162109375,0.8357109375,-0.995839843749999,-1.75123046875,-3.58346875,0.470503906249998,-4.536515625,-2.15635546875,-1.4309453125,-4.655875,9.44240625,-1.697265625,-3.30534765625,-7.951578125,7.69945703125,0.4526953125,-1.5581640625,-4.6398671875,-1.5048046875,4.13907421875,-0.81653125,-2.688421875,-7.47773828125,5.0691875,2.100375,6.187375,7.46237109375,3.54606640625
4.11862890625,4.2258984375,5.33162109375,4.9077109375,5.18216015625,2.69176953125,1.07753125,0.974503906249999,0.886484375,3.06964453125,1.8060546875,-1.887875,13.32840625,3.799734375,1.03965234375,-5.321578125,6.41645703125,4.6336953125,3.0848359375,-1.2788671875,-1.5158046875,5.27907421875,3.96546875,0.0795781250000003,-6.75573828125,1.2341875,3.515375,5.552375,7.47737109375,1.22706640625
4.18862890625,2.4848984375,2.67162109375,8.4557109375,9.53116015625,5.74176953125,4.72453125,0.684503906249999,6.819484375,7.08764453125,4.5970546875,0.926125,16.06940625,8.658734375,4.81665234375,-2.944578125,3.19245703125,8.6406953125,6.6708359375,1.1181328125,-2.1088046875,6.16007421875,8.03746875,1.976578125,-7.30573828125,-4.9748125,3.408375,4.095375,6.21037109375,-3.29693359375
4.87662890625,0.844898437499999,-0.01937890625,11.6877109375,11.66716015625,7.50976953125,6.82253125,0.496503906249998,12.530484375,9.59964453125,6.8770546875,3.298125,17.91440625,12.271734375,7.87765234375,-1.002578125,-0.65554296875,12.0686953125,8.8738359375,2.5381328125,-3.2318046875,6.81307421875,10.80946875,2.853578125,-8.85473828125,-12.9618125,1.893375,2.051375,3.77637109375,-9.35093359375
6.80762890625,1.0018984375,-0.913378906249999,14.6797109375,12.32116015625,8.64576953125,7.57553125,1.35150390625,17.394484375,10.97664453125,8.9100546875,5.181125,19.16940625,14.531734375,10.44665234375,0.712421875,-3.42054296875,14.7016953125,9.9698359375,3.5161328125,-4.4348046875,7.37507421875,12.22546875,3.166578125,-10.45773828125,-21.3468125,-0.224625,-0.0576249999999998,0.73937109375,-15.60393359375
9.86662890625,3.5148984375,0.65162109375,17.2287109375,12.78316015625,9.92976953125,7.81153125,3.70650390625,21.025484375,12.02664453125,11.1090546875,6.873125,20.00140625,15.834734375,12.96465234375,2.670421875,-3.69554296875,16.5686953125,10.7038359375,4.8811328125,-5.0068046875,8.05707421875,12.78746875,3.786578125,-10.84973828125,-28.3098125,-1.740625,-1.473625,-1.98062890625,-20.39293359375
13.29362890625,7.5918984375,3.95362109375,18.9187109375,14.09116015625,11.87176953125,8.50153125,7.28550390625,23.252484375,13.57964453125,13.7980546875,8.725125,20.43240625,16.827734375,15.84765234375,5.344421875,-0.94354296875,17.8666953125,11.9358359375,7.3641328125,-4.2618046875,9.05407421875,13.29846875,5.564578125,-8.98373828125,-32.1648125,-1.554625,-1.411625,-3.41262890625,-22.29393359375
16.05962890625,11.5638984375,7.37162109375,19.3467109375,16.39716015625,14.45176953125,10.13353125,11.21750390625,23.975484375,15.99664453125,16.9890546875,10.815125,20.43840625,17.969734375,19.20265234375,8.877421875,4.19145703125,18.7466953125,14.1608359375,11.1881328125,-1.8958046875,10.41107421875,14.39946875,8.820578125,-4.57573828125,-32.0148125,0.780375,0.580375,-2.96962890625,-20.70893359375
17.28762890625,13.7528984375,9.28462109375,18.3817109375,18.88116015625,17.12176953125,12.37053125,14.44750390625,23.079484375,18.88664453125,20.2660546875,12.819125,20.00540625,19.173734375,22.63865234375,12.874421875,9.99945703125,19.1346953125,17.1528359375,15.8361328125,1.7651953125,11.92507421875,16.14346875,13.042578125,1.63626171875,-28.1278125,4.769375,4.303375,-0.77162890625,-16.14693359375
16.55762890625,13.2668984375,8.88162109375,16.3137109375,20.25416015625,19.04876953125,14.25553125,16.11850390625,20.512484375,21.24364453125,22.8700546875,14.166125,19.09840625,19.808734375,25.32965234375,16.470421875,14.30145703125,18.7426953125,19.9708359375,20.1731328125,5.8201953125,13.19207421875,17.90546875,16.999578125,8.10626171875,-21.7858125,9.146375,8.861375,2.37037109375,-10.00893359375
14.01262890625,10.3358984375,6.46362109375,13.7817109375,19.50316015625,19.48176953125,14.80353125,15.77850390625,16.487484375,21.93164453125,23.9720546875,14.360125,17.60840625,19.064734375,26.33165234375,18.661421875,15.31245703125,17.2776953125,21.3658359375,22.8821328125,9.1471953125,13.78807421875,18.68746875,19.264578125,13.09926171875,-14.6828125,12.426375,13.002375,5.34237109375,-3.96993359375
10.24262890625,6.0378984375,3.08162109375,11.4767109375,16.41916015625,18.04076953125,13.54953125,13.39550390625,11.580484375,20.21964453125,23.0200546875,13.236125,15.37940625,16.422734375,24.98765234375,18.721421875,12.38645703125,14.6786953125,20.3648359375,23.0011328125,10.8831953125,13.49607421875,17.64846875,18.867578125,15.39726171875,-8.2118125,13.541375,15.669375,7.24637109375,0.684066406249999
6.00862890625,1.6248984375,-0.19637890625,9.7517109375,11.62316015625,14.79376953125,10.72353125,9.29150390625,6.601484375,16.09164453125,19.9920546875,11.015125,12.34040625,11.960734375,21.23965234375,16.510421875,6.31145703125,11.2146953125,16.7248359375,20.3291328125,10.7661953125,12.41407421875,14.54846875,15.747578125,14.76326171875,-3.0308125,12.270375,16.472375,7.77137109375,3.45006640625
1.97862890625,-2.0821015625,-2.86437890625,8.3877109375,6.17216015625,10.18376953125,7.03653125,4.05650390625,2.284484375,10.24364453125,15.4400546875,8.144125,8.63740625,6.352734375,15.72065234375,12.581421875,-0.957542968750001,7.3856953125,11.0808359375,15.5371328125,9.2301953125,10.88907421875,9.90046875,10.804578125,11.97226171875,0.9741875,9.285375,15.802375,7.24437109375,4.57206640625
-1.39437109375,-4.8671015625,-5.04837890625,6.7097109375,1.07016015625,4.90876953125,3.33453125,-1.46149609375,-1.004515625,3.86664453125,10.3530546875,5.114125,4.66340625,0.640734375,9.62765234375,8.063421875,-6.99854296875,3.7306953125,4.7548359375,9.9881328125,7.2251953125,9.31907421875,4.80546875,5.553578125,8.44826171875,4.3731875,5.866375,14.546375,6.37237109375,4.71506640625
-3.85437109375,-6.8731015625,-7.05437890625,4.0147109375,-3.01283984375,-0.13923046875,0.394531250000001,-6.14349609375,-3.349515625,-1.66335546875,5.9360546875,2.390125,0.91240625,-4.070265625,4.43365234375,4.361421875,-9.80454296875,0.6436953125,-0.6401640625,5.3251328125,5.8651953125,7.95807421875,0.55146875,1.577578125,5.69426171875,7.7311875,3.423375,13.605375,5.85837109375,4.56406640625
-5.27937109375,-8.1831015625,-8.82437890625,0.0887109375000001,-5.67083984375,-3.92123046875,-1.11046875,-8.70249609375,-5.109515625,-5.09035546875,3.3790546875,0.473125,-2.25659375,-6.891265625,1.50565234375,2.751421875,-8.49454296875,-1.6993046875,-3.6691640625,2.9691328125,6.0331953125,6.83007421875,-1.81253125,0.0285781250000001,4.77126171875,11.2301875,3.052375,13.501375,6.11837109375,4.58506640625
-5.63837109375,-8.5931015625,-9.74337890625,-4.5062890625,-6.57383984375,-5.42023046875,-0.628468749999999,-8.05549609375,-6.595515625,-5.55235546875,3.5660546875,-0.057875000000001,-4.75059375,-7.325265625,1.71465234375,3.976421875,-3.57454296875,-3.2893046875,-3.4771640625,3.6771328125,8.0831953125,5.81907421875,-1.76253125,1.339578125,6.02426171875,14.5631875,5.257375,14.283375,7.23837109375,4.99906640625
-4.97837109375,-7.7241015625,-9.00437890625,-8.5792890625,-5.42583984375,-3.98023046875,2.12553125,-3.85749609375,-7.826515625,-2.82535546875,6.7290546875,1.309125,-6.70959375,-5.368265625,5.10665234375,7.952421875,3.33645703125,-4.2003046875,-0.0521640624999999,7.2821328125,11.7141953125,4.82207421875,0.61646875,5.165578125,9.06826171875,17.1031875,9.873375,15.675375,9.10137109375,5.88106640625
-3.46037109375,-5.4031015625,-6.26737890625,-10.8342890625,-2.19783984375,0.28576953125,6.89853125,3.17350390625,-8.512515625,2.50464453125,12.1830546875,4.706125,-8.35759375,-1.556265625,10.77365234375,13.695421875,10.15545703125,-4.5273046875,5.7098359375,12.6961328125,16.0331953125,3.83507421875,4.68146875,10.506578125,12.96526171875,18.1991875,16.121375,17.285375,11.49637109375,7.21106640625
-1.38537109375,-1.9941015625,-2.09137890625,-10.5032890625,2.59216015625,6.34576953125,12.75653125,11.40250390625,-8.279515625,9.09564453125,18.3970546875,9.633125,-9.89559375,3.103734375,17.06065234375,19.570421875,15.07245703125,-4.4123046875,12.2048359375,18.2191328125,19.8211953125,2.91107421875,9.39646875,15.970578125,16.50026171875,17.4321875,22.767375,18.703375,14.12437109375,8.84506640625
0.84762890625,1.6488984375,2.22862109375,-7.7232890625,7.85616015625,12.53276953125,18.25853125,18.86750390625,-6.972515625,15.22964453125,23.4980546875,15.011125,-11.43159375,7.383734375,22.13265234375,23.856421875,17.12445703125,-4.0593046875,17.6218359375,22.1261328125,21.9351953125,2.07007421875,13.58846875,20.153578125,18.54326171875,14.7911875,28.408375,19.498375,16.55237109375,10.46806640625
2.90062890625,4.6088984375,5.35862109375,-3.4672890625,12.27516015625,17.19976953125,21.96653125,23.97150390625,-4.855515625,19.43564453125,26.0300546875,19.554125,-12.96859375,10.236734375,24.68265234375,25.405421875,16.46045703125,-3.7093046875,20.5808359375,23.3151328125,21.7291953125,1.25907421875,16.27846875,22.070578125,18.41026171875,10.7331875,31.873375,19.258375,18.24137109375,11.63306640625
4.65962890625,6.4228984375,6.68062109375,0.8987109375,14.79716015625,19.39176953125,23.00153125,26.00950390625,-2.565515625,21.03864453125,25.5750546875,22.249125,-14.40959375,11.159734375,24.44765234375,24.100421875,14.20045703125,-3.5643046875,20.6288359375,21.7271328125,19.2991953125,0.39507421875,16.96546875,21.455578125,16.10826171875,6.1111875,32.574375,17.731375,18.71937109375,11.93706640625
6.26062890625,7.3038984375,6.62762109375,4.1627109375,15.01816015625,19.16976953125,21.35153125,25.31150390625,-0.862515625,20.32864453125,22.8990546875,22.695125,-15.62359375,10.335734375,22.22565234375,20.827421875,11.90045703125,-3.7183046875,18.3338359375,18.2881328125,15.4371953125,-0.56092578125,15.73546875,18.800578125,12.31826171875,1.9491875,30.668375,15.022375,17.81437109375,11.26406640625
7.93762890625,7.9328984375,6.39562109375,5.6517109375,13.26616015625,17.44776953125,17.79953125,22.97950390625,-0.281515625,18.29364453125,19.5370546875,21.158125,-16.52059375,8.471734375,19.40365234375,17.027421875,10.83045703125,-4.1303046875,14.9268359375,14.4251328125,11.3301953125,-1.56292578125,13.14946875,15.097578125,8.13126171875,-0.8618125,26.941375,11.675375,15.81037109375,9.93206640625
9.76762890625,8.9818984375,7.21162109375,5.3407109375,10.42816015625,15.46176953125,13.56653125,20.27050390625,-0.894515625,16.08164453125,17.0240546875,18.408125,-17.08159375,6.455734375,17.26265234375,14.035421875,11.34345703125,-4.6663046875,11.7158359375,11.4161328125,8.1571953125,-2.51592578125,9.98846875,11.424578125,4.63626171875,-1.8158125,22.492375,8.521375,13.40337109375,8.61906640625
11.47362890625,10.6488984375,9.58362109375,3.7067109375,7.63716015625,14.14776953125,9.89353125,17.97350390625,-2.297515625,14.48864453125,16.1760546875,15.413125,-17.31759375,4.978734375,16.40865234375,12.553421875,12.68845703125,-5.1873046875,9.5408359375,9.8831328125,6.7151953125,-3.35992578125,6.95046875,8.543578125,2.54726171875,-0.9118125,18.348375,6.325375,11.43437109375,8.06606640625
12.44062890625,12.5058984375,12.97262109375,1.4277109375,5.95316015625,13.76376953125,7.72653125,16.15150390625,-3.825515625,13.68864453125,16.7960546875,13.002125,-17.22259375,4.280734375,16.59465234375,12.448421875,13.39545703125,-5.6413046875,8.5158359375,9.6451328125,7.1721953125,-4.14192578125,4.41646875,6.683578125,2.00326171875,1.3781875,15.143375,5.416375,10.49937109375,8.71206640625
12.02062890625,13.7628984375,16.08962109375,-0.8822890625,6.06316015625,13.90076953125,7.53153125,14.39050390625,-4.856515625,13.31064453125,17.9320546875,11.591125,-16.74659375,4.125734375,16.98565234375,12.936421875,12.08345703125,-6.0963046875,8.1368359375,9.9351328125,9.0181953125,-5.00292578125,2.38646875,5.554578125,2.60126171875,4.2821875,12.985375,5.551375,10.66737109375,10.46506640625
9.99862890625,13.7818984375,17.63662109375,-2.7992890625,8.06216015625,13.85176953125,9.24553125,12.28950390625,-5.056515625,12.79364453125,18.4850546875,11.101125,-15.80359375,4.017734375,16.69365234375,13.042421875,8.27345703125,-6.6683046875,7.6628359375,9.8611328125,11.2291953125,-6.06892578125,0.60346875,4.574578125,3.62726171875,6.9701875,11.534375,6.070375,11.45937109375,12.70906640625
6.91862890625,12.4928984375,16.96862109375,-4.0612890625,11.30516015625,13.03776953125,12.23653125,9.78350390625,-4.478515625,11.77764453125,17.7830546875,11.073125,-14.29959375,3.524734375,15.26865234375,12.092421875,2.74345703125,-7.4033046875,6.5418359375,8.8501328125,12.6221953125,-7.32892578125,-1.20853125,3.161578125,4.35926171875,8.7911875,10.241375,6.240375,12.07737109375,14.54706640625
3.95862890625,10.3578984375,14.28262109375,-4.4812890625,14.45416015625,11.26776953125,15.30653125,7.14050390625,-3.500515625,10.26264453125,15.7990546875,10.857125,-12.18359375,2.498734375,12.88265234375,9.974421875,-2.81654296875,-8.2083046875,4.6518359375,6.8591328125,12.2881953125,-8.59192578125,-3.16553125,0.984578125,4.29626171875,9.4021875,8.596375,5.583375,11.75637109375,15.15006640625
2.37462890625,7.9698984375,10.30462109375,-3.9332890625,15.82616015625,8.70676953125,16.87153125,4.72450390625,-2.626515625,8.48764453125,12.9780546875,9.806125,-9.53659375,1.093734375,10.14665234375,7.068421875,-6.66854296875,-8.8843046875,2.2638359375,4.2731328125,9.9391953125,-9.54292578125,-5.17053125,-1.952421875,3.24526171875,8.7821875,6.295375,4.026375,10.07737109375,14.07706640625
2.87562890625,5.6988984375,5.86462109375,-2.4002890625,14.06416015625,5.72176953125,15.48053125,2.72850390625,-2.224515625,6.69664453125,9.8700546875,7.466125,-6.63459375,-0.377265625,7.71365234375,3.955421875,-7.91354296875,-9.2053046875,-0.1751640625,1.6141328125,5.9901953125,-9.86792578125,-6.98853125,-5.363421875,1.28326171875,7.1661875,3.278375,1.870375,7.11337109375,11.42206640625
5.30562890625,3.6968984375,1.70762109375,-0.0552890625,8.90016015625,2.74976953125,10.56953125,1.02350390625,-2.310515625,5.01264453125,6.8510546875,3.780125,-3.93859375,-1.586265625,5.93165234375,1.115421875,-6.90054296875,-9.0033046875,-2.2831640625,-0.7368671875,1.3441953125,-9.38092578125,-8.37953125,-8.839421875,-1.35173828125,4.9551875,-0.318625,-0.399625,3.36937109375,7.72306640625
8.76962890625,2.1358984375,-1.47037890625,2.7157109375,1.58216015625,0.254769531249999,2.96453125,-0.798496093750002,-2.510515625,3.48064453125,4.0720546875,-0.819875,-1.97959375,-2.301265625,4.72565234375,-1.242578125,-4.95254296875,-8.2303046875,-3.8871640625,-2.6848671875,-3.0358046875,-8.11892578125,-9.23053125,-12.017421875,-4.36773828125,2.6001875,-4.294625,-2.343625,-0.46962890625,3.68706640625
12.03962890625,1.3208984375,-3.05737890625,5.3557109375,-5.44383984375,-1.35623046875,-5.31346875,-3.24849609375,-2.240515625,2.15664453125,1.5760546875,-5.540875,-1.14959375,-2.437265625,3.73465234375,-3.190578125,-3.63554296875,-6.9693046875,-5.0421640625,-4.3788671875,-6.5408046875,-6.36392578125,-9.62653125,-14.707421875,-7.52673828125,0.4551875,-8.503625,-3.747625,-3.85962890625,-0.13193359375
14.04162890625,1.5038984375,-2.78137890625,7.2667109375,-9.54983984375,-1.89023046875,-11.93646875,-6.69249609375,-1.030515625,1.15664453125,-0.573945312500001,-9.595875,-1.45659375,-2.059265625,2.59465234375,-4.974578125,-4.01154296875,-5.4083046875,-5.9371640625,-6.0638671875,-9.0968046875,-4.54492578125,-9.79953125,-16.903421875,-10.68973828125,-1.3468125,-12.864625,-4.660625,-6.58862890625,-3.51593359375
14.23762890625,2.5998984375,-0.98537890625,8.0107109375,-9.12083984375,-1.50523046875,-15.27646875,-11.12349609375,1.205484375,0.64064453125,-2.2609453125,-12.558875,-2.36759375,-1.334265625,1.20065234375,-6.815578125,-6.21454296875,-3.7513046875,-6.7271640625,-7.8708671875,-11.0358046875,-3.03292578125,-9.95653125,-18.689421875,-13.76873828125,-2.9028125,-17.224625,-5.263625,-8.73662890625,-6.54093359375
12.78462890625,4.1038984375,1.39662109375,7.5387109375,-4.29683984375,-0.65323046875,-14.96946875,-16.00349609375,4.096484375,0.744644531250001,-3.3289453125,-14.470875,-2.90259375,-0.441265625,-0.19234765625,-8.709578125,-9.52554296875,-2.1163046875,-7.3921640625,-9.6678671875,-12.7468046875,-1.92792578125,-10.07753125,-20.063421875,-16.59973828125,-4.4108125,-21.174625,-5.667625,-10.43762890625,-9.36093359375
10.40262890625,5.3038984375,3.23562109375,6.3167109375,3.08516015625,0.16576953125,-11.80246875,-20.26749609375,6.992484375,1.51464453125,-3.6229453125,-15.627875,-2.03059375,0.505734375,-1.07734765625,-10.343578125,-12.82554296875,-0.4933046875,-7.6771640625,-11.0378671875,-14.3438046875,-0.98192578125,-9.84753125,-20.803421875,-18.83873828125,-6.0028125,-23.967625,-5.766625,-11.63062890625,-11.95193359375
8.03962890625,5.6578984375,3.74962109375,5.2257109375,10.31616015625,0.696769531249999,-7.16346875,-22.64749609375,9.300484375,2.85764453125,-3.0289453125,-16.219875,0.80640625,1.496734375,-0.94734765625,-11.183578125,-15.18254296875,1.2236953125,-7.1831640625,-11.4118671875,-15.5318046875,0.27807421875,-8.76853125,-20.476421875,-19.98073828125,-7.6048125,-24.662625,-5.261625,-11.98862890625,-14.00793359375
6.47862890625,5.0728984375,2.82962109375,5.1867109375,14.98616015625,1.05876953125,-2.42446875,-22.28749609375,10.754484375,4.58564453125,-1.5469453125,-16.092875,5.35440625,2.623734375,0.45365234375,-10.720578125,-16.21954296875,3.1406953125,-5.5391640625,-10.3058671875,-15.7498046875,2.27307421875,-6.40953125,-18.605421875,-19.50473828125,-8.9258125,-22.439625,-3.829625,-11.06262890625,-15.02493359375
6.01262890625,3.8728984375,0.918621093750001,6.6277109375,15.99516015625,1.59176953125,1.41353125,-19.30449609375,11.456484375,6.49264453125,0.622054687499999,-14.856875,10.57740625,4.035734375,2.98765234375,-8.748578125,-16.05854296875,5.2546953125,-2.6121640625,-7.5548671875,-14.5048046875,5.08207421875,-2.65753125,-14.935421875,-17.11973828125,-9.5658125,-16.954625,-1.352625,-8.55162890625,-14.55693359375
6.30862890625,2.4528984375,-1.45537890625,9.1307109375,13.89116015625,2.53476953125,3.71753125,-14.87349609375,11.655484375,8.38364453125,3.0400546875,-12.278875,15.04140625,5.809734375,6.14165234375,-5.547578125,-14.97454296875,7.3736953125,1.3508359375,-3.4598671875,-11.7148046875,8.31607421875,2.14146875,-9.648421875,-12.97473828125,-9.2278125,-8.573625,1.951375,-4.54062890625,-12.46093359375
6.54862890625,0.905898437499999,-4.11837890625,11.5347109375,10.38016015625,3.74476953125,4.08053125,-10.70149609375,11.503484375,10.04164453125,5.0990546875,-8.662875,17.43540625,7.817734375,9.19565234375,-1.848578125,-13.09154296875,9.1236953125,5.7148359375,1.2471328125,-7.8428046875,11.21907421875,7.21346875,-3.408421875,-7.70073828125,-7.9098125,1.635375,5.554375,0.44637109375,-9.01193359375
5.84962890625,-1.0341015625,-7.27237890625,12.5167109375,7.31116015625,4.70676953125,2.33653125,-8.20049609375,10.963484375,11.19764453125,6.2080546875,-4.857875,17.01840625,9.686734375,11.45765234375,1.436421875,-10.40654296875,10.0616953125,9.6278359375,5.6251328125,-3.7498046875,12.97307421875,11.58846875,2.805578125,-2.23173828125,-5.9418125,12.166375,8.817375,5.61337109375,-4.80893359375
3.75062890625,-3.6491015625,-11.07837890625,11.3417109375,5.75116015625,4.85276953125,-1.19946875,-7.81849609375,9.918484375,11.58664453125,6.0330546875,-1.838875,13.84440625,10.912734375,12.47865234375,3.571421875,-7.06354296875,9.8476953125,12.2848359375,8.8451328125,-0.344804687499999,13.00907421875,14.41846875,7.989578125,2.50226171875,-3.8618125,21.462375,11.216375,10.16437109375,-0.57293359375
0.49662890625,-6.8141015625,-15.16237890625,8.3127109375,5.59816015625,3.97876953125,-5.57046875,-8.87049609375,8.285484375,11.05164453125,4.6750546875,-0.176875000000001,8.67940625,11.049734375,12.16965234375,4.282421875,-3.55354296875,8.3576953125,13.1888359375,10.4501328125,1.7601953125,11.18907421875,15.23746875,11.410578125,5.87726171875,-2.1668125,28.295375,12.484375,13.52837109375,3.07506640625
-3.07937109375,-9.8531015625,-18.50637890625,4.6087109375,5.83316015625,2.41476953125,-9.43946875,-9.93349609375,6.030484375,9.62164453125,2.6740546875,0.240124999999999,2.67840625,9.878734375,10.79565234375,3.820421875,-0.554542968750001,5.7006953125,12.3048359375,10.4691328125,2.4671953125,7.81207421875,14.07146875,12.790578125,7.74426171875,-1.0858125,32.038375,12.624375,15.45437109375,5.77006640625
-5.98637109375,-11.8341015625,-19.89437890625,1.6097109375,5.21016015625,0.837769531249999,-11.65146875,-9.61649609375,3.149484375,7.52364453125,0.807054687499999,0.0901250000000005,-3.03759375,7.504734375,8.86865234375,2.827421875,1.49245703125,2.1866953125,10.0738359375,9.3781328125,2.2091953125,3.50207421875,11.40546875,12.376578125,8.44826171875,-0.4448125,32.798375,11.864375,16.04037109375,7.49006640625
-7.57837109375,-12.1151015625,-18.66837890625,0.1177109375,3.01616015625,-0.13923046875,-11.71346875,-7.32249609375,-0.284515625,5.14064453125,-0.252945312500001,0.237124999999999,-7.72959375,4.370734375,6.98165234375,2.070421875,2.69945703125,-1.7033046875,7.2998359375,7.9361328125,1.7811953125,-0.94492578125,8.05046875,10.847578125,8.67026171875,0.2821875,31.385375,10.593375,15.69637109375,8.53006640625
-7.85637109375,-10.7981015625,-15.29437890625,-0.0792890625,-0.50183984375,-0.308230468750001,-9.88646875,-3.53749609375,-4.007515625,2.92164453125,-0.227945312500001,1.300125,-11.18159375,1.160734375,5.61865234375,2.143421875,3.60745703125,-5.3543046875,4.9058359375,6.9271328125,1.9931953125,-4.71892578125,4.93046875,9.080578125,9.13826171875,1.7051875,29.033375,9.291375,15.02637109375,9.36606640625
-7.40737109375,-8.7701015625,-11.28937890625,-0.0322890625000003,-4.28083984375,0.0627695312499998,-6.90346875,0.488503906249998,-7.526515625,1.23964453125,0.6710546875,3.377125,-13.58959375,-1.420265625,4.99265234375,3.228421875,4.68845703125,-8.1303046875,3.6058359375,6.8571328125,3.3011953125,-7.16492578125,2.80546875,7.811578125,10.28726171875,4.1431875,26.900375,8.397375,14.61737109375,10.43506640625
-7.02037109375,-7.2241015625,-8.43637890625,-0.9552890625,-7.05683984375,0.43276953125,-3.56346875,3.42050390625,-10.238515625,0.267644531250001,1.8880546875,6.014125,-15.26659375,-2.893265625,4.99165234375,5.027421875,5.89345703125,-9.5363046875,3.6328359375,7.7421328125,5.5791953125,-7.91492578125,2.04046875,7.347578125,12.04026171875,7.3791875,25.577375,8.178375,14.78537109375,11.91306640625
-7.21637109375,-6.9521015625,-7.74737890625,-3.4542890625,-8.03683984375,0.32876953125,-0.416468749999999,4.44350390625,-11.672515625,-0.0353554687499997,2.8030546875,8.416125,-16.33959375,-3.163265625,5.25865234375,6.890421875,6.61845703125,-9.3703046875,4.6678359375,9.1211328125,8.1691953125,-6.96492578125,2.51946875,7.482578125,13.86026171875,10.7001875,24.862375,8.630375,15.43337109375,13.60906640625
-7.99937109375,-7.8911015625,-8.89737890625,-7.1182890625,-7.23183984375,-0.388230468750001,2.30653125,3.50550390625,-11.683515625,0.151644531250001,3.0030546875,9.781125,-16.64959375,-2.503265625,5.37465234375,8.102421875,6.11245703125,-7.7773046875,6.0038359375,10.2771328125,10.1751953125,-4.67392578125,3.73646875,7.663578125,15.01626171875,13.2021875,23.947375,9.473375,16.08737109375,15.01506640625
-8.93337109375,-9.2701015625,-10.54037890625,-10.7112890625,-5.33283984375,-1.47423046875,4.51153125,1.21050390625,-10.522515625,0.60064453125,2.4140546875,9.589125,-15.90859375,-1.420265625,5.04865234375,8.177421875,4.05045703125,-5.2133046875,6.8608359375,10.5651328125,10.8491953125,-1.66392578125,5.01146875,7.294578125,14.92426171875,14.1801875,21.910375,10.251375,16.10437109375,15.52406640625
-9.45937109375,-10.2121015625,-11.29937890625,-12.8602890625,-3.31683984375,-2.50823046875,5.97853125,-1.50049609375,-8.748515625,1.07564453125,1.2400546875,7.746125,-13.96459375,-0.460265625,4.20265234375,7.023421875,0.88045703125,-2.3133046875,6.6948359375,9.6681328125,9.8741953125,1.35807421875,5.74046875,6.018578125,13.39126171875,13.4251875,18.221375,10.490375,14.97237109375,14.70906640625
-9.22037109375,-10.3361015625,-10.69937890625,-12.7932890625,-2.04483984375,-3.22823046875,6.20453125,-3.75149609375,-7.076515625,1.31664453125,-0.260945312500001,4.558125,-10.98559375,-0.0352656249999997,2.92865234375,4.919421875,-2.28354296875,0.2926953125,5.3728359375,7.6771328125,7.4501953125,3.83907421875,5.58746875,3.824578125,10.65626171875,11.3011875,13.005375,9.870375,12.53737109375,12.51006640625
-8.27437109375,-9.9841015625,-9.42337890625,-10.7262890625,-2.04783984375,-3.78623046875,4.51553125,-5.07949609375,-6.176515625,1.03064453125,-2.0229453125,0.584124999999999,-7.49359375,-0.334265625,1.35365234375,2.319421875,-4.24854296875,2.1436953125,3.1498359375,4.9761328125,4.1471953125,5.52707421875,4.55246875,0.970578125,7.24226171875,8.5671875,6.950375,8.320375,9.05537109375,9.23606640625
-7.10837109375,-9.9621015625,-8.78937890625,-7.7072890625,-3.47483984375,-4.73223046875,0.421531250000001,-5.55949609375,-6.450515625,-0.0823554687499994,-4.2259453125,-3.535875,-4.25759375,-1.330265625,-0.47634765625,-0.387578125000001,-4.49054296875,3.0256953125,0.4808359375,2.0211328125,0.6191953125,6.45607421875,2.88246875,-2.187421875,3.70926171875,6.0081875,0.954375,6.006375,5.05937109375,5.38606640625
-6.43037109375,-10.9921015625,-9.83837890625,-5.0592890625,-6.10583984375,-6.65923046875,-5.93946875,-5.66149609375,-7.834515625,-2.19135546875,-7.1049453125,-7.210875,-2.07059375,-2.823265625,-2.58334765625,-2.989578125,-3.54054296875,2.9936953125,-2.1631640625,-0.8238671875,-2.6428046875,6.81607421875,0.93546875,-5.305421875,0.475261718750001,4.0831875,-4.204625,3.262375,1.15437109375,1.45806640625
-6.80137109375,-13.1971015625,-12.62537890625,-3.7492890625,-9.36783984375,-9.74023046875,-13.54046875,-5.95549609375,-9.745515625,-5.15635546875,-10.6259453125,-9.991875,-1.42659375,-4.472265625,-4.92134765625,-5.401578125,-2.66354296875,2.3516953125,-4.3911640625,-3.3188671875,-5.4108046875,6.82307421875,-0.90853125,-8.033421875,-2.21473828125,2.7841875,-8.000625,0.520375,-2.11462890625,-2.15893359375
-8.32337109375,-15.9431015625,-16.14837890625,-4.0302890625,-12.43883984375,-13.46723046875,-20.62046875,-6.83749609375,-11.313515625,-8.44935546875,-14.3329453125,-11.647875,-2.23359375,-5.849265625,-7.26334765625,-7.548578125,-3.04954296875,1.5746953125,-5.9101640625,-5.3028671875,-7.6408046875,6.66807421875,-2.28953125,-9.971421875,-4.22573828125,1.7521875,-10.130625,-1.781625,-4.34562890625,-5.19493359375
-10.60037109375,-18.1881015625,-18.94637890625,-5.4972890625,-14.49483984375,-16.86023046875,-25.26846875,-8.40849609375,-11.795515625,-11.33535546875,-17.4869453125,-12.261875,-3.77959375,-6.584265625,-9.25934765625,-9.321578125,-5.10354296875,1.1436953125,-6.5721640625,-6.6948671875,-9.3738046875,6.49507421875,-2.94253125,-10.732421875,-5.51173828125,0.5121875,-10.491625,-3.317625,-5.35962890625,-7.51393359375
-12.98037109375,-19.1221015625,-19.98437890625,-7.4432890625,-15.06783984375,-18.99023046875,-26.22946875,-10.47849609375,-10.983515625,-13.23435546875,-19.4219453125,-12.256875,-5.03859375,-6.560265625,-10.61734765625,-10.646578125,-8.28154296875,1.3166953125,-6.4581640625,-7.5498671875,-10.6858046875,6.36507421875,-2.81953125,-10.144421875,-6.15473828125,-1.3098125,-9.237625,-3.989625,-5.28762890625,-9.14893359375
-14.85637109375,-18.6371015625,-19.26137890625,-9.2322890625,-14.30683984375,-19.48823046875,-23.52246875,-12.67049609375,-9.317515625,-14.01335546875,-19.8719453125,-12.254875,-5.15859375,-6.007265625,-11.27934765625,-11.563578125,-11.47654296875,1.9866953125,-5.8991640625,-8.0968671875,-11.6738046875,6.23707421875,-2.14753125,-8.409421875,-6.38773828125,-3.8318125,-6.803625,-3.947625,-4.55362890625,-10.29293359375
-15.83037109375,-17.3321015625,-17.75337890625,-10.4452890625,-12.94983984375,-18.69723046875,-18.52046875,-14.53849609375,-7.667515625,-13.97935546875,-19.0809453125,-12.781875,-3.83559375,-5.401265625,-11.40634765625,-12.189578125,-13.61354296875,2.7306953125,-5.3571640625,-8.6298671875,-12.4228046875,6.00007421875,-1.34453125,-6.079421875,-6.48973828125,-6.8168125,-3.789625,-3.466625,-3.67862890625,-11.17793359375
-15.75837109375,-16.0911015625,-16.76637890625,-10.8102890625,-11.95083984375,-17.39023046875,-13.42446875,-15.66549609375,-6.850515625,-13.62235546875,-17.6359453125,-13.970875,-1.39959375,-5.195265625,-11.24134765625,-12.603578125,-14.15254296875,3.0216953125,-5.1961640625,-9.3208671875,-12.9368046875,5.56107421875,-0.81553125,-3.805421875,-6.60773828125,-9.6898125,-0.732625,-2.787625,-2.99762890625,-11.88893359375
-14.76737109375,-15.5551015625,-17.12837890625,-10.0892890625,-11.92483984375,-16.28123046875,-10.31246875,-15.74049609375,-7.181515625,-13.28735546875,-16.1629453125,-15.456875,1.37240625,-5.563265625,-10.92834765625,-12.753578125,-13.27654296875,2.5046953125,-5.4891640625,-10.0828671875,-13.1218046875,4.89607421875,-0.76653125,-2.017421875,-6.64873828125,-11.7488125,2.075375,-2.016625,-2.48362890625,-12.24593359375
-13.22937109375,-15.8051015625,-18.72537890625,-8.0992890625,-12.72683984375,-15.62423046875,-10.17046875,-14.67349609375,-8.272515625,-12.99335546875,-15.0399453125,-16.533875,3.57740625,-6.291265625,-10.44134765625,-12.450578125,-11.72754296875,1.1886953125,-5.9791640625,-10.5748671875,-12.8308046875,4.05007421875,-1.11953125,-0.737421875,-6.32773828125,-12.4618125,4.625375,-1.157625,-1.79362890625,-11.87393359375
-11.63237109375,-16.3551015625,-20.62937890625,-4.8562890625,-13.47483984375,-15.14223046875,-12.36446875,-12.73949609375,-9.229515625,-12.47335546875,-14.2819453125,-16.477875,4.50040625,-6.862265625,-9.62234765625,-11.463578125,-10.38154296875,-0.5333046875,-6.2021640625,-10.3618671875,-11.9588046875,3.09107421875,-1.56353125,0.373578125,-5.33673828125,-11.7068125,7.082375,-0.214625,-0.52762890625,-10.43693359375
-10.35637109375,-16.4501015625,-21.68137890625,-0.6962890625,-13.05283984375,-14.26423046875,-14.89146875,-10.59949609375,-9.109515625,-11.37835546875,-13.5879453125,-14.889875,3.81540625,-6.717265625,-8.31134765625,-9.656578125,-9.80054296875,-2.0743046875,-5.7251640625,-9.1308671875,-10.5068046875,2.04907421875,-1.72353125,1.762578125,-3.55073828125,-9.8068125,9.578375,0.702375,1.46437109375,-7.91593359375
-9.50137109375,-15.4891015625,-21.13837890625,3.7327109375,-10.78783984375,-12.52223046875,-15.36946875,-9.06649609375,-7.401515625,-9.52535546875,-12.5119453125,-11.902875,1.64540625,-5.553265625,-6.45734765625,-7.102578125,-10.00854296875,-2.9553046875,-4.3771640625,-6.8778671875,-8.6218046875,0.90607421875,-1.36853125,3.672578125,-1.17273828125,-7.3978125,12.024375,1.348375,3.89137109375,-4.74693359375
-8.90637109375,-13.3741015625,-18.99837890625,7.6207109375,-6.87283984375,-9.82523046875,-12.25346875,-8.70849609375,-4.244515625,-7.01835546875,-10.6479453125,-8.170875,-1.50959375,-3.502265625,-4.14934765625,-4.093578125,-10.56854296875,-3.0383046875,-2.3451640625,-3.9618671875,-6.5838046875,-0.38692578125,-0.54553125,5.957578125,1.30826171875,-5.1728125,14.047375,1.427375,6.08437109375,-1.72993359375
-8.31437109375,-10.6111015625,-15.93537890625,10.2037109375,-2.30683984375,-6.51223046875,-5.68646875,-9.53949609375,-0.361515625,-4.18335546875,-7.8169453125,-4.614875,-4.88159375,-1.081265625,-1.57134765625,-1.053578125,-10.86954296875,-2.5673046875,-0.0941640624999999,-0.9698671875,-4.7148046875,-1.83892578125,0.44946875,8.143578125,3.30526171875,-3.5978125,15.116375,0.759375,7.29137109375,0.28606640625
-7.53637109375,-8.1191015625,-12.98237890625,10.9717109375,1.54716015625,-3.19623046875,2.43453125,-11.02349609375,3.220484375,-1.39735546875,-4.2199453125,-2.064875,-7.60959375,1.041734375,1.06665234375,1.608421875,-10.43254296875,-1.9963046875,1.8388359375,1.5051328125,-3.2538046875,-3.35192578125,1.22846875,9.658578125,4.40626171875,-2.7288125,14.787375,-0.584625,7.05037109375,0.78406640625
-6.49837109375,-6.7951015625,-11.12337890625,9.8147109375,3.54616015625,-0.50923046875,9.19553125,-12.35449609375,5.500484375,1.02964453125,-0.463945312500002,-0.977875000000001,-8.97159375,2.304734375,3.52665234375,3.585421875,-9.10754296875,-1.7513046875,3.0328359375,3.0501328125,-2.2638046875,-4.71892578125,1.47146875,10.083578125,4.53326171875,-2.2208125,12.916375,-2.269625,5.40237109375,-0.182933593750001
-5.17237109375,-7.0111015625,-10.87737890625,7.0947109375,3.26716015625,1.15776953125,11.96953125,-12.83749609375,5.833484375,2.90464453125,2.6090546875,-1.342875,-8.64859375,2.442734375,5.52865234375,4.703421875,-7.12354296875,-2.0423046875,3.3038359375,3.5201328125,-1.5978046875,-5.69392578125,1.03746875,9.302578125,3.93026171875,-1.5388125,9.719375,-3.819625,2.85437109375,-2.01193359375
-3.52337109375,-8.3101015625,-12.00537890625,3.6127109375,1.25316015625,1.81676953125,9.76553125,-12.18549609375,4.200484375,4.16164453125,4.2730546875,-2.744875,-6.88159375,1.576734375,6.78465234375,4.943421875,-4.99554296875,-2.7713046875,2.7388359375,3.0381328125,-0.954804687499999,-6.06792578125,0.0174687499999995,7.520578125,3.02526171875,-0.2208125,5.714375,-4.808625,0.14137109375,-3.82893359375
-1.58237109375,-9.5971015625,-13.60137890625,0.3957109375,-1.18683984375,1.82176953125,3.83653125,-10.62649609375,1.273484375,4.84164453125,4.2320546875,-4.560875,-4.40359375,0.167734375,7.08265234375,4.458421875,-3.32654296875,-3.5853046875,1.6618359375,1.9381328125,-0.00680468749999985,-5.71992578125,-1.27353125,5.184578125,2.25626171875,1.9371875,1.583375,-5.007625,-2.05462890625,-4.85893359375
0.40062890625,-9.8201015625,-14.62237890625,-1.6722890625,-2.67583984375,1.58276953125,-2.97546875,-8.76949609375,-1.861515625,4.98264453125,2.7040546875,-6.210875,-2.13859375,-1.214265625,6.34565234375,3.526421875,-2.55354296875,-4.0513046875,0.4918359375,0.6381328125,1.4191953125,-4.64492578125,-2.38653125,2.854578125,1.93126171875,4.8091875,-1.971625,-4.418625,-3.29262890625,-4.68393359375
1.89762890625,-8.6981015625,-14.54137890625,-2.2162890625,-2.64183984375,1.19676953125,-7.85046875,-7.29449609375,-4.230515625,4.48764453125,0.215054687499999,-7.371875,-0.81359375,-2.196265625,4.63165234375,2.411421875,-2.74154296875,-3.8833046875,-0.4561640625,-0.5168671875,3.2011953125,-2.94092578125,-2.91253125,1.043578125,2.15026171875,7.9801875,-4.363625,-3.187625,-3.40862890625,-3.31193359375
2.27862890625,-6.9251015625,-13.61037890625,-1.5212890625,-1.77683984375,0.318769531249999,-9.55946875,-6.63749609375,-5.450515625,3.10064453125,-2.7099453125,-8.024875,-0.67159375,-2.795265625,2.10965234375,1.237421875,-3.54254296875,-3.0683046875,-1.1041640625,-1.3648671875,4.9251953125,-0.79392578125,-2.65153125,0.086578125,2.81426171875,10.8871875,-5.213625,-1.491625,-2.47462890625,-1.07493359375
1.12162890625,-5.7151015625,-12.57837890625,-0.3592890625,-1.66583984375,-1.59423046875,-8.94246875,-6.84049609375,-5.819515625,0.61764453125,-5.7339453125,-8.317875,-1.43359375,-3.340265625,-0.92434765625,-0.0105781250000008,-4.36054296875,-1.8353046875,-1.5951640625,-1.9168671875,6.0781953125,1.53507421875,-1.68453125,0.0705781249999999,3.71826171875,13.0221875,-4.408625,0.502375,-0.73462890625,1.54606640625
-1.54037109375,-6.0781015625,-12.17437890625,0.4157109375,-3.73783984375,-4.78723046875,-8.07946875,-7.59649609375,-5.987515625,-2.81835546875,-8.6769453125,-8.376875,-2.51059375,-4.192265625,-4.03634765625,-1.362578125,-4.69854296875,-0.5163046875,-2.1461640625,-2.2528671875,6.3181953125,3.70207421875,-0.33953125,0.844578125,4.67426171875,14.1171875,-2.135625,2.586375,1.42337109375,4.05906640625
-5.19537109375,-8.3031015625,-12.76037890625,0.2737109375,-8.21783984375,-8.83223046875,-8.77746875,-8.40449609375,-6.436515625,-6.56035546875,-11.3179453125,-8.198875,-3.32059375,-5.448265625,-6.68534765625,-2.722578125,-4.48954296875,0.5906953125,-2.8741640625,-2.4128671875,5.6551953125,5.30307421875,0.93846875,2.107578125,5.58326171875,14.1851875,1.136375,4.464375,3.52337109375,6.06006640625
-9.00737109375,-11.8461015625,-14.26837890625,-0.7862890625,-13.78783984375,-12.65123046875,-11.37346875,-8.76249609375,-7.109515625,-9.59835546875,-13.2669453125,-7.709875,-3.52559375,-6.820265625,-8.34034765625,-3.837578125,-4.17754296875,1.3176953125,-3.6911640625,-2.3578671875,4.4521953125,5.96707421875,1.78646875,3.538578125,6.44326171875,13.4291875,4.765375,5.805375,5.12637109375,7.28406640625
-12.08537109375,-15.5831015625,-16.26737890625,-2.2952890625,-18.21483984375,-14.98623046875,-14.60646875,-8.36049609375,-7.433515625,-10.96035546875,-14.0389453125,-6.898875,-3.08959375,-7.740265625,-8.66334765625,-4.401578125,-4.42254296875,1.6746953125,-4.3121640625,-1.9928671875,3.2361953125,5.52907421875,2.10246875,4.925578125,7.30626171875,12.1101875,8.146375,6.388375,5.98337109375,7.63706640625
-13.79537109375,-18.2711015625,-18.09137890625,-3.5942890625,-19.55383984375,-15.03323046875,-16.54046875,-7.18849609375,-6.685515625,-10.16935546875,-13.3449453125,-5.928875,-2.20259375,-7.635265625,-7.67234765625,-4.250578125,-5.62254296875,1.8396953125,-4.3701640625,-1.2578671875,2.4581953125,4.16707421875,2.12346875,6.198578125,8.20726171875,10.4651875,10.916375,6.244375,6.13337109375,7.21506640625
-14.01137109375,-19.0871015625,-19.06037890625,-4.1792890625,-17.22883984375,-12.89123046875,-15.85446875,-5.51949609375,-4.478515625,-7.53435546875,-11.3769453125,-5.136875,-1.17159375,-6.248265625,-5.81534765625,-3.528578125,-7.57654296875,2.0776953125,-3.6201640625,-0.2248671875,2.2811953125,2.39207421875,2.29146875,7.371578125,9.09626171875,8.6731875,13.031375,5.675375,5.86437109375,6.28806640625
-13.16137109375,-17.9771015625,-18.75237890625,-3.9312890625,-12.33483984375,-9.54523046875,-12.62446875,-3.77549609375,-1.072515625,-4.09935546875,-8.8499453125,-4.926875,-0.29559375,-3.816265625,-3.86734765625,-2.705578125,-9.50954296875,2.6066953125,-2.1111640625,0.8451328125,2.5261953125,0.86207421875,2.99446875,8.421578125,9.79526171875,6.8581875,14.667375,5.120375,5.55537109375,5.22206640625
-12.01637109375,-15.6201015625,-17.16937890625,-3.1472890625,-7.02483984375,-6.39023046875,-8.17746875,-2.35749609375,2.674484375,-1.20235546875,-6.7359453125,-5.577875,0.27840625,-1.006265625,-2.64434765625,-2.374578125,-10.45354296875,3.4986953125,-0.2201640625,1.5681328125,2.7861953125,0.12107421875,4.33746875,9.220578125,10.04826171875,5.1191875,16.031375,4.961375,5.50037109375,4.34906640625
-11.31837109375,-13.0541015625,-14.72837890625,-2.3602890625,-3.34983984375,-4.54823046875,-4.25446875,-1.52949609375,5.694484375,0.142644531250001,-5.8089453125,-7.066875,0.66440625,1.370734375,-2.64134765625,-2.929578125,-9.78954296875,4.6276953125,1.4788359375,1.6221328125,2.6791953125,0.36907421875,6.05546875,9.560578125,9.64426171875,3.5681875,17.191375,5.323375,5.78037109375,3.82706640625
-11.44537109375,-11.2081015625,-12.14137890625,-2.0752890625,-2.25283984375,-4.36323046875,-2.08046875,-1.36449609375,7.201484375,-0.30335546875,-6.2499453125,-8.977875,1.19140625,2.677734375,-3.79534765625,-4.302578125,-7.67054296875,5.6986953125,2.4338359375,0.9151328125,2.0681953125,1.35707421875,7.59546875,9.253578125,8.53626171875,2.3301875,18.010375,5.988375,6.24437109375,3.58106640625
-12.24137109375,-10.6091015625,-10.28937890625,-2.5132890625,-3.28583984375,-5.30823046875,-1.87446875,-1.76949609375,6.994484375,-1.96935546875,-7.5549453125,-10.573875,2.15440625,2.659734375,-5.51534765625,-5.968578125,-5.04554296875,6.3206953125,2.3148359375,-0.3578671875,1.1301953125,2.45707421875,8.32146875,8.233578125,6.88926171875,1.4971875,18.196375,6.461375,6.57737109375,3.37806640625
-13.07937109375,-11.2691015625,-9.99337890625,-3.5122890625,-5.12483984375,-6.34023046875,-2.91746875,-2.56349609375,5.421484375,-3.83835546875,-8.7819453125,-11.053875,3.54740625,1.478734375,-6.98134765625,-7.186578125,-3.15954296875,6.1426953125,1.1408359375,-1.7928671875,0.2351953125,2.90107421875,7.78646875,6.633578125,5.03526171875,1.1021875,17.479375,6.209375,6.46337109375,3.00906640625
-13.16637109375,-12.7151015625,-11.63337890625,-4.6152890625,-6.44083984375,-6.46923046875,-4.02346875,-3.51949609375,3.105484375,-4.98435546875,-9.0289453125,-9.887875,4.95740625,-0.384265625,-7.53934765625,-7.359578125,-2.80554296875,5.0216953125,-0.7091640625,-2.9338671875,-0.246804687499999,2.11807421875,5.98246875,4.796578125,3.39826171875,1.1571875,15.832375,4.949375,5.77337109375,2.47206640625
-11.98837109375,-14.1471015625,-14.77037890625,-5.3422890625,-6.57383984375,-5.25123046875,-4.16946875,-4.36249609375,0.629484375,-4.99335546875,-7.8849453125,-7.102875,5.73740625,-2.307265625,-6.99534765625,-6.289578125,-3.85754296875,3.1256953125,-2.6071640625,-3.4338671875,-0.0938046874999996,0.0170742187499998,3.40446875,3.210578125,2.38226171875,1.6891875,13.589375,2.812375,4.65637109375,2.03706640625
-9.69637109375,-14.7721015625,-18.17237890625,-5.5062890625,-5.72883984375,-3.00723046875,-3.03846875,-4.75549609375,-1.673515625,-4.11835546875,-5.6499453125,-3.366875,5.32640625,-3.780265625,-5.69434765625,-4.274578125,-5.41254296875,0.8876953125,-3.9091640625,-3.1918671875,0.6771953125,-2.92892578125,0.87446875,2.339578125,2.23826171875,2.7041875,11.347375,0.285375,3.47337109375,2.11806640625
-7.12937109375,-14.1931015625,-20.36737890625,-5.3572890625,-4.73383984375,-0.691230468750001,-1.21846875,-4.44049609375,-3.802515625,-3.13435546875,-3.2319453125,0.192124999999999,3.57140625,-4.607265625,-4.37434765625,-2.006578125,-6.42654296875,-1.1723046875,-4.2301640625,-2.4018671875,1.8251953125,-5.86192578125,-0.83453125,2.419578125,2.95326171875,4.1151875,9.686375,-2.008625,2.60137109375,3.04006640625
-5.41937109375,-12.6061015625,-20.43137890625,-5.4442890625,-4.54283984375,0.558769531249999,0.13253125,-3.46149609375,-5.999515625,-2.94835546875,-1.7639453125,2.412125,0.82840625,-4.968265625,-3.84434765625,-0.313578125000001,-6.40054296875,-2.6673046875,-3.6151640625,-1.4938671875,2.9771953125,-7.86992578125,-1.33353125,3.319578125,4.23226171875,5.7111875,8.863375,-3.567625,2.24237109375,4.81006640625
-5.39737109375,-10.6801015625,-18.48537890625,-6.2732890625,-5.67883984375,-0.0172304687500002,-0.0114687499999988,-2.29949609375,-8.529515625,-4.13235546875,-2.0679453125,2.565125,-2.19959375,-5.263265625,-4.62134765625,0.148421874999999,-5.66554296875,-3.4583046875,-2.5111640625,-0.9548671875,3.7621953125,-8.34892578125,-0.75453125,4.569578125,5.61726171875,7.2061875,8.680375,-4.176625,2.32237109375,7.05506640625
-7.20737109375,-9.2181015625,-15.58237890625,-8.0152890625,-7.87283984375,-2.38723046875,-1.91646875,-1.69549609375,-11.391515625,-6.60135546875,-4.2209453125,0.618124999999999,-4.82859375,-5.847265625,-6.66934765625,-0.834578125000001,-5.15754296875,-3.6613046875,-1.5351640625,-1.1048671875,3.9411953125,-7.22792578125,0.36646875,5.561578125,6.67726171875,8.3371875,8.609375,-3.927625,2.55837109375,9.18606640625
-10.28437109375,-8.7841015625,-13.08837890625,-10.4582890625,-10.13683984375,-5.71223046875,-4.96746875,-2.25249609375,-14.165515625,-9.61035546875,-7.4549453125,-2.797875,-6.72959375,-6.805265625,-9.36234765625,-2.941578125,-5.81854296875,-3.5513046875,-1.1681640625,-1.9348671875,3.4731953125,-4.97292578125,1.38046875,5.834578125,7.18826171875,8.9751875,8.123375,-3.094625,2.66437109375,10.71206640625
-13.65137109375,-9.4491015625,-11.94137890625,-13.1782890625,-11.29683984375,-8.75923046875,-8.08346875,-4.09249609375,-16.149515625,-12.08735546875,-10.5019453125,-6.650875,-8.01959375,-7.901265625,-11.72634765625,-5.426578125,-7.97154296875,-3.4253046875,-1.5191640625,-3.0648671875,2.5421953125,-2.38292578125,1.84046875,5.313578125,7.22026171875,9.2091875,7.059375,-1.956625,2.57337109375,11.52006640625
-16.32837109375,-10.8241015625,-12.26337890625,-15.7752890625,-10.75583984375,-10.53423046875,-10.34346875,-6.78049609375,-16.759515625,-13.16735546875,-12.2299453125,-9.882875,-9.11259375,-8.744265625,-12.86234765625,-7.426578125,-11.02154296875,-3.4993046875,-2.3111640625,-3.9118671875,1.4881953125,-0.27692578125,1.65946875,4.327578125,7.06626171875,9.3281875,5.724375,-0.689625,2.48237109375,11.88906640625
-17.70937109375,-12.3661015625,-13.54237890625,-18.0312890625,-9.02183984375,-10.80723046875,-11.42546875,-9.53549609375,-15.971515625,-12.67135546875,-12.2169453125,-11.767875,-10.45859375,-9.074265625,-12.39734765625,-8.346578125,-13.71854296875,-3.8733046875,-3.0941640625,-3.9968671875,0.670195312500001,0.75407421875,1.03646875,3.392578125,7.04426171875,9.6681875,4.651375,0.582375,2.65137109375,12.24006640625
-17.75637109375,-13.7501015625,-15.17837890625,-19.9292890625,-7.57983984375,-10.19823046875,-11.61546875,-11.61849609375,-14.492515625,-11.25835546875,-10.9409453125,-12.158875,-12.32259375,-8.987265625,-10.70734765625,-8.125578125,-14.86354296875,-4.5663046875,-3.5611640625,-3.2318671875,0.3021953125,0.48007421875,0.23846875,2.886578125,7.28726171875,10.3851875,4.192375,1.676375,3.12437109375,12.78706640625
-16.92937109375,-14.9871015625,-16.87937890625,-21.5672890625,-8.09683984375,-9.79223046875,-11.45646875,-12.68049609375,-13.492515625,-10.10635546875,-9.5049453125,-11.493875,-14.65759375,-8.915265625,-8.77534765625,-7.231578125,-14.02354296875,-5.5553046875,-3.7391640625,-1.9918671875,0.375195312500001,-0.96492578125,-0.58653125,2.824578125,7.67526171875,11.3381875,4.241375,2.317375,3.62637109375,13.36306640625
-15.89037109375,-16.2031015625,-18.63237890625,-23.0152890625,-11.37983984375,-10.49423046875,-11.35846875,-12.88449609375,-14.013515625,-10.27935546875,-9.0579453125,-10.555875,-17.09759375,-9.374265625,-7.73934765625,-6.397578125,-11.75554296875,-6.7863046875,-3.9601640625,-0.9288671875,0.7051953125,-3.15392578125,-1.45753125,2.872578125,7.92926171875,12.1611875,4.311375,2.253375,3.73237109375,13.53206640625
-15.18037109375,-17.3381015625,-20.35337890625,-24.2232890625,-16.76683984375,-12.50423046875,-11.40146875,-12.68449609375,-16.400515625,-12.16535546875,-10.2099453125,-10.091875,-19.10159375,-10.665265625,-8.35334765625,-6.234578125,-9.21154296875,-8.1773046875,-4.6621640625,-0.6648671875,1.0381953125,-5.52192578125,-2.50653125,2.546578125,7.77726171875,12.4571875,3.839375,1.426375,3.14437109375,12.88406640625
-15.03337109375,-18.0541015625,-21.61737890625,-25.0012890625,-22.34883984375,-15.21023046875,-11.39246875,-12.40449609375,-20.076515625,-15.27935546875,-12.7109453125,-10.446875,-20.20659375,-12.707265625,-10.65334765625,-6.949578125,-7.44354296875,-9.6223046875,-6.1491640625,-1.5318671875,1.1701953125,-7.55192578125,-3.86853125,1.473578125,7.07026171875,11.9801875,2.530375,0.0583749999999998,1.87737109375,11.29906640625
-15.36737109375,-17.9231015625,-21.71837890625,-25.1382890625,-25.90083984375,-17.52323046875,-11.05646875,-11.97349609375,-23.797515625,-18.51235546875,-15.5639453125,-11.376875,-20.22959375,-15.075265625,-13.95534765625,-8.278578125,-6.85454296875,-10.9803046875,-8.4141640625,-3.4658671875,1.0001953125,-8.89492578125,-5.57353125,-0.425421875,5.81026171875,10.7001875,0.531375,-1.408625,0.25437109375,9.01506640625
-15.90037109375,-16.7281015625,-20.06937890625,-24.5542890625,-25.97583984375,-18.44923046875,-10.23946875,-11.02149609375,-26.244515625,-20.66435546875,-17.5369453125,-12.165875,-19.28759375,-17.174265625,-17.19734765625,-9.684578125,-7.09354296875,-12.0573046875,-11.1051640625,-6.0698671875,0.521195312500001,-9.40992578125,-7.45453125,-2.909421875,4.11726171875,8.7611875,-1.614625,-2.472625,-1.24662890625,6.49406640625
-16.31037109375,-14.6701015625,-16.66237890625,-23.4092890625,-22.59583984375,-17.59723046875,-9.00946875,-9.24949609375,-26.609515625,-20.98435546875,-17.7879453125,-12.021875,-17.61859375,-18.468265625,-19.41334765625,-10.665578125,-7.39654296875,-12.6123046875,-13.6481640625,-8.7958671875,-0.222804687499999,-9.12192578125,-9.16253125,-5.520421875,2.17626171875,6.4001875,-3.204625,-2.777625,-2.20162890625,4.18906640625
-16.37837109375,-12.3591015625,-12.27237890625,-22.0612890625,-17.17883984375,-15.33323046875,-7.59646875,-6.73249609375,-24.854515625,-19.47635546875,-16.2399453125,-10.502875,-15.38859375,-18.662265625,-20.11434765625,-10.989578125,-7.14554296875,-12.4143046875,-15.4601640625,-11.1238671875,-1.1418046875,-8.18092578125,-10.27053125,-7.760421875,0.217261718750001,3.8981875,-3.697625,-2.254625,-2.40462890625,2.38706640625
-16.01937109375,-10.5581015625,-8.21637890625,-20.8762890625,-11.82483984375,-12.52323046875,-6.21546875,-3.94449609375,-21.567515625,-16.82435546875,-13.5249453125,-7.722875,-12.62759375,-17.743265625,-19.38434765625,-10.716578125,-6.26154296875,-11.3163046875,-16.1321640625,-12.6778671875,-2.0688046875,-6.80592578125,-10.43553125,-9.239421875,-1.47473828125,1.5871875,-2.955625,-1.124625,-1.90662890625,1.20306640625
-15.22237109375,-9.7711015625,-5.72937890625,-19.9882890625,-8.34183984375,-10.06223046875,-4.98146875,-1.50649609375,-17.555515625,-14.00535546875,-10.6029453125,-4.250875,-9.35759375,-15.900265625,-17.72134765625,-10.056578125,-5.14054296875,-9.3083046875,-15.5291640625,-13.2558671875,-2.7548046875,-5.24692578125,-9.51753125,-9.761421875,-2.59673828125,-0.1438125,-1.289625,0.228375,-0.95362890625,0.649066406249999
-13.95537109375,-9.9411015625,-5.29337890625,-19.1642890625,-7.53483984375,-8.47323046875,-3.99446875,0.167503906249999,-13.466515625,-11.82635546875,-8.3289453125,-0.852875000000001,-5.79359375,-13.391265625,-15.75234765625,-9.224578125,-4.20654296875,-6.5403046875,-13.7841640625,-12.8498671875,-2.9638046875,-3.73792578125,-7.63253125,-9.368421875,-2.93373828125,-0.9588125,0.675375,1.433375,0.12537109375,0.69006640625
-12.18237109375,-10.4521015625,-6.34237890625,-17.9182890625,-9.00183984375,-7.76923046875,-3.49746875,1.11350390625,-9.625515625,-10.63135546875,-7.1369453125,1.739125,-2.43059375,-10.486265625,-13.98734765625,-8.384578125,-3.45854296875,-3.3403046875,-11.2631640625,-11.6568671875,-2.6328046875,-2.46992578125,-5.13553125,-8.333421875,-2.52273828125,-0.7658125,2.241375,2.252375,1.00737109375,1.22206640625
-9.97237109375,-10.4801015625,-7.57237890625,-15.8392890625,-11.43083984375,-7.57623046875,-3.79646875,1.75650390625,-6.128515625,-10.25235546875,-6.9389453125,3.014125,0.12640625,-7.477265625,-12.67034765625,-7.634578125,-2.43354296875,-0.1913046875,-8.4791640625,-10.0398671875,-1.9378046875,-1.55892578125,-2.53553125,-7.084421875,-1.68173828125,0.1811875,2.877375,2.607375,1.43337109375,2.04406640625
-7.56137109375,-9.4451015625,-7.67437890625,-12.9152890625,-13.19683984375,-7.38223046875,-4.92446875,2.57950390625,-3.040515625,-10.15935546875,-7.2129453125,2.844125,1.50640625,-4.670265625,-11.74334765625,-6.963578125,-0.59754296875,2.3896953125,-5.9431640625,-8.3858671875,-1.1738046875,-1.01092578125,-0.32953125,-6.038421875,-0.85473828125,1.4021875,2.416375,2.556375,1.28337109375,2.89406640625
-5.28337109375,-7.2891015625,-6.03937890625,-9.5962890625,-13.03783984375,-6.76423046875,-6.35846875,3.77350390625,-0.545515625,-9.69935546875,-7.2419453125,1.572125,1.85740625,-2.331265625,-10.90834765625,-6.211578125,2.13745703125,4.0376953125,-3.9941640625,-6.9228671875,-0.542804687499999,-0.72192578125,1.17646875,-5.414421875,-0.32473828125,2.4871875,1.106375,2.235375,0.63937109375,3.56506640625
-3.39737109375,-4.4421015625,-3.01437890625,-6.5472890625,-10.56783984375,-5.52123046875,-7.13946875,5.13750390625,1.066484375,-8.38935546875,-6.4419453125,-0.101875,1.80840625,-0.613265625,-9.80434765625,-5.138578125,5.19345703125,4.6666953125,-2.7071640625,-5.6468671875,-0.0318046874999993,-0.53292578125,1.94846875,-5.160421875,-0.0617382812499994,3.2981875,-0.527625,1.793375,-0.24362890625,3.99406640625
-1.95437109375,-1.5311015625,0.43362109375,-4.2792890625,-6.44183984375,-3.70423046875,-6.41346875,6.28150390625,1.545484375,-6.15435546875,-4.6419453125,-1.430875,2.09340625,0.461734375,-8.22934765625,-3.588578125,7.52545703125,4.4506953125,-1.9351640625,-4.4058671875,0.5111953125,-0.34392578125,2.16246875,-5.035421875,0.19926171875,3.9321875,-1.986625,1.321375,-1.07662890625,4.23406640625
-0.81937109375,0.964898437499999,3.35662109375,-2.9302890625,-2.05883984375,-1.58623046875,-3.99046875,6.87350390625,0.849484375,-3.38235546875,-2.2059453125,-1.956875,3.08040625,0.954734375,-6.28634765625,-1.638578125,8.13545703125,3.6706953125,-1.4521640625,-3.0748671875,1.2151953125,-0.18692578125,2.05046875,-4.785421875,0.72026171875,4.5261875,-3.039625,0.836375,-1.67662890625,4.35106640625
0.18462890625,2.8918984375,5.30762109375,-2.3212890625,1.07016015625,0.41076953125,-0.536468749999999,6.77750390625,-0.778515625,-0.767355468749999,0.0980546874999995,-1.679875,4.53140625,0.959734375,-4.36334765625,0.386421874999999,6.56045703125,2.5416953125,-1.0911640625,-1.6728671875,2.0591953125,-0.23392578125,1.76846875,-4.289421875,1.57426171875,5.0851875,-3.783625,0.305375,-2.03762890625,4.34206640625
1.09362890625,4.3038984375,6.34362109375,-2.2222890625,1.98716015625,1.80876953125,2.70853125,6.05650390625,-2.914515625,0.99564453125,1.4320546875,-0.986875000000001,5.72840625,0.541734375,-2.94134765625,2.037421875,3.08945703125,1.1166953125,-0.8341640625,-0.3618671875,2.8621953125,-0.72592578125,1.32846875,-3.613421875,2.61326171875,5.4541875,-4.482625,-0.297625,-2.27962890625,4.16806640625
1.72062890625,5.1738984375,6.64062109375,-2.5892890625,0.63116015625,2.18976953125,4.46653125,4.90950390625,-5.147515625,1.48064453125,1.2890546875,-0.417875,5.84640625,-0.284265625,-2.35734765625,2.942421875,-1.35154296875,-0.6823046875,-0.7971640625,0.6331328125,3.3671953125,-1.87492578125,0.61146875,-2.951421875,3.58826171875,5.4191875,-5.344625,-0.960625,-2.54862890625,3.86206640625
1.75062890625,5.2368984375,6.14862109375,-3.5842890625,-2.23283984375,1.34976953125,3.96553125,3.58350390625,-7.205515625,0.69864453125,-0.245945312500002,-0.371875000000001,4.35640625,-1.515265625,-2.61034765625,2.988421875,-5.54354296875,-2.9243046875,-1.1341640625,1.1751328125,3.3891953125,-3.76492578125,-0.52853125,-2.501421875,4.33826171875,4.9081875,-6.338625,-1.614625,-2.89562890625,3.62506640625
0.96462890625,4.1708984375,4.65862109375,-5.3582890625,-5.38583984375,-0.564230468750001,1.31153125,2.28450390625,-8.914515625,-0.876355468749999,-2.4939453125,-0.889875,1.27340625,-3.047265625,-3.31834765625,2.414421875,-8.35154296875,-5.5013046875,-1.8641640625,1.3371328125,2.9661953125,-6.26492578125,-2.09853125,-2.305421875,4.91926171875,4.1481875,-7.146625,-2.127625,-3.19262890625,3.81806640625
-0.56537109375,1.9948984375,2.21062109375,-7.7932890625,-7.60083984375,-2.99323046875,-2.47846875,1.14850390625,-10.070515625,-2.47535546875,-4.4469453125,-1.635875,-2.85559375,-4.595265625,-3.85834765625,1.738421875,-9.06054296875,-8.0653046875,-2.7671640625,1.4201328125,2.3951953125,-9.03692578125,-3.85353125,-2.191421875,5.57726171875,3.6431875,-7.299625,-2.355625,-3.18562890625,4.78106640625
-2.45837109375,-0.690101562500001,-0.60337890625,-10.4392890625,-8.04583984375,-5.11023046875,-5.82446875,0.257503906249998,-10.417515625,-3.35835546875,-5.1889453125,-2.111875,-7.20659375,-5.778265625,-3.65634765625,1.497421875,-7.62154296875,-10.1513046875,-3.4711640625,1.7861328125,2.0781953125,-11.65692578125,-5.37153125,-1.884421875,6.53726171875,3.8951875,-6.467625,-2.253625,-2.68662890625,6.58406640625
-4.17137109375,-2.8671015625,-2.78637890625,-12.7092890625,-6.56383984375,-6.15523046875,-7.26546875,-0.352496093750002,-9.824515625,-3.18735546875,-4.3249453125,-2.009875,-11.03359375,-6.332265625,-2.50834765625,1.943421875,-4.70154296875,-11.4363046875,-3.6961640625,2.5961328125,2.2531953125,-13.79492578125,-6.28153125,-1.249421875,7.76026171875,5.0551875,-4.752625,-1.985625,-1.77762890625,8.86706640625
-5.22037109375,-3.6121015625,-3.48637890625,-14.1732890625,-3.78883984375,-5.82523046875,-6.16446875,-0.743496093750002,-8.507515625,-2.22935546875,-2.2099453125,-1.459875,-13.88959375,-6.305265625,-0.74834765625,2.863421875,-1.43554296875,-11.9223046875,-3.4711640625,3.6341328125,2.8051953125,-15.31292578125,-6.47853125,-0.467421874999999,8.86226171875,6.7601875,-2.766625,-1.910625,-0.84862890625,10.90606640625
-5.37537109375,-2.6421015625,-2.56037890625,-14.7472890625,-1.00083984375,-4.49823046875,-3.10546875,-1.09649609375,-7.096515625,-1.24735546875,0.1360546875,-1.014875,-15.63259375,-6.072265625,0.84965234375,3.641421875,1.05145703125,-11.9083046875,-3.1661640625,4.3601328125,3.2971953125,-16.22192578125,-6.18753125,-0.0134218749999997,9.26426171875,8.2771875,-1.400625,-2.403625,-0.41862890625,11.90106640625
-4.78537109375,-0.576101562500001,-0.719378906249999,-14.6972890625,0.29316015625,-3.13123046875,0.287531250000001,-1.62549609375,-6.422515625,-1.14235546875,1.4550546875,-1.350875,-16.28759375,-6.155265625,1.40065234375,3.546421875,2.07245703125,-11.7953046875,-3.3021640625,4.1751328125,3.1951953125,-16.55992578125,-5.84253125,-0.419421874999999,8.49326171875,8.8491875,-1.408625,-3.631625,-0.85862890625,11.32506640625
-3.95137109375,1.3238984375,0.86362109375,-14.4932890625,-1.02583984375,-2.80923046875,2.09753125,-2.42149609375,-7.112515625,-2.50435546875,0.853054687499998,-2.847875,-15.92859375,-6.936265625,0.343652343750001,2.117421875,1.55445703125,-11.8273046875,-4.2461640625,2.7561328125,2.1771953125,-16.31792578125,-5.85153125,-1.941421875,6.45326171875,8.0621875,-2.994625,-5.416625,-2.18262890625,9.18806640625
-3.50637109375,1.8498984375,1.28662109375,-14.5752890625,-5.12283984375,-4.14723046875,1.11953125,-3.37749609375,-9.219515625,-5.25235546875,-1.7169453125,-5.296875,-14.62559375,-8.397265625,-2.22334765625,-0.516578125000001,-0.0685429687500001,-11.9303046875,-5.9411640625,0.3231328125,0.3901953125,-15.43092578125,-6.35753125,-4.316421875,3.56326171875,6.0741875,-5.626625,-7.255625,-3.98462890625,6.08806640625
-3.86337109375,0.584898437499999,0.52462109375,-15.1162890625,-10.96783984375,-6.87123046875,-2.44946875,-4.24849609375,-12.099515625,-8.56135546875,-5.3589453125,-7.904875,-12.46659375,-10.036265625,-5.47834765625,-3.565578125,-2.07054296875,-11.7173046875,-7.8411640625,-2.3528671875,-1.5068046875,-13.82292578125,-7.11153125,-6.760421875,0.672261718750001,3.5951875,-8.203625,-8.487625,-5.57462890625,2.99406640625
-4.97237109375,-1.8011015625,-0.512378906249999,-15.8872890625,-16.61083984375,-9.84223046875,-7.07246875,-4.77749609375,-14.606515625,-11.16135546875,-8.6169453125,-9.650875,-9.60159375,-11.064265625,-8.19134765625,-5.868578125,-3.61854296875,-10.6763046875,-9.1281640625,-4.2528671875,-2.6108046875,-11.46692578125,-7.57253125,-8.288421875,-1.25773828125,1.5701875,-9.546625,-8.548625,-6.26462890625,0.835066406249999
-6.32437109375,-3.9111015625,-0.50837890625,-16.3592890625,-19.92083984375,-11.56923046875,-10.67646875,-4.79449609375,-15.555515625,-11.91635546875,-10.1589453125,-9.788875,-6.26659375,-10.781265625,-9.29334765625,-6.443578125,-3.90054296875,-8.4663046875,-9.1271640625,-4.6218671875,-2.2348046875,-8.44492578125,-7.21553125,-8.204421875,-1.58773828125,0.7271875,-8.994625,-7.215625,-5.70162890625,0.0910664062499995
-7.20937109375,-4.3911015625,1.46262109375,-16.0012890625,-19.48583984375,-10.95123046875,-11.70546875,-4.25949609375,-14.230515625,-10.37335546875,-9.4069453125,-8.200875,-2.73659375,-8.958265625,-8.40634765625,-4.987578125,-2.30354296875,-5.1473046875,-7.6871640625,-3.3788671875,-0.2858046875,-4.96392578125,-5.84153125,-6.494421875,-0.30873828125,1.2401875,-6.739625,-4.723625,-4.05362890625,0.61806640625
-7.04637109375,-2.6371015625,5.37462109375,-14.5992890625,-15.25183984375,-7.85223046875,-9.83946875,-3.26749609375,-10.720515625,-6.98735546875,-6.7719453125,-5.392875,0.76640625,-5.971265625,-6.02534765625,-2.032578125,1.29045703125,-1.2023046875,-5.2821640625,-1.1648671875,2.6761953125,-1.31992578125,-3.70353125,-3.875421875,1.96326171875,2.7251875,-3.701625,-1.669625,-1.91462890625,1.81606640625
-5.62037109375,0.969898437499999,10.24462109375,-12.3552890625,-8.57983984375,-3.17423046875,-6.03546875,-1.98949609375,-5.878515625,-2.92835546875,-3.3949453125,-2.184875,4.12640625,-2.641265625,-3.25834765625,1.307421875,6.25445703125,2.6366953125,-2.7981640625,0.9811328125,5.7201953125,2.17507421875,-1.38953125,-1.458421875,4.28226171875,4.4941875,-1.051625,1.223375,-0.0176289062500001,2.98806640625
-3.13037109375,5.3238984375,14.62162109375,-9.7372890625,-1.68383984375,1.58776953125,-1.96946875,-0.569496093750001,-0.945515625,0.425644531250001,-0.548945312500001,0.651125,7.26740625,0.113734375,-1.28734765625,3.831421875,11.29845703125,5.6656953125,-1.1341640625,2.1171328125,7.9381953125,5.22807421875,0.44046875,-0.242421875,5.78926171875,5.8771875,0.323375,3.343375,1.05937109375,3.65106640625
-0.0653710937499996,9.1568984375,17.26462109375,-7.2172890625,3.32316015625,5.06176953125,0.816531250000001,0.921503906249999,2.994484375,2.06364453125,0.936054687499999,2.628125,10.03640625,1.661734375,-0.83534765625,4.744421875,14.96945703125,7.4426953125,-0.8251640625,1.8001328125,8.7631953125,7.57507421875,1.31346875,-0.698421874999999,6.01026171875,6.4371875,0.110375,4.323375,1.05237109375,3.62906640625
3.01662890625,11.6018984375,17.67862109375,-5.0842890625,5.29116015625,6.61276953125,1.61953125,2.45450390625,5.424484375,1.74164453125,0.9560546875,3.626125,12.11140625,1.892734375,-1.89534765625,3.927421875,16.31145703125,7.9136953125,-1.8411640625,0.2091328125,8.0881953125,8.98407421875,1.09746875,-2.630421875,4.94626171875,6.0181875,-1.457625,4.072375,0.0183710937499999,2.95006640625
5.70262890625,12.4988984375,16.26962109375,-3.4232890625,4.41516015625,6.53576953125,0.815531250000001,4.00350390625,6.473484375,0.0176445312500007,0.0230546874999984,3.848125,13.05240625,1.194734375,-3.81734765625,1.891421875,15.28345703125,7.3686953125,-3.6611640625,-2.0268671875,6.1721953125,9.30307421875,-0.0125312500000003,-5.363421875,2.93626171875,4.6561875,-3.871625,2.732375,-1.77362890625,1.67806640625
7.83062890625,12.3318984375,14.09462109375,-2.2082890625,1.95516015625,5.75976953125,-0.474468749999999,5.57450390625,6.670484375,-2.09635546875,-1.0969453125,3.679125,12.47840625,0.194734375,-5.68534765625,-0.535578125,12.68145703125,6.2576953125,-5.5621640625,-4.2058671875,3.4311953125,8.52507421875,-1.65153125,-8.124421875,0.39526171875,2.4451875,-6.693625,0.592375,-4.00762890625,-0.17793359375
9.47562890625,11.9138984375,12.39362109375,-1.3812890625,-0.50083984375,5.27976953125,-1.03546875,7.23150390625,6.586484375,-3.64335546875,-1.7819453125,3.503125,10.30940625,-0.577265625,-6.75334765625,-2.607578125,9.65445703125,4.9896953125,-6.9731640625,-5.8778671875,0.232195312500001,6.81507421875,-3.47153125,-10.386421875,-2.38673828125,-0.5338125,-9.735625,-2.000625,-6.44062890625,-2.63493359375
10.85862890625,12.0498984375,12.16562109375,-0.8452890625,-1.76283984375,5.65976953125,-0.107468749999999,9.03050390625,6.626484375,-4.09335546875,-1.7969453125,3.584125,6.99640625,-0.873265625,-6.72234765625,-3.920578125,7.11045703125,3.8146953125,-7.6751640625,-6.9718671875,-3.1858046875,4.49207421875,-5.23753125,-12.006421875,-5.29073828125,-4.1538125,-13.001625,-4.718625,-8.91862890625,-5.62793359375
12.17762890625,13.2508984375,13.90062109375,-0.3792890625,-1.40283984375,6.85876953125,2.36553125,10.88850390625,7.022484375,-3.43335546875,-1.2839453125,4.020125,3.55640625,-0.700265625,-5.77534765625,-4.441578125,5.30845703125,2.8366953125,-7.7771640625,-7.6908671875,-6.6658046875,1.95007421875,-6.81953125,-13.116421875,-8.25173828125,-8.1478125,-16.437625,-7.302625,-11.31662890625,-8.92293359375
13.44762890625,15.5348984375,17.42562109375,0.3837109375,0.315160156250001,8.39376953125,5.81553125,12.54750390625,7.890484375,-2.02135546875,-0.589945312500001,4.741125,1.29540625,-0.196265625,-4.39834765625,-4.389578125,3.80145703125,2.0706953125,-7.5541640625,-8.2938671875,-10.0368046875,-0.45092578125,-8.14953125,-13.901421875,-11.12373828125,-12.0768125,-19.731625,-9.597625,-13.48062890625,-12.12493359375
14.42562890625,18.3558984375,21.87762109375,1.8277109375,2.74316015625,9.66776953125,9.31553125,13.67350390625,9.229484375,-0.36635546875,-0.0569453125000017,5.506125,1.25840625,0.453734375,-3.14334765625,-4.068578125,1.77645703125,1.4686953125,-7.2761640625,-8.9328671875,-13.0558046875,-2.49192578125,-9.19853125,-14.442421875,-13.63573828125,-15.4278125,-22.337625,-11.554625,-15.22762890625,-14.76193359375
14.72862890625,20.7838984375,25.91962109375,4.0577109375,5.18016015625,10.26676953125,11.95153125,14.01650390625,10.803484375,1.05764453125,0.121054687499999,5.964125,3.67640625,1.034734375,-2.42734765625,-3.734578125,-1.38854296875,0.8986953125,-7.1111640625,-9.5778671875,-15.4338046875,-4.15292578125,-9.97953125,-14.690421875,-15.44973828125,-17.7528125,-23.699625,-13.201625,-16.38962890625,-16.40893359375
14.04062890625,21.8918984375,28.21562109375,6.6687109375,7.08316015625,10.09076953125,13.17653125,13.52250390625,12.063484375,1.94064453125,-0.0629453125000001,5.788125,7.73140625,1.293734375,-2.41534765625,-3.505578125,-5.63854296875,0.144695312500001,-7.1151640625,-10.0568671875,-16.9198046875,-5.58792578125,-10.54253125,-14.559421875,-16.27773828125,-18.8018125,-23.542625,-14.582625,-16.85762890625,-16.80293359375
12.26162890625,21.1348984375,27.95062109375,8.7887109375,8.15116015625,9.31876953125,12.96953125,12.35050390625,12.269484375,2.17164453125,-0.470945312500001,4.842125,11.80240625,0.977734375,-3.00734765625,-3.335578125,-10.11954296875,-1.0423046875,-7.2641640625,-10.1448671875,-17.3888046875,-7.01692578125,-10.96753125,-14.022421875,-15.99073828125,-18.5698125,-22.012625,-15.699625,-16.61062890625,-15.90693359375
9.53762890625,18.5318984375,25.15462109375,9.4737109375,8.31316015625,8.25176953125,11.71253125,10.80350390625,10.842484375,1.81164453125,-0.8929453125,3.248125,14.08040625,-0.0612656249999997,-3.90834765625,-3.072578125,-13.49654296875,-2.8083046875,-7.4801640625,-9.6688671875,-16.8778046875,-8.59292578125,-11.31053125,-13.147421875,-14.64573828125,-17.2658125,-19.596625,-16.485625,-15.71762890625,-13.89193359375
6.21362890625,14.6528984375,20.69162109375,8.2477109375,7.69516015625,7.14976953125,9.88053125,9.18650390625,7.783484375,1.06064453125,-1.1479453125,1.304125,13.26840625,-1.713265625,-4.73434765625,-2.566578125,-14.54254296875,-5.0513046875,-7.6241640625,-8.5678671875,-15.5578046875,-10.29392578125,-11.55553125,-12.059421875,-12.44673828125,-15.2098125,-16.869625,-16.818625,-14.30962890625,-11.07993359375
2.77962890625,10.4848984375,15.97562109375,5.4027109375,6.60816015625,6.15976953125,7.81053125,7.68850390625,3.846484375,0.23064453125,-1.1609453125,-0.660875000000001,9.06240625,-3.545265625,-5.12734765625,-1.778578125,-12.70854296875,-7.3683046875,-7.4961640625,-6.9118671875,-13.6628046875,-11.90392578125,-11.58153125,-10.879421875,-9.66673828125,-12.7278125,-14.234625,-16.578625,-12.53762890625,-7.87193359375
-0.21037109375,7.1748984375,12.49562109375,1.8317109375,5.53716015625,5.35576953125,5.70053125,6.40050390625,0.286484375,-0.30235546875,-0.9669453125,-2.365875,2.21540625,-4.904265625,-4.85334765625,-0.792578125000001,-8.42954296875,-9.1863046875,-6.8841640625,-4.8718671875,-11.4178046875,-13.10292578125,-11.19953125,-9.688421875,-6.57473828125,-10.0958125,-11.817625,-15.707625,-10.53562890625,-4.68493359375
-2.26937109375,5.6238984375,11.22862109375,-1.4852890625,5.04716015625,4.83676953125,3.80353125,5.44350390625,-1.726515625,-0.183355468749999,-0.608945312500001,-3.546875,-5.78259375,-5.181265625,-3.85034765625,0.259421874999999,-3.02254296875,-9.9913046875,-5.6541640625,-2.6668671875,-9.0068046875,-13.61392578125,-10.25653125,-8.506421875,-3.40573828125,-7.5328125,-9.545625,-14.253625,-8.40662890625,-1.85793359375
-3.12037109375,6.0588984375,12.17262109375,-3.9682890625,5.56816015625,4.75276953125,2.58353125,5.03250390625,-1.702515625,0.79464453125,-0.0299453125000007,-3.900875,-13.19459375,-4.097265625,-2.21734765625,1.324421875,1.81245703125,-9.5523046875,-3.8301640625,-0.4868671875,-6.5508046875,-13.31792578125,-8.73653125,-7.295421875,-0.35273828125,-5.1828125,-7.308625,-12.371625,-6.23362890625,0.434066406249999
-2.76937109375,7.8688984375,14.26762109375,-5.5942890625,7.11816015625,5.21176953125,2.65153125,5.36150390625,-0.0815156250000001,2.57064453125,0.901054687499999,-3.108875,-18.48059375,-1.856265625,-0.20834765625,2.474421875,4.66545703125,-8.0243046875,-1.6311640625,1.5381328125,-4.1288046875,-12.29292578125,-6.80153125,-5.991421875,2.41626171875,-3.1068125,-5.123625,-10.311625,-4.11062890625,2.19906640625
-1.48637109375,9.8708984375,15.90362109375,-6.6852890625,9.17716015625,6.10576953125,4.44253125,6.37450390625,2.009484375,4.76564453125,2.2360546875,-1.014875,-20.59359375,0.897734375,1.77965234375,3.792421875,4.94745703125,-5.8803046875,0.5458359375,3.2831328125,-1.8498046875,-10.77092578125,-4.78453125,-4.597421875,4.69226171875,-1.3248125,-3.224625,-8.392625,-2.20562890625,3.52106640625
0.28062890625,10.9198984375,15.79862109375,-7.5492890625,10.87016015625,7.05676953125,7.83253125,7.67350390625,3.370484375,6.74364453125,3.7670546875,2.143125,-19.18959375,3.308734375,3.23665234375,5.171421875,3.03345703125,-3.7313046875,2.2028359375,4.5301328125,0.0651953125000002,-9.05292578125,-3.12653125,-3.303421875,6.16426171875,0.0751874999999997,-2.052625,-6.952625,-0.81262890625,4.37706640625
2.04362890625,10.4998984375,13.73662109375,-8.2022890625,11.41216015625,7.54376953125,11.95553125,8.62150390625,3.371484375,7.82664453125,5.0040546875,5.627125,-14.72859375,4.647734375,3.65965234375,6.194421875,0.048457031249999,-2.0733046875,2.8758359375,4.9181328125,1.2661953125,-7.39392578125,-2.24453125,-2.507421875,6.44726171875,0.8761875,-2.112625,-6.264625,-0.31262890625,4.56406640625
3.44062890625,8.9418984375,10.64462109375,-8.3382890625,10.49916015625,7.15976953125,15.36653125,8.58850390625,2.230484375,7.57064453125,5.3240546875,8.371125,-8.36559375,4.620734375,2.74265234375,6.258421875,-2.56454296875,-1.0733046875,2.3228359375,4.0681328125,1.3881953125,-5.90692578125,-2.34453125,-2.681421875,5.23226171875,0.8131875,-3.729625,-6.424625,-1.01262890625,3.78806640625
4.37362890625,7.1278984375,7.92562109375,-7.4972890625,8.34516015625,5.77576953125,16.51553125,7.19450390625,0.785484375,5.93164453125,4.2200546875,9.371125,-1.56359375,3.473734375,0.52265234375,4.870421875,-3.56354296875,-0.5183046875,0.6448359375,1.8011328125,0.2521953125,-4.52892578125,-3.28653125,-4.118421875,2.51026171875,-0.2328125,-6.820625,-7.264625,-2.93562890625,1.89106640625
5.00162890625,5.8878984375,6.53762109375,-5.3332890625,5.38816015625,3.52076953125,14.33953125,4.48950390625,-0.0485156250000001,3.21664453125,1.5120546875,8.081125,4.42240625,1.812734375,-2.63834765625,1.940421875,-2.38654296875,0.0356953125000006,-1.7401640625,-1.6948671875,-1.9828046875,-3.11192578125,-4.62253125,-6.737421875,-1.31473828125,-2.0968125,-10.849625,-8.393625,-5.72762890625,-0.956933593750001
5.58662890625,5.5388984375,6.48662109375,-1.8312890625,1.99816015625,0.65376953125,8.75753125,1.02550390625,0.228484375,-0.11235546875,-2.5599453125,4.659125,8.94540625,0.274734375,-6.21034765625,-2.117578125,0.603457031249999,0.9766953125,-4.2701640625,-5.8628671875,-4.8228046875,-1.54792578125,-5.80253125,-10.062421875,-5.47873828125,-4.3408125,-14.985625,-9.335625,-8.73462890625,-4.20893359375
6.27562890625,5.8368984375,7.03862109375,2.6367109375,-1.55683984375,-2.50723046875,0.831531250000001,-2.27649609375,1.548484375,-3.59335546875,-7.3809453125,-0.0298750000000005,12.03540625,-0.746265625,-9.66634765625,-6.485578125,4.30045703125,2.4366953125,-6.4251640625,-9.9208671875,-7.5698046875,0.15307421875,-6.41853125,-13.359421875,-9.07873828125,-6.3978125,-18.362625,-9.699625,-11.20962890625,-7.06593359375
6.98362890625,6.2758984375,7.36462109375,7.4067109375,-4.92583984375,-5.59223046875,-7.54746875,-4.48349609375,3.468484375,-6.81135546875,-12.1269453125,-4.657875,14.15840625,-1.160265625,-12.58434765625,-10.193578125,7.39845703125,4.2646953125,-7.8481640625,-13.0658671875,-9.5278046875,1.89107421875,-6.33153125,-15.871421875,-11.34073828125,-7.7508125,-20.328625,-9.299625,-12.55462890625,-8.75193359375
7.42562890625,6.4438984375,7.06562109375,11.7237109375,-7.57283984375,-8.19323046875,-14.35946875,-5.05249609375,5.516484375,-9.41335546875,-16.0169453125,-7.917875,15.80640625,-1.093265625,-14.69834765625,-12.455578125,8.94345703125,6.1526953125,-8.3991640625,-14.7278671875,-10.2458046875,3.53807421875,-5.67853125,-17.082421875,-11.88573828125,-8.1298125,-20.633625,-8.218625,-12.54262890625,-8.83493359375
7.27162890625,6.2078984375,6.28462109375,14.9407109375,-8.88983984375,-9.96223046875,-18.18846875,-4.08949609375,7.450484375,-11.16635546875,-18.5489453125,-9.049875,17.15340625,-0.757265625,-15.94234765625,-12.960578125,8.56645703125,7.7886953125,-8.1851640625,-14.7888671875,-9.6998046875,4.95907421875,-4.77853125,-16.913421875,-10.90473828125,-7.6438125,-19.520625,-6.826625,-11.45462890625,-7.47493359375
6.30462890625,5.6778984375,5.44362109375,16.6527109375,-8.44183984375,-10.73223046875,-18.59146875,-2.31249609375,9.321484375,-12.02035546875,-19.6229453125,-8.148875,17.98640625,-0.332265625,-16.45734765625,-11.988578125,6.39445703125,8.9656953125,-7.5241640625,-13.6388671875,-8.3198046875,5.99907421875,-3.98853125,-15.733421875,-9.10273828125,-6.7608125,-17.628625,-5.686625,-10.00862890625,-5.41193359375
4.50962890625,5.0688984375,4.91462109375,16.7237109375,-6.14483984375,-10.57723046875,-15.98946875,-0.763496093750001,11.339484375,-12.07135546875,-19.4939453125,-6.035875,17.93340625,0.122734375,-16.51434765625,-10.257578125,2.86345703125,9.6346953125,-6.8061640625,-11.9918671875,-6.7878046875,6.50707421875,-3.53653125,-14.153421875,-7.38073828125,-6.0868125,-15.695625,-5.342625,-9.02862890625,-3.65393359375
2.07162890625,4.5348984375,4.80762109375,15.2567109375,-2.31083984375,-9.74423046875,-11.29246875,-0.361496093750002,13.663484375,-11.46535546875,-18.5759453125,-3.800875,16.82540625,0.696734375,-16.35934765625,-8.577578125,-1.39854296875,9.8896953125,-6.2961640625,-10.5508671875,-5.7358046875,6.39107421875,-3.40453125,-12.694421875,-6.42073828125,-6.0798125,-14.210625,-6.048625,-9.02162890625,-2.99293359375
-0.66837109375,4.0858984375,4.95262109375,12.6087109375,2.42416015625,-8.51323046875,-5.61646875,-1.49649609375,16.243484375,-10.31335546875,-17.2239453125,-2.279875,14.91140625,1.565734375,-16.07134765625,-7.520578125,-5.63954296875,9.9156953125,-5.9901640625,-9.7058671875,-5.5168046875,5.68407421875,-3.34053125,-11.548421875,-6.40173828125,-6.8758125,-13.211625,-7.590625,-9.89262890625,-3.61893359375
-3.26937109375,3.6098984375,5.03362109375,9.4537109375,7.24316015625,-7.07723046875,-0.15746875,-3.87549609375,18.784484375,-8.67335546875,-15.6249453125,-1.782875,12.81440625,2.877734375,-15.52134765625,-7.255578125,-9.09754296875,9.9196953125,-5.6171640625,-9.4138671875,-6.1498046875,4.57507421875,-2.97753125,-10.534421875,-6.99573828125,-8.2948125,-12.350625,-9.329625,-10.98462890625,-5.05493359375
-5.25437109375,3.0288984375,4.81662109375,6.7477109375,11.32816015625,-5.52623046875,3.89353125,-6.71449609375,20.835484375,-6.59035546875,-13.8649453125,-2.135875,11.27640625,4.629734375,-14.47334765625,-7.585578125,-11.19354296875,10.0646953125,-4.7951640625,-9.3168671875,-7.4088046875,3.38407421875,-2.01353125,-9.290421875,-7.61373828125,-9.9698125,-11.157625,-10.449625,-11.42062890625,-6.42793359375
-6.23937109375,2.4298984375,4.34862109375,5.4577109375,14.03616015625,-3.91923046875,5.57553125,-9.15049609375,21.904484375,-4.19735546875,-12.0819453125,-2.962875,10.82340625,6.593734375,-12.79134765625,-8.132578125,-11.73054296875,10.3756953125,-3.2871640625,-9.0108671875,-8.9648046875,2.45307421875,-0.40353125,-7.571421875,-7.73473828125,-11.4888125,-9.390625,-10.335625,-10.56962890625,-6.92293359375
-6.08937109375,2.0798984375,4.00062109375,6.1167109375,15.00516015625,-2.38323046875,4.51153125,-10.61649609375,21.563484375,-1.80935546875,-10.5479453125,-3.989875,11.48440625,8.291734375,-10.62534765625,-8.572578125,-10.96654296875,10.6576953125,-1.2391640625,-8.3328671875,-10.5138046875,1.97007421875,1.50746875,-5.504421875,-7.18573828125,-12.5278125,-7.297625,-8.910625,-8.43362890625,-6.18993359375
-4.98937109375,2.2768984375,4.27462109375,8.5117109375,14.17216015625,-1.12723046875,1.16253125,-10.99449609375,19.537484375,0.0726445312500004,-9.5899453125,-5.182875,12.72540625,9.106734375,-8.42234765625,-8.755578125,-9.47754296875,10.4996953125,0.7938359375,-7.4728671875,-11.8218046875,1.83007421875,3.02346875,-3.625421875,-6.18973828125,-12.9128125,-5.611625,-6.737625,-5.70662890625,-4.48493359375
-3.33837109375,3.1428984375,5.45662109375,11.7437109375,11.73316015625,-0.353230468750001,-3.24746875,-10.54549609375,15.846484375,0.93964453125,-9.3919453125,-6.629875,13.64740625,8.535734375,-6.72134765625,-8.681578125,-7.84254296875,9.4466953125,2.0958359375,-6.8218671875,-12.7098046875,1.67807421875,3.38146875,-2.619421875,-5.18673828125,-12.6088125,-5.200625,-4.771625,-3.44762890625,-2.48193359375
-1.58537109375,4.4918984375,7.36562109375,14.6097109375,8.12116015625,-0.15523046875,-7.22546875,-9.71149609375,10.939484375,0.54864453125,-9.8549453125,-8.323875,13.37340625,6.485734375,-5.85534765625,-8.393578125,-6.39454296875,7.2736953125,2.1858359375,-6.6648671875,-13.0188046875,1.11207421875,2.16146875,-2.918421875,-4.54073828125,-11.6718125,-6.572625,-3.879625,-2.53262890625,-0.89293359375
-0.11137109375,5.8608984375,9.39162109375,16.0457109375,3.97116015625,-0.48023046875,-9.70146875,-8.90849609375,5.697484375,-0.889355468749999,-10.6079453125,-10.038875,11.41740625,3.414734375,-5.77534765625,-7.903578125,-5.22154296875,4.1826953125,1.1058359375,-6.9618671875,-12.6398046875,-0.0649257812500002,-0.42853125,-4.421421875,-4.33773828125,-10.2318125,-9.515625,-4.393625,-3.21662890625,-0.125933593750001
0.79762890625,6.7228984375,10.85262109375,15.4607109375,0.0551601562500004,-1.15823046875,-10.45746875,-8.38049609375,1.224484375,-2.73435546875,-11.1549453125,-11.397875,7.87940625,0.209734375,-6.07234765625,-7.202578125,-4.36754296875,0.8036953125,-0.5821640625,-7.3558671875,-11.5778046875,-1.70692578125,-3.57553125,-6.483421875,-4.38573828125,-8.5018125,-13.114625,-5.950625,-5.04362890625,-0.16793359375
0.99062890625,6.8258984375,11.44462109375,12.9067109375,-2.82483984375,-1.91423046875,-9.97846875,-8.19549609375,-1.478515625,-4.13935546875,-11.0629453125,-12.036875,3.39140625,-2.119265625,-6.16934765625,-6.276578125,-4.01154296875,-2.0063046875,-2.0391640625,-7.3678671875,-9.9898046875,-3.34692578125,-6.15753125,-8.182421875,-4.34973828125,-6.7598125,-16.092625,-7.675625,-7.09962890625,-0.68893359375
0.51462890625,6.4068984375,11.46862109375,9.0817109375,-3.96283984375,-2.37923046875,-8.87346875,-8.33149609375,-1.807515625,-4.34335546875,-10.0899453125,-11.747875,-1.11559375,-2.770265625,-5.55734765625,-5.117578125,-4.42454296875,-3.4573046875,-2.4901640625,-6.6198671875,-8.1438046875,-4.38092578125,-7.16953125,-8.680421875,-3.92073828125,-5.2598125,-17.301625,-8.580625,-8.42662890625,-1.25693359375
-0.39937109375,6.0788984375,11.62262109375,5.1107109375,-2.94483984375,-2.17323046875,-7.41246875,-8.74049609375,0.257484375,-2.97335546875,-8.2629453125,-10.568875,-4.75959375,-1.421265625,-4.01834765625,-3.737578125,-5.73554296875,-3.1033046875,-1.5191640625,-5.0068671875,-6.3298046875,-4.32392578125,-6.10253125,-7.533421875,-2.93073828125,-4.1448125,-16.147625,-7.991625,-8.40062890625,-1.52693359375
-1.44437109375,6.3708984375,12.42462109375,2.1187109375,0.0201601562500007,-1.13423046875,-5.58346875,-9.31549609375,4.078484375,-0.29135546875,-5.9259453125,-8.817875,-6.99459375,1.603734375,-1.78234765625,-2.217578125,-7.68154296875,-1.0283046875,0.7548359375,-2.7518671875,-4.7888046875,-3.02792578125,-3.12653125,-4.841421875,-1.40373828125,-3.4268125,-12.779625,-5.790625,-6.91362890625,-1.31993359375
-2.38637109375,7.2478984375,13.65462109375,0.7627109375,3.82116015625,0.412769531249999,-3.57146875,-9.88049609375,8.408484375,2.74864453125,-3.7409453125,-7.071875,-7.70459375,5.346734375,0.47265234375,-0.778578125000001,-9.58854296875,2.1416953125,3.6918359375,-0.3658671875,-3.6788046875,-0.75592578125,0.97146875,-1.209421875,0.46526171875,-3.0268125,-7.967625,-2.413625,-4.33462890625,-0.617933593750001
-3.18437109375,7.9628984375,14.24562109375,0.9717109375,6.57316015625,1.58576953125,-2.08446875,-10.27849609375,11.663484375,4.75864453125,-2.5949453125,-6.032875,-7.06459375,8.470734375,1.79765234375,0.207421875,-10.65254296875,5.4276953125,6.3418359375,1.4991328125,-3.0948046875,1.92007421875,5.08646875,2.452578125,2.36226171875,-2.8488125,-2.789625,1.350375,-1.32462890625,0.47206640625
-3.99337109375,7.4438984375,12.86662109375,2.0557109375,6.39116015625,1.28776953125,-2.10246875,-10.49349609375,12.472484375,4.48564453125,-3.2919453125,-6.261875,-5.29359375,9.750734375,1.35465234375,0.322421874999999,-10.42754296875,7.8546953125,7.7828359375,2.2411328125,-3.1008046875,4.33107421875,8.17646875,5.216578125,3.91926171875,-2.8558125,1.707375,4.625375,1.37937109375,1.74606640625
-5.02537109375,5.0788984375,8.94162109375,3.1277109375,2.57616015625,-1.11923046875,-4.10646875,-10.61949609375,10.374484375,1.49364453125,-6.0969453125,-7.839875,-2.53659375,8.638734375,-1.15134765625,-0.701578125000001,-9.13854296875,8.8496953125,7.4938359375,1.5141328125,-3.7288046875,5.94907421875,9.58946875,6.431578125,4.79426171875,-3.0858125,4.740375,6.711375,3.16337109375,2.97306640625
-6.29437109375,1.4278984375,3.49162109375,3.5867109375,-3.51183984375,-5.18923046875,-7.34346875,-10.64749609375,6.290484375,-3.39935546875,-10.3559453125,-10.109875,1.05540625,5.628734375,-5.17734765625,-2.754578125,-7.55454296875,8.5096953125,5.5948359375,-0.5928671875,-4.9138046875,6.55307421875,9.25546875,5.943578125,4.78526171875,-3.5818125,5.911375,7.272375,3.71037109375,3.99006640625
-7.44237109375,-1.7241015625,-0.952378906249999,3.3517109375,-8.67183984375,-9.31223046875,-9.81046875,-10.27449609375,2.362484375,-8.25935546875,-14.5289453125,-11.749875,5.13440625,2.159734375,-9.42634765625,-5.263578125,-6.45954296875,7.5756953125,2.8378359375,-3.5058671875,-6.4028046875,6.27407421875,7.66246875,4.147578125,3.94026171875,-4.2848125,5.257375,6.419375,3.09637109375,4.76406640625
-7.81037109375,-2.2041015625,-1.55737890625,2.7747109375,-9.34583984375,-11.38123046875,-9.19646875,-8.96749609375,1.030484375,-10.82835546875,-16.7909453125,-11.289875,9.09540625,0.00773437500000029,-12.34434765625,-7.368578125,-6.12254296875,7.0506953125,0.2858359375,-6.3348671875,-7.7708046875,5.50007421875,5.62146875,1.795578125,2.55826171875,-5.0048125,3.199375,4.626375,1.74537109375,5.34506640625
-6.73637109375,1.2168984375,3.04562109375,2.3867109375,-3.69383984375,-9.92923046875,-4.35046875,-6.29749609375,3.745484375,-9.66335546875,-15.9299453125,-7.916875,12.24440625,0.399734375,-12.85034765625,-8.321578125,-6.16154296875,7.6516953125,-1.1861640625,-8.2438671875,-8.5948046875,4.67207421875,3.90446875,-0.368421875,1.04426171875,-5.5388125,0.363375,2.515375,0.21237109375,5.73106640625
-3.86937109375,7.8738984375,11.56862109375,2.7237109375,6.92716015625,-5.06923046875,3.65653125,-2.36949609375,10.028484375,-4.98835546875,-12.0829453125,-2.110875,14.14040625,3.343734375,-10.90334765625,-7.875578125,-5.83754296875,9.3976953125,-1.3131640625,-8.8268671875,-8.6718046875,4.09707421875,2.92146875,-1.936421875,-0.298738281249999,-5.8138125,-2.651625,0.574375,-1.09762890625,5.76306640625
0.72562890625,15.3438984375,20.31862109375,4.3027109375,18.08916015625,1.36476953125,11.67153125,1.95150390625,17.492484375,1.30364453125,-6.8129453125,4.333125,14.89940625,7.586734375,-7.55634765625,-6.415578125,-4.52954296875,11.5806953125,-0.5191640625,-8.2528671875,-8.1248046875,3.84707421875,2.64246875,-2.947421875,-1.36573828125,-5.9198125,-5.448625,-1.036625,-2.09362890625,5.14106640625
6.70562890625,20.6368984375,24.87762109375,7.6217109375,24.16016015625,6.63776953125,15.83053125,5.25850390625,22.909484375,6.55564453125,-2.4389453125,9.033125,15.20940625,11.269734375,-4.43134765625,-4.728578125,-2.04654296875,13.1626953125,0.3828359375,-7.0798671875,-7.2958046875,3.79107421875,2.75646875,-3.720421875,-2.20673828125,-5.9908125,-7.860625,-2.496625,-2.96562890625,3.56206640625
13.65462890625,21.7008984375,22.25862109375,13.0077109375,21.00516015625,8.48976953125,13.43853125,6.27450390625,23.797484375,8.68164453125,-0.8989453125,10.161125,15.95540625,12.886734375,-2.89334765625,-3.562578125,1.39145703125,13.3306953125,0.6618359375,-5.8948671875,-6.5248046875,3.71907421875,2.92646875,-4.592421875,-2.91473828125,-6.0898125,-9.893625,-4.136625,-3.99362890625,0.88706640625
21.20362890625,18.3398984375,12.32862109375,20.3307109375,8.09616015625,6.29076953125,4.31253125,4.62150390625,19.657484375,7.15664453125,-2.7579453125,7.379125,17.66240625,12.017734375,-3.39134765625,-3.239578125,5.38545703125,11.9096953125,0.0348359375000001,-5.0238671875,-5.9828046875,3.48207421875,2.95846875,-5.729421875,-3.56373828125,-6.1988125,-11.652625,-6.179625,-5.33962890625,-2.75593359375
29.02862890625,12.1778984375,-2.18137890625,28.8167109375,-11.06783984375,1.36076953125,-9.06746875,1.17550390625,12.225484375,3.20164453125,-6.9149453125,2.059125,20.14140625,9.461734375,-5.29634765625,-3.546578125,9.59745703125,9.4266953125,-1.2541640625,-4.4528671875,-5.6308046875,3.07107421875,2.82346875,-7.106421875,-4.20773828125,-6.3008125,-13.310625,-8.579625,-6.95862890625,-6.97493359375
29.02862890625,12.1778984375,-2.18137890625,28.8167109375,-11.06783984375,1.36076953125,-9.06746875,1.17550390625,12.225484375,3.20164453125,-6.9149453125,2.059125,20.14140625,9.461734375,-5.29634765625,-3.546578125,9.59745703125,9.4266953125,-1.2541640625,-4.4528671875,-5.6308046875,3.07107421875,2.82346875,-7.106421875,-4.20773828125,-6.3008125,-13.310625,-8.579625,-6.95862890625,-6.97493359375
