"Fp1","Fpz","Fp2","F7","F3","Fz","F4","F8","FC5","FC1","FC2","FC6","T7","C3","Cz","C4","T8","CP5","CP1","CP2","CP6","P7","P3","Pz","P4","P8","POz","O1","Oz","O2"
8.39060546875,3.341390625,-2.185359375,17.200125,4.91083984375,1.3029296875,-3.07858203125,4.1242265625,4.82039453125,4.3727265625,-3.34397265625,3.4108125,1.8450546875,4.8477890625,3.83678125,-1.04726953125,2.61644921875,8.862828125,2.48166015625,6.89060546875,7.81733984375,13.58934375,3.558140625,2.75391015625,1.8720234375,0.0749492187500001,8.9829609375,6.26344140625,7.36210546875,4.81702734375
3.78060546875,4.732390625,-2.253359375,13.602125,4.48583984375,1.8819296875,-1.37558203125,1.3162265625,4.72039453125,5.9367265625,-2.90097265625,5.8278125,4.9340546875,5.2937890625,5.13778125,2.16873046875,3.20744921875,9.465828125,5.03366015625,10.00860546875,10.39333984375,14.10834375,6.435140625,5.23191015625,5.1060234375,0.74194921875,12.9469609375,9.63144140625,10.12210546875,6.63602734375
1.08560546875,5.755390625,-2.196359375,11.243125,3.68983984375,2.3639296875,0.25641796875,-0.3207734375,4.25939453125,6.7137265625,-2.18097265625,8.0598125,6.8920546875,5.3227890625,6.94478125,4.88973046875,3.90044921875,9.564828125,6.82366015625,12.73660546875,13.14933984375,13.63534375,7.947140625,7.24091015625,8.1980234375,1.88694921875,15.7869609375,11.29444140625,11.61410546875,8.39202734375
0.17560546875,6.461390625,-1.871359375,10.506125,2.66283984375,2.8419296875,1.72741796875,-0.5957734375,3.35839453125,6.7087265625,-1.09797265625,9.7658125,7.6560546875,4.8667890625,9.10678125,6.97573046875,4.80244921875,9.083828125,7.77466015625,14.81660546875,15.91733984375,12.06834375,7.892140625,8.56791015625,10.9170234375,3.37294921875,17.2719609375,10.99144140625,11.59610546875,9.94702734375
0.470605468750001,7.069390625,-1.117359375,11.468125,1.83183984375,3.5359296875,2.99841796875,0.4742265625,2.20539453125,6.2787265625,0.40402734375,10.6528125,7.5590546875,4.0747890625,11.30278125,8.40573046875,6.00244921875,8.166828125,8.05866015625,16.05260546875,18.36533984375,9.72634375,6.517140625,9.08891015625,12.9590234375,4.81894921875,17.4289609375,8.97544140625,10.20310546875,11.08602734375
1.41060546875,7.841390625,0.139640625,13.820125,1.76383984375,4.7089296875,4.11641796875,2.7202265625,1.28239453125,6.0037265625,2.32302734375,10.6708125,7.1660546875,3.2967890625,13.22278125,9.26373046875,7.44744921875,7.154828125,8.01366015625,16.41160546875,20.13833984375,7.28434375,4.429140625,8.83191015625,14.0590234375,5.77194921875,16.4919609375,5.91644140625,7.90310546875,11.58502734375
2.69260546875,8.924390625,1.759640625,16.845125,2.88083984375,6.4949296875,5.18141796875,5.7202265625,1.16039453125,6.4097265625,4.53102734375,10.0668125,7.0300546875,2.9307890625,14.67878125,9.68473046875,8.88344921875,6.456828125,8.00666015625,16.05260546875,20.95633984375,5.51234375,2.373140625,8.00391015625,14.1210234375,5.90294921875,14.8329609375,2.70744140625,5.38210546875,11.32802734375
4.21660546875,10.257390625,3.366640625,19.586125,5.19783984375,8.7539296875,6.26841796875,8.6992265625,2.18439453125,7.7137265625,6.74002734375,9.2708125,7.5150546875,3.2397890625,15.62978125,9.79873046875,9.92844921875,6.385828125,8.30966015625,15.27260546875,20.68633984375,4.96634375,0.992140625,6.95291015625,13.2920234375,5.16094921875,12.8989609375,0.239441406250001,3.38010546875,10.42702734375
5.92960546875,11.606390625,4.509640625,21.178125,8.25783984375,11.0719296875,7.35541796875,10.6392265625,4.25939453125,9.7147265625,8.55302734375,8.6868125,8.7090546875,4.2357890625,16.15678125,9.70173046875,10.28044921875,7.054828125,9.02866015625,14.39660546875,19.38833984375,5.77734375,0.632140625,6.06991015625,11.9080234375,3.78894921875,11.1179609375,-0.834558593749999,2.48010546875,9.21202734375
7.70160546875,12.668390625,4.861640625,21.207125,11.27183984375,12.8969296875,8.30241796875,10.6462265625,6.87339453125,11.8717265625,9.57902734375,8.4858125,10.4250546875,5.6847890625,16.37078125,9.42773046875,9.88744921875,8.335828125,10.07266015625,13.64560546875,17.28733984375,7.62334375,1.240140625,5.62391015625,10.3380234375,2.19294921875,9.7609609375,-0.342558593749999,2.86710546875,8.05202734375
9.25560546875,13.189390625,4.358640625,19.864125,13.40983984375,13.7499296875,8.88041796875,8.3632265625,9.31739453125,13.5167265625,9.56102734375,8.4978125,12.2340546875,7.1817890625,16.31078125,8.92873046875,8.98444921875,9.885828125,11.15966015625,13.02960546875,14.68833984375,9.88234375,2.397140625,5.62891015625,8.8050234375,0.73894921875,8.8329609375,1.30544140625,4.19410546875,7.12002734375
10.16360546875,13.046390625,3.180640625,17.817125,14.08283984375,13.3929296875,8.84241796875,4.2492265625,10.95539453125,14.0897265625,8.47002734375,8.2678125,13.5890546875,8.2727890625,15.88878125,8.09373046875,7.96644921875,11.256828125,11.91166015625,12.36760546875,11.90133984375,11.89534375,3.480140625,5.83391015625,7.3240234375,-0.37805078125,8.0989609375,3.27144140625,5.70310546875,6.30302734375
9.99660546875,12.265390625,1.652640625,15.871125,13.15283984375,11.9299296875,8.03541796875,-0.4387734375,11.43439453125,13.3377265625,6.54802734375,7.2908125,14.0260546875,8.6127890625,14.97778125,6.81873046875,7.17144921875,12.061828125,12.00666015625,11.41360546875,9.22033984375,13.22634375,3.934140625,5.85991015625,5.7950234375,-1.14405078125,7.2579609375,4.67944140625,6.59010546875,5.32102734375
8.57460546875,11.015390625,0.116640625,14.600125,10.97783984375,9.7879296875,6.49441796875,-4.0217734375,10.75639453125,11.4047265625,4.26302734375,5.3328125,13.4010546875,8.1197890625,13.57078125,5.09273046875,6.72044921875,12.145828125,11.33766015625,10.03560546875,6.93133984375,13.80534375,3.517140625,5.39691015625,4.1490234375,-1.64605078125,6.1419609375,5.01244140625,6.42510546875,3.95902734375
6.15160546875,9.579390625,-1.157359375,14.141125,8.30283984375,7.6109296875,4.51641796875,-5.0637734375,9.23339453125,8.8097265625,2.21102734375,2.6618125,12.0060546875,7.0247890625,11.87978125,3.06773046875,6.50944921875,11.663828125,10.09166015625,8.32860546875,5.27833984375,13.87734375,2.400140625,4.37191015625,2.4630234375,-1.97705078125,4.8329609375,4.29644140625,5.33910546875,2.25102734375
3.35360546875,8.329390625,-1.994359375,14.260125,6.01683984375,6.0759296875,2.65041796875,-3.0337734375,7.37839453125,6.3077265625,0.95502734375,0.0298125000000002,10.4640546875,5.8037890625,10.28478125,1.06173046875,6.34344921875,11.015828125,8.71466015625,6.61460546875,4.40133984375,13.83034375,1.081140625,2.98891015625,0.953023437500001,-2.18605078125,3.6289609375,2.97544140625,3.89410546875,0.49402734375
0.94360546875,7.653390625,-2.282359375,14.634125,4.86783984375,5.6969296875,1.55641796875,1.4062265625,5.79539453125,4.6807265625,0.85002734375,-1.6491875,9.4330546875,5.0047890625,9.17578125,-0.52826953125,6.11544921875,10.671828125,7.75066015625,5.31360546875,4.27233984375,14.00434375,0.158140625,1.64191015625,-0.123976562499999,-2.29205078125,2.8869609375,1.61844140625,2.72210546875,-0.89497265625
-0.42139453125,7.853390625,-1.952359375,15.140125,5.22583984375,6.6829296875,1.76241796875,6.6622265625,5.04239453125,4.4807265625,1.91602734375,-1.7161875,9.3120546875,5.0597890625,8.78678125,-1.37426953125,5.87344921875,10.974828125,7.63466015625,4.76460546875,4.68833984375,14.59734375,0.087140625,0.73591015625,-0.6169765625,-2.33505078125,2.8489609375,0.660441406250001,2.19810546875,-1.58097265625
-0.39239453125,9.016390625,-1.011359375,15.896125,6.98883984375,8.8789296875,3.42541796875,10.8612265625,5.45539453125,5.8457265625,3.81102734375,-0.0501874999999998,10.1170546875,6.1357890625,9.10578125,-1.34026953125,5.76644921875,12.029828125,8.52266015625,5.08460546875,5.31633984375,15.68034375,1.017140625,0.52391015625,-0.570976562499999,-2.40305078125,3.5239609375,0.335441406250001,2.32610546875,-1.46397265625
0.91560546875,10.941390625,0.381640625,17.035125,9.63483984375,11.8019296875,6.22441796875,12.5582265625,6.98139453125,8.4427265625,5.95602734375,2.9078125,11.5450546875,8.0627890625,9.88878125,-0.51726953125,5.91744921875,13.675828125,10.22966015625,6.11160546875,5.81333984375,17.23534375,2.763140625,1.01891015625,-0.1949765625,-2.61905078125,4.6979609375,0.741441406250002,2.85410546875,-0.69497265625
2.90760546875,13.159390625,1.889640625,18.397125,12.39183984375,14.7589296875,9.42541796875,11.2552265625,9.11839453125,11.5667265625,7.73002734375,6.3188125,13.1080546875,10.3597890625,10.74978125,0.82473046875,6.35444921875,15.543828125,12.27566015625,7.47760546875,5.94833984375,19.16734375,4.894140625,1.99391015625,0.243023437500001,-3.05605078125,6.0339609375,1.92944140625,3.51310546875,0.42802734375
4.70860546875,15.043390625,3.076640625,19.448125,14.45683984375,17.0179296875,12.11841796875,7.6122265625,11.05039453125,14.3517265625,8.67002734375,9.2198125,14.2380546875,12.3827890625,11.30578125,2.33473046875,7.03144921875,17.160828125,14.03166015625,8.73460546875,5.67533984375,21.26734375,6.894140625,3.05191015625,0.554023437500001,-3.65905078125,7.2249609375,3.90044140625,4.20110546875,1.61802734375
5.55160546875,16.010390625,3.586640625,19.530125,15.21883984375,18.0259296875,13.52641796875,3.2752265625,11.94939453125,16.0397265625,8.58802734375,10.8438125,14.4060546875,13.5497890625,11.30178125,3.67573046875,7.89544921875,18.095828125,14.93566015625,9.52260546875,5.12233984375,23.19934375,8.335140625,3.75891015625,0.6940234375,-4.20805078125,8.0999609375,6.52344140625,5.00210546875,2.71902734375
5.10460546875,15.746390625,3.295640625,18.244125,14.46383984375,17.5909296875,13.30441796875,0.2502265625,11.32839453125,16.2417265625,7.62102734375,10.9098125,13.3200546875,13.5517890625,10.69278125,4.63573046875,8.92344921875,18.097828125,14.70666015625,9.69160546875,4.54833984375,24.55334375,9.000140625,3.81691015625,0.780023437500001,-4.35905078125,8.6569609375,9.45944140625,6.06510546875,3.74302734375
3.60760546875,14.353390625,2.348640625,15.694125,12.45783984375,15.9489296875,11.66741796875,-0.0307734374999997,9.28839453125,15.0687265625,6.17302734375,9.7308125,11.1350546875,12.4417890625,9.64778125,5.21273046875,10.08144921875,17.165828125,13.46766015625,9.35660546875,4.30033984375,24.95734375,8.904140625,3.19291015625,1.0400234375,-3.75405078125,8.9989609375,12.17944140625,7.43310546875,4.81702734375
1.78460546875,12.308390625,1.064640625,12.460125,9.85083984375,13.6529296875,9.27941796875,2.5282265625,6.50539453125,13.0447265625,4.76402734375,8.0338125,8.4840546875,10.5697890625,8.46678125,5.59173046875,11.25244921875,15.517828125,11.66566015625,8.82460546875,4.71733984375,24.20334375,8.204140625,2.10991015625,1.7000234375,-2.19005078125,9.2099609375,14.08444140625,8.95310546875,6.07102734375
0.55060546875,10.228390625,-0.233359375,9.362125,7.39983984375,11.3369296875,6.92141796875,6.6072265625,3.93239453125,10.8327265625,3.82402734375,6.5518125,6.2070546875,8.4087890625,7.46078125,6.01573046875,12.20744921875,13.469828125,9.84466015625,8.42960546875,5.97833984375,22.31434375,7.077140625,0.91191015625,2.8540234375,0.23794921875,9.2659609375,14.69444140625,10.29710546875,7.49502734375
0.58760546875,8.606390625,-1.348359375,7.180125,5.65483984375,9.4649296875,5.14041796875,10.2012265625,2.35839453125,8.9397265625,3.52302734375,5.6848125,4.9290546875,6.3777890625,6.82978125,6.63373046875,12.66844921875,11.321828125,8.40966015625,8.38660546875,7.98533984375,19.53334375,5.644140625,-0.0910898437499998,4.4040234375,3.10594921875,9.0379609375,13.80144140625,11.09810546875,8.88402734375
1.98160546875,7.659390625,-2.209359375,6.429125,4.77583984375,8.2149296875,4.09741796875,11.7102265625,2.06439453125,7.5797265625,3.75002734375,5.4238125,4.7540546875,4.7537890625,6.61278125,7.42173046875,12.43144921875,9.307828125,7.52266015625,8.74260546875,10.36533984375,16.25634375,4.005140625,-0.699089843749999,6.1080234375,5.80394921875,8.4359609375,11.57244140625,11.12310546875,9.91002734375
4.19460546875,7.333390625,-2.783359375,7.252125,4.57083984375,7.5269296875,3.64641796875,10.7102265625,2.77039453125,6.7157265625,4.20302734375,5.5568125,5.2800546875,3.6907890625,6.71378125,8.20873046875,11.46544921875,7.621828125,7.15866015625,9.41060546875,12.58433984375,12.97234375,2.322140625,-0.813089843749999,7.6920234375,7.78294921875,7.5639609375,8.57844140625,10.42910546875,10.30802734375
6.39360546875,7.414390625,-2.990359375,9.381125,4.67183984375,7.2169296875,3.53741796875,7.9672265625,3.86239453125,6.1907265625,4.53702734375,5.9208125,5.8670546875,3.2717890625,6.96678125,8.73873046875,9.95344921875,6.467828125,7.21066015625,10.21960546875,14.09233984375,10.22734375,0.875140625,-0.39508984375,8.9350234375,8.75194921875,6.7979609375,5.74144140625,9.41410546875,10.05102734375
7.87760546875,7.638390625,-2.722359375,12.177125,4.72783984375,7.0809296875,3.57241796875,4.7652265625,4.74639453125,5.8417265625,4.48402734375,6.4898125,5.9970546875,3.5107890625,7.19278125,8.74973046875,8.25944921875,6.027828125,7.57566015625,10.94560546875,14.43833984375,8.56534375,0.00114062499999967,0.53691015625,9.6810234375,8.72094921875,6.6789609375,4.11644140625,8.71510546875,9.36702734375
8.32260546875,7.774390625,-1.956359375,14.757125,4.51483984375,6.9379296875,3.65741796875,2.0462265625,5.11239453125,5.5337265625,3.92302734375,7.2738125,5.5100546875,4.2967890625,7.21578125,8.05573046875,6.82944921875,6.367828125,8.16466015625,11.32960546875,13.38933984375,8.37934375,-0.0468593750000004,1.87791015625,9.8170234375,7.92894921875,7.6549609375,4.52144140625,8.93810546875,8.60302734375
7.77360546875,7.667390625,-0.864359375,16.267125,3.93883984375,6.6269296875,3.74241796875,-0.0527734375,4.98439453125,5.1467265625,2.88202734375,8.1518125,4.6290546875,5.3417890625,6.85278125,6.62173046875,6.03244921875,7.316828125,8.84566015625,11.13060546875,11.02333984375,9.71734375,0.748140625,3.38491015625,9.2680234375,6.72594921875,9.7809609375,7.12344140625,10.32910546875,8.01702734375
6.52560546875,7.224390625,0.160640625,16.195125,2.99783984375,6.0119296875,3.73641796875,-2.0437734375,4.57839453125,4.5347265625,1.48502734375,8.7818125,3.7820546875,6.2147890625,5.91878125,4.58573046875,5.97944921875,8.455828125,9.38466015625,10.17960546875,7.78833984375,12.16834375,2.098140625,4.65991015625,8.0250234375,5.48094921875,12.5809609375,11.25144140625,12.58610546875,7.64502734375
4.95560546875,6.391390625,0.621640625,14.547125,1.71683984375,4.9859296875,3.45141796875,-4.5307734375,4.09539453125,3.5277265625,-0.13197265625,8.6798125,3.3340546875,6.4597890625,4.27478125,2.22873046875,6.43144921875,9.214828125,9.43866015625,8.43660546875,4.42533984375,14.92534375,3.464140625,5.22191015625,6.1970234375,4.53194921875,15.1539609375,15.59444140625,14.92910546875,7.32102734375
3.34360546875,5.133390625,0.100640625,11.774125,0.11483984375,3.4859296875,2.64641796875,-7.6337734375,3.57639453125,1.9777265625,-1.86997265625,7.4548125,3.3640546875,5.7527890625,1.89678125,-0.10426953125,6.89144921875,9.071828125,8.65466015625,6.01860546875,1.73833984375,17.04934375,4.228140625,4.68391015625,4.0260234375,4.13694921875,16.5219609375,18.72944140625,16.43910546875,6.81102734375
1.78960546875,3.468390625,-1.542359375,8.542125,-1.77316015625,1.5469296875,1.15341796875,-10.7257734375,2.90239453125,-0.1272734375,-3.63597265625,5.0918125,3.6240546875,4.0407890625,-1.04121875,-2.07826953125,6.88844921875,7.760828125,6.83966015625,3.19560546875,0.30233984375,17.81734375,3.915140625,2.94891015625,1.8670234375,4.44194921875,16.0549609375,19.71544140625,16.49110546875,5.98402734375
0.30060546875,1.536390625,-4.047359375,5.498125,-3.82516015625,-0.636070312500001,-0.96858203125,-12.6187734375,1.91739453125,-2.5742734375,-5.27197265625,2.1138125,3.6870546875,1.6067890625,-4.13021875,-3.41626953125,6.28144921875,5.433828125,4.10866015625,0.362605468749999,0.265339843749999,16.99634375,2.394140625,0.30191015625,0.1210234375,5.45294921875,13.7549609375,18.44844140625,15.06110546875,4.92302734375
-1.02139453125,-0.360609374999999,-6.798359375,3.139125,-5.76316015625,-2.6690703125,-3.34258203125,-12.1517734375,0.58039453125,-4.9132734375,-6.50897265625,-0.5181875,3.2160546875,-0.989210937499999,-6.79421875,-3.92626953125,5.36344921875,2.665828125,0.920660156250001,-2.02239453125,1.37733984375,14.90334375,-0.0448593750000006,-2.66808984375,-0.8639765625,7.03094921875,10.2599609375,15.62744140625,12.73410546875,3.90602734375
-1.92839453125,-1.777609375,-9.022359375,1.772125,-7.15116015625,-4.0190703125,-5.31458203125,-8.8257734375,-0.933605468750001,-6.5722734375,-6.99997265625,-1.7661875,2.2130546875,-3.0892109375,-8.44821875,-3.51326953125,4.69044921875,0.275828125,-2.03233984375,-3.53239453125,3.17833984375,12.23834375,-2.770859375,-5.26008984375,-0.8729765625,8.90394921875,6.5709609375,12.37544140625,10.42310546875,3.27402734375
-2.12139453125,-2.229609375,-10.062359375,1.534125,-7.48316015625,-4.1460703125,-6.12358203125,-3.1147734375,-2.23560546875,-7.0232734375,-6.42097265625,-0.9811875,1.0790546875,-4.1322109375,-8.67221875,-2.18526953125,4.76644921875,-0.951171875,-4.01033984375,-3.84639453125,5.20133984375,9.78834375,-5.010859375,-6.87108984375,0.1120234375,10.69394921875,3.6679609375,9.75544140625,8.96410546875,3.26102734375
-1.39539453125,-1.360609375,-9.598359375,2.420125,-6.35116015625,-2.6830703125,-5.18758203125,3.6912265625,-2.80760546875,-5.9532734375,-4.60597265625,1.7748125,0.455054687500001,-3.7782109375,-7.32921875,-0.0862695312500001,5.77744921875,-0.533171874999999,-4.43933984375,-2.82539453125,7.07833984375,8.15334375,-6.083859375,-7.13608984375,1.8920234375,11.98494921875,2.1939609375,8.39044140625,8.80210546875,3.89202734375
0.26960546875,0.873390625000001,-7.745359375,4.264125,-3.65816015625,0.372929687499999,-2.39958203125,9.9282265625,-2.19460546875,-3.4022734375,-1.67397265625,5.6728125,0.893054687500001,-1.9862109375,-4.60921875,2.45673046875,7.50044921875,1.545828125,-3.10933984375,-0.599394531250001,8.56133984375,7.57134375,-5.623859375,-6.01908984375,4.0670234375,12.39794921875,2.2909609375,8.29744140625,9.87810546875,4.96102734375
2.64860546875,4.086390625,-5.020359375,6.701125,0.215839843749999,4.5399296875,1.71341796875,14.0412265625,-0.232605468750001,0.163726562499999,1.91302734375,9.4008125,2.5380546875,0.9457890625,-1.04221875,4.94273046875,9.40044921875,4.801828125,-0.29233984375,2.38360546875,9.48433984375,7.87734375,-3.713859375,-3.83308984375,6.1130234375,11.70394921875,3.6039609375,8.95444140625,11.70210546875,6.07102734375
5.25360546875,7.543390625,-2.164359375,9.189125,4.42983984375,8.9149296875,6.11941796875,15.0502265625,2.79239453125,3.9487265625,5.44102734375,11.7098125,5.0200546875,4.3897890625,2.59178125,6.83373046875,10.86844921875,8.407828125,3.29966015625,5.42060546875,9.76633984375,8.62234375,-0.882859375,-1.16908984375,7.5320234375,9.93894921875,5.4629609375,9.58744140625,13.59410546875,6.76402734375
7.46960546875,10.422390625,0.135640625,11.179125,7.95383984375,12.4729296875,9.69541796875,12.9782265625,6.17239453125,7.0697265625,8.19102734375,11.9948125,7.6180546875,7.5547890625,5.47678125,7.79173046875,11.50344921875,11.479828125,6.74866015625,7.77660546875,9.47433984375,9.32634375,2.083140625,1.28191015625,8.0470234375,7.49894921875,7.1499609375,9.56944140625,14.97310546875,6.73302734375
8.82060546875,12.152390625,1.509640625,12.333125,9.97083984375,14.4799296875,11.70841796875,9.0352265625,9.01439453125,8.8817265625,9.73202734375,10.6118125,9.6010546875,9.7637890625,7.06578125,7.87473046875,11.29044921875,13.399828125,9.25566015625,8.96660546875,8.89833984375,9.70734375,4.420140625,2.94791015625,7.7360234375,5.09994921875,8.1559609375,8.73144140625,15.57610546875,5.99902734375
9.18360546875,12.622390625,2.013640625,12.662125,10.19583984375,14.7849296875,12.10441796875,5.2332265625,10.57539453125,9.1897265625,10.08402734375,8.6958125,10.5340546875,10.6937890625,7.28378125,7.53073046875,10.58344921875,13.984828125,10.39066015625,8.94260546875,8.55133984375,9.76534375,5.636140625,3.53891015625,7.0020234375,3.56794921875,8.2789609375,7.38644140625,15.47010546875,4.90002734375
8.77360546875,12.165390625,2.016640625,12.481125,8.93783984375,13.8279296875,11.42741796875,3.4342265625,10.54239453125,8.2657265625,9.65202734375,7.5648125,10.3730546875,10.4387890625,6.51378125,7.35873046875,9.90344921875,13.423828125,10.15566015625,8.04960546875,8.98833984375,9.64434375,5.590140625,3.07391015625,6.3650234375,3.51194921875,7.5599609375,6.05144140625,14.87610546875,3.86502734375
7.97160546875,11.328390625,1.940640625,12.193125,6.89383984375,12.3639296875,10.44841796875,4.3092265625,9.11839453125,6.6527265625,8.96402734375,8.0278125,9.3670546875,9.3537890625,5.35478125,7.76773046875,9.66044921875,12.072828125,8.84766015625,6.78660546875,10.52633984375,9.42334375,4.416140625,1.77891015625,6.2020234375,5.04994921875,6.1349609375,5.08044140625,13.95910546875,3.12202734375
7.12260546875,10.551390625,2.001640625,12.043125,4.80883984375,11.0679296875,9.69941796875,6.9082265625,6.87939453125,4.8937265625,8.36902734375,10.0008125,7.8420546875,7.8327890625,4.31478125,8.71973046875,9.96544921875,10.242828125,6.84466015625,5.53660546875,12.98633984375,8.97634375,2.367140625,-0.0580898437499995,6.5400234375,7.72194921875,4.1169609375,4.42244140625,12.71810546875,2.55602734375
6.39560546875,9.959390625,2.100640625,11.961125,3.19483984375,10.2319296875,9.21841796875,9.2032265625,4.49039453125,3.3037265625,7.86502734375,12.5928125,6.0460546875,6.1497890625,3.59578125,9.72573046875,10.60844921875,8.110828125,4.45366015625,4.40660546875,15.62233984375,8.02134375,-0.277859375,-2.19108984375,7.0450234375,10.63294921875,1.5939609375,3.67644140625,11.03110546875,1.79202734375
5.71660546875,9.381390625,1.945640625,11.625125,2.23683984375,9.7389296875,8.64541796875,9.3412265625,2.44839453125,1.9547265625,7.18302734375,14.5748125,4.1200546875,4.4547890625,3.10178125,10.11573046875,11.20044921875,5.779828125,1.92966015625,3.27460546875,17.33733984375,6.32334375,-3.202859375,-4.40108984375,7.2030234375,12.76494921875,-1.2840390625,2.37144140625,8.79710546875,0.44502734375
4.87360546875,8.596390625,1.321640625,10.726125,1.92383984375,9.3209296875,7.60341796875,6.8652265625,1.03939453125,0.8447265625,6.08702734375,14.9758125,2.2060546875,2.9197890625,2.66878125,9.44273046875,11.37644921875,3.440828125,-0.37533984375,2.02460546875,17.18733984375,3.96534375,-5.934859375,-6.38508984375,6.6330234375,13.32594921875,-4.1570390625,0.359441406250001,6.12010546875,-1.57997265625
3.77560546875,7.614390625,0.353640625,9.284125,2.26383984375,8.9189296875,6.11541796875,3.0802265625,0.451394531249999,0.1337265625,4.70502734375,13.5448125,0.564054687500001,1.9017890625,2.38278125,7.80173046875,10.95444921875,1.530828125,-1.88933984375,0.78660546875,14.92233984375,1.49934375,-7.758859375,-7.66508984375,5.3900234375,12.03194921875,-6.3920390625,-1.91355859375,3.47110546875,-3.88697265625
2.69760546875,6.795390625,-0.456359375,7.761125,3.38383984375,8.8609296875,4.73641796875,0.2822265625,0.869394531249999,0.221726562499999,3.62502734375,10.8808125,-0.444945312499998,1.9347890625,2.69178125,5.84373046875,9.98744921875,0.703828125000001,-1.90033984375,0.0126054687499995,11.21433984375,-0.147656250000001,-7.831859375,-7.63108984375,4.0210234375,9.19494921875,-7.2030390625,-3.45055859375,1.67010546875,-5.63997265625
2.19260546875,6.666390625,-0.477359375,6.855125,5.40883984375,9.6929296875,4.31241796875,0.3132265625,2.38339453125,1.5417265625,3.65702734375,8.1728125,-0.535945312499999,3.4557890625,4.16278125,4.47173046875,8.72044921875,1.567828125,0.12066015625,0.26160546875,7.35233984375,-0.0676562500000006,-5.519859375,-5.80208984375,3.3060234375,5.58994921875,-5.9790390625,-3.16255859375,1.59110546875,-5.92697265625
2.72460546875,7.594390625,0.687640625,7.112125,8.22683984375,11.7729296875,5.49541796875,3.4492265625,4.77539453125,4.2157265625,5.37502734375,6.6308125,0.303054687500001,6.4507890625,7.04778125,4.37173046875,7.47544921875,4.309828125,4.13866015625,1.83860546875,4.57833984375,2.14334375,-0.834859375000001,-2.15608984375,3.8110234375,2.13894921875,-2.6660390625,-0.497558593749998,3.68510546875,-4.27797265625
4.33260546875,9.525390625,2.962640625,8.639125,11.38583984375,14.9429296875,8.33541796875,8.3512265625,7.43639453125,7.8347265625,8.74102734375,6.8938125,1.7700546875,10.2987890625,10.98278125,5.67273046875,6.52844921875,8.454828125,9.38566015625,4.52460546875,3.49933984375,6.09234375,5.369140625,2.67191015625,5.5270234375,-0.42605078125,2.0489609375,4.14644140625,7.63310546875,-1.00397265625
6.60960546875,11.981390625,5.839640625,11.091125,14.24583984375,18.5159296875,12.19241796875,12.9972265625,9.55139453125,11.5617265625,13.03702734375,8.7258125,3.3720546875,13.9947890625,15.07578125,7.91073046875,6.04644921875,12.973828125,14.56666015625,7.59960546875,3.94133984375,10.69434375,11.593140625,7.52391015625,7.8550234375,-1.75605078125,6.9019609375,9.53744140625,12.40410546875,2.89902734375
8.95060546875,14.304390625,8.630640625,13.892125,16.29183984375,21.5809296875,16.02241796875,15.8532265625,10.49739453125,14.5197265625,17.16102734375,11.2018125,4.6420546875,16.6177890625,18.32578125,10.31073046875,6.10344921875,16.679828125,18.37966015625,10.16160546875,5.25233984375,14.61634375,16.271140625,11.15991015625,9.9340234375,-1.86105078125,10.5229609375,14.16344140625,16.69710546875,6.24302734375
10.85760546875,15.989390625,10.780640625,16.517125,17.40383984375,23.4189296875,18.85041796875,16.5422265625,10.21039453125,16.2217265625,20.10102734375,13.2698125,5.3180546875,17.7647890625,20.10278125,12.19773046875,6.69844921875,18.721828125,20.08366015625,11.55660546875,6.79733984375,16.82334375,18.413140625,12.79191015625,11.1170234375,-0.92705078125,12.0029609375,16.88944140625,19.52410546875,8.24102734375
12.13560546875,16.898390625,12.074640625,18.691125,17.89483984375,23.7949296875,20.15341796875,15.7432265625,9.28039453125,16.7547265625,21.31902734375,14.3088125,5.4460546875,17.6917890625,20.39878125,13.27573046875,7.74144921875,18.901828125,19.77666015625,11.66060546875,8.28033984375,16.97434375,17.982140625,12.40891015625,11.2880234375,0.85394921875,11.2559609375,17.38044140625,20.59010546875,8.84902734375
12.93060546875,17.213390625,12.637640625,20.380125,18.27983984375,22.9649296875,19.97341796875,14.5122265625,8.65839453125,16.6087265625,20.85002734375,14.3488125,5.3610546875,17.0877890625,19.69878125,13.63373046875,8.99944921875,17.663828125,18.23166015625,10.84360546875,9.71733984375,15.47434375,15.800140625,10.69491015625,10.8100234375,3.31494921875,8.9939609375,16.09544140625,20.29310546875,8.65202734375
13.53360546875,17.194390625,12.744640625,21.578125,18.90983984375,21.4459296875,18.72841796875,13.5212265625,9.10039453125,16.2657265625,19.10402734375,13.8568125,5.5230546875,16.6187890625,18.57678125,13.50673046875,10.11344921875,15.775828125,16.39966015625,9.64360546875,11.12633984375,13.20334375,13.055140625,8.60891015625,10.2030234375,6.19594921875,6.3199609375,13.95344140625,19.37610546875,8.40102734375
14.08960546875,16.944390625,12.584640625,22.090125,19.71783984375,19.6909296875,16.90741796875,12.7002265625,10.67739453125,15.8647265625,16.56102734375,13.3298125,6.2760546875,16.5267890625,17.30878125,13.02473046875,10.72344921875,13.917828125,14.91666015625,8.41660546875,12.25333984375,11.06734375,10.723140625,6.89891015625,9.7730234375,9.04894921875,4.2089609375,11.86944140625,18.48810546875,8.53302734375
14.45260546875,16.349390625,12.144640625,21.561125,20.23183984375,17.9109296875,14.84941796875,11.4602265625,12.69439453125,15.1717265625,13.57902734375,13.0008125,7.6490546875,16.5587890625,15.78978125,12.13673046875,10.64144921875,12.445828125,13.91066015625,7.19860546875,12.61433984375,9.62634375,9.245140625,5.85391015625,9.4930234375,11.31494921875,3.1639609375,10.42644140625,17.92810546875,9.02802734375
14.33360546875,15.216390625,11.281640625,19.757125,19.87583984375,16.0929296875,12.70441796875,9.2852265625,14.08139453125,13.8407265625,10.39002734375,12.8018125,9.3190546875,16.2157890625,13.76278125,10.74973046875,9.94544921875,11.408828125,13.13666015625,5.84960546875,11.83533984375,8.96934375,8.544140625,5.35091015625,9.1500234375,12.57294921875,3.1819609375,9.78844140625,17.68710546875,9.63002734375
13.57460546875,13.470390625,9.898640625,16.856125,18.31483984375,14.1509296875,10.51341796875,6.1972265625,13.97239453125,11.7337265625,7.21002734375,12.5218125,10.7380546875,15.0957890625,11.15378125,8.92073046875,8.94344921875,10.695828125,12.25966015625,4.29860546875,9.99433984375,8.80334375,8.256140625,5.06291015625,8.5900234375,12.75194921875,3.9319609375,9.80244140625,17.65010546875,10.17802734375
12.26060546875,11.253390625,8.057640625,13.476125,15.62483984375,12.0549296875,8.31541796875,2.8232265625,12.12039453125,9.0557265625,4.30702734375,11.9778125,11.3470546875,13.0707890625,8.20778125,6.92873046875,8.02544921875,10.124828125,11.05166015625,2.66660546875,7.64533984375,8.65734375,7.956140625,4.65691015625,7.8430234375,12.12294921875,4.9489609375,10.13744140625,17.72010546875,10.70902734375
10.60560546875,8.864390625,5.979640625,10.372125,12.23883984375,9.8859296875,6.19941796875,0.1032265625,8.94039453125,6.2597265625,1.97202734375,11.0958125,10.8000546875,10.2697890625,5.40078125,5.18173046875,7.48744921875,9.452828125,9.44566015625,1.21060546875,5.52333984375,8.08034375,7.285140625,3.90291015625,7.0680234375,11.07294921875,5.7659609375,10.38144140625,17.80410546875,11.29702734375
8.83760546875,6.639390625,3.975640625,8.069125,8.77183984375,7.8399296875,4.31741796875,-1.1197734375,5.28639453125,3.8467265625,0.42502734375,9.9268125,9.0980546875,6.9917890625,3.24178125,4.03873046875,7.42344921875,8.403828125,7.52766015625,0.18460546875,4.17133984375,6.82534375,6.042140625,2.72991015625,6.4240234375,9.85894921875,6.0109609375,10.15944140625,17.76710546875,11.86302734375
7.19960546875,4.868390625,2.372640625,6.675125,5.84983984375,6.2279296875,2.89441796875,-0.4557734375,2.10639453125,2.2267265625,-0.23497265625,8.6478125,6.6130546875,3.6827890625,2.13778125,3.68873046875,7.72144921875,6.790828125,5.53566015625,-0.24539453125,3.77433984375,4.96234375,4.274140625,1.28591015625,6.0140234375,8.54894921875,5.5469609375,9.31444140625,17.47710546875,12.17402734375
6.00060546875,3.788390625,1.474640625,5.998125,4.00283984375,5.4379296875,2.22341796875,1.8562265625,0.134394531249999,1.6777265625,-0.02197265625,7.5778125,3.9700546875,0.9217890625,2.32578125,4.14973046875,8.16944921875,4.692828125,3.86666015625,0.00160546875000023,4.23533984375,2.88534375,2.335140625,-0.0460898437499999,5.9340234375,7.15294921875,4.5669609375,8.05244140625,16.92310546875,12.04902734375
5.55060546875,3.577390625,1.498640625,5.783125,3.55583984375,5.7989296875,2.59341796875,5.0552265625,-0.30560546875,2.3187265625,0.98502734375,7.1228125,1.8260546875,-0.6812109375,3.82978125,5.31473046875,8.57844921875,2.501828125,2.98966015625,0.948605468749999,5.36933984375,1.12734375,0.784140625,-0.744089843749999,6.3040234375,5.79094921875,3.5519609375,6.87844140625,16.26810546875,11.54002734375
6.01360546875,4.274390625,2.476640625,5.834125,4.49983984375,7.3779296875,4.10641796875,8.1942265625,0.630394531249999,4.0357265625,2.62902734375,7.5748125,0.618054687500001,-0.7042109375,6.39978125,6.97073046875,8.82744921875,0.782828125,3.23866015625,2.51560546875,6.98733984375,0.0733437499999994,0.137140625,-0.40308984375,7.2060234375,4.69994921875,3.0209609375,6.29344140625,15.74310546875,10.93402734375
7.27460546875,5.653390625,4.157640625,5.977125,6.40083984375,9.8069296875,6.48041796875,10.4902265625,2.36539453125,6.3957265625,4.61302734375,8.8478125,0.373054687500002,0.8557890625,9.46778125,8.73773046875,8.81844921875,0.0138281249999999,4.58266015625,4.43560546875,8.84233984375,-0.25065625,0.589140625,0.99691015625,8.5170234375,4.06394921875,3.2209609375,6.43644140625,15.48310546875,10.55802734375
8.90960546875,7.196390625,6.017640625,5.993125,8.46483984375,12.3189296875,9.01741796875,11.4842265625,4.11339453125,8.6907265625,6.48602734375,10.3798125,0.7340546875,3.4977890625,12.23678125,10.07573046875,8.42444921875,0.369828125,6.56866015625,6.23760546875,10.53333984375,-0.145656250000002,1.927140625,3.00791015625,9.8330234375,3.82594921875,3.9849609375,6.98244140625,15.42110546875,10.56102734375
10.32060546875,8.286390625,7.436640625,5.695125,9.82583984375,14.0159296875,10.83741796875,11.0452265625,5.19639453125,10.1847265625,7.74902734375,11.3448125,1.2380546875,6.3857890625,13.92378125,10.45173046875,7.52344921875,1.698828125,8.51866015625,7.38060546875,11.53933984375,0.0393437499999987,3.688140625,4.90991015625,10.5830234375,3.65294921875,4.8679609375,7.40344140625,15.36910546875,10.82002734375
11.00860546875,8.501390625,7.972640625,5.103125,9.93083984375,14.2649296875,11.27841796875,9.3842265625,5.34339453125,10.4397265625,8.06102734375,11.0828125,1.6690546875,8.6827890625,14.07378125,9.59973046875,6.10644921875,3.661828125,9.86066015625,7.48360546875,11.39733984375,0.241343749999999,5.441140625,6.06791015625,10.3150234375,3.13194921875,5.4539609375,7.39044140625,15.18110546875,11.03502734375
10.85060546875,7.824390625,7.565640625,4.545125,8.78683984375,12.9739296875,10.21841796875,7.0682265625,4.78439453125,9.5057265625,7.38802734375,9.4848125,2.2150546875,9.8647890625,12.75078125,7.69673046875,4.37744921875,5.901828125,10.33366015625,6.49560546875,9.92033984375,0.782343749999999,6.959140625,6.19391015625,8.9330234375,2.03594921875,5.5799609375,7.10544140625,14.87510546875,10.91402734375
10.14560546875,6.604390625,6.514640625,4.511125,6.91783984375,10.5819296875,8.09741796875,4.8982265625,4.06939453125,7.8397265625,5.97502734375,7.0768125,3.2720546875,9.8297890625,10.44578125,5.28373046875,2.69544921875,8.108828125,9.98166015625,4.67760546875,7.28933984375,2.13834375,8.177140625,5.37391015625,6.7430234375,0.47094921875,5.3489609375,7.04644140625,14.58110546875,10.32002734375
9.37060546875,5.319390625,5.257640625,5.372125,5.05083984375,7.7889296875,5.65241796875,3.5542265625,3.71439453125,6.0337265625,4.17602734375,4.7448125,5.0480546875,8.8097890625,7.78378125,2.98873046875,1.40144921875,9.999828125,8.98366015625,2.43660546875,4.00433984375,4.53934375,9.040140625,3.90891015625,4.2800234375,-1.19405078125,4.9509609375,7.67544140625,14.39510546875,9.30302734375
8.85160546875,4.320390625,4.110640625,7.154125,3.74083984375,5.2209296875,3.53041796875,3.2342265625,3.90239453125,4.5357265625,2.26702734375,3.2548125,7.2740546875,7.1937890625,5.21678125,1.22573046875,0.63344921875,11.281828125,7.50066015625,0.14360546875,0.73033984375,7.68834375,9.390140625,2.12291015625,2.0680234375,-2.54905078125,4.4949609375,9.08544140625,14.28010546875,8.04302734375
8.60960546875,3.687390625,3.151640625,9.502125,3.15083984375,3.2249296875,2.02241796875,3.5622265625,4.39439453125,3.5217265625,0.37302734375,2.8678125,9.2280546875,5.3907890625,2.91978125,0.0487304687499996,0.29644921875,11.694828125,5.63366015625,-1.96239453125,-1.91166015625,10.78934375,9.020140625,0.27091015625,0.429023437500001,-3.35505078125,3.9539609375,10.92544140625,14.09410546875,6.76202734375
8.45060546875,3.269390625,2.284640625,11.805125,3.07083984375,1.8709296875,1.04341796875,3.8362265625,4.68739453125,2.9267265625,-1.46997265625,3.2738125,10.0920546875,3.7547890625,0.88378125,-0.75826953125,0.17144921875,11.125828125,3.49666015625,-3.74839453125,-3.53766015625,12.89034375,7.848140625,-1.45208984375,-0.5619765625,-3.62705078125,3.2769609375,12.59244140625,13.71210546875,5.67002734375
8.13360546875,2.842390625,1.387640625,13.380125,3.11383984375,1.0639296875,0.33541796875,3.4162265625,4.32339453125,2.5767265625,-3.19797265625,3.8738125,9.4110546875,2.5487890625,-0.90721875,-1.43326953125,0.06144921875,9.712828125,1.33266015625,-5.09639453125,-4.05666015625,13.33934375,6.089140625,-2.84008984375,-0.9719765625,-3.55405078125,2.5359609375,13.56344140625,13.16210546875,4.96002734375
7.53060546875,2.278390625,0.435640625,13.696125,2.95083984375,0.6539296875,-0.30058203125,2.0412265625,3.18039453125,2.3247265625,-4.64197265625,4.1638125,7.3760546875,1.9137890625,-2.35821875,-2.02126953125,-0.15655078125,7.867828125,-0.46133984375,-5.83939453125,-3.56666015625,12.08134375,4.261140625,-3.64408984375,-0.852976562499999,-3.31705078125,1.9809609375,13.65644140625,12.65010546875,4.83002734375
6.71360546875,1.603390625,-0.479359375,12.573125,2.44983984375,0.491929687499999,-0.90858203125,-0.0527734375,1.56039453125,2.0907265625,-5.56597265625,3.9468125,4.7510546875,1.8507890625,-3.25421875,-2.34826953125,-0.55155078125,6.149828125,-1.43933984375,-5.80439453125,-2.21266015625,9.64534375,2.995140625,-3.64608984375,-0.1759765625,-2.95005078125,1.9319609375,13.06344140625,12.43010546875,5.46802734375
5.95260546875,0.933390625000001,-1.214359375,10.271125,1.66583984375,0.431929687499998,-1.44458203125,-2.2717734375,0.0223945312499989,1.8407265625,-5.79497265625,3.3058125,2.4930546875,2.2127890625,-3.37621875,-2.18926953125,-1.16655078125,5.053828125,-1.32033984375,-4.93739453125,-0.17266015625,6.86634375,2.732140625,-2.79908984375,1.1000234375,-2.32905078125,2.5829609375,12.17844140625,12.61610546875,6.95802734375
5.55160546875,0.363390625000001,-1.660359375,7.383125,0.736839843749999,0.318929687499999,-1.89258203125,-3.9997734375,-0.937605468750001,1.5327265625,-5.33397265625,2.4418125,1.3070546875,2.7227890625,-2.66021875,-1.48326953125,-1.97355078125,4.800828125,-0.158339843749999,-3.42439453125,2.25033984375,4.52734375,3.525140625,-1.31508984375,2.8860234375,-1.29005078125,3.8719609375,11.36344140625,13.06910546875,9.17902734375
5.62860546875,-0.0926093749999986,-1.803359375,4.605125,-0.22916015625,-0.00407031250000145,-2.30958203125,-4.9567734375,-1.12760546875,1.1007265625,-4.39297265625,1.5568125,1.3600546875,3.0337890625,-1.31821875,-0.41026953125,-2.82155078125,5.254828125,1.62866015625,-1.67939453125,4.56933984375,3.09634375,5.026140625,0.37191015625,4.9050234375,0.21494921875,5.4999609375,10.81544140625,13.48610546875,11.78402734375
6.02660546875,-0.485609374999999,-1.714359375,2.529125,-1.18516015625,-0.642070312500001,-2.77458203125,-5.2617734375,-0.71460546875,0.499726562499999,-3.30297265625,0.807812500000001,2.2710546875,2.8387890625,0.176781249999999,0.68773046875,-3.43955078125,6.004828125,3.39466015625,-0.198394531250001,6.21933984375,2.64134375,6.652140625,1.74891015625,6.7480234375,2.02294921875,7.0559609375,10.54544140625,13.60810546875,14.28302734375
6.44960546875,-0.859609375,-1.495359375,1.551125,-2.09016015625,-1.5760703125,-3.30858203125,-5.1707734375,-0.0726054687500008,-0.233273437499999,-2.38297265625,0.299812500000001,3.3370546875,2.0057890625,1.27978125,1.48773046875,-3.54155078125,6.581828125,4.49866015625,0.65560546875,6.79533984375,2.90434375,7.815140625,2.39891015625,8.0330234375,3.78694921875,8.1459609375,10.41544140625,13.37010546875,16.15902734375
6.69260546875,-1.174609375,-1.180359375,1.846125,-2.82416015625,-2.6000703125,-3.80658203125,-4.7487734375,0.429394531249999,-0.9342734375,-1.80597265625,0.100812500000001,3.9010546875,0.6687890625,1.62978125,1.85473046875,-2.98355078125,6.678828125,4.55566015625,0.820605468749999,6.27133984375,3.48334375,8.122140625,2.13891015625,8.5590234375,5.13894921875,8.4899609375,10.20844140625,12.89610546875,16.99402734375
6.73960546875,-1.291609375,-0.697359375,3.314125,-3.18616015625,-3.3520703125,-4.03058203125,-3.8197734375,0.573394531249999,-1.3382734375,-1.54097265625,0.254812500000001,3.6740546875,-0.8212109375,1.21478125,1.90373046875,-1.85755078125,6.251828125,3.57466015625,0.538605468749999,5.03333984375,4.00034375,7.474140625,1.05491015625,8.3630234375,5.86294921875,7.9589609375,9.68144140625,12.34410546875,16.57902734375
6.67960546875,-1.064609375,0.077640625,5.491125,-2.99916015625,-3.4690703125,-3.70758203125,-2.2367734375,0.287394531249999,-1.2162734375,-1.42497265625,0.780812500000001,2.8090546875,-2.0782109375,0.327781250000001,1.90173046875,-0.48955078125,5.435828125,1.89966015625,0.18060546875,3.66033984375,4.16534375,6.004140625,-0.58308984375,7.6420234375,5.96194921875,6.5669609375,8.57244140625,11.70710546875,14.95902734375
6.55760546875,-0.505609374999999,1.176640625,7.522125,-2.30716015625,-2.8200703125,-2.71458203125,-0.2157734375,-0.461605468750001,-0.5502734375,-1.31997265625,1.6478125,1.6810546875,-2.8992109375,-0.64721875,2.05473046875,0.67144921875,4.370828125,-0.0263398437499998,-0.0113945312499997,2.55733984375,3.74534375,3.944140625,-2.50008984375,6.5800234375,5.54494921875,4.4109609375,6.60644140625,10.71410546875,12.38202734375
6.26960546875,0.121390625,2.421640625,8.359125,-1.46316015625,-1.6610703125,-1.21558203125,1.5942265625,-1.74260546875,0.355726562499999,-1.24597265625,2.7328125,0.535054687500001,-3.3832109375,-1.46521875,2.34673046875,1.21944921875,3.082828125,-1.88233984375,-0.0853945312499995,1.71533984375,2.55434375,1.517140625,-4.52808984375,5.2400234375,4.65294921875,1.6539609375,3.61144140625,8.95510546875,9.20102734375
5.59560546875,0.398390625000001,3.463640625,7.177125,-1.01716015625,-0.566070312500001,0.36541796875,2.4072265625,-3.59960546875,0.9947265625,-1.35397265625,3.8178125,-0.698945312499999,-3.8162109375,-2.10121875,2.57073046875,0.96944921875,1.524828125,-3.52233984375,-0.29339453125,0.799339843749999,0.544343749999999,-1.034859375,-6.57308984375,3.6260234375,3.22894921875,-1.4190390625,-0.269558593749998,6.21210546875,5.81602734375
4.36060546875,0.0143906250000008,3.976640625,3.864125,-1.40316015625,-0.139070312500001,1.55341796875,1.7912265625,-5.89760546875,0.935726562499999,-1.76397265625,4.6228125,-2.2869453125,-4.4152109375,-2.63121875,2.54073046875,0.0544492187500003,-0.267171874999999,-4.85233984375,-0.82839453125,-0.47166015625,-2.06665625,-3.353859375,-8.47308984375,1.8580234375,1.25094921875,-4.3360390625,-4.40755859375,2.78910546875,2.66502734375
2.65760546875,-1.010609375,3.883640625,-0.749875000000003,-2.66016015625,-0.672070312500001,2.05441796875,0.00822656249999998,-8.23860546875,0.083726562499999,-2.41397265625,4.8618125,-4.4029453125,-5.1252109375,-3.07021875,2.27973046875,-1.13655078125,-2.057171875,-5.72033984375,-1.60739453125,-1.94966015625,-4.75065625,-4.951859375,-9.92308984375,0.2820234375,-1.07905078125,-6.4770390625,-7.79355859375,-0.457894531249999,0.18702734375
0.90360546875,-2.329609375,3.419640625,-5.157875,-4.40116015625,-2.0060703125,1.85741796875,-2.1017734375,-10.07060546875,-1.2972734375,-3.08197265625,4.3188125,-6.9169453125,-5.6882109375,-3.32521875,2.01773046875,-2.17355078125,-3.473171875,-5.96533984375,-2.29339453125,-3.02666015625,-6.85465625,-5.385859375,-10.57808984375,-0.6339765625,-3.31305078125,-7.2910390625,-9.45055859375,-2.48989453125,-1.28897265625
-0.42639453125,-3.514609375,2.950640625,-7.902875,-6.08416015625,-3.6980703125,1.13841796875,-3.6567734375,-10.98460546875,-2.8262734375,-3.56997265625,2.9508125,-9.4269453125,-5.9322109375,-3.34821875,1.98073046875,-2.83255078125,-4.248171875,-5.61533984375,-2.55839453125,-2.99566015625,-7.91165625,-4.543859375,-10.29208984375,-0.5749765625,-4.92605078125,-6.5940390625,-8.96155859375,-2.64889453125,-1.68297265625
-1.20339453125,-4.366609375,2.669640625,-8.364875,-7.38516015625,-5.3600703125,0.0684179687500004,-4.3157734375,-11.01260546875,-4.3192734375,-3.92997265625,0.961812500000001,-11.4739453125,-6.0782109375,-3.32921875,2.15873046875,-3.19155078125,-4.479171875,-5.06733984375,-2.39039453125,-1.57666015625,-7.93165625,-2.876859375,-9.32608984375,0.3580234375,-5.57705078125,-4.7870390625,-6.78855859375,-1.08989453125,-1.24697265625
-1.80839453125,-5.068609375,2.418640625,-7.133875,-8.39416015625,-6.9030703125,-1.33458203125,-4.4637734375,-10.69060546875,-5.9222734375,-4.51097265625,-1.2421875,-12.7789453125,-6.7482109375,-3.72621875,2.21173046875,-3.51655078125,-4.679171875,-5.05233984375,-2.20939453125,0.739339843749999,-7.43465625,-1.347859375,-8.35708984375,1.5690234375,-5.28905078125,-2.8140390625,-4.15955859375,1.21010546875,-0.51397265625
-2.87139453125,-6.038609375,1.797640625,-5.692875,-9.46116015625,-8.4970703125,-3.15758203125,-4.8757734375,-10.76860546875,-7.9292734375,-5.75397265625,-3.1961875,-13.3219453125,-8.6132109375,-5.01221875,1.62873046875,-3.97855078125,-5.516171875,-6.30333984375,-2.64839453125,2.78433984375,-7.17165625,-1.031859375,-8.20708984375,2.1960234375,-4.43805078125,-1.7840390625,-2.51055859375,2.91110546875,-0.10297265625
-4.78239453125,-7.569609375,0.489640625,-5.583875,-10.82116015625,-10.2760703125,-5.37758203125,-6.1247734375,-11.72060546875,-10.4012734375,-7.80997265625,-4.5311875,-13.2319453125,-11.8682109375,-7.27521875,0.0917304687499998,-4.44655078125,-7.365171875,-9.06233984375,-4.10339453125,3.27533984375,-7.64765625,-2.508859375,-9.37208984375,1.5740234375,-3.52905078125,-2.4040390625,-2.71255859375,3.03610546875,-0.411972656250001
-7.34939453125,-9.499609375,-1.406359375,-7.527875,-12.27916015625,-12.0620703125,-7.64558203125,-8.1367734375,-13.40060546875,-12.8852734375,-10.26697265625,-5.0401875,-12.6119453125,-15.9022109375,-9.98821875,-2.19726953125,-4.51955078125,-9.946171875,-12.74933984375,-6.34539453125,1.58633984375,-8.74765625,-5.426859375,-11.63308984375,-0.3199765625,-2.91005078125,-4.5340390625,-4.57255859375,1.52510546875,-1.36197265625
-9.79239453125,-11.176609375,-3.298359375,-10.982875,-13.22316015625,-13.3360703125,-9.30158203125,-10.1437734375,-15.08760546875,-14.5062734375,-12.23397265625,-4.6881875,-11.4719453125,-19.4402109375,-12.15321875,-4.48926953125,-3.81755078125,-12.325171875,-16.08933984375,-8.52339453125,-1.76766015625,-9.75365625,-8.579859375,-14.06208984375,-2.7489765625,-2.60805078125,-7.2020390625,-6.94455859375,-0.758894531249999,-2.41297265625
-11.08339453125,-11.800609375,-4.361359375,-14.370875,-12.97816015625,-13.5240703125,-9.68058203125,-11.0437734375,-15.91660546875,-14.4352734375,-12.79997265625,-3.6351875,-9.8189453125,-21.1302109375,-12.82321875,-5.86526953125,-2.29555078125,-13.357171875,-17.72633984375,-9.61239453125,-5.33266015625,-9.78865625,-10.525859375,-15.48808984375,-4.5999765625,-2.41005078125,-9.1380390625,-8.46855859375,-2.62389453125,-2.90497265625
-10.48439453125,-10.922609375,-4.012359375,-15.881875,-11.26916015625,-12.3990703125,-8.54658203125,-9.9897734375,-15.40160546875,-12.4312734375,-11.59897265625,-2.2621875,-7.8209453125,-20.2612109375,-11.68921875,-5.81326953125,-0.36855078125,-12.340171875,-16.95233984375,-9.05939453125,-7.57766015625,-8.38565625,-10.391859375,-15.17508984375,-5.0559765625,-2.14305078125,-9.5170390625,-8.41655859375,-3.34089453125,-2.53097265625
-8.01739453125,-8.774609375,-2.303359375,-14.422875,-8.48916015625,-10.3260703125,-6.33958203125,-6.9167734375,-13.71860546875,-9.0992734375,-9.10697265625,-1.1051875,-5.8469453125,-17.1542109375,-9.34821875,-4.58826953125,1.23644921875,-9.446171875,-14.10433984375,-7.16939453125,-7.82866015625,-5.81065625,-8.343859375,-13.25308984375,-4.1229765625,-1.91105078125,-8.4280390625,-7.09355859375,-3.08189453125,-1.59197265625
-4.53239453125,-6.197609375,0.056640625,-10.203875,-5.55716015625,-8.1310703125,-4.03558203125,-2.7217734375,-11.57060546875,-5.6472734375,-6.44497265625,-0.6561875,-4.3419453125,-12.9902109375,-7.02521875,-3.09826953125,1.78444921875,-5.643171875,-10.35933984375,-4.96339453125,-6.61966015625,-2.90865625,-5.411859375,-10.62108984375,-2.6369765625,-2.10505078125,-6.7680390625,-5.51755859375,-2.70289453125,-0.82097265625
-1.28239453125,-4.213609375,2.063640625,-4.620875,-3.46716015625,-6.6850703125,-2.67958203125,1.0552265625,-9.78260546875,-3.2912734375,-4.81297265625,-1.1361875,-3.6129453125,-9.1882109375,-5.90821875,-2.38726953125,0.84144921875,-2.154171875,-7.10633984375,-3.60739453125,-5.23366015625,-0.616656250000002,-2.847859375,-8.42508984375,-1.7489765625,-3.16605078125,-5.6700390625,-4.67155859375,-3.07589453125,-0.89097265625
0.69960546875,-3.526609375,2.926640625,0.415124999999998,-2.80716015625,-6.4550703125,-2.87858203125,2.8812265625,-8.90160546875,-2.6852734375,-4.90297265625,-2.4151875,-3.7159453125,-6.7392109375,-6.52921875,-3.05826953125,-1.55355078125,0.157828125,-5.27733984375,-3.79239453125,-4.85766015625,0.53134375,-1.445859375,-7.45108984375,-2.2519765625,-5.26605078125,-5.8490390625,-4.86555859375,-4.46089453125,-1.95597265625
0.97460546875,-4.249609375,2.387640625,3.283125,-3.55416015625,-7.3400703125,-4.56058203125,1.8722265625,-9.04360546875,-3.6882734375,-6.62397265625,-4.1491875,-4.4789453125,-5.8852109375,-8.55821875,-5.01026953125,-4.90555078125,1.083828125,-5.02433984375,-5.43839453125,-5.94166015625,0.597343749999999,-1.250859375,-7.79108984375,-4.1849765625,-8.15305078125,-7.2580390625,-5.62855859375,-6.34489453125,-3.52097265625
-0.31339453125,-5.986609375,0.710640625,3.159125,-5.22316015625,-8.8230703125,-7.09358203125,-1.8917734375,-9.98260546875,-5.5762734375,-9.24397265625,-6.0151875,-5.6399453125,-6.2592109375,-11.09821875,-7.57226953125,-8.48455078125,0.938828125000001,-5.85633984375,-7.83139453125,-8.10566015625,0.0653437499999985,-1.744859375,-8.92708984375,-6.8889765625,-11.24005078125,-9.2100390625,-6.11055859375,-7.79589453125,-4.69997265625
-2.67839453125,-8.138609375,-1.580359375,0.126124999999998,-7.21416015625,-10.3210703125,-9.67158203125,-7.4417734375,-11.35260546875,-7.4932734375,-11.81997265625,-7.8571875,-6.9769453125,-7.2772109375,-13.21021875,-9.90726953125,-11.64055078125,0.193828125000001,-7.06733984375,-10.04939453125,-10.51866015625,-0.536656250000002,-2.301859375,-10.11308984375,-9.4299765625,-13.88405078125,-10.8180390625,-5.68555859375,-8.05389453125,-4.69297265625
-5.51339453125,-10.225609375,-3.988359375,-4.978875,-9.11116015625,-11.4760703125,-11.71358203125,-13.2877734375,-12.80660546875,-8.8802734375,-13.63497265625,-9.6521875,-8.3389453125,-8.5102109375,-14.36021875,-11.40926953125,-14.02755078125,-0.842171875,-8.15933984375,-11.40739453125,-12.42066015625,-0.948656250000001,-2.586859375,-10.79608984375,-11.0759765625,-15.65405078125,-11.4580390625,-4.35655859375,-6.98389453125,-3.22197265625
-8.24039453125,-12.017609375,-6.186359375,-10.812875,-10.76816015625,-12.2500703125,-13.04558203125,-17.9347734375,-14.08260546875,-9.6342734375,-14.44097265625,-11.3651875,-9.5989453125,-9.8402109375,-14.56721875,-11.88526953125,-15.62955078125,-2.119171875,-9.01833984375,-11.69339453125,-13.45466015625,-1.28165625,-2.688859375,-10.83708984375,-11.5809765625,-16.44105078125,-11.0280390625,-2.73855859375,-5.13589453125,-0.701972656250001
-10.38239453125,-13.462609375,-7.985359375,-15.832875,-12.20616015625,-12.8210703125,-13.83958203125,-20.3707734375,-14.99260546875,-9.9962734375,-14.42897265625,-12.8331875,-10.6129453125,-11.3472109375,-14.24121875,-11.51226953125,-16.61955078125,-3.715171875,-9.82133984375,-11.12939453125,-13.68166015625,-1.88365625,-2.979859375,-10.47208984375,-11.1629765625,-16.39805078125,-9.9070390625,-1.70555859375,-3.45789453125,1.93602734375
-11.60239453125,-14.542609375,-9.233359375,-18.667875,-13.44616015625,-13.3840703125,-14.38058203125,-20.3497734375,-15.38960546875,-10.2912734375,-14.00897265625,-13.7941875,-11.2309453125,-13.0732109375,-13.87721875,-10.66126953125,-17.18655078125,-5.620171875,-10.78933984375,-10.17039453125,-13.39966015625,-3.10365625,-3.827859375,-10.10608984375,-10.3029765625,-15.80005078125,-8.7050390625,-1.93255859375,-2.82589453125,3.65202734375
-11.71439453125,-15.180609375,-9.776359375,-18.528875,-14.39816015625,-14.0000703125,-14.85958203125,-18.3497734375,-15.15460546875,-10.6892734375,-13.56397265625,-14.0201875,-11.3619453125,-14.8272109375,-13.77321875,-9.73126953125,-17.44255078125,-7.584171875,-11.98333984375,-9.26639453125,-12.93666015625,-5.05465625,-5.353859375,-10.08108984375,-9.5089765625,-14.91505078125,-7.9590390625,-3.59955859375,-3.67889453125,3.74802734375
-10.75339453125,-15.271609375,-9.525359375,-15.538875,-14.87516015625,-14.5610703125,-15.27758203125,-15.2877734375,-14.25260546875,-11.1142734375,-13.28397265625,-13.4591875,-11.0109453125,-16.1832109375,-13.93921875,-9.04726953125,-17.41155078125,-9.151171875,-13.24233984375,-8.72539453125,-12.57866015625,-7.50465625,-7.352859375,-10.53608984375,-9.1429765625,-13.90705078125,-7.9250390625,-6.33455859375,-5.86589453125,2.14902734375
-9.04039453125,-14.765609375,-8.566359375,-10.759875,-14.71616015625,-14.8820703125,-15.48358203125,-12.1467734375,-12.81560546875,-11.3162734375,-13.13597265625,-12.2981875,-10.2719453125,-16.6702109375,-14.18021875,-8.81226953125,-17.07555078125,-9.850171875,-14.25833984375,-8.66939453125,-12.57566015625,-9.90665625,-9.390859375,-11.37708984375,-9.3449765625,-12.80205078125,-8.5080390625,-9.36855859375,-8.73489453125,-0.568972656250001
-7.11539453125,-13.759609375,-7.200359375,-5.813875,-13.93016015625,-14.8300703125,-15.29858203125,-9.6837734375,-11.15560546875,-11.0412734375,-12.94997265625,-10.9271875,-9.2989453125,-16.0352109375,-14.26121875,-9.09226953125,-16.44355078125,-9.443171875,-14.74033984375,-9.07239453125,-13.11066015625,-11.57965625,-11.002859375,-12.35708984375,-10.0369765625,-11.51205078125,-9.3560390625,-11.82055859375,-11.40189453125,-3.40397265625
-5.50139453125,-12.521609375,-5.875359375,-2.266875,-12.75216015625,-14.4230703125,-14.66958203125,-8.3157734375,-9.67160546875,-10.1972734375,-12.55997265625,-9.8201875,-8.2819453125,-14.4012109375,-14.04321875,-9.82626953125,-15.64655078125,-8.077171875,-14.58133984375,-9.81339453125,-14.19366015625,-11.96465625,-11.877859375,-13.21608984375,-10.9979765625,-9.97305078125,-10.0500390625,-13.04155859375,-13.10789453125,-5.34597265625
-4.47939453125,-11.419609375,-5.036359375,-1.077875,-11.56816015625,-13.8230703125,-13.73958203125,-8.1627734375,-8.68060546875,-8.9162734375,-11.91297265625,-9.3591875,-7.4129453125,-12.2242109375,-13.53121875,-10.85426953125,-14.96755078125,-6.245171875,-13.90933984375,-10.72639453125,-15.59166015625,-10.85865625,-11.934859375,-13.78208984375,-11.9639765625,-8.28705078125,-10.2730390625,-12.86455859375,-13.52089453125,-5.82697265625
-4.04439453125,-10.758609375,-4.952359375,-2.361875,-10.72316015625,-13.2370703125,-12.77858203125,-9.1317734375,-8.27760546875,-7.4532734375,-11.05897265625,-9.6471875,-6.8139453125,-10.0722109375,-12.81621875,-11.93726953125,-14.71255078125,-4.551171875,-12.97633984375,-11.59239453125,-16.89666015625,-8.47865625,-11.245859375,-13.97708984375,-12.6929765625,-6.76505078125,-9.8700390625,-11.60555859375,-12.82289453125,-4.96197265625
-3.98839453125,-10.613609375,-5.583359375,-5.467875,-10.34816015625,-12.7720703125,-12.01258203125,-10.9547734375,-8.30860546875,-6.0232734375,-10.06297265625,-10.3971875,-6.4649453125,-8.3402109375,-11.96421875,-12.76126953125,-14.98855078125,-3.404171875,-11.95233984375,-12.10739453125,-17.66666015625,-5.33065625,-9.904859375,-13.72408984375,-12.9719765625,-5.76305078125,-8.8020390625,-9.80655859375,-11.50689453125,-3.40797265625
-4.00939453125,-10.776609375,-6.564359375,-9.277875,-10.31116015625,-12.3710703125,-11.50158203125,-13.2027734375,-8.47260546875,-4.7102734375,-8.92997265625,-11.0211875,-6.2079453125,-7.0902109375,-10.93921875,-12.98626953125,-15.57855078125,-2.826171875,-10.80033984375,-11.90839453125,-17.56266015625,-1.97565625,-7.951859375,-12.89008984375,-12.6009765625,-5.43605078125,-7.0830390625,-7.90755859375,-10.04889453125,-1.95397265625
-3.82339453125,-10.880609375,-7.358359375,-12.582875,-10.35516015625,-11.8770703125,-11.15358203125,-15.3737734375,-8.48160546875,-3.5102734375,-7.63597265625,-10.9321875,-5.8529453125,-6.1062109375,-9.64221875,-12.35626953125,-16.03055078125,-2.506171875,-9.33233984375,-10.70039453125,-16.41666015625,1.14934375,-5.436859375,-11.33908984375,-11.4259765625,-5.58305078125,-4.7860390625,-6.07355859375,-8.66489453125,-1.10197265625
-3.29939453125,-10.607609375,-7.514359375,-14.424875,-10.27416015625,-11.1850703125,-10.85358203125,-17.0387734375,-8.17560546875,-2.4482734375,-6.22597265625,-9.9301875,-5.2999453125,-5.1052109375,-8.03721875,-10.85126953125,-15.90555078125,-2.033171875,-7.38033984375,-8.42939453125,-14.27966015625,3.77534375,-2.507859375,-9.03808984375,-9.4159765625,-5.70805078125,-2.0650390625,-4.24155859375,-7.29689453125,-0.85697265625
-2.53139453125,-9.833609375,-6.853359375,-14.332875,-10.00116015625,-10.3230703125,-10.55158203125,-17.9257734375,-7.54060546875,-1.5992734375,-4.85997265625,-8.3851875,-4.5599453125,-3.9002109375,-6.21721875,-8.74826953125,-15.00055078125,-1.132171875,-4.92733984375,-5.36639453125,-11.43066015625,5.76934375,0.574140625,-6.12908984375,-6.7369765625,-5.25105078125,0.8629609375,-2.28055859375,-5.76489453125,-0.80097265625
-1.72339453125,-8.629609375,-5.473359375,-12.400875,-9.54016015625,-9.3990703125,-10.25358203125,-17.8437734375,-6.60060546875,-0.9852734375,-3.72697265625,-7.0621875,-3.6729453125,-2.4122109375,-4.34221875,-6.54326953125,-13.41555078125,0.252828125000001,-2.10733984375,-2.02539453125,-8.32066015625,7.09434375,3.552140625,-2.88608984375,-3.7399765625,-3.86905078125,3.7859609375,-0.152558593749998,-3.95489453125,-0.350972656250001
-0.96039453125,-7.156609375,-3.610359375,-9.193875,-8.82716015625,-8.4630703125,-9.93058203125,-16.6107734375,-5.30360546875,-0.4442734375,-2.90097265625,-6.6451875,-2.5979453125,-0.5882109375,-2.49621875,-4.73126953125,-11.43355078125,2.013828125,0.89966015625,1.04760546875,-5.44966015625,7.79334375,6.304140625,0.40091015625,-0.8749765625,-1.61105078125,6.5549609375,2.03644140625,-1.94689453125,0.90502734375
-0.0943945312499999,-5.552609375,-1.493359375,-5.541875,-7.68516015625,-7.4290703125,-9.46458203125,-14.1677734375,-3.50960546875,0.384726562499999,-2.24997265625,-7.2801875,-1.2269453125,1.6437890625,-0.608218749999999,-3.58326953125,-9.34755078125,3.965828125,3.97066015625,3.48660546875,-3.21966015625,8.00734375,8.877140625,3.52991015625,1.4500234375,1.11594921875,9.0719609375,4.08144140625,-0.01089453125,2.98402734375
1.12560546875,-3.893609375,0.694640625,-2.285875,-5.93416015625,-6.1500703125,-8.69958203125,-10.8177734375,-1.13360546875,1.8747265625,-1.49597265625,-8.4921875,0.515054687500001,4.3017890625,1.46278125,-3.04626953125,-7.36355078125,5.897828125,7.03266015625,5.19360546875,-1.81066015625,7.95334375,11.386140625,6.38991015625,2.9890234375,3.76894921875,11.2259609375,5.77044140625,1.50610546875,5.48802734375
2.79960546875,-2.260609375,2.756640625,-0.0728750000000034,-3.59916015625,-4.5900703125,-7.58158203125,-7.2917734375,1.64939453125,4.1347265625,-0.41797265625,-9.5351875,2.5360546875,7.2207890625,3.75278125,-2.84326953125,-5.66755078125,7.579828125,9.96766015625,6.26660546875,-1.12666015625,7.86534375,13.829140625,8.86891015625,3.7050234375,5.92594921875,12.8239609375,6.94344140625,2.33210546875,7.78102734375
4.72760546875,-0.836609375,4.405640625,0.745124999999998,-1.04516015625,-2.9640703125,-6.28558203125,-4.4937734375,4.31139453125,6.8277265625,0.94902734375,-9.8861875,4.5450546875,10.0057890625,6.05378125,-2.69926953125,-4.52955078125,8.767828125,12.50466015625,6.82660546875,-0.863660156250001,7.89534375,15.980140625,10.75091015625,3.7260234375,7.41394921875,13.6009609375,7.50644140625,2.36410546875,9.24602734375
6.44560546875,0.102390625,5.304640625,0.153124999999999,1.10483984375,-1.6980703125,-5.16658203125,-3.1087734375,6.13239453125,9.2247265625,2.28002734375,-9.5231875,6.1400546875,12.1157890625,7.93078125,-2.50626953125,-4.26855078125,9.247828125,14.24066015625,6.90260546875,-0.69566015625,8.04134375,17.443140625,11.73691015625,3.2490234375,8.26194921875,13.3259609375,7.42744140625,1.67610546875,9.51002734375
7.44360546875,0.341390625000001,5.236640625,-1.500875,2.26983984375,-1.1890703125,-4.53158203125,-3.3277734375,6.58039453125,10.5377265625,3.15302734375,-8.7891875,7.0000546875,13.0727890625,8.90078125,-2.31126953125,-5.03455078125,8.928828125,14.81466015625,6.46160546875,-0.41966015625,8.16734375,17.874140625,11.61291015625,2.4840234375,8.59394921875,11.9559609375,6.76644140625,0.491105468750001,8.54502734375
7.46960546875,-0.0626093749999992,4.306640625,-3.486875,2.28383984375,-1.5030703125,-4.38158203125,-4.7787734375,5.70339453125,10.3477265625,3.34402734375,-8.0241875,7.0560546875,12.7037890625,8.70678125,-2.14826953125,-6.58255078125,7.927828125,14.13866015625,5.56260546875,0.037339843749999,8.11634375,17.228140625,10.45691015625,1.6640234375,8.57094921875,9.7459609375,5.72744140625,-0.86989453125,6.67502734375
6.74660546875,-0.708609375,3.002640625,-4.812875,1.56683984375,-2.2270703125,-4.35058203125,-6.6577734375,4.23239453125,8.8727265625,3.03602734375,-7.2461875,6.5560546875,11.2607890625,7.52378125,-1.89726953125,-8.26255078125,6.578828125,12.50166015625,4.45260546875,0.720339843749999,7.81134375,15.830140625,8.70791015625,1.0590234375,8.39594921875,7.2189609375,4.61944140625,-2.04589453125,4.49302734375
5.87960546875,-1.017609375,1.991640625,-4.591875,0.940839843749999,-2.6240703125,-3.91258203125,-8.0157734375,3.25039453125,6.9087265625,2.75502734375,-6.1561875,5.9420546875,9.3117890625,5.92578125,-1.32626953125,-9.29955078125,5.287828125,10.46366015625,3.51360546875,1.69133984375,7.27734375,14.215140625,7.00491015625,0.9280234375,8.28694921875,4.9839609375,3.72644140625,-2.76089453125,2.68202734375
5.45660546875,-0.582609374999999,1.745640625,-2.556875,1.16983984375,-2.0400703125,-2.76658203125,-8.1637734375,3.58439453125,5.4317265625,3.05602734375,-4.4691875,5.6190546875,7.4497890625,4.61478125,-0.30726953125,-9.20355078125,4.330828125,8.58366015625,3.04060546875,2.91833984375,6.57234375,12.822140625,5.86491015625,1.3730234375,8.37294921875,3.4849609375,3.16344140625,-2.94389453125,1.75902734375
5.61660546875,0.553390625,2.235640625,0.643124999999998,2.51383984375,-0.309070312500001,-1.11458203125,-7.0097734375,5.33639453125,5.1037265625,4.15702734375,-2.2931875,5.7450546875,5.9997890625,4.05478125,0.97273046875,-8.03855078125,3.704828125,7.16366015625,3.03760546875,4.09933984375,5.72934375,11.769140625,5.41491015625,2.2240234375,8.57694921875,2.8299609375,2.84544140625,-2.78589453125,1.85702734375
5.95660546875,1.878390625,2.943640625,3.648125,4.55583984375,2.1149296875,0.37541796875,-5.1237734375,7.84639453125,5.9667265625,5.76902734375,-0.2571875,6.1730546875,4.9307890625,4.26278125,1.99673046875,-6.38855078125,3.165828125,6.15566015625,3.18860546875,4.66333984375,4.76634375,10.867140625,5.34991015625,3.0550234375,8.63394921875,2.8059609375,2.60144140625,-2.62289453125,2.67902734375
5.81560546875,2.676390625,3.173640625,5.026125,6.41883984375,4.3769296875,0.92541796875,-3.4497734375,10.07739453125,7.4787265625,7.23502734375,0.7428125,6.5850546875,3.9887890625,4.86078125,2.18073046875,-5.06855078125,2.402828125,5.28766015625,3.06960546875,4.09333984375,3.73034375,9.840140625,5.16891015625,3.4160234375,8.27494921875,3.0689609375,2.33244140625,-2.72089453125,3.70902734375
4.67660546875,2.431390625,2.480640625,3.983125,7.20483984375,5.6469296875,0.0994179687500001,-2.8057734375,11.13239453125,8.8427265625,7.90002734375,0.0448125000000008,6.7080546875,2.9327890625,5.34478125,1.24673046875,-4.72355078125,1.229828125,4.30766015625,2.45160546875,2.37733984375,2.72334375,8.580140625,4.53091015625,3.1410234375,7.48694921875,3.3869609375,2.09844140625,-3.09189453125,4.53902734375
2.45460546875,1.113390625,0.939640625,0.750124999999999,6.42583984375,5.5069296875,-1.91758203125,-3.4357734375,10.62639453125,9.4087265625,7.48502734375,-2.3511875,6.4780546875,1.7017890625,5.37578125,-0.53526953125,-5.52255078125,-0.308171874999999,3.17466015625,1.48860546875,0.17333984375,1.87834375,7.263140625,3.49891015625,2.5170234375,6.61294921875,3.7729609375,2.07444140625,-3.47489453125,5.10302734375
-0.43939453125,-0.815609374999999,-0.873359375,-3.516875,4.21183984375,4.1099296875,-4.38058203125,-4.8647734375,8.78639453125,8.9257265625,6.24502734375,-5.6851875,6.0270546875,0.4537890625,4.93378125,-2.42526953125,-7.05355078125,-1.943171875,2.08066015625,0.650605468749999,-1.50766015625,1.31634375,6.257140625,2.50991015625,2.1400234375,6.18094921875,4.4099609375,2.42444140625,-3.52389453125,5.63602734375
-3.22639453125,-2.642609375,-2.187359375,-7.272875,1.22683984375,2.0469296875,-6.33758203125,-6.1627734375,6.29839453125,7.5477265625,4.81002734375,-8.7531875,5.5280546875,-0.5392109375,4.26178125,-3.58626953125,-8.50355078125,-3.283171875,1.30266015625,0.423605468749999,-1.89966015625,1.10734375,5.903140625,2.09391015625,2.5470234375,6.53594921875,5.4389609375,3.16044140625,-3.07489453125,6.38202734375
-5.10239453125,-3.770609375,-2.437359375,-9.273875,-1.66516015625,0.0189296874999982,-7.08858203125,-6.4767734375,3.99939453125,5.6487265625,3.81802734375,-10.4731875,5.0270546875,-1.0572109375,3.64478125,-3.52226953125,-9.05955078125,-3.968171875,0.991660156250001,0.97560546875,-0.918660156250001,1.24434375,6.317140625,2.53191015625,3.8580234375,7.55794921875,6.7439609375,4.05344140625,-2.34089453125,7.26802734375
-5.62639453125,-3.979609375,-1.570359375,-9.084875,-3.77516015625,-1.5090703125,-6.51258203125,-5.5117734375,2.57039453125,3.5977265625,3.54902734375,-10.3931875,4.4130546875,-1.0572109375,3.18878125,-2.33026953125,-8.32355078125,-3.816171875,1.06966015625,2.01760546875,0.858339843749999,1.63534375,7.330140625,3.67391015625,5.6710234375,8.67594921875,7.9299609375,4.70044140625,-1.84889453125,7.83102734375
-4.91339453125,-3.469609375,-0.057359375,-7.132875,-4.83316015625,-2.4660703125,-5.09858203125,-3.6827734375,2.30939453125,1.6467265625,3.79302734375,-8.8241875,3.5510546875,-0.6702109375,2.77078125,-0.64726953125,-6.49255078125,-2.888171875,1.27866015625,2.94360546875,2.58033984375,2.14434375,8.599140625,5.02791015625,7.2810234375,9.21494921875,8.5109609375,4.72644140625,-2.11589453125,7.50302734375
-3.50539453125,-2.688609375,1.372640625,-4.362875,-4.99016015625,-3.0790703125,-3.66658203125,-1.8777734375,3.08139453125,-0.0492734375000001,4.01702734375,-6.5831875,2.4750546875,-0.0932109375000003,2.18378125,0.68273046875,-4.19155078125,-1.447171875,1.35766015625,3.17160546875,3.57933984375,2.66934375,9.808140625,6.06091015625,8.0690234375,8.83694921875,8.2199609375,4.05744140625,-3.23389453125,6.07602734375
-2.07239453125,-2.066609375,2.106640625,-1.756875,-4.62616015625,-3.6360703125,-2.94058203125,-0.9517734375,4.43139453125,-1.3492734375,3.73702734375,-4.5131875,1.4790546875,0.5387890625,1.35178125,1.01573046875,-2.08755078125,0.175828125000001,1.23366015625,2.47860546875,3.61433984375,3.21134375,10.839140625,6.51991015625,7.8460234375,7.77894921875,7.2209609375,3.05844140625,-4.67289453125,3.98602734375
-1.15039453125,-1.806609375,1.933640625,0.00712499999999849,-4.12516015625,-4.2830703125,-3.20258203125,-1.2387734375,5.79639453125,-2.0802734375,2.82902734375,-3.1181875,1.0270546875,1.1847890625,0.45078125,0.20873046875,-0.55155078125,1.707828125,1.08766015625,1.13960546875,2.86933984375,3.85334375,11.795140625,6.58291015625,6.9280234375,6.72494921875,6.0659609375,2.41544140625,-5.51589453125,2.16302734375
-0.98339453125,-1.843609375,1.083640625,0.680124999999999,-3.71216015625,-4.9650703125,-4.20158203125,-2.3377734375,6.72439453125,-2.0942734375,1.62002734375,-2.4671875,1.4990546875,1.8677890625,-0.162218749999999,-1.34726953125,0.42044921875,2.989828125,1.26266015625,-0.205394531250001,1.81433984375,4.63934375,12.867140625,6.72991015625,5.9600234375,6.40894921875,5.4179609375,2.74044140625,-4.98889453125,1.52502734375
-1.46939453125,-1.955609375,0.064640625,0.381124999999997,-3.42316015625,-5.4960703125,-5.33558203125,-3.3527734375,7.00639453125,-1.3852734375,0.69102734375,-2.3621875,2.9210546875,2.6037890625,-0.14521875,-2.94326953125,1.02844921875,3.937828125,2.04066015625,-0.86039453125,1.03933984375,5.41134375,14.137140625,7.43791015625,5.5820234375,7.22194921875,5.6879609375,4.15544140625,-2.95189453125,2.47702734375
-2.23639453125,-1.934609375,-0.623359375,-0.583875000000003,-3.16116015625,-5.6870703125,-5.97158203125,-3.4517734375,6.70539453125,-0.1772734375,0.55102734375,-2.5601875,4.8560546875,3.3477890625,0.61178125,-3.89826953125,1.41444921875,4.456828125,3.44366015625,-0.40839453125,1.04933984375,5.78034375,15.451140625,8.88291015625,6.1310234375,9.01894921875,6.8179609375,6.16944140625,0.0061054687500004,4.71902734375
-2.85539453125,-1.704609375,-0.729359375,-1.897875,-2.79616015625,-5.4170703125,-5.71058203125,-2.3717734375,6.10139453125,1.1347265625,1.38602734375,-2.8841875,6.5620546875,4.0027890625,1.89678125,-3.83326953125,1.52944921875,4.410828125,5.18466015625,1.12360546875,2.06633984375,5.29834375,16.479140625,10.84091015625,7.5110234375,11.20594921875,8.3129609375,7.95744140625,2.88010546875,7.42202734375
-3.03839453125,-1.304609375,-0.313359375,-3.291875,-2.21716015625,-4.6470703125,-4.50058203125,-0.5577734375,5.57839453125,2.1867265625,2.99802734375,-3.1971875,7.3640546875,4.4897890625,3.29378125,-2.75626953125,1.18544921875,3.719828125,6.82566015625,3.32960546875,3.91133984375,3.76334375,16.912140625,12.83091015625,9.2880234375,13.01594921875,9.4819609375,8.84244140625,4.75210546875,9.60802734375
-2.67239453125,-0.787609374999999,0.377640625,-4.455875,-1.33216015625,-3.3830703125,-2.59558203125,1.1642265625,5.50139453125,2.8607265625,4.96402734375,-3.3511875,7.0160546875,4.8647890625,4.44878125,-0.96526953125,0.24744921875,2.514828125,8.02966015625,5.64660546875,6.04833984375,1.45434375,16.699140625,14.39291015625,10.9110234375,13.83094921875,9.7569609375,8.63844140625,5.17710546875,10.52802734375
-1.71139453125,-0.141609375,1.117640625,-4.949875,-0.0661601562500014,-1.6500703125,-0.420582031249999,2.1202265625,6.09139453125,3.3587265625,6.86102734375,-3.1921875,5.8470546875,5.3557890625,5.29078125,1.11773046875,-1.17755078125,1.211828125,8.74766015625,7.61260546875,7.75933984375,-0.912656250000001,16.128140625,15.31091015625,11.9580234375,13.39894921875,8.9309609375,7.64244140625,4.27110546875,9.89402734375
-0.12539453125,0.720390625,1.844640625,-4.295875,1.60783984375,0.488929687499999,1.61641796875,2.1922265625,7.32939453125,4.0687265625,8.44902734375,-2.6151875,4.5980546875,6.2657890625,6.04378125,3.09473046875,-2.67355078125,0.393828125000001,9.20666015625,9.00560546875,8.40533984375,-2.49565625,15.690140625,15.66591015625,12.2690234375,11.88594921875,7.2039609375,6.36244140625,2.54110546875,7.91802734375
2.01760546875,1.881390625,2.665640625,-2.270875,3.61283984375,2.8969296875,3.27541796875,1.8662265625,8.94939453125,5.3097265625,9.71302734375,-1.6171875,4.0650546875,7.7617890625,7.03178125,4.68373046875,-3.65955078125,0.524828125000001,9.72666015625,9.83560546875,7.68433984375,-2.76165625,15.786140625,15.71091015625,11.9470234375,9.76094921875,5.0569609375,5.19744140625,0.61210546875,5.20102734375
4.47160546875,3.310390625,3.733640625,0.805124999999999,5.71183984375,5.3359296875,4.54141796875,1.9202265625,10.53639453125,7.0887265625,10.76702734375,-0.3211875,4.7070546875,9.7117890625,8.40778125,5.74273046875,-3.69155078125,1.684828125,10.47166015625,10.23860546875,5.80133984375,-1.74365625,16.466140625,15.66491015625,11.2420234375,7.58694921875,3.0179609375,4.29244140625,-1.00189453125,2.53202734375
6.82260546875,4.785390625,5.067640625,4.052125,7.50983984375,7.4739296875,5.52641796875,2.9182265625,11.68039453125,9.0227265625,11.68002734375,1.0368125,6.4380546875,11.6587890625,9.97378125,6.23473046875,-2.73655078125,3.481828125,11.29966015625,10.33160546875,3.38733984375,0.00334374999999909,17.372140625,15.55491015625,10.3760234375,5.78694921875,1.4399609375,3.59944140625,-2.01989453125,0.62402734375
8.58860546875,5.913390625,6.423640625,6.329125,8.51383984375,8.9249296875,6.31341796875,4.7902265625,12.09839453125,10.4507265625,12.35302734375,2.1708125,8.6830546875,12.9777890625,11.18378125,6.16573046875,-1.21655078125,5.207828125,11.80566015625,10.10860546875,1.12933984375,1.71134375,17.917140625,15.19591015625,9.3930234375,4.47994921875,0.381960937500001,3.03744140625,-2.42989453125,-0.14897265625
9.33160546875,6.268390625,7.326640625,6.689125,8.28183984375,9.3319296875,6.84441796875,6.7582265625,11.69239453125,10.7177265625,12.52102734375,2.8428125,10.6860546875,13.1377890625,11.34478125,5.54273046875,0.23744921875,6.158828125,11.55166015625,9.43160546875,-0.657660156250001,2.78934375,17.605140625,14.32891015625,8.1270234375,3.46794921875,-0.365039062499999,2.59244140625,-2.45389453125,0.10002734375
8.80960546875,5.592390625,7.284640625,4.753125,6.60683984375,8.4929296875,6.94941796875,7.7062265625,10.56239453125,9.4827265625,11.91002734375,2.9568125,11.8520546875,11.9677890625,9.95978125,4.39973046875,1.12644921875,5.953828125,10.33466015625,8.15260546875,-2.15666015625,3.10034375,16.304140625,12.81491015625,6.3590234375,2.40894921875,-1.1150390625,2.32844140625,-2.42389453125,0.85902734375
7.11860546875,3.949390625,6.067640625,0.853124999999999,3.66083984375,6.4989296875,6.47841796875,6.7802265625,8.97239453125,6.9237265625,10.43302734375,2.5728125,11.9370546875,9.7727890625,7.04478125,2.86573046875,1.31144921875,4.685828125,8.33866015625,6.28160546875,-3.73266015625,2.96034375,14.306140625,10.76691015625,4.0540234375,1.09794921875,-2.0860390625,2.30144140625,-2.61289453125,1.50202734375
4.67260546875,1.723390625,3.865640625,-4.103875,-0.01416015625,3.7599296875,5.42441796875,3.8732265625,7.22339453125,3.6877265625,8.30502734375,1.8368125,10.9940546875,7.1877890625,3.20778125,1.19973046875,1.02344921875,2.800828125,6.05966015625,4.08560546875,-5.49166015625,2.86134375,12.134140625,8.52491015625,1.5140234375,-0.33105078125,-3.2910390625,2.46344140625,-3.11889453125,1.58402734375
2.00160546875,-0.524609374999999,1.224640625,-8.949875,-3.66816015625,0.911929687499999,3.96441796875,-0.2787734375,5.52039453125,0.6337265625,5.99502734375,0.8938125,9.2090546875,4.8457890625,-0.576218749999999,-0.24926953125,0.71144921875,0.799828125000001,4.05466015625,2.02460546875,-7.12466015625,3.07834375,10.238140625,6.50191015625,-0.6969765625,-1.44405078125,-4.5740390625,2.60744140625,-3.86289453125,0.98302734375
-0.48239453125,-2.279609375,-1.182359375,-12.642875,-6.59516015625,-1.3930703125,2.40141796875,-4.3827734375,3.91839453125,-1.5082734375,4.04502734375,-0.138187499999999,6.8020546875,3.0777890625,-3.35121875,-1.16126953125,0.82244921875,-1.011171875,2.66666015625,0.554605468749999,-8.11266015625,3.44734375,8.764140625,4.99791015625,-2.0139765625,-1.75005078125,-5.7390390625,2.43344140625,-4.67589453125,-0.11797265625
-2.53739453125,-3.255609375,-2.797359375,-14.567875,-8.33216015625,-2.6900703125,1.05341796875,-7.1037734375,2.39039453125,-2.3832734375,2.87302734375,-1.1021875,4.0310546875,1.8327890625,-4.55121875,-1.35126953125,1.61244921875,-2.585171875,1.89166015625,-0.0673945312500006,-8.09166015625,3.46834375,7.558140625,4.10291015625,-2.1529765625,-0.99405078125,-6.6560390625,1.70344140625,-5.39289453125,-1.34997265625
-4.02739453125,-3.462609375,-3.337359375,-14.693875,-8.77916015625,-2.8480703125,0.15541796875,-7.5727734375,0.921394531249999,-2.0932734375,2.62102734375,-1.7461875,1.2390546875,0.8017890625,-4.17821875,-0.82926953125,3.04044921875,-4.021171875,1.43566015625,0.118605468749999,-7.05366015625,2.62834375,6.341140625,3.71591015625,-1.2459765625,0.70194921875,-7.2960390625,0.397441406250001,-5.90289453125,-2.31797265625
-4.89339453125,-3.161609375,-2.845359375,-13.514875,-8.19316015625,-2.0990703125,-0.19958203125,-5.6997734375,-0.461605468750001,-1.1122734375,3.10902734375,-1.8011875,-1.1969453125,-0.3692109375,-2.79721875,0.20673046875,4.78344921875,-5.415171875,0.90366015625,0.80360546875,-5.30766015625,0.715343749999999,4.921140625,3.63891015625,0.2370234375,2.88794921875,-7.7100390625,-1.25255859375,-6.18589453125,-2.77797265625
-5.19039453125,-2.729609375,-1.634359375,-11.826875,-7.07516015625,-0.954070312500001,-0.0775820312499995,-2.1557734375,-1.73260546875,-0.0962734375000007,3.90002734375,-1.1631875,-2.9879453125,-1.9062109375,-1.33921875,1.41773046875,6.38144921875,-6.769171875,0.00466015625000082,1.53960546875,-3.27066015625,-2.06465625,3.302140625,3.66891015625,1.6900234375,4.98194921875,-7.9960390625,-2.88255859375,-6.33189453125,-2.77197265625
-5.09939453125,-2.515609375,-0.167359375,-10.422875,-5.97616015625,-0.00607031250000034,0.31641796875,1.9602265625,-2.90160546875,0.3487265625,4.45502734375,-0.0341874999999998,-4.0629453125,-3.8242109375,-0.75721875,2.40873046875,7.42644921875,-7.989171875,-1.33933984375,1.89860546875,-1.26866015625,-5.18965625,1.659140625,3.64691015625,2.6040234375,6.46594921875,-8.2750390625,-4.17155859375,-6.51289453125,-2.61297265625
-4.88239453125,-2.743609375,1.078640625,-9.841875,-5.31816015625,0.280929687499999,0.68541796875,5.5592265625,-4.00760546875,-0.144273437500001,4.31802734375,1.1218125,-4.6249453125,-5.9332109375,-1.68221875,2.82473046875,7.70444921875,-8.963171875,-3.01033984375,1.60160546875,0.51933984375,-8.06565625,0.208140625,3.45091015625,2.6920234375,7.01494921875,-8.6860390625,-4.99655859375,-6.93389453125,-2.71197265625
-4.85239453125,-3.489609375,1.695640625,-10.276875,-5.30616015625,-0.303070312500001,0.70841796875,7.8642265625,-5.10960546875,-1.6092734375,3.26302734375,1.7968125,-5.0809453125,-7.9592109375,-4.20021875,2.43673046875,7.20544921875,-9.684171875,-4.80133984375,0.58460546875,1.95933984375,-10.28765625,-0.950859375,2.97191015625,1.9010234375,6.49794921875,-9.3690390625,-5.49255859375,-7.78689453125,-3.37997265625
-5.32239453125,-4.703609375,1.408640625,-11.605875,-5.94016015625,-1.6920703125,0.15241796875,8.4692265625,-6.27460546875,-3.7692734375,1.37002734375,1.6788125,-5.8479453125,-9.6762109375,-7.84121875,1.21073046875,6.04744921875,-10.312171875,-6.51133984375,-1.00739453125,2.82933984375,-11.78765625,-1.891859375,2.13491015625,0.3460234375,4.95494921875,-10.4310390625,-5.98655859375,-9.19389453125,-4.69897265625
-6.44039453125,-6.213609375,0.182640625,-13.457875,-7.02516015625,-3.5670703125,-1.02858203125,7.2982265625,-7.49660546875,-6.1102734375,-0.96897265625,0.773812500000001,-7.1049453125,-10.9482109375,-11.71921875,-0.65326953125,4.41544921875,-11.090171875,-7.95433984375,-2.83139453125,2.83133984375,-12.77165625,-2.769859375,0.97091015625,-1.7159765625,2.61394921875,-11.8550390625,-6.81255859375,-11.12789453125,-6.49097265625
-7.95339453125,-7.700609375,-1.662359375,-15.274875,-8.16016015625,-5.3950703125,-2.60158203125,4.6202265625,-8.57760546875,-7.9602734375,-3.11797265625,-0.609187499999999,-8.6379453125,-11.6582109375,-14.77721875,-2.71126953125,2.58744921875,-12.126171875,-8.90333984375,-4.38639453125,1.79133984375,-13.50965625,-3.625859375,-0.284089843749999,-3.8639765625,-0.0680507812499999,-13.4110390625,-8.09655859375,-13.32589453125,-8.38497265625
-9.17039453125,-8.705609375,-3.440359375,-16.407875,-8.77116015625,-6.5100703125,-4.07658203125,1.0952265625,-9.08560546875,-8.6202734375,-4.34897265625,-1.9841875,-9.8899453125,-11.6142109375,-16.08121875,-4.33426953125,0.96644921875,-13.216171875,-9.04633984375,-5.09239453125,-0.110660156250001,-14.11765625,-4.243859375,-1.17808984375,-5.5259765625,-2.45105078125,-14.6290390625,-9.64255859375,-15.30389453125,-9.94097265625
-9.27739453125,-8.740609375,-4.310359375,-16.289875,-8.26416015625,-6.3000703125,-4.84358203125,-2.2687734375,-8.48360546875,-7.5532734375,-4.06897265625,-2.8821875,-10.2059453125,-10.5732109375,-15.10721875,-4.89526953125,-0.0135507812500002,-13.872171875,-8.05633984375,-4.46839453125,-2.31866015625,-14.48565625,-4.197859375,-1.16308984375,-6.1189765625,-3.91005078125,-14.9290390625,-10.99455859375,-16.50989453125,-10.82097265625
-7.80039453125,-7.500609375,-3.649359375,-14.672875,-6.29916015625,-4.4680703125,-4.41158203125,-4.3797734375,-6.44860546875,-4.6162734375,-2.06497265625,-3.0351875,-9.1659453125,-8.3882109375,-11.91921875,-4.02626953125,-0.11655078125,-13.569171875,-5.77033984375,-2.34439453125,-4.13066015625,-14.38865625,-3.086859375,0.146910156250001,-5.3009765625,-4.12305078125,-13.8740390625,-11.63755859375,-16.54789453125,-10.90397265625
-4.90039453125,-5.078609375,-1.374359375,-11.784875,-3.02716015625,-1.2250703125,-2.64558203125,-4.4687734375,-3.16460546875,-0.2292734375,1.34802734375,-2.4791875,-6.8319453125,-5.1912109375,-7.15421875,-1.83826953125,0.51544921875,-12.064171875,-2.37833984375,0.981605468750001,-5.03366015625,-13.67965625,-0.818859375000001,2.73491015625,-3.1949765625,-3.24105078125,-11.4250390625,-11.23855859375,-15.36489453125,-10.33497265625
-1.32839453125,-2.010609375,1.974640625,-8.284875,0.866839843749999,2.7119296875,0.14941796875,-2.4597734375,0.60439453125,4.6617265625,5.38202734375,-1.5281875,-3.8009453125,-1.4802109375,-1.83221875,1.05273046875,1.39744921875,-9.590171875,1.51466015625,4.76460546875,-4.93766015625,-12.44265625,2.244140625,6.10391015625,-0.426976562499999,-1.83505078125,-8.0440390625,-9.77755859375,-13.29089453125,-9.44797265625
1.85760546875,0.895390625000001,5.457640625,-5.019875,4.37983984375,6.3459296875,3.33741796875,0.9652265625,3.77139453125,8.8527265625,9.02802734375,-0.634187499999999,-1.0209453125,1.9647890625,2.91878125,3.74173046875,1.96044921875,-6.810171875,5.03666015625,8.03060546875,-4.16666015625,-11.00665625,5.371140625,9.43391015625,2.0930234375,-0.62305078125,-4.5470390625,-7.55655859375,-10.90689453125,-8.63197265625
3.69360546875,2.879390625,8.136640625,-2.723875,6.59783984375,8.7609296875,6.20441796875,4.6782265625,5.41739453125,11.2977265625,11.40702734375,-0.1831875,0.570054687500001,4.3357890625,6.15378125,5.42173046875,1.84344921875,-4.562171875,7.34266015625,9.92760546875,-3.22566015625,-9.81765625,7.735140625,11.90191015625,3.5480234375,-0.15405078125,-1.7800390625,-5.08755859375,-8.84289453125,-8.17497265625
3.67360546875,3.506390625,9.452640625,-1.825875,7.05683984375,9.4499296875,8.19941796875,7.5792265625,5.20639453125,11.4817265625,12.06302734375,-0.344187499999999,0.418054687500002,5.0907890625,7.33678125,5.70673046875,1.02444921875,-3.535171875,7.91666015625,10.03860546875,-2.49266015625,-9.24965625,8.729140625,12.98591015625,3.5350234375,-0.61105078125,-0.2970390625,-2.96555859375,-7.58989453125,-8.18397265625
1.89660546875,2.782390625,9.361640625,-2.414875,5.88483984375,8.4499296875,9.05541796875,8.9682265625,3.48439453125,9.5597265625,11.06302734375,-1.0231875,-1.4189453125,4.1447890625,6.42078125,4.73873046875,-0.24755078125,-4.034171875,6.71466015625,8.50260546875,-2.06266015625,-9.45665625,8.150140625,12.61091015625,2.1930234375,-1.80005078125,-0.211039062499999,-1.73955859375,-7.41289453125,-8.60797265625
-1.07939453125,1.071390625,8.213640625,-4.305875,3.64583984375,6.2319296875,8.77141796875,8.6592265625,1.00639453125,6.2337265625,8.87002734375,-1.9561875,-4.2839453125,1.8477890625,3.78278125,3.03173046875,-1.62755078125,-5.910171875,4.13366015625,5.88060546875,-1.81566015625,-10.32965625,6.200140625,11.08691015625,0.0550234375,-3.30705078125,-1.2680390625,-1.78355859375,-8.32089453125,-9.31297265625
-4.54839453125,-1.094609375,6.499640625,-7.109875,1.05883984375,3.4569296875,7.52941796875,6.9102265625,-1.43960546875,2.4597265625,6.11002734375,-2.8371875,-7.1849453125,-1.1812109375,0.0907812500000009,1.16873046875,-2.83955078125,-8.641171875,0.837660156250001,2.86860546875,-1.64666015625,-11.54865625,3.360140625,8.93991015625,-2.2319765625,-4.70705078125,-3.0120390625,-3.14555859375,-10.06289453125,-10.13197265625
-7.84939453125,-3.194609375,4.657640625,-10.253875,-1.23616015625,0.7439296875,5.62041796875,4.2832265625,-3.27060546875,-0.8532734375,3.36602734375,-3.4281875,-9.1729453125,-4.2462109375,-3.82221875,-0.45026953125,-3.75355078125,-11.493171875,-2.45333984375,0.0406054687499999,-1.63066015625,-12.68965625,0.220140625,6.70691015625,-4.1689765625,-5.71105078125,-4.9440390625,-5.44755859375,-12.13189453125,-10.84797265625
-10.40339453125,-4.829609375,3.006640625,-12.999875,-2.80316015625,-1.4770703125,3.40441796875,1.4692265625,-4.14960546875,-3.0702734375,1.06802734375,-3.6221875,-9.7019453125,-6.7262109375,-7.10621875,-1.69326953125,-4.37555078125,-13.727171875,-5.14733984375,-2.26139453125,-1.97666015625,-13.37165625,-2.689859375,4.78791015625,-5.5259765625,-6.18405078125,-6.6180390625,-7.94655859375,-13.86789453125,-11.18697265625
-11.74639453125,-5.790609375,1.745640625,-14.593875,-3.45016015625,-3.0160703125,1.23641796875,-0.8967734375,-3.98860546875,-3.9672734375,-0.55897265625,-3.4961875,-8.8239453125,-8.2252109375,-9.10521875,-2.63726953125,-4.78255078125,-14.842171875,-6.92533984375,-3.93439453125,-2.81966015625,-13.41065625,-5.051859375,3.35291015625,-6.3219765625,-6.10305078125,-7.7340390625,-9.86155859375,-14.71189453125,-10.92997265625
-11.67839453125,-6.096609375,0.923640625,-14.550875,-3.26816015625,-3.9440703125,-0.64058203125,-2.4007734375,-2.97460546875,-3.7632734375,-1.51897265625,-3.3381875,-7.1449453125,-8.6922109375,-9.59121875,-3.45326953125,-5.05355078125,-14.766171875,-7.81633984375,-5.06539453125,-4.05466015625,-12.94965625,-6.861859375,2.30491015625,-6.7569765625,-5.53905078125,-8.2480390625,-10.78555859375,-14.53889453125,-10.11397265625
-10.38539453125,-5.998609375,0.421640625,-12.942875,-2.61016015625,-4.5360703125,-2.19358203125,-2.9267734375,-1.57660546875,-3.0532734375,-2.03497265625,-3.5831875,-5.5449453125,-8.4432109375,-8.87621875,-4.33526953125,-5.22455078125,-13.898171875,-8.18533984375,-5.88739453125,-5.39966015625,-12.42865625,-8.406859375,1.31891015625,-7.1609765625,-4.71105078125,-8.4470390625,-10.92755859375,-13.80889453125,-9.16597265625
-8.40539453125,-5.889609375,-0.00535937499999994,-10.449875,-1.97016015625,-5.1560703125,-3.58358203125,-2.6477734375,-0.41660546875,-2.6002734375,-2.46897265625,-4.6261875,-4.7739453125,-8.0252109375,-7.68921875,-5.45226953125,-5.27455078125,-12.928171875,-8.58033984375,-6.71439453125,-6.61366015625,-12.38765625,-10.095859375,-0.0230898437500002,-7.9339765625,-4.02305078125,-8.8610390625,-10.95755859375,-13.37889453125,-8.81297265625
-6.44839453125,-6.144609375,-0.606359375,-8.082875,-1.79416015625,-6.0880703125,-5.02758203125,-1.9487734375,-0.0206054687500004,-3.0612734375,-3.17197265625,-6.5711875,-5.1139453125,-7.9682109375,-6.88021875,-6.88726953125,-5.15955078125,-12.503171875,-9.47333984375,-7.82439453125,-7.66066015625,-13.16565625,-12.200859375,-2.01908984375,-9.4219765625,-3.98105078125,-10.0130390625,-11.54055859375,-14.03289453125,-9.73097265625
-5.18739453125,-6.927609375,-1.483359375,-6.701875,-2.30016015625,-7.4050703125,-6.61658203125,-1.2797734375,-0.60860546875,-4.7422734375,-4.33297265625,-9.0941875,-6.2969453125,-8.5572109375,-7.08821875,-8.57826953125,-4.87555078125,-12.929171875,-11.03233984375,-9.32339453125,-8.68266015625,-14.69965625,-14.649859375,-4.65108984375,-11.7369765625,-4.98205078125,-12.1070390625,-12.90055859375,-16.03089453125,-12.15397265625
-5.06039453125,-8.122609375,-2.542359375,-6.638875,-3.41616015625,-8.9390703125,-8.21458203125,-0.9727734375,-2.01060546875,-7.4812734375,-5.90897265625,-11.5531875,-7.6809453125,-9.7272109375,-8.53421875,-10.31026953125,-4.51155078125,-14.043171875,-13.03633984375,-11.08639453125,-9.83666015625,-16.55065625,-17.034859375,-7.54908984375,-14.6549765625,-7.07405078125,-14.8790390625,-14.70055859375,-18.95989453125,-15.68197265625
-6.12239453125,-9.409609375,-3.561359375,-7.657875,-4.84116015625,-10.3680703125,-9.53358203125,-1.0907734375,-3.76660546875,-10.7262734375,-7.67197265625,-13.3161875,-8.5829453125,-11.1272109375,-10.97821875,-11.80226953125,-4.26955078125,-15.334171875,-15.01133984375,-12.80139453125,-11.15766015625,-18.13265625,-18.815859375,-10.14008984375,-17.6559765625,-9.86305078125,-17.6860390625,-16.28055859375,-21.93289453125,-19.41197265625
-8.00639453125,-10.434609375,-4.330359375,-9.219875,-6.17416015625,-11.3470703125,-10.28358203125,-1.4487734375,-5.30160546875,-13.7242734375,-9.29397265625,-14.0871875,-8.5459453125,-12.2762109375,-13.82421875,-12.81226953125,-4.40755078125,-16.199171875,-16.44633984375,-14.08539453125,-12.51766015625,-18.95065625,-19.578859375,-11.87908984375,-20.1059765625,-12.62505078125,-19.7770390625,-16.99855859375,-23.95089453125,-22.26897265625
-10.03239453125,-10.927609375,-4.725359375,-10.793875,-7.02516015625,-11.6220703125,-10.30558203125,-1.7847734375,-6.10960546875,-15.7272734375,-10.42897265625,-13.9941875,-7.4399453125,-12.7192109375,-16.28021875,-13.17526953125,-5.10355078125,-16.186171875,-16.93533984375,-14.57939453125,-13.66366015625,-18.70765625,-19.162859375,-12.38608984375,-21.4439765625,-14.56505078125,-20.5400390625,-16.43255859375,-24.20689453125,-23.35297265625
-11.41739453125,-10.731609375,-4.682359375,-11.968875,-7.08416015625,-11.0700703125,-9.60058203125,-1.9427734375,-5.86760546875,-16.1632734375,-10.75197265625,-13.4041875,-5.4059453125,-12.1172109375,-17.54621875,-12.77726953125,-6.30555078125,-15.098171875,-16.21833984375,-14.00339453125,-14.27166015625,-17.26665625,-17.609859375,-11.46008984375,-21.3059765625,-15.09405078125,-19.6140390625,-14.39955859375,-22.25089453125,-22.16097265625
-11.47539453125,-9.775609375,-4.127359375,-12.382875,-6.17416015625,-9.7000703125,-8.28058203125,-1.9177734375,-4.49760546875,-14.7702734375,-10.01097265625,-12.6231875,-2.7619453125,-10.2922109375,-17.01021875,-11.52226953125,-7.65555078125,-12.993171875,-14.18333984375,-12.19739453125,-13.99866015625,-14.60865625,-15.065859375,-9.06808984375,-19.5759765625,-14.00705078125,-16.9250390625,-10.94055859375,-18.09089453125,-18.71397265625
-9.82239453125,-8.082609375,-2.987359375,-11.676875,-4.32716015625,-7.6650703125,-6.50658203125,-1.7737734375,-2.22260546875,-11.7132734375,-8.10897265625,-11.7081875,0.0420546875000003,-7.3052109375,-14.46121875,-9.37826953125,-8.58555078125,-10.154171875,-10.93033984375,-9.20439453125,-12.59466015625,-10.91165625,-11.754859375,-5.37708984375,-16.4189765625,-11.50005078125,-12.7070390625,-6.39755859375,-12.27189453125,-13.57697265625
-6.59339453125,-5.831609375,-1.313359375,-9.647875,-1.86016015625,-5.2960703125,-4.45658203125,-1.5567734375,0.421394531249999,-7.6342734375,-5.21997265625,-10.5121875,2.4460546875,-3.5622109375,-10.25721875,-6.48826953125,-8.54255078125,-7.073171875,-6.87333984375,-5.36439453125,-10.07466015625,-6.67165625,-8.063859375,-0.84608984375,-12.3059765625,-8.09005078125,-7.5480390625,-1.50155859375,-5.89489453125,-7.79597265625
-2.53639453125,-3.402609375,0.609640625,-6.505875,0.652839843749999,-3.0830703125,-2.34858203125,-1.2757734375,2.69639453125,-3.5522734375,-1.83797265625,-8.8911875,3.8800546875,0.1837890625,-5.32621875,-3.26126953125,-7.24855078125,-4.380171875,-2.75533984375,-1.35139453125,-6.89066015625,-2.72665625,-4.586859375,3.75791015625,-7.9859765625,-4.49305078125,-2.3570390625,2.70244140625,-0.40989453125,-2.66197265625
1.21460546875,-1.323609375,2.288640625,-2.958875,2.55883984375,-1.5510703125,-0.45758203125,-0.8977734375,3.93039453125,-0.567273437500001,1.30002734375,-6.9101875,3.9620546875,3.0287890625,-0.915218749999999,-0.34726953125,-4.86255078125,-2.671171875,0.494660156250001,1.95160546875,-3.90966015625,-0.0346562500000012,-2.025859375,7.48991015625,-4.3629765625,-1.46905078125,1.8359609375,5.17944140625,2.84110546875,0.681027343749999
3.62160546875,-0.099609375,3.217640625,0.0551249999999968,3.39083984375,-1.0590703125,0.91441796875,-0.3717734375,3.81539453125,0.525726562499999,3.43202734375,-4.8881875,2.6970546875,4.2667890625,1.81578125,1.53973046875,-1.94655078125,-2.282171875,2.05466015625,3.71660546875,-2.10866015625,0.699343749999999,-0.947859375,9.52191015625,-2.2399765625,0.35594921875,4.2149609375,5.34744140625,3.15810546875,1.65002734375
4.18560546875,0.0133906250000013,3.139640625,1.821125,3.09483984375,-1.6350703125,1.55041796875,0.3442265625,2.55939453125,-0.445273437500001,4.05202734375,-3.2621875,0.512054687500001,3.6947890625,2.20478125,1.91873046875,0.73644921875,-3.155171875,1.53766015625,3.49660546875,-2.08866015625,-0.669656250000001,-1.538859375,9.46291015625,-2.0099765625,0.67294921875,4.4949609375,3.33844140625,0.775105468750001,0.41702734375
3.08660546875,-0.854609374999999,2.190640625,2.171125,2.06083984375,-2.9580703125,1.42741796875,1.2832265625,0.783394531249999,-2.9622734375,3.11902734375,-2.3621875,-1.8949453125,1.7107890625,0.31978125,0.79173046875,2.49744921875,-4.886171875,-0.81833984375,1.45160546875,-3.69466015625,-3.68365625,-3.529859375,7.53791015625,-3.4619765625,-0.39405078125,3.0199609375,-0.104558593749998,-3.29289453125,-2.23797265625
1.02260546875,-2.238609375,0.849640625,1.442125,0.937839843749999,-4.4890703125,0.74841796875,2.4722265625,-0.748605468750001,-6.0252734375,1.08402734375,-2.2541875,-3.8199453125,-0.8542109375,-3.04321875,-1.29426953125,2.94144921875,-6.926171875,-4.19833984375,-1.66639453125,-6.03366015625,-7.49765625,-6.312859375,4.51291015625,-5.8349765625,-2.32305078125,0.598960937499999,-4.00255859375,-7.73589453125,-5.33097265625
-1.09639453125,-3.550609375,-0.284359375,0.156124999999999,0.337839843749999,-5.6900703125,-0.13458203125,3.9212265625,-1.43260546875,-8.5552734375,-1.27497265625,-2.7211875,-4.8009453125,-3.0672109375,-6.60821875,-3.44126953125,2.07844921875,-8.818171875,-7.51633984375,-4.78139453125,-7.92366015625,-11.21865625,-9.183859375,1.39891015625,-8.1259765625,-4.38605078125,-1.8570390625,-7.52955859375,-11.46589453125,-8.07297265625
-2.49639453125,-4.332609375,-0.759359375,-1.345875,0.575839843749999,-6.2040703125,-0.84658203125,5.5262265625,-1.01560546875,-9.7942734375,-3.12997265625,-3.3771875,-4.7279453125,-4.2282109375,-9.03821875,-4.75626953125,0.30744921875,-10.328171875,-9.80033984375,-6.89639453125,-8.51366015625,-14.19465625,-11.557859375,-0.90808984375,-9.4919765625,-5.93405078125,-3.6660390625,-10.21155859375,-13.89289453125,-10.07497265625
-2.79639453125,-4.396609375,-0.432359375,-3.011875,1.57783984375,-5.9530703125,-1.09658203125,7.0032265625,0.344394531249999,-9.5192734375,-3.87697265625,-3.8031875,-3.7979453125,-4.0672109375,-9.38821875,-4.68326953125,-1.70255078125,-11.414171875,-10.50133984375,-7.43939453125,-7.69766015625,-16.13765625,-13.047859375,-1.87408984375,-9.5379765625,-6.62005078125,-4.5320390625,-11.88355859375,-14.90489453125,-11.28397265625
-2.07739453125,-3.825609375,0.527640625,-4.875875,2.96383984375,-5.1200703125,-0.74358203125,7.9492265625,2.16839453125,-8.0382734375,-3.33997265625,-3.6741875,-2.4009453125,-2.7452109375,-7.42321875,-3.18426953125,-3.21955078125,-12.078171875,-9.60033984375,-6.42039453125,-6.10666015625,-17.06865625,-13.453859375,-1.43008984375,-8.3939765625,-6.49205078125,-4.5050390625,-12.53755859375,-14.67989453125,-11.78297265625
-0.73839453125,-2.888609375,1.769640625,-6.729875,4.21583984375,-4.0660703125,0.15341796875,8.0532265625,3.80439453125,-6.0302734375,-1.82997265625,-2.8451875,-0.995945312499998,-0.7342109375,-3.71021875,-0.75526953125,-3.72655078125,-12.251171875,-7.55433984375,-4.38739453125,-4.72566015625,-17.17765625,-12.752859375,0.0549101562500001,-6.6139765625,-5.93905078125,-3.8580390625,-12.22255859375,-13.50089453125,-11.65297265625
0.71260546875,-1.954609375,2.899640625,-8.020875,4.83683984375,-3.2240703125,1.30841796875,7.2922265625,4.59839453125,-4.3232734375,-0.0629726562499995,-1.4001875,-0.0249453124999981,1.3307890625,0.53078125,1.73773046875,-3.16955078125,-11.832171875,-5.14733984375,-2.24539453125,-4.40166015625,-16.70665625,-11.171859375,1.85891015625,-4.9709765625,-5.54305078125,-2.9920390625,-11.07455859375,-11.72389453125,-11.01597265625
1.75360546875,-1.406609375,3.567640625,-8.128875,4.45983984375,-2.9880703125,2.26141796875,5.9712265625,4.07439453125,-3.6642734375,1.08902734375,0.353812500000001,0.172054687500001,2.7647890625,3.80178125,3.33673046875,-2.01355078125,-10.862171875,-3.28633984375,-0.989394531249999,-5.48366015625,-15.92465625,-9.266859375,3.08191015625,-4.2209765625,-5.87505078125,-2.3910390625,-9.44155859375,-9.82789453125,-10.17597265625
1.89860546875,-1.545609375,3.525640625,-6.871875,2.93283984375,-3.6110703125,2.55141796875,4.5962265625,2.10239453125,-4.5072734375,0.94202734375,1.9648125,-0.551945312499999,2.9667890625,4.81778125,3.35573046875,-1.01555078125,-9.642171875,-2.76433984375,-1.38739453125,-7.72666015625,-15.11565625,-7.861859375,2.90591015625,-4.8589765625,-7.26905078125,-2.5460390625,-7.91555859375,-8.41889453125,-9.64597265625
0.83460546875,-2.481609375,2.690640625,-4.811875,0.379839843749999,-5.1030703125,1.95441796875,3.6532265625,-0.992605468750001,-6.8622734375,-0.71297265625,2.9528125,-2.0899453125,1.6157890625,2.99278125,1.66273046875,-0.80355078125,-8.661171875,-4.00933984375,-3.67539453125,-10.43666015625,-14.52165625,-7.748859375,0.91091015625,-6.9379765625,-9.65605078125,-3.7670390625,-7.14355859375,-8.02489453125,-9.93797265625
-1.40139453125,-4.066609375,1.199640625,-3.088875,-2.78616015625,-7.2070703125,0.62041796875,3.3962265625,-4.49760546875,-10.2692734375,-3.50697265625,2.9418125,-4.0929453125,-1.1472109375,-1.30121875,-1.23726953125,-1.54255078125,-8.347171875,-6.91033984375,-7.41139453125,-12.73266015625,-14.21265625,-9.292859375,-2.70908984375,-10.0149765625,-12.55205078125,-5.9740390625,-7.47255859375,-8.79089453125,-11.21797265625
-4.37639453125,-5.925609375,-0.622359375,-2.876875,-5.96616015625,-9.4640703125,-0.97958203125,3.7002265625,-7.54060546875,-13.9372734375,-6.65997265625,1.7878125,-6.0849453125,-4.6942109375,-6.85721875,-4.40026953125,-2.88955078125,-8.824171875,-10.81533984375,-11.59039453125,-13.86066015625,-14.03265625,-12.179859375,-7.16308984375,-13.2889765625,-15.22505078125,-8.6270390625,-8.69955859375,-10.30289453125,-13.12797265625
-7.44539453125,-7.601609375,-2.377359375,-4.807875,-8.55416015625,-11.3700703125,-2.29458203125,4.1042265625,-9.43360546875,-17.0022734375,-9.33197265625,-0.3231875,-7.6449453125,-8.1292109375,-12.10721875,-6.84526953125,-4.24955078125,-9.866171875,-14.75533984375,-15.04239453125,-13.49266015625,-13.71665625,-15.540859375,-11.36108984375,-15.8979765625,-16.97705078125,-10.9340390625,-10.16555859375,-11.75289453125,-14.91497265625
-10.00439453125,-8.730609375,-3.742359375,-8.640875,-10.12916015625,-12.5440703125,-2.95658203125,4.0512265625,-9.93460546875,-18.8192734375,-10.95497265625,-2.8511875,-8.5879453125,-10.6332109375,-15.70721875,-7.95526953125,-5.10955078125,-11.040171875,-17.81333984375,-16.90239453125,-11.86066015625,-13.11765625,-18.369859375,-14.34708984375,-17.2289765625,-17.38405078125,-12.2390390625,-11.18455859375,-12.36289453125,-15.81397265625
-11.63839453125,-9.160609375,-4.546359375,-13.314875,-10.59216015625,-12.8270703125,-2.90358203125,3.1912265625,-9.33660546875,-19.1672734375,-11.38997265625,-5.0251875,-9.0209453125,-11.7812109375,-16.97421875,-7.66026953125,-5.22655078125,-11.920171875,-19.42233984375,-16.91039453125,-9.63266015625,-12.34165625,-19.964859375,-15.62308984375,-17.0889765625,-16.38705078125,-12.3350390625,-11.44155859375,-11.78289453125,-15.38797265625
-12.18639453125,-8.960609375,-4.776359375,-17.333875,-10.17316015625,-12.3090703125,-2.33758203125,1.5792265625,-8.33860546875,-18.2892734375,-10.86297265625,-6.1311875,-9.2679453125,-11.6512109375,-16.03121875,-6.33826953125,-4.60655078125,-12.242171875,-19.49633984375,-15.40739453125,-7.57366015625,-11.69465625,-20.160859375,-15.22108984375,-15.6649765625,-14.24305078125,-11.4940390625,-11.09655859375,-10.23089453125,-13.67797265625
-11.77639453125,-8.333609375,-4.551359375,-19.370875,-9.34116015625,-11.2760703125,-1.57358203125,-0.3457734375,-7.73960546875,-16.7622734375,-9.76997265625,-5.8281875,-9.6699453125,-10.7312109375,-13.63221875,-4.56026953125,-3.41155078125,-11.949171875,-18.35133984375,-13.09139453125,-6.19466015625,-11.47865625,-19.283859375,-13.56708984375,-13.3769765625,-11.41405078125,-10.2740390625,-10.58055859375,-8.34589453125,-11.16597265625
-10.79439453125,-7.538609375,-4.092359375,-18.860875,-8.61116015625,-10.0960703125,-0.90058203125,-1.9707734375,-8.07660546875,-15.2512734375,-8.50697265625,-4.3501875,-10.4069453125,-9.6652109375,-10.80621875,-2.85326953125,-1.90955078125,-11.180171875,-16.54533984375,-10.70839453125,-5.60266015625,-11.82065625,-17.956859375,-11.28108984375,-10.7449765625,-8.47705078125,-9.2450390625,-10.33355859375,-6.92689453125,-8.62797265625
-9.75839453125,-6.827609375,-3.684359375,-16.291875,-8.32816015625,-9.1080703125,-0.521582031249999,-2.7927734375,-9.37760546875,-14.2552734375,-7.38397265625,-2.4431875,-11.4269453125,-8.9962109375,-8.46721875,-1.59426953125,-0.48755078125,-10.235171875,-14.70233984375,-8.83939453125,-5.59866015625,-12.65165625,-16.861859375,-9.01808984375,-8.2989765625,-6.02905078125,-8.8060390625,-10.66155859375,-6.64589453125,-6.91697265625
-9.16039453125,-6.402609375,-3.620359375,-12.974875,-8.52416015625,-8.5230703125,-0.54758203125,-2.6797734375,-11.16660546875,-13.9382734375,-6.62797265625,-1.0481875,-12.5289453125,-8.9962109375,-7.13921875,-1.00926953125,0.40144921875,-9.504171875,-13.35033984375,-7.81239453125,-5.90266015625,-13.80165625,-16.545859375,-7.34608984375,-6.5009765625,-4.55005078125,-9.1030390625,-11.70655859375,-7.80589453125,-6.66097265625
-9.32539453125,-6.365609375,-4.109359375,-10.372875,-8.92116015625,-8.4040703125,-1.00758203125,-1.9267734375,-12.73860546875,-14.1152734375,-6.38597265625,-0.875187499999999,-13.5199453125,-9.6282109375,-6.86321875,-1.18626953125,0.38944921875,-9.356171875,-12.78133984375,-7.70539453125,-6.32966015625,-15.10265625,-17.266859375,-6.63208984375,-5.6219765625,-4.22405078125,-10.0210390625,-13.44355859375,-10.19589453125,-7.99797265625
-10.29739453125,-6.677609375,-5.169359375,-9.367875,-9.09916015625,-8.6830703125,-1.84758203125,-1.0517734375,-13.51360546875,-14.3842734375,-6.69097265625,-2.0591875,-14.3269453125,-10.6002109375,-7.28221875,-2.05226953125,-0.63255078125,-9.985171875,-12.96933984375,-8.36639453125,-6.80566015625,-16.44965625,-18.924859375,-6.94708984375,-5.6479765625,-4.82305078125,-11.2400390625,-15.68055859375,-13.14489453125,-10.48397265625
-11.78139453125,-7.179609375,-6.574359375,-9.908875,-8.73316015625,-9.2230703125,-2.94158203125,-0.4797734375,-13.28860546875,-14.3592734375,-7.43497265625,-4.1231875,-15.0029453125,-11.5042109375,-7.84221875,-3.37126953125,-2.43255078125,-11.304171875,-13.62133984375,-9.47639453125,-7.28366015625,-17.77665625,-21.115859375,-8.05808984375,-6.2909765625,-5.78405078125,-12.3510390625,-18.10555859375,-15.79089453125,-13.29097265625
-13.25639453125,-7.686609375,-7.942359375,-11.263875,-7.78516015625,-9.8930703125,-4.12358203125,-0.3937734375,-12.29360546875,-13.8982734375,-8.41197265625,-6.2541875,-15.6549453125,-11.9962109375,-8.06121875,-4.81426953125,-4.52055078125,-12.967171875,-14.35833984375,-10.67739453125,-7.71166015625,-19.03565625,-23.295859375,-9.55008984375,-7.1519765625,-6.47405078125,-13.0050390625,-20.38355859375,-17.47789453125,-15.60297265625
-14.26939453125,-8.106609375,-8.937359375,-12.655875,-6.54816015625,-10.6370703125,-5.25458203125,-0.8467734375,-11.05760546875,-13.1912734375,-9.43497265625,-7.7541875,-16.3499453125,-11.9702109375,-7.77521875,-6.10026953125,-6.33255078125,-14.534171875,-14.92533984375,-11.74439453125,-8.10666015625,-20.19265625,-24.981859375,-11.01008984375,-7.9649765625,-6.52405078125,-13.0440390625,-22.26655859375,-18.03889453125,-17.00697265625
-14.71539453125,-8.509609375,-9.477359375,-13.814875,-5.50716015625,-11.5020703125,-6.28058203125,-1.9667734375,-10.18760546875,-12.6482734375,-10.45697265625,-8.3941875,-17.0849453125,-11.6192109375,-7.23421875,-7.14126953125,-7.45655078125,-15.682171875,-15.32033984375,-12.69239453125,-8.64266015625,-21.24465625,-25.916859375,-12.18408984375,-8.7389765625,-6.01705078125,-12.5430390625,-23.63855859375,-17.80989453125,-17.65197265625
-14.84939453125,-9.081609375,-9.764359375,-15.043875,-5.09116015625,-12.5800703125,-7.25858203125,-3.9447734375,-10.12460546875,-12.6592734375,-11.58497265625,-8.4891875,-17.8199453125,-11.3212109375,-6.94521875,-8.06926953125,-7.76655078125,-16.316171875,-15.74633984375,-13.72639453125,-9.58666015625,-22.19165625,-26.102859375,-13.01608984375,-9.7019765625,-5.39905078125,-11.7360390625,-24.46355859375,-17.34289453125,-18.05897265625
-15.05139453125,-9.975609375,-10.118359375,-16.782875,-5.46516015625,-13.8780703125,-8.28358203125,-6.7677734375,-10.96260546875,-13.3542734375,-12.94997265625,-8.6391875,-18.5199453125,-11.3892109375,-7.33821875,-9.09426953125,-7.44755078125,-16.516171875,-16.41333984375,-15.04139453125,-11.07266015625,-22.96365625,-25.714859375,-13.56008984375,-11.0489765625,-5.16705078125,-10.8660390625,-24.70655859375,-17.03789453125,-18.69497265625
-15.56139453125,-11.145609375,-10.724359375,-19.037875,-6.44816015625,-15.2290703125,-9.36058203125,-9.9107734375,-12.40260546875,-14.5082734375,-14.53397265625,-9.2931875,-19.1469453125,-11.8692109375,-8.46721875,-10.29426953125,-6.87255078125,-16.382171875,-17.33033984375,-16.60139453125,-12.90566015625,-23.36465625,-24.966859375,-13.84108984375,-12.6999765625,-5.55805078125,-10.0560390625,-24.29255859375,-16.92789453125,-19.60397265625
-16.38139453125,-12.263609375,-11.452359375,-21.114875,-7.61616015625,-16.2840703125,-10.28358203125,-12.2817734375,-13.83760546875,-15.6262734375,-16.06397265625,-10.4221875,-19.6069453125,-12.4972109375,-9.92621875,-11.47826953125,-6.42355078125,-15.902171875,-18.21433984375,-18.05339453125,-14.55166015625,-23.11565625,-24.010859375,-13.76208984375,-14.2279765625,-6.42305078125,-9.2760390625,-23.14755859375,-16.74089453125,-20.33297265625
-17.31839453125,-12.829609375,-11.898359375,-21.870875,-8.48816015625,-16.6300703125,-10.66458203125,-12.5717734375,-14.56460546875,-16.1492734375,-17.08697265625,-11.5141875,-19.7199453125,-12.8362109375,-11.02721875,-12.23726953125,-6.32255078125,-14.953171875,-18.59833984375,-18.85039453125,-15.37766015625,-21.97365625,-22.904859375,-13.13708984375,-15.0329765625,-7.33705078125,-8.4010390625,-21.25955859375,-16.13289453125,-20.17897265625
-18.10439453125,-12.419609375,-11.618359375,-20.347875,-8.73516015625,-15.9810703125,-10.12658203125,-9.8577734375,-14.07560546875,-15.7022734375,-17.19597265625,-11.9311875,-19.3009453125,-12.5052109375,-11.14921875,-12.18626953125,-6.58255078125,-13.395171875,-18.08733984375,-18.52739453125,-14.95866015625,-19.85765625,-21.643859375,-11.81408984375,-14.6569765625,-7.86505078125,-7.3040390625,-18.70655859375,-14.89189453125,-18.58497265625
-18.55539453125,-10.951609375,-10.440359375,-16.378875,-8.30216015625,-14.3430703125,-8.58058203125,-4.1637734375,-12.30560546875,-14.2672734375,-16.29197265625,-11.3601875,-18.3049453125,-11.3952109375,-10.08721875,-11.22126953125,-7.07555078125,-11.221171875,-16.60333984375,-16.99439453125,-13.30066015625,-16.91065625,-20.212859375,-9.81108984375,-13.0519765625,-7.80905078125,-5.9380390625,-15.64355859375,-13.02889453125,-15.47197265625
-18.70839453125,-8.789609375,-8.624359375,-10.806875,-7.43116015625,-12.0810703125,-6.36358203125,3.3832265625,-9.71960546875,-12.2042734375,-14.71697265625,-10.0461875,-16.9309453125,-9.7502109375,-8.20421875,-9.64326953125,-7.64855078125,-8.642171875,-14.47233984375,-14.66339453125,-10.86966015625,-13.48265625,-18.645859375,-7.37008984375,-10.6559765625,-7.30505078125,-4.3740390625,-12.28655859375,-10.75489453125,-11.35397265625
-18.70839453125,-8.789609375,-8.624359375,-10.806875,-7.43116015625,-12.0810703125,-6.36358203125,3.3832265625,-9.71960546875,-12.2042734375,-14.71697265625,-10.0461875,-16.9309453125,-9.7502109375,-8.20421875,-9.64326953125,-7.64855078125,-8.642171875,-14.47233984375,-14.66339453125,-10.86966015625,-13.48265625,-18.645859375,-7.37008984375,-10.6559765625,-7.30505078125,-4.3740390625,-12.28655859375,-10.75489453125,-11.35397265625
