"Fp1","Fpz","Fp2","F7","F3","Fz","F4","F8","FC5","FC1","FC2","FC6","T7","C3","Cz","C4","T8","CP5","CP1","CP2","CP6","P7","P3","Pz","P4","P8","POz","O1","Oz","O2"
-5.85474609375,2.637,-3.18926953125,-3.1940390625,4.82675,6.88008203125,1.3011484375,-1.23241015625,2.389828125,4.946921875,4.1126796875,5.170359375,-4.06275,4.203828125,7.568703125,1.406296875,8.6326875,7.199515625,4.49279296875,7.2551484375,1.29128515625,4.62903515625,6.73350390625,6.10885546875,11.15977734375,-3.0442109375,1.6156484375,2.75508984375,5.17268359375,6.7697265625
-5.76074609375,0.346,0.60573046875,-2.0300390625,3.66375,7.06908203125,1.0751484375,-2.49341015625,1.206828125,3.638921875,3.9366796875,4.422359375,-5.37975,4.011828125,6.489703125,0.998296875,7.9206875,6.751515625,4.80579296875,7.1121484375,0.68528515625,3.98503515625,7.16850390625,5.73485546875,11.02677734375,-4.5482109375,2.1366484375,3.34208984375,6.80568359375,7.1107265625
-5.68174609375,-1.192,2.40873046875,-1.2470390625,2.95575,6.64908203125,0.6131484375,-3.58741015625,0.668828125,2.622921875,2.9526796875,3.550359375,-6.02375,3.887828125,5.380703125,0.380296875,6.4176875,6.624515625,5.10279296875,6.8641484375,0.18828515625,3.34703515625,7.52150390625,5.50185546875,10.48277734375,-6.0082109375,2.8166484375,3.37908984375,7.51968359375,6.2787265625
-5.48874609375,-1.854,2.21473046875,-0.6560390625,2.79075,5.74408203125,0.1931484375,-4.40541015625,0.770828125,1.962921875,1.3126796875,2.557359375,-5.96575,3.859828125,4.357703125,-0.406703125,4.3306875,6.842515625,5.41579296875,6.5331484375,-0.11371484375,2.86003515625,7.84950390625,5.49485546875,9.76277734375,-7.1592109375,3.8296484375,3.16208984375,7.66668359375,4.7677265625
-5.13874609375,-1.697,0.64573046875,0.0569609375,3.11075,4.68908203125,0.2001484375,-4.88241015625,1.258828125,1.649921875,-0.4843203125,1.536359375,-5.40575,3.932828125,3.591703125,-1.233703125,2.2036875,7.317515625,5.78879296875,6.2021484375,-0.14671484375,2.68403515625,8.23950390625,5.79285546875,9.26377734375,-7.6952109375,5.3026484375,3.16808984375,7.88368359375,3.4667265625
-4.75874609375,-0.895,-1.38826953125,1.1239609375,3.72775,3.84108203125,0.9091484375,-5.03241015625,1.752828125,1.629921875,-1.8013203125,0.667359375,-4.67075,4.095828125,3.239703125,-1.928703125,0.6656875,7.905515625,6.27779296875,6.0061484375,0.12628515625,2.91703515625,8.77650390625,6.47185546875,9.33077734375,-7.4042109375,7.2446484375,3.77208984375,8.70668359375,3.1477265625
-4.53374609375,0.306,-3.04526953125,2.5109609375,4.39675,3.43208203125,2.3491484375,-4.90841015625,1.945828125,1.832921875,-2.1383203125,0.157359375,-4.09675,4.347828125,3.376703125,-2.332703125,0.1676875,8.493515625,6.94479296875,6.1021484375,0.69828515625,3.54003515625,9.51650390625,7.57385546875,10.08277734375,-6.2642109375,9.5376484375,5.03808984375,10.32168359375,4.0967265625
-4.52274609375,1.589,-3.80326953125,3.8699609375,4.90775,3.49308203125,4.2721484375,-4.53841015625,1.751828125,2.194921875,-1.3593203125,0.149359375,-3.93475,4.710828125,3.956703125,-2.370703125,0.8196875,9.048515625,7.81979296875,6.5841484375,1.51128515625,4.38603515625,10.45050390625,9.05885546875,11.35777734375,-4.4832109375,11.9526484375,6.66008984375,12.50368359375,6.0117265625
-4.62274609375,2.581,-3.57526953125,4.6459609375,5.13975,3.84908203125,6.1621484375,-3.92441015625,1.306828125,2.639921875,0.2166796875,0.630359375,-4.31675,5.184828125,4.799703125,-2.104703125,2.3786875,9.567515625,8.82679296875,7.3941484375,2.43528515625,5.14503515625,11.46250390625,10.72685546875,12.73877734375,-2.5022109375,14.1406484375,8.04008984375,14.68868359375,8.1217265625
-4.74874609375,2.928,-2.67126953125,4.3169609375,5.06775,4.17208203125,7.3371484375,-3.13041015625,0.808828125,3.062921875,1.9216796875,1.402359375,-5.28475,5.696828125,5.627703125,-1.731703125,4.3546875,9.982515625,9.72779296875,8.2731484375,3.25828515625,5.44603515625,12.30150390625,12.20385546875,13.66777734375,-0.9392109375,15.6426484375,8.49108984375,16.13068359375,9.4437265625
-4.97374609375,2.429,-1.62026953125,2.6749609375,4.72675,4.11008203125,7.2031484375,-2.33641015625,0.358828125,3.323921875,3.0136796875,2.151359375,-6.82475,6.073828125,6.143703125,-1.500703125,6.2126875,10.125515625,10.17579296875,8.8431484375,3.72928515625,5.00903515625,12.64750390625,13.03385546875,13.63577734375,-0.408210937499999,15.9936484375,7.53908984375,16.17368359375,9.1517265625
-5.48174609375,1.16,-0.90726953125,0.00396093749999959,4.18275,3.46108203125,5.6081484375,-1.77541015625,-0.0921718749999999,3.290921875,2.9986796875,2.584359375,-8.85475,6.105828125,6.143703125,-1.585703125,7.5656875,9.793515625,9.86979296875,8.8001484375,3.67728515625,3.81903515625,12.24250390625,12.86985546875,12.40977734375,-1.2442109375,14.9346484375,5.18808984375,14.55768359375,6.9707265625
-6.37474609375,-0.511,-0.76426953125,-2.9660390625,3.52775,2.28208203125,3.0251484375,-1.58041015625,-0.661171875,2.895921875,1.8396796875,2.574359375,-11.19275,5.646828125,5.598703125,-1.986703125,8.3016875,8.890515625,8.73179296875,8.0951484375,3.12928515625,2.18003515625,11.03250390625,11.65385546875,10.17977734375,-3.2612109375,12.6036484375,1.97608984375,11.58668359375,3.3627265625
-7.57174609375,-2.044,-1.10926953125,-5.3500390625,2.87775,0.87008203125,0.3811484375,-1.67141015625,-1.422171875,2.184921875,-0.0553203124999999,2.219359375,-13.51175,4.693828125,4.663703125,-2.525703125,8.5476875,7.504515625,6.96579296875,6.9781484375,2.33528515625,0.58603515625,9.19750390625,9.66685546875,7.50977734375,-5.7502109375,9.5346484375,-1.25791015625,8.00968359375,-0.6442734375
-8.83374609375,-2.95,-1.62726953125,-6.4840390625,2.35475,-0.38391796875,-1.3498515625,-1.76341015625,-2.347171875,1.298921875,-2.0293203125,1.787359375,-15.38575,3.390828125,3.597703125,-2.947703125,8.5456875,5.880515625,4.95879296875,5.8711484375,1.67628515625,-0.52196484375,7.06150390625,7.40385546875,5.10877734375,-7.7642109375,6.4376484375,-3.75891015625,4.68368359375,-3.9192734375
-9.88174609375,-2.99,-1.92726953125,-6.2030390625,2.03975,-1.16491796875,-1.5628515625,-1.53041015625,-3.324171875,0.413921875,-3.4673203125,1.571359375,-16.39875,1.965828125,2.651703125,-3.062703125,8.4916875,4.298515625,3.11079296875,5.1331484375,1.49428515625,-0.95596484375,4.95150390625,5.34685546875,3.53377734375,-8.5372109375,3.8846484375,-5.14991015625,2.23568359375,-5.7082734375
-10.52874609375,-2.258,-1.71226953125,-4.9020390625,1.91775,-1.36791796875,-0.229851562499999,-0.84441015625,-4.213171875,-0.334078125,-4.0253203125,1.736359375,-16.29575,0.655828125,1.969703125,-2.844703125,8.4436875,2.975515625,1.67479296875,4.8831484375,1.93528515625,-0.80696484375,3.10550390625,3.77785546875,2.97477734375,-7.8382109375,2.1046484375,-5.47091015625,0.90568359375,-5.8832734375
-10.76674609375,-1.101,-0.91626953125,-3.3590390625,1.88475,-1.10991796875,2.1371484375,0.0655898437500002,-4.884171875,-0.861078125,-3.7213203125,2.222359375,-15.06075,-0.337171875000001,1.575703125,-2.429703125,8.3076875,2.034515625,0.715792968750001,4.9801484375,2.88028515625,-0.31596484375,1.66650390625,2.72885546875,3.21477734375,-6.0702109375,0.9916484375,-5.03391015625,0.56468359375,-4.9012734375
-10.72574609375,0.081,0.26573046875,-2.3820390625,1.82975,-0.606917968749999,4.7641484375,0.71958984375,-5.215171875,-1.087078125,-2.8303203125,2.778359375,-12.86475,-0.839171875,1.430703125,-2.011703125,7.9246875,1.565515625,0.176792968750001,5.1741484375,3.99428515625,0.31003515625,0.73050390625,2.07585546875,3.77777734375,-4.0842109375,0.2676484375,-4.20691015625,0.83868359375,-3.5572734375
-10.50374609375,1.025,1.48673046875,-2.4310390625,1.77075,0.0250820312500002,6.9841484375,0.73158984375,-5.051171875,-0.877078125,-1.6823203125,3.116359375,-9.94975,-0.689171875,1.537703125,-1.700703125,7.1996875,1.668515625,0.00979296875000113,5.3101484375,4.90528515625,1.00603515625,0.37750390625,1.70485546875,4.18677734375,-2.7762109375,-0.3153515625,-3.29091015625,1.26468359375,-2.6502734375
-10.02274609375,1.685,2.40973046875,-3.4160390625,1.90275,0.87308203125,8.4711484375,0.15058984375,-4.208171875,-0.0670781250000001,-0.4883203125,3.091359375,-6.53975,0.224828125,1.960703125,-1.452703125,6.2066875,2.422515625,0.228792968750001,5.4271484375,5.38728515625,1.80103515625,0.64250390625,1.59585546875,4.17577734375,-2.6712109375,-0.8563515625,-2.48691015625,1.45268359375,-2.6812734375
-9.07574609375,2.176,2.81473046875,-4.7980390625,2.50075,2.12708203125,9.2061484375,-0.53241015625,-2.553171875,1.428921875,0.6876796875,2.802359375,-2.86575,1.867828125,2.771703125,-1.119703125,5.2006875,3.774515625,0.860792968750001,5.6861484375,5.44728515625,2.68303515625,1.45050390625,1.79585546875,3.75377734375,-3.7222109375,-1.3093515625,-1.91991015625,1.20368359375,-3.7022734375
-7.54374609375,2.65,2.61173046875,-5.9080390625,3.72375,3.86908203125,9.2741484375,-0.71941015625,-0.152171875,3.482921875,1.8476796875,2.535359375,0.74425,3.971828125,3.936703125,-0.567703125,4.5166875,5.461515625,1.82679296875,6.2121484375,5.29428515625,3.49803515625,2.58150390625,2.32685546875,3.11077734375,-5.4002109375,-1.5493515625,-1.63991015625,0.568683593749999,-5.3332734375
-5.57474609375,3.181,1.84573046875,-6.2610390625,5.46275,5.91008203125,8.7491484375,-0.10241015625,2.636828125,5.728921875,2.9546796875,2.605359375,3.82625,6.065828125,5.265703125,0.227296875,4.4356875,7.037515625,2.88379296875,6.9921484375,5.23128515625,3.98603515625,3.73250390625,3.12685546875,2.49277734375,-6.9792109375,-1.4263515625,-1.59891015625,-0.16031640625,-6.9242734375
-3.58274609375,3.73,0.72673046875,-5.7260390625,7.33075,7.82508203125,7.7401484375,1.16558984375,5.213828125,7.653921875,3.9056796875,3.174359375,5.87125,7.642828125,6.460703125,1.178296875,5.0746875,8.034515625,3.70379296875,7.9051484375,5.54428515625,3.93203515625,4.63850390625,4.07485546875,2.11977734375,-7.8392109375,-0.7853515625,-1.62791015625,-0.52131640625,-7.7702734375
-2.10274609375,4.179,-0.40026953125,-4.5370390625,8.80875,9.13308203125,6.4641484375,2.61758984375,6.926828125,8.798921875,4.5616796875,4.145359375,6.50725,8.364828125,7.236703125,2.163296875,6.3366875,8.162515625,4.02579296875,8.8341484375,6.40928515625,3.29503515625,5.19050390625,5.06085546875,2.16377734375,-7.6692109375,0.4946484375,-1.49891015625,-0.0483164062500006,-7.3352734375
-1.58774609375,4.409,-1.17126953125,-3.1850390625,9.48075,9.52408203125,5.2101484375,3.75458984375,7.320828125,8.939921875,4.8106796875,5.197359375,5.66825,8.199828125,7.434703125,3.094296875,7.9266875,7.420515625,3.77779296875,9.7211484375,7.82128515625,2.22503515625,5.43050390625,6.01285546875,2.71877734375,-6.5312109375,2.4126484375,-1.06791015625,1.49568359375,-5.4342734375
-2.20474609375,4.357,-1.35926953125,-2.2250390625,9.21375,9.01508203125,4.2351484375,4.28658984375,6.341828125,8.181921875,4.6106796875,5.933359375,3.65025,7.401828125,7.088703125,3.936296875,9.4386875,6.078515625,3.09579296875,10.5451484375,9.57828515625,0.98903515625,5.46950390625,6.86485546875,3.73777734375,-4.7862109375,4.7586484375,-0.38391015625,3.96068359375,-2.3162734375
-3.70174609375,4.029,-0.94326953125,-2.0240390625,8.22275,7.96508203125,3.7031484375,4.21358984375,4.374828125,6.913921875,4.0266796875,6.079359375,1.01525,6.370828125,6.410703125,4.667296875,10.4896875,4.550515625,2.24179296875,11.2371484375,11.33028515625,-0.14296484375,5.37650390625,7.49685546875,4.98877734375,-2.9382109375,7.0966484375,0.31108984375,6.81968359375,1.4097265625
-5.47474609375,3.486,-0.0972695312499998,-2.6110390625,6.96675,6.90008203125,3.6801484375,3.72958984375,2.093828125,5.647921875,3.2046796875,5.626359375,-1.58775,5.467828125,5.691703125,5.219296875,10.8396875,3.226515625,1.46079296875,11.6301484375,12.67628515625,-0.97596484375,5.11550390625,7.70885546875,6.05677734375,-1.4792109375,8.8746484375,0.69708984375,9.34568359375,4.9417265625
-6.85574609375,2.818,0.88573046875,-3.7220390625,5.92975,6.25408203125,4.1181484375,3.07458984375,0.196828125,4.798921875,2.3146796875,4.823359375,-3.62475,4.864828125,5.151703125,5.456296875,10.4436875,2.340515625,0.863792968750001,11.4891484375,13.24728515625,-1.43096484375,4.57550390625,7.26685546875,6.43377734375,-0.817210937499999,9.5986484375,0.51608984375,10.85768359375,7.4697265625
-7.42774609375,2.134,1.66273046875,-4.9750390625,5.39875,6.15308203125,4.8441484375,2.43058984375,-0.854171875,4.514921875,1.4676796875,4.050359375,-4.79775,4.510828125,4.831703125,5.205296875,9.4216875,1.901515625,0.391792968750001,10.6121484375,12.78128515625,-1.56496484375,3.63550390625,5.99985546875,5.68977734375,-1.2572109375,8.9936484375,-0.33991015625,10.90768359375,8.3447265625
-7.15674609375,1.553,1.93473046875,-6.0180390625,5.34875,6.39208203125,5.6011484375,1.91858984375,-0.956171875,4.624921875,0.6746796875,3.624359375,-5.08375,4.207828125,4.575703125,4.353296875,7.9946875,1.719515625,-0.12020703125,8.9491484375,11.20528515625,-1.55796484375,2.25250390625,3.90485546875,3.67577734375,-2.9432109375,7.0946484375,-1.80391015625,9.40768359375,7.2157265625
-6.31974609375,1.189,1.52673046875,-6.5920390625,5.49275,6.58008203125,6.0981484375,1.61958984375,-0.319171875,4.751921875,-0.1333203125,3.650359375,-4.68075,3.768828125,4.146703125,2.934296875,6.4406875,1.521515625,-0.813207031249999,6.6841484375,8.71128515625,-1.64796484375,0.51650390625,1.22385546875,0.67077734375,-5.7582109375,4.2676484375,-3.66091015625,6.66368359375,4.1627265625
-5.34874609375,1.114,0.43973046875,-6.5700390625,5.44875,6.34008203125,6.0481484375,1.53758984375,0.668828125,4.514921875,-1.0523203125,3.974359375,-3.90275,3.130828125,3.384703125,1.172296875,5.0466875,1.101515625,-1.70020703125,4.2241484375,5.76528515625,-2.03696484375,-1.33049609375,-1.57114453125,-2.66022265625,-9.2522109375,1.1346484375,-5.58691015625,3.31068359375,-0.2602734375
-4.67874609375,1.302,-1.13426953125,-6.0070390625,4.94275,5.46808203125,5.2071484375,1.54358984375,1.607828125,3.739921875,-2.1253203125,4.247359375,-3.07375,2.395828125,2.297703125,-0.592703125,4.0406875,0.418515625,-2.65120703125,2.0641484375,2.99428515625,-2.80096484375,-2.96749609375,-3.89914453125,-5.51722265625,-12.7372109375,-1.5903515625,-7.23591015625,0.13568359375,-5.1352734375
-4.59174609375,1.613,-2.83126953125,-5.1420390625,3.95775,4.01508203125,3.5001484375,1.40458984375,2.209828125,2.537921875,-3.2943203125,4.071359375,-2.43275,1.766828125,1.057703125,-2.034703125,3.5136875,-0.393484375000001,-3.46420703125,0.6131484375,0.97228515625,-3.85396484375,-4.10549609375,-5.28714453125,-7.30322265625,-15.5132109375,-3.3393515625,-8.34591015625,-2.19731640625,-9.4422734375
-5.09574609375,1.835,-4.20726953125,-4.3100390625,2.73975,2.27408203125,1.1671484375,0.92858984375,2.367828125,1.260921875,-4.3683203125,3.193359375,-2.07475,1.458828125,-0.0832968750000003,-2.962703125,3.3936875,-1.102484375,-3.96620703125,0.0461484375000003,0.0352851562499996,-4.95596484375,-4.60649609375,-5.55114453125,-7.85322265625,-17.1112109375,-3.8943515625,-8.82591015625,-3.38631640625,-12.3812734375
-5.93774609375,1.797,-4.89726953125,-3.8160390625,1.69275,0.68908203125,-1.2388515625,0.10458984375,2.160828125,0.346921875,-5.0623203125,1.662359375,-1.93275,1.624828125,-0.878296875,-3.339703125,3.5126875,-1.470484375,-4.07720703125,0.3011484375,0.20628515625,-5.78196484375,-4.48949609375,-4.85514453125,-7.39822265625,-17.3752109375,-3.4443515625,-8.75891015625,-3.56831640625,-13.5832734375
-6.76374609375,1.464,-4.77826953125,-3.8480390625,1.19775,-0.31391796875,-3.0738515625,-0.87941015625,1.786828125,0.145921875,-5.1043203125,-0.144640625,-1.81675,2.315828125,-1.137296875,-3.208703125,3.7186875,-1.319484375,-3.80920703125,1.1821484375,1.27028515625,-6.01196484375,-3.87049609375,-3.60214453125,-6.32622265625,-16.3872109375,-2.4503515625,-8.30991015625,-3.17531640625,-13.1082734375
-7.27274609375,0.957,-4.01626953125,-4.4510390625,1.43775,-0.48591796875,-3.8818515625,-1.74441015625,1.471828125,0.780921875,-4.3733203125,-1.661640625,-1.51875,3.478828125,-0.770296875,-2.608703125,3.9676875,-0.578484375,-3.22220703125,2.4991484375,2.92428515625,-5.43896484375,-2.87349609375,-2.23114453125,-4.91322265625,-14.3462109375,-1.4093515625,-7.61291015625,-2.64531640625,-11.3172734375
-7.29674609375,0.489,-2.97226953125,-5.5150390625,2.32575,0.16108203125,-3.5608515625,-2.26341015625,1.368828125,2.096921875,-2.9873203125,-2.382640625,-0.94375,4.941828125,0.179703125000001,-1.551703125,4.3266875,0.679515625,-2.39820703125,4.1211484375,4.89628515625,-4.06496484375,-1.60649609375,-1.05114453125,-3.20422265625,-11.5282109375,-0.6483515625,-6.72091015625,-2.20331640625,-8.7102734375
-6.81574609375,0.268,-2.04226953125,-6.7960390625,3.54175,1.36008203125,-2.3388515625,-2.35141015625,1.511828125,3.712921875,-1.2873203125,-2.070640625,-0.21175,6.437828125,1.518703125,-0.0757031250000002,4.9126875,2.221515625,-1.44620703125,5.9331484375,6.96428515625,-2.13796484375,-0.19449609375,-0.17814453125,-1.11222265625,-8.3232109375,-0.2563515625,-5.65291015625,-1.81731640625,-5.8242734375
-5.95274609375,0.412,-1.51926953125,-7.9530390625,4.66075,2.69108203125,-0.6418515625,-2.07041015625,1.798828125,5.159921875,0.2866796875,-0.804640625,0.35425,7.654828125,2.927703125,1.682296875,5.7846875,3.701515625,-0.518207031249999,7.7721484375,8.90728515625,-0.09996484375,1.18850390625,0.43585546875,1.38677734375,-5.2422109375,-0.1283515625,-4.44991015625,-1.31731640625,-3.1452734375
-4.94674609375,0.901,-1.48726953125,-8.6360390625,5.32275,3.74008203125,1.0771484375,-1.54041015625,2.036828125,6.043921875,1.3836796875,1.113359375,0.34125,8.343828125,4.058703125,3.452296875,6.8846875,4.776515625,0.21479296875,9.4251484375,10.48628515625,1.59303515625,2.37350390625,0.94385546875,4.12877734375,-2.8012109375,-0.0203515625000001,-3.16591015625,-0.51731640625,-0.9842734375
-4.06774609375,1.569,-1.78026953125,-8.6280390625,5.34975,4.25508203125,2.4831484375,-0.84441015625,2.024828125,6.169921875,1.8976796875,3.294359375,-0.56875,8.436828125,4.661703125,4.905296875,8.0336875,5.258515625,0.65679296875,10.7051484375,11.48628515625,2.69303515625,3.29350390625,1.54485546875,6.80777734375,-1.3242109375,0.4166484375,-1.77291015625,0.73068359375,0.6387265625
-3.53874609375,2.148,-2.06226953125,-7.9780390625,4.77975,4.20808203125,3.4001484375,-0.00741015624999997,1.629828125,5.595921875,2.0026796875,5.343359375,-2.44875,8.076828125,4.680703125,5.769296875,8.9876875,5.191515625,0.860792968750001,11.5601484375,11.80628515625,3.26703515625,4.06250390625,2.44585546875,9.11977734375,-0.803210937499999,1.5686484375,-0.12391015625,2.51768359375,1.9877265625
-3.49374609375,2.377,-2.04026953125,-7.0260390625,3.82175,3.75608203125,3.7371484375,0.95258984375,0.838828125,4.595921875,2.0236796875,6.880359375,-5.07075,7.544828125,4.270703125,5.940296875,9.5026875,4.796515625,1.02279296875,12.0921484375,11.50128515625,3.59403515625,4.90650390625,3.79085546875,10.89277734375,-0.927210937499999,3.7096484375,1.91508984375,4.80768359375,3.4177265625
-3.93174609375,2.123,-1.65426953125,-6.2420390625,2.76275,3.14508203125,3.4471484375,1.96758984375,-0.243171875,3.566921875,2.2416796875,7.594359375,-7.95075,7.100828125,3.711703125,5.517296875,9.4146875,4.302515625,1.36779296875,12.4841484375,10.76028515625,3.90903515625,5.97950390625,5.57085546875,12.12377734375,-1.2772109375,6.7966484375,4.23508984375,7.31568359375,5.0747265625
-4.65974609375,1.458,-1.11426953125,-5.9740390625,1.88175,2.64408203125,2.5801484375,2.94658984375,-1.427171875,2.875921875,2.7456796875,7.329359375,-10.50775,6.842828125,3.280703125,4.748296875,8.7036875,3.782515625,1.99779296875,12.8701484375,9.82028515625,4.17603515625,7.16750390625,7.55285546875,12.90177734375,-1.5562109375,10.3566484375,6.35608984375,9.47968359375,6.6967265625
-5.32674609375,0.626,-0.73926953125,-6.3080390625,1.34875,2.46608203125,1.3571484375,3.81258984375,-2.504171875,2.717921875,3.3976796875,6.176359375,-12.27075,6.658828125,3.116703125,3.901296875,7.5076875,3.096515625,2.77579296875,13.2281484375,8.86228515625,4.06503515625,8.05250390625,9.28585546875,13.29077734375,-1.7392109375,13.5696484375,7.53308984375,10.58668359375,7.6467265625
-5.60074609375,-0.08,-0.76226953125,-7.1490390625,1.15675,2.68808203125,0.1221484375,4.48358984375,-3.320171875,3.027921875,3.9186796875,4.484359375,-13.06975,6.285828125,3.155703125,3.139296875,6.0726875,1.987515625,3.34079296875,13.3611484375,7.94128515625,3.14903515625,8.07450390625,10.22685546875,13.22377734375,-2.0542109375,15.5436484375,7.08608984375,10.04268359375,7.2007265625
-5.37374609375,-0.448,-1.23126953125,-8.3710390625,1.10175,3.17908203125,-0.8298515625,4.80858984375,-3.823171875,3.496921875,4.0136796875,2.757359375,-13.07475,5.459828125,3.160703125,2.464296875,4.6636875,0.282515624999999,3.25379296875,12.9911484375,7.00028515625,1.21703515625,6.83450390625,9.95185546875,12.51477734375,-2.8092109375,15.6736484375,4.78408984375,7.67268359375,4.9457265625
-4.80574609375,-0.424,-2.02426953125,-9.8710390625,0.87575,3.63308203125,-1.3738515625,4.56558984375,-4.077171875,3.703921875,3.4926796875,1.471359375,-12.63975,4.077828125,2.841703125,1.752296875,3.4966875,-1.931484375,2.24779296875,11.9241484375,5.94328515625,-1.49296484375,4.36550390625,8.35585546875,10.98977734375,-4.1462109375,13.9056484375,1.05808984375,3.89668359375,1.0627265625
-4.18974609375,-0.11,-2.93226953125,-11.4920390625,0.204750000000001,3.67708203125,-1.5678515625,3.55558984375,-4.218171875,3.296921875,2.3336796875,0.879359375,-12.04975,2.278828125,2.003703125,0.849296875,2.6936875,-4.257484375,0.388792968750001,10.1681484375,4.73028515625,-4.28796484375,1.19450390625,5.72685546875,8.66077734375,-5.8812109375,10.7926484375,-3.07791015625,-0.34031640625,-3.6402734375
-3.78874609375,0.292,-3.73926953125,-12.9500390625,-1.00325,3.02408203125,-1.5758515625,1.75458984375,-4.400171875,2.148921875,0.6906796875,0.902359375,-11.35675,0.398828125,0.636703125,-0.342703125,2.2696875,-6.107484375,-1.92120703125,7.9581484375,3.42128515625,-6.28096484375,-1.83949609375,2.66385546875,5.81077734375,-7.5302109375,7.2736484375,-6.39991015625,-3.88731640625,-7.9982734375
-3.75174609375,0.549,-4.28926953125,-13.8870390625,-2.60925,1.57708203125,-1.6068515625,-0.58341015625,-4.739171875,0.398921875,-1.1693203125,1.175359375,-10.41175,-1.198171875,-1.085296875,-1.821703125,2.1476875,-6.948484375,-4.14320703125,5.6551484375,2.14128515625,-6.79396484375,-3.94749609375,-0.16214453125,2.91377734375,-8.5282109375,4.2976484375,-7.96091015625,-5.84631640625,-10.9262734375
-4.08174609375,0.459,-4.52426953125,-14.0470390625,-4.30125,-0.51891796875,-1.8498515625,-2.96641015625,-5.272171875,-1.627078125,-2.9603203125,1.211359375,-9.04875,-2.297171875,-2.902296875,-3.500703125,2.1686875,-6.546484375,-5.85820703125,3.5721484375,1.01528515625,-5.69896484375,-4.72449609375,-2.27314453125,0.41877734375,-8.5172109375,2.4576484375,-7.47691015625,-5.93631640625,-11.8562734375
-4.65074609375,-0.083,-4.50126953125,-13.4490390625,-5.72925,-2.91191796875,-2.4308515625,-4.86041015625,-5.949171875,-3.575078125,-4.4793203125,0.641359375,-7.27975,-2.941171875,-4.594296875,-5.243703125,2.1266875,-5.094484375,-6.93920703125,1.8391484375,0.10728515625,-3.50396484375,-4.31049609375,-3.56014453125,-1.44222265625,-7.5362109375,1.8026484375,-5.41991015625,-4.57531640625,-10.9462734375
-5.26874609375,-1.041,-4.38926953125,-12.4320390625,-6.64125,-5.15091796875,-3.4028515625,-5.93441015625,-6.664171875,-5.198078125,-5.6493203125,-0.594640625,-5.35275,-3.382171875,-6.050296875,-6.914703125,1.8216875,-3.166484375,-7.55320703125,0.3891484375,-0.59671484375,-1.13096484375,-3.29349609375,-4.25714453125,-2.69922265625,-5.9912109375,1.9146484375,-2.77891015625,-2.63331640625,-8.9532734375
-5.79774609375,-2.226,-4.41026953125,-11.5150390625,-6.96625,-6.84691796875,-4.7618515625,-6.20341015625,-7.306171875,-6.405078125,-6.4983203125,-2.206640625,-3.66575,-3.930171875,-7.256296875,-8.392703125,1.1446875,-1.490484375,-7.99520703125,-0.923851562499999,-1.14871484375,0.47503515625,-2.40749609375,-4.74914453125,-3.53922265625,-4.4372109375,2.1946484375,-0.62191015625,-0.99331640625,-6.8472734375
-6.20674609375,-3.352,-4.72726953125,-11.1550390625,-6.82125,-7.79091796875,-6.4148515625,-5.94341015625,-7.802171875,-7.222078125,-7.0713203125,-3.703640625,-2.59375,-4.772171875,-8.229296875,-9.583703125,0.1636875,-0.677484375000001,-8.48620703125,-2.1668515625,-1.57671484375,0.73103515625,-2.20949609375,-5.33614453125,-4.13522265625,-3.3162109375,2.1636484375,0.34208984375,-0.18631640625,-5.3952734375
-6.51874609375,-4.14,-5.31526953125,-11.5460390625,-6.45625,-7.98591796875,-8.1208515625,-5.48341015625,-8.123171875,-7.728078125,-7.3683203125,-4.637640625,-2.32775,-5.891171875,-8.963296875,-10.412703125,-0.8563125,-1.003484375,-9.03920703125,-3.2448515625,-1.84471484375,-0.39296484375,-2.87649609375,-6.08814453125,-4.54522265625,-2.7922109375,1.6566484375,-0.0159101562499999,-0.25231640625,-4.9022734375
-6.71474609375,-4.428,-5.93526953125,-12.5670390625,-6.16025,-7.58691796875,-9.4868515625,-5.02441015625,-8.293171875,-7.990078125,-7.3363203125,-4.786640625,-2.83575,-7.091171875,-9.408296875,-10.798703125,-1.5333125,-2.360484375,-9.47120703125,-3.9258515625,-1.84071484375,-2.42996484375,-4.18749609375,-6.85514453125,-4.71522265625,-2.7322109375,0.8426484375,-1.28991015625,-0.85931640625,-5.1962734375
-6.73374609375,-4.217,-6.24526953125,-13.8700390625,-6.15225,-6.82191796875,-10.1238515625,-4.62641015625,-8.393171875,-8.015078125,-6.9233203125,-4.167640625,-3.92175,-8.115171875,-9.482296875,-10.634703125,-1.5383125,-4.348484375,-9.53520703125,-3.9548515625,-1.42271484375,-4.69196484375,-5.68149609375,-7.36014453125,-4.54322265625,-2.8092109375,0.0816484375000002,-2.80891015625,-1.55131640625,-5.7822734375
-6.52974609375,-3.659,-5.96526953125,-15.0020390625,-6.48025,-5.90591796875,-9.8168515625,-4.29641015625,-8.548171875,-7.745078125,-6.1283203125,-2.928640625,-5.33875,-8.743171875,-9.097296875,-9.797703125,-0.7563125,-6.451484375,-9.06320703125,-3.1748515625,-0.48771484375,-6.59296484375,-6.86449609375,-7.34014453125,-3.94922265625,-2.6582109375,-0.2613515625,-3.96591015625,-1.97931640625,-6.0822734375
-6.12274609375,-2.956,-5.00426953125,-15.5220390625,-6.98825,-4.97191796875,-8.5898515625,-4.02541015625,-8.860171875,-7.090078125,-4.9983203125,-1.226640625,-6.86575,-8.843171875,-8.189296875,-8.213703125,0.6446875,-8.201484375,-8.04920703125,-1.6008515625,0.95428515625,-7.86296484375,-7.39649609375,-6.65714453125,-2.90022265625,-2.0422109375,0.0206484375000002,-4.45291015625,-2.01631640625,-5.6712734375
-5.58974609375,-2.255,-3.51426953125,-15.1350390625,-7.37225,-4.04591796875,-6.6308515625,-3.76541015625,-9.306171875,-5.984078125,-3.6033203125,0.796359375,-8.29875,-8.357171875,-6.742296875,-5.947703125,2.2956875,-9.258484375,-6.63720703125,0.5731484375,2.73828515625,-8.53996484375,-7.16149609375,-5.34714453125,-1.42822265625,-0.973210937499999,0.9156484375,-4.30291015625,-1.73631640625,-4.4692734375
-5.03874609375,-1.58,-1.85326953125,-13.8320390625,-7.32425,-3.10191796875,-4.2088515625,-3.41241015625,-9.687171875,-4.464078125,-2.0273203125,2.978359375,-9.42575,-7.304171875,-4.828296875,-3.252703125,3.7756875,-9.449484375,-5.06820703125,3.0211484375,4.56028515625,-8.79196484375,-6.23049609375,-3.59414453125,0.35577734375,0.261789062500001,2.2306484375,-3.77791015625,-1.32631640625,-2.7952734375
-4.58374609375,-0.864,-0.48026953125,-11.9250390625,-6.69225,-2.15291796875,-1.6328515625,-2.86341015625,-9.705171875,-2.716078125,-0.4043203125,5.078359375,-10.03175,-5.796171875,-2.649296875,-0.545703125,4.7586875,-8.773484375,-3.61420703125,5.3701484375,6.04528515625,-8.72596484375,-4.79749609375,-1.67614453125,2.25177734375,1.2077890625,3.6876484375,-3.18791015625,-0.99631640625,-1.2502734375
-4.27674609375,-0.0549999999999999,0.21573046875,-9.9300390625,-5.57225,-1.31191796875,0.7671484375,-2.11541015625,-9.135171875,-1.059078125,1.0256796875,6.773359375,-9.96275,-4.061171875,-0.544296875,1.693296875,5.0956875,-7.401484375,-2.52020703125,7.2651484375,6.86228515625,-8.31796484375,-3.11749609375,0.0888554687499994,3.98277734375,1.4347890625,5.0346484375,-2.74791015625,-0.89431640625,-0.4242734375
-4.08674609375,0.792,0.0677304687500002,-8.3580390625,-4.27625,-0.75691796875,2.6561484375,-1.31941015625,-7.970171875,0.151921875,1.9486796875,7.753359375,-9.20875,-2.407171875,1.075703125,3.067296875,4.8236875,-5.656484375,-1.94620703125,8.4361484375,6.84828515625,-7.47296484375,-1.48649609375,1.40085546875,5.26177734375,0.715789062500001,6.1116484375,-2.52191015625,-1.05831640625,-0.5982734375
-3.96574609375,1.502,-0.80026953125,-7.5690390625,-3.18125,-0.64291796875,3.7121484375,-0.72841015625,-6.436171875,0.671921875,2.0876796875,7.849359375,-7.93675,-1.138171875,1.868703125,3.382296875,4.1296875,-3.939484375,-1.94020703125,8.7531484375,6.06128515625,-6.19396484375,-0.22049609375,2.01585546875,5.87177734375,-0.898210937499999,6.8576484375,-2.47491015625,-1.42531640625,-1.6072734375
-3.96574609375,1.857,-2.03226953125,-7.7180390625,-2.55625,-1.02491796875,3.6741484375,-0.56641015625,-4.872171875,0.474921875,1.3436796875,7.121359375,-6.45175,-0.443171875,1.698703125,2.712296875,3.2616875,-2.640484375,-2.45220703125,8.2451484375,4.74728515625,-4.70996484375,0.37650390625,1.79085546875,5.69977734375,-3.1172109375,7.2456484375,-2.60391015625,-1.90431640625,-2.9542734375
-4.23874609375,1.712,-3.15726953125,-8.7110390625,-2.45325,-1.80791796875,2.4661484375,-0.86741015625,-3.563171875,-0.241078125,-0.1363203125,5.819359375,-5.10075,-0.338171875,0.694703125,1.357296875,2.4316875,-2.050484375,-3.37720703125,7.0831484375,3.23028515625,-3.48696484375,0.06550390625,0.70485546875,4.73377734375,-5.5082109375,7.2076484375,-3.03491015625,-2.45431640625,-4.0802734375
-4.88774609375,1.089,-3.75626953125,-10.1540390625,-2.70925,-2.76291796875,0.3401484375,-1.42141015625,-2.628171875,-1.153078125,-1.9943203125,4.281359375,-4.13075,-0.683171875,-0.814296875,-0.267703125,1.7416875,-2.290484375,-4.58820703125,5.5311484375,1.80428515625,-3.05396484375,-1.25449609375,-1.13014453125,3.03877734375,-7.6012109375,6.6216484375,-4.00191015625,-3.12531640625,-4.6342734375
-5.83374609375,0.2,-3.62726953125,-11.3960390625,-3.05525,-3.59691796875,-2.1388515625,-1.88941015625,-2.031171875,-1.949078125,-3.8033203125,2.826359375,-3.58575,-1.267171875,-2.435296875,-1.769703125,1.1876875,-3.278484375,-5.95420703125,3.8611484375,0.66628515625,-3.72896484375,-3.48649609375,-3.48714453125,0.74477734375,-9.0182109375,5.3676484375,-5.70591015625,-4.02431640625,-4.6322734375
-6.81974609375,-0.622,-2.91426953125,-11.7650390625,-3.26225,-4.08291796875,-4.3198515625,-2.00441015625,-1.676171875,-2.455078125,-5.2283203125,1.717359375,-3.29475,-1.910171875,-3.864296875,-2.893703125,0.712687499999999,-4.763484375,-7.36020703125,2.2691484375,-0.11071484375,-5.42496484375,-6.32349609375,-6.06714453125,-1.95722265625,-9.5972109375,3.4126484375,-8.14291015625,-5.27831640625,-4.4572734375
-7.53874609375,-1.068,-2.08626953125,-10.8790390625,-3.25025,-4.18291796875,-5.7478515625,-1.70541015625,-1.509171875,-2.686078125,-6.1433203125,1.139359375,-2.97575,-2.533171875,-4.978296875,-3.578703125,0.2666875,-6.411484375,-8.72820703125,0.818148437500001,-0.56971484375,-7.65196484375,-9.30349609375,-8.57014453125,-4.81422265625,-9.4742109375,0.8796484375,-11.01191015625,-6.96331640625,-4.6902734375
-7.74674609375,-1.002,-1.72726953125,-8.8500390625,-3.12825,-4.05491796875,-6.3088515625,-1.09841015625,-1.562171875,-2.811078125,-6.6463203125,1.173359375,-2.41975,-3.160171875,-5.835296875,-3.944703125,-0.1763125,-7.917484375,-10.01620703125,-0.5508515625,-0.84471484375,-9.72096484375,-11.92649609375,-10.76314453125,-7.53522265625,-9.0642109375,-1.9483515625,-13.75691015625,-9.00931640625,-5.8172734375
-7.35774609375,-0.532,-2.22926953125,-6.2310390625,-3.11325,-3.94191796875,-6.1768515625,-0.33541015625,-1.909171875,-3.042078125,-6.9533203125,1.770359375,-1.64875,-3.850171875,-6.563296875,-4.186703125,-0.6223125,-9.073484375,-11.17620703125,-1.9298515625,-1.12071484375,-11.03196484375,-13.76349609375,-12.49414453125,-9.82122265625,-8.9052109375,-4.6643515625,-15.73091015625,-11.11531640625,-7.9412734375
-6.50474609375,0.0640000000000001,-3.57926953125,-3.7700390625,-3.38525,-4.00491796875,-5.6448515625,0.45458984375,-2.568171875,-3.469078125,-7.2243203125,2.776359375,-0.95175,-4.593171875,-7.211296875,-4.426703125,-1.0663125,-9.756484375,-12.09520703125,-3.2978515625,-1.54871484375,-11.27096484375,-14.52349609375,-13.64914453125,-11.40922265625,-9.4242109375,-6.8123515625,-16.39991015625,-12.75731640625,-10.6362734375
-5.53474609375,0.506,-5.33926953125,-2.1070390625,-3.93025,-4.20991796875,-4.9518515625,1.17258984375,-3.424171875,-3.958078125,-7.4323203125,4.000359375,-0.77675,-5.233171875,-7.637296875,-4.591703125,-1.4543125,-9.886484375,-12.55820703125,-4.4188515625,-2.14571484375,-10.43096484375,-14.05649609375,-14.06914453125,-12.10622265625,-10.7002109375,-7.9733515625,-15.49691015625,-13.31631640625,-13.0552734375
-4.84674609375,0.654,-6.86626953125,-1.5730390625,-4.50525,-4.33991796875,-4.2118515625,1.72658984375,-4.220171875,-4.173078125,-7.3563203125,5.243359375,-1.50875,-5.491171875,-7.534296875,-4.419703125,-1.6603125,-9.399484375,-12.29420703125,-4.8728515625,-2.73271484375,-8.71896484375,-12.36749609375,-13.55814453125,-11.82322265625,-12.3472109375,-7.8603515625,-13.06891015625,-12.30031640625,-14.2492734375
-4.68374609375,0.538,-7.64726953125,-2.1640390625,-4.74825,-4.14791796875,-3.4818515625,2.05158984375,-4.665171875,-3.758078125,-6.7393203125,6.286359375,-3.25775,-5.102171875,-6.617296875,-3.621703125,-1.5373125,-8.298484375,-11.12220703125,-4.2648515625,-2.99671484375,-6.44796484375,-9.65049609375,-11.99914453125,-10.63422265625,-13.6452109375,-6.4393515625,-9.46691015625,-9.56731640625,-13.5742734375
-5.04274609375,0.296,-7.59026953125,-3.6430390625,-4.39725,-3.55191796875,-2.9038515625,2.13058984375,-4.591171875,-2.567078125,-5.4923203125,6.872359375,-5.75375,-3.999171875,-4.858296875,-2.105703125,-1.0303125,-6.726484375,-9.12020703125,-2.4918515625,-2.67371484375,-3.98696484375,-6.34049609375,-9.54314453125,-8.82022265625,-13.8712109375,-4.0273515625,-5.29991015625,-5.48631640625,-11.0092734375
-5.72574609375,0.0730000000000001,-7.07226953125,-5.6410390625,-3.45725,-2.71491796875,-2.7388515625,1.99658984375,-4.066171875,-0.796078125,-3.7983203125,6.757359375,-8.40775,-2.424171875,-2.613296875,-0.117703125,-0.2843125,-4.986484375,-6.70320703125,0.0821484374999999,-1.75671484375,-1.72596484375,-3.08849609375,-6.71714453125,-6.87122265625,-12.6682109375,-1.3153515625,-1.34191015625,-0.92931640625,-7.2262734375
-6.44374609375,-0.0529999999999999,-6.68826953125,-7.6800390625,-2.22125,-1.96391796875,-3.1898515625,1.70358984375,-3.388171875,1.051921875,-2.0613203125,5.843359375,-10.54575,-0.886171875,-0.548296875,1.801296875,0.3736875,-3.489484375,-4.53520703125,2.6841484375,-0.55871484375,-0.0229648437500001,-0.63649609375,-4.34714453125,-5.37222265625,-10.2312109375,0.7536484375,1.60408984375,2.93568359375,-3.3742734375
-6.91774609375,-0.103,-6.86826953125,-9.2110390625,-1.14025,-1.60391796875,-4.1938515625,1.28758984375,-2.958171875,2.358921875,-0.7433203125,4.277359375,-11.68475,0.016828125,0.596703125,3.012296875,0.5856875,-2.639484375,-3.31220703125,4.4021484375,0.39628515625,0.85803515625,0.38250390625,-3.29314453125,-4.82822265625,-7.2102109375,1.2566484375,2.88608984375,4.99268359375,-0.6442734375
-6.98574609375,-0.171,-7.64526953125,-9.7550390625,-0.638249999999999,-1.79091796875,-5.4128515625,0.72658984375,-3.102171875,2.629921875,-0.2063203125,2.427359375,-11.71975,-0.176171875,0.288703125000001,3.026296875,0.137687499999999,-2.715484375,-3.51220703125,4.5271484375,0.59828515625,0.80503515625,-0.37349609375,-4.12014453125,-5.50122265625,-4.4162109375,-0.3663515625,2.18208984375,4.56168359375,0.1917265625
-6.68574609375,-0.342,-8.71526953125,-9.1050390625,-0.941249999999999,-2.50691796875,-6.4568515625,-0.05741015625,-3.908171875,1.696921875,-0.6083203125,0.735359375,-10.87475,-1.606171875,-1.589296875,1.691296875,-0.9383125,-3.775484375,-5.21120703125,2.8391484375,-0.21671484375,-0.10596484375,-2.82849609375,-6.82814453125,-7.34022265625,-2.4992109375,-4.0603515625,-0.38491015625,1.64668359375,-0.9332734375
-6.20174609375,-0.609,-9.66826953125,-7.4100390625,-1.99625,-3.59191796875,-7.0848515625,-1.12441015625,-5.149171875,-0.196078125,-1.8503203125,-0.451640625,-9.51375,-4.003171875,-4.663296875,-0.727703125,-2.3953125,-5.595484375,-8.00020703125,-0.279851562499999,-1.94271484375,-1.59696484375,-6.47049609375,-10.79014453125,-9.99922265625,-1.7452109375,-9.0813515625,-4.22491015625,-3.01931640625,-3.3942734375
-5.68374609375,-0.853,-10.17126953125,-5.0400390625,-3.47325,-4.77091796875,-7.2118515625,-2.40241015625,-6.343171875,-2.432078125,-3.5643203125,-0.951640625,-7.92475,-6.731171875,-8.138296875,-3.593703125,-3.8823125,-7.688484375,-11.05720703125,-3.9408515625,-4.10371484375,-3.21296484375,-10.43249609375,-14.91614453125,-12.90322265625,-2.0132109375,-14.1883515625,-8.37891015625,-8.18331640625,-6.1622734375
-5.10574609375,-0.895,-10.03426953125,-2.4010390625,-4.87125,-5.70191796875,-6.7888515625,-3.64641015625,-6.933171875,-4.212078125,-5.1903203125,-0.718640624999999,-6.23075,-8.974171875,-11.030296875,-6.060703125,-5.0443125,-9.408484375,-13.37120703125,-7.0248515625,-5.99371484375,-4.40996484375,-13.69249609375,-17.99914453125,-15.35722265625,-2.7992109375,-18.0083515625,-11.75991015625,-12.44131640625,-8.1862734375
-4.31574609375,-0.613,-9.20926953125,0.1149609375,-5.68925,-6.08291796875,-5.7828515625,-4.52241015625,-6.519171875,-4.853078125,-6.1593203125,0.190359375,-4.47075,-10.022171875,-12.482296875,-7.349703125,-5.5893125,-10.160484375,-14.09720703125,-8.5528515625,-6.91571484375,-4.71296484375,-15.35149609375,-19.10514453125,-16.71022265625,-3.4082109375,-19.4643515625,-13.45291015625,-14.66631640625,-8.7242734375
-3.20674609375,-0.039,-7.78726953125,2.0649609375,-5.62825,-5.77491796875,-4.2718515625,-4.75841015625,-5.044171875,-4.079078125,-6.1483203125,1.566359375,-2.74175,-9.557171875,-12.093296875,-7.055703125,-5.3153125,-9.642484375,-12.89620703125,-8.0448515625,-6.44471484375,-3.90396484375,-14.93849609375,-17.89114453125,-16.53622265625,-3.1862109375,-18.1073515625,-13.00591015625,-14.34031640625,-7.5222734375
-1.84374609375,0.612,-6.00626953125,2.9389609375,-4.72725,-4.88491796875,-2.5588515625,-4.24741015625,-2.845171875,-2.172078125,-5.2623203125,2.978359375,-1.27775,-7.796171875,-10.104296875,-5.356703125,-4.1513125,-8.000484375,-10.10920703125,-5.7018515625,-4.62071484375,-2.14996484375,-12.60249609375,-14.71614453125,-14.78322265625,-1.7802109375,-14.2463515625,-10.59591015625,-11.67331640625,-4.8302734375
-0.465746093750001,1.03,-4.22426953125,2.3569609375,-3.36625,-3.71591796875,-1.1528515625,-3.07841015625,-0.532171875,0.142921875,-4.0173203125,3.795359375,-0.37775,-5.412171875,-7.323296875,-2.976703125,-2.2093125,-5.795484375,-6.65120703125,-2.3408515625,-1.95871484375,-0.00296484375000006,-9.09249609375,-10.50614453125,-11.82222265625,0.691789062500001,-8.8373515625,-6.99891015625,-7.51631640625,-1.3052734375
0.590253906249999,0.971,-2.83826953125,0.3439609375,-2.09825,-2.63091796875,-0.5868515625,-1.55741015625,1.249828125,2.023921875,-3.1043203125,3.422359375,-0.22075,-3.254171875,-4.803296875,-0.889703125,0.1716875,-3.772484375,-3.66220703125,0.9201484375,0.71528515625,1.77203515625,-5.49249609375,-6.41614453125,-8.36122265625,3.6297890625,-3.1693515625,-3.36091015625,-3.08931640625,2.1637265625
1.01625390625,0.41,-2.16426953125,-2.5320390625,-1.39025,-1.89591796875,-1.1558515625,-0.17841015625,2.080828125,2.890921875,-3.0543203125,1.642359375,-0.71275,-2.000171875,-3.395296875,0.0992968749999998,2.4506875,-2.542484375,-2.05120703125,3.0871484375,2.55428515625,2.48903515625,-2.81549609375,-3.42514453125,-5.24722265625,6.1597890625,1.5276484375,-0.82891015625,0.37768359375,4.6767265625
0.674253906249999,-0.432,-2.29826953125,-5.3300390625,-1.41025,-1.56791796875,-2.7208515625,0.53258984375,1.917828125,2.642921875,-3.9983203125,-1.165640625,-1.49775,-1.905171875,-3.417296875,-0.315703125,4.0156875,-2.343484375,-2.14820703125,3.6371484375,2.96728515625,1.84503515625,-1.64949609375,-2.04614453125,-3.21222265625,7.4727890625,4.4366484375,-0.13191015625,2.00868359375,5.5737265625
-0.309746093750001,-1.211,-3.06726953125,-7.1230390625,-1.98525,-1.52191796875,-4.7378515625,0.27058984375,1.073828125,1.618921875,-5.6333203125,-4.115640625,-2.12875,-2.746171875,-4.593296875,-1.866703125,4.3986875,-2.986484375,-3.61420703125,2.6431484375,1.79828515625,0.0720351562499997,-1.99049609375,-2.25314453125,-2.66522265625,7.1637890625,5.3346484375,-1.32191015625,1.53868359375,4.6597265625
-1.61274609375,-1.654,-4.11826953125,-7.3740390625,-2.73625,-1.57191796875,-6.5388515625,-0.85541015625,0.0398281250000001,0.370921875,-7.4093203125,-6.216640625,-2.28075,-3.994171875,-6.256296875,-3.903703125,3.4706875,-3.994484375,-5.62920703125,0.6461484375,-0.64771484375,-2.13896484375,-3.33049609375,-3.59814453125,-3.58822265625,5.3967890625,4.5716484375,-3.76091015625,-0.64231640625,2.3007265625
-2.87874609375,-1.681,-5.08226953125,-6.1220390625,-3.29625,-1.60891796875,-7.6488515625,-2.37941015625,-0.738171875,-0.615078125,-8.7993203125,-6.836640625,-1.86875,-5.074171875,-7.699296875,-5.719703125,1.5126875,-4.821484375,-7.26520703125,-1.6288515625,-3.73971484375,-3.92996484375,-4.90649609375,-5.43714453125,-5.56822265625,2.8007890625,2.8686484375,-6.40091015625,-3.67431640625,-0.6812734375
-3.84274609375,-1.421,-5.71226953125,-3.9190390625,-3.47725,-1.64491796875,-7.9278515625,-3.72541015625,-1.011171875,-1.098078125,-9.4943203125,-5.962640625,-1.02475,-5.591171875,-8.447296875,-6.838703125,-0.8983125,-5.060484375,-7.84520703125,-3.5558515625,-6.73571484375,-4.62996484375,-6.00849609375,-7.16214453125,-7.95922265625,0.165789062500001,1.0406484375,-8.20491015625,-6.55831640625,-3.3152734375
-4.34274609375,-1.097,-5.92726953125,-1.6230390625,-3.30925,-1.74591796875,-7.4918515625,-4.49041015625,-0.758171875,-1.118078125,-9.4603203125,-4.139640625,0.00825000000000031,-5.421171875,-8.378296875,-7.149703125,-3.1193125,-4.554484375,-7.16520703125,-4.7868515625,-9.00871484375,-3.99296484375,-6.20549609375,-8.34714453125,-10.09222265625,-1.8812109375,-0.2573515625,-8.53291015625,-8.49431640625,-4.8532734375
-4.32474609375,-0.903,-5.82326953125,-0.1180390625,-2.98125,-1.96091796875,-6.5848515625,-4.60241015625,-0.134171875,-0.903078125,-8.8673203125,-2.189640625,0.99225,-4.697171875,-7.672296875,-6.867703125,-4.6733125,-3.421484375,-5.51620703125,-5.2758515625,-10.20771484375,-2.26096484375,-5.44449609375,-8.81014453125,-11.47822265625,-3.0422109375,-0.6953515625,-7.34791015625,-9.12131640625,-5.0492734375
-3.89874609375,-0.92,-5.62026953125,-0.0160390625,-2.73025,-2.30591796875,-5.5388515625,-4.29041015625,0.591828125,-0.729078125,-7.9993203125,-0.885640625,1.75325,-3.735171875,-6.680296875,-6.379703125,-5.3833125,-2.012484375,-3.52020703125,-5.2018515625,-10.31471484375,-0.0249648437500003,-4.02749609375,-8.60814453125,-11.94722265625,-3.3512109375,-0.3203515625,-5.17891015625,-8.58331640625,-4.1912734375
-3.33774609375,-1.123,-5.55626953125,-1.4030390625,-2.74725,-2.76191796875,-4.7268515625,-3.89741015625,1.128828125,-0.794078125,-7.1503203125,-0.691640625,2.19525,-2.913171875,-5.769296875,-6.044703125,-5.3533125,-0.784484375000001,-1.85220703125,-4.8268515625,-9.58871484375,2.00303515625,-2.46349609375,-7.97214453125,-11.65122265625,-3.0682109375,0.5086484375,-2.85191015625,-7.41031640625,-2.8992734375
-2.94174609375,-1.434,-5.74826953125,-3.7250390625,-3.08625,-3.26291796875,-4.4318515625,-3.65041015625,1.269828125,-1.142078125,-6.5283203125,-1.612640625,2.27325,-2.543171875,-5.182296875,-6.027703125,-4.8253125,-0.138484375,-0.96320703125,-4.3588515625,-8.42171484375,3.25803515625,-1.26649609375,-7.20914453125,-10.93322265625,-2.5592109375,1.2896484375,-1.12791015625,-6.25631640625,-1.7952734375
-2.85374609375,-1.753,-6.10226953125,-5.9940390625,-3.63025,-3.67491796875,-4.6698515625,-3.53941015625,0.997828125,-1.641078125,-6.1893203125,-3.170640625,1.96025,-2.746171875,-4.963296875,-6.217703125,-4.0093125,-0.244484375000001,-0.913207031249999,-3.8608515625,-7.16671484375,3.51003515625,-0.74849609375,-6.57514453125,-10.10722265625,-2.1562109375,1.5846484375,-0.37991015625,-5.60931640625,-1.1902734375
-3.01074609375,-1.967,-6.36426953125,-7.2730390625,-4.13025,-3.80791796875,-5.1428515625,-3.35341015625,0.512828125,-2.036078125,-6.0133203125,-4.553640625,1.23025,-3.396171875,-4.964296875,-6.271703125,-2.9763125,-0.962484375000001,-1.40120703125,-3.2468515625,-6.00371484375,2.91203515625,-0.90949609375,-6.16614453125,-9.27122265625,-2.0162109375,1.2046484375,-0.45791015625,-5.59131640625,-0.9582734375
-3.23574609375,-1.975,-6.26226953125,-7.1670390625,-4.33325,-3.51291796875,-5.3818515625,-2.82741015625,0.121828125,-2.073078125,-5.7883203125,-4.951640625,0.0512499999999996,-4.195171875,-4.949296875,-5.811703125,-1.6723125,-1.922484375,-1.96420703125,-2.3928515625,-4.91671484375,1.88403515625,-1.48049609375,-5.91014453125,-8.27122265625,-2.0242109375,0.2626484375,-0.84091015625,-5.97031640625,-0.6422734375
-3.35374609375,-1.74,-5.66226953125,-5.9790390625,-4.14425,-2.78591796875,-4.9868515625,-1.79241015625,0.0528281250000001,-1.668078125,-5.3583203125,-3.948640625,-1.60675,-4.851171875,-4.768296875,-4.678703125,-0.0543125,-2.740484375,-2.25020703125,-1.3148515625,-3.80771484375,0.86103515625,-2.12749609375,-5.68714453125,-6.87822265625,-1.8502109375,-0.9423515625,-0.99691015625,-6.38131640625,0.1897265625
-3.25874609375,-1.342,-4.65626953125,-4.4470390625,-3.71725,-1.83991796875,-3.8658515625,-0.27941015625,0.301828125,-1.029078125,-4.7543203125,-1.747640625,-3.71675,-5.248171875,-4.486296875,-3.097703125,1.7736875,-3.240484375,-2.21620703125,-0.311851562499999,-2.66371484375,0.0420351562499999,-2.68949609375,-5.50714453125,-5.04622265625,-1.1732109375,-2.1503515625,-0.76391015625,-6.63331640625,1.5677265625
-2.93074609375,-0.956,-3.55026953125,-3.2750390625,-3.39225,-1.05491796875,-2.3258515625,1.44558984375,0.632828125,-0.603078125,-4.2003203125,0.935359375,-6.13575,-5.508171875,-4.373296875,-1.605703125,3.5366875,-3.532484375,-2.13720703125,0.0841484375000006,-1.64471484375,-0.69396484375,-3.27949609375,-5.57014453125,-3.05222265625,0.0927890625000005,-3.3053515625,-0.49991015625,-6.88331640625,2.9917265625
-2.42674609375,-0.754,-2.72726953125,-2.7950390625,-3.50025,-0.80491796875,-0.9338515625,2.94058984375,0.745828125,-0.844078125,-3.9663203125,3.263359375,-8.57975,-5.874171875,-4.734296875,-0.771703125,4.8986875,-3.895484375,-2.41120703125,-0.6248515625,-1.01171484375,-1.65796484375,-4.16549609375,-6.14114453125,-1.39822265625,1.7337890625,-4.5323515625,-0.85591015625,-7.52531640625,3.6837265625
-1.83474609375,-0.795,-2.44026953125,-2.8990390625,-4.14925,-1.24691796875,-0.1838515625,3.74958984375,0.489828125,-1.936078125,-4.1753203125,4.699359375,-10.69575,-6.515171875,-5.680296875,-0.866703125,5.6416875,-4.563484375,-3.27820703125,-2.5728515625,-0.95071484375,-3.07496484375,-5.51849609375,-7.32314453125,-0.51222265625,3.3607890625,-5.9453515625,-2.31391015625,-8.85731640625,3.0997265625
-1.24074609375,-0.979,-2.66826953125,-3.2210390625,-5.13725,-2.20191796875,-0.1808515625,3.58158984375,-0.0371718749999999,-3.651078125,-4.7063203125,5.220359375,-12.19975,-7.388171875,-7.009296875,-1.722703125,5.7566875,-5.559484375,-4.64120703125,-5.3618515625,-1.43671484375,-4.86796484375,-7.21449609375,-8.89014453125,-0.497222656249999,4.6187890625,-7.4673515625,-4.77191015625,-10.75531640625,1.3237265625
-0.763746093750001,-1.111,-3.12626953125,-3.4200390625,-6.06625,-3.25591796875,-0.596851562499999,2.42058984375,-0.569171875,-5.446078125,-5.2703203125,5.216359375,-13.00475,-8.265171875,-8.284296875,-2.850703125,5.4186875,-6.677484375,-6.10720703125,-8.2238515625,-2.24671484375,-6.62796484375,-8.82949609375,-10.33914453125,-1.09122265625,5.3217890625,-8.7893515625,-7.47791015625,-12.62831640625,-0.9372734375
-0.60274609375,-1.038,-3.44726953125,-3.3950390625,-6.58325,-4.00891796875,-0.9378515625,0.55158984375,-0.903171875,-6.764078125,-5.6093203125,5.182359375,-13.24675,-8.896171875,-9.092296875,-3.761703125,4.8666875,-7.617484375,-7.22920703125,-10.4038515625,-3.10971484375,-7.80096484375,-9.84049609375,-11.13714453125,-1.86122265625,5.4617890625,-9.5223515625,-9.35191015625,-13.70231640625,-2.7512734375
-0.982746093750001,-0.783,-3.38126953125,-3.3310390625,-6.61025,-4.30791796875,-0.8938515625,-1.48341015625,-1.088171875,-7.346078125,-5.6853203125,5.397359375,-13.20175,-9.194171875,-9.291296875,-4.262703125,4.2816875,-8.172484375,-7.77120703125,-11.5568515625,-3.87571484375,-7.96096484375,-9.91549609375,-11.01214453125,-2.47522265625,5.1347890625,-9.4203515625,-9.52891015625,-13.43031640625,-3.4672734375
-2.00174609375,-0.579,-2.91926953125,-3.5730390625,-6.41025,-4.32791796875,-0.5448515625,-2.99041015625,-1.444171875,-7.381078125,-5.7163203125,5.746359375,-13.12875,-9.314171875,-9.107296875,-4.567703125,3.7276875,-8.347484375,-7.81520703125,-11.8908515625,-4.59471484375,-7.03096484375,-9.09649609375,-10.11114453125,-2.87822265625,4.4467890625,-8.5383515625,-7.78591015625,-11.78331640625,-3.0282734375
-3.51774609375,-0.755,-2.27626953125,-4.4050390625,-6.43325,-4.44191796875,-0.2978515625,-3.37741015625,-2.366171875,-7.367078125,-6.0453203125,5.781359375,-13.12875,-9.571171875,-9.006296875,-5.141703125,3.1626875,-8.339484375,-7.67720703125,-11.9848515625,-5.45471484375,-5.34396484375,-7.78449609375,-8.91314453125,-3.26622265625,3.4587890625,-7.2223515625,-4.66291015625,-9.26831640625,-1.9432734375
-5.16074609375,-1.522,-1.76726953125,-5.8630390625,-7.02725,-4.97791796875,-0.6058515625,-2.45341015625,-4.030171875,-7.783078125,-6.8953203125,4.985359375,-13.09175,-10.228171875,-9.402296875,-6.371703125,2.4916875,-8.391484375,-7.69420703125,-12.4038515625,-6.62471484375,-3.52296484375,-6.52849609375,-7.96514453125,-3.90822265625,2.1817890625,-5.9593515625,-1.22791015625,-6.70731640625,-0.9902734375
-6.45774609375,-2.797,-1.63226953125,-7.6330390625,-8.19125,-5.97891796875,-1.6318515625,-0.58641015625,-6.185171875,-8.760078125,-8.1743203125,3.131359375,-12.76075,-11.298171875,-10.397296875,-8.266703125,1.6666875,-8.644484375,-8.02620703125,-13.3628515625,-8.09571484375,-2.24496484375,-5.77749609375,-7.60314453125,-4.92722265625,0.639789062500001,-5.1633515625,1.36808984375,-4.88631640625,-0.8112734375
-6.98674609375,-4.191,-1.89626953125,-9.1330390625,-9.53825,-7.13291796875,-3.0758515625,1.44258984375,-8.202171875,-9.980078125,-9.4513203125,0.496359375,-11.87275,-12.493171875,-11.692296875,-10.386703125,0.7526875,-9.070484375,-8.58720703125,-14.6278515625,-9.59271484375,-2.00096484375,-5.70349609375,-7.82314453125,-6.16922265625,-1.0272109375,-5.0133515625,2.32208984375,-4.24331640625,-1.6082734375
-6.53474609375,-5.195,-2.34626953125,-9.7680390625,-10.48825,-7.91991796875,-4.3208515625,2.83558984375,-9.355171875,-10.852078125,-10.1493203125,-2.206640625,-10.30275,-13.347171875,-12.738296875,-12.033703125,-0.0643125000000007,-9.520484375,-9.10920703125,-15.6688515625,-10.63571484375,-2.92996484375,-6.19949609375,-8.33314453125,-7.25022265625,-2.5192109375,-5.4233515625,1.41308984375,-4.74531640625,-3.0902734375
-5.23874609375,-5.428,-2.64626953125,-9.2690390625,-10.56425,-7.90791796875,-4.7998515625,3.14758984375,-9.168171875,-10.845078125,-9.8313203125,-4.145640625,-8.13675,-13.453171875,-13.000296875,-12.582703125,-0.5573125,-9.826484375,-9.30720703125,-15.9658515625,-10.73571484375,-4.79996484375,-6.98249609375,-8.74514453125,-7.73522265625,-3.4522109375,-6.1503515625,-1.02091015625,-6.01831640625,-4.7312734375
-3.56774609375,-4.796,-2.51426953125,-7.8820390625,-9.61925,-6.98391796875,-4.3018515625,2.44558984375,-7.640171875,-9.756078125,-8.4083203125,-4.734640625,-5.64375,-12.665171875,-12.208296875,-11.757703125,-0.5793125,-9.897484375,-9.02220703125,-15.2518515625,-9.62271484375,-7.11096484375,-7.76149609375,-8.76914453125,-7.36422265625,-3.5612109375,-6.9573515625,-4.29891015625,-7.61331640625,-6.1332734375
-2.10174609375,-3.497,-1.84626953125,-6.2560390625,-7.88725,-5.38091796875,-3.0188515625,1.19058984375,-5.232171875,-7.808078125,-6.1563203125,-3.821640625,-3.18875,-11.162171875,-10.470296875,-9.731703125,-0.138312500000001,-9.755484375,-8.29620703125,-13.6378515625,-7.39171484375,-9.28696484375,-8.36849609375,-8.35014453125,-6.19622265625,-2.8822109375,-7.7543515625,-7.69691015625,-9.25031640625,-7.2712734375
-1.24474609375,-1.914,-0.73426953125,-5.0800390625,-5.85825,-3.52391796875,-1.3798515625,-0.04141015625,-2.664171875,-5.518078125,-3.5613203125,-1.678640625,-1.14075,-9.369171875,-8.210296875,-7.021703125,0.6046875,-9.516484375,-7.33520703125,-11.5398515625,-4.49571484375,-10.86396484375,-8.81049609375,-7.67614453125,-4.59722265625,-1.7722109375,-8.6303515625,-10.67291015625,-10.89131640625,-8.4382734375
-1.08474609375,-0.468,0.60273046875,-4.6690390625,-4.03525,-1.81391796875,0.1371484375,-0.85041015625,-0.635171875,-3.445078125,-1.1023203125,1.160359375,0.22125,-7.770171875,-5.982296875,-4.256703125,1.4246875,-9.315484375,-6.39220703125,-9.4928515625,-1.54671484375,-11.59896484375,-9.19749609375,-7.05614453125,-3.05322265625,-0.706210937499999,-9.7343515625,-12.94791015625,-12.59231640625,-9.9102734375
-1.44674609375,0.508,1.93573046875,-4.7780390625,-2.69325,-0.47391796875,1.1531484375,-1.13141015625,0.435828125,-1.931078125,0.9196796875,4.065359375,0.79825,-6.695171875,-4.221296875,-1.917703125,2.1476875,-9.198484375,-5.63020703125,-7.8908515625,0.96628515625,-11.44896484375,-9.59749609375,-6.72114453125,-1.89322265625,0.0387890625000011,-11.0803515625,-14.38891015625,-14.24431640625,-11.5542734375
-2.02674609375,0.867,3.09773046875,-4.7480390625,-1.77925,0.49508203125,1.5041484375,-1.00541015625,0.530828125,-0.984078125,2.4456796875,6.447359375,0.71825,-6.185171875,-3.080296875,-0.195703125,2.7256875,-9.067484375,-5.03220703125,-6.8298515625,2.87928515625,-10.48896484375,-9.91949609375,-6.68514453125,-1.10522265625,0.579789062500001,-12.4313515625,-14.86291015625,-15.44231640625,-12.7222734375
-2.48474609375,0.664,3.98973046875,-3.9270390625,-1.01725,1.22608203125,1.2911484375,-0.63341015625,-0.00417187499999986,-0.365078125,3.5816796875,7.848359375,0.29925,-6.015171875,-2.433296875,0.989296875,3.1996875,-8.738484375,-4.45120703125,-6.1328515625,4.33428515625,-8.85896484375,-9.94249609375,-6.75314453125,-0.389222656249999,1.3077890625,-13.3763515625,-14.21091015625,-15.64031640625,-12.5642734375
-2.54274609375,0.111,4.49973046875,-2.1120390625,-0.170249999999999,1.82708203125,0.7881484375,-0.11741015625,-0.668171875,0.175921875,4.4366796875,8.034359375,-0.10275,-5.869171875,-2.053296875,1.815296875,3.5816875,-8.077484375,-3.76020703125,-5.5418515625,5.56328515625,-6.76596484375,-9.46649609375,-6.68714453125,0.56777734375,2.5477890625,-13.5753515625,-12.37691015625,-14.49431640625,-10.5822734375
-2.06974609375,-0.531,4.46273046875,0.2969609375,0.74475,2.25008203125,0.2441484375,0.45758984375,-1.057171875,0.695921875,4.9776796875,7.053359375,-0.24675,-5.549171875,-1.811296875,2.379296875,3.7516875,-7.102484375,-2.99120703125,-4.9348515625,6.64528515625,-4.49996484375,-8.45649609375,-6.36814453125,1.80777734375,4.2617890625,-12.9613515625,-9.55091015625,-12.13331640625,-6.9892734375
-1.11574609375,-1.066,3.72173046875,2.5189609375,1.42775,2.29808203125,-0.2518515625,0.94758984375,-1.023171875,1.013921875,5.0126796875,5.221359375,-0.0707500000000003,-5.062171875,-1.768296875,2.617296875,3.4656875,-5.968484375,-2.31720703125,-4.4018515625,7.42828515625,-2.37296484375,-7.05749609375,-5.84414453125,3.04077734375,6.0477890625,-11.7363515625,-6.16391015625,-9.10231640625,-2.6402734375
0.133253906249999,-1.428,2.27273046875,3.7919609375,1.47875,1.76308203125,-0.7558515625,1.15858984375,-0.650171875,0.838921875,4.3126796875,2.978359375,0.36925,-4.576171875,-2.100296875,2.366296875,2.4916875,-4.860484375,-1.91520703125,-4.1678515625,7.64028515625,-0.60896484375,-5.49449609375,-5.25914453125,3.82577734375,7.4047890625,-10.1973515625,-2.74291015625,-6.04331640625,1.4107265625
1.39725390625,-1.668,0.34373046875,3.6879609375,0.64975,0.58208203125,-1.3888515625,0.93658984375,-0.149171875,-0.0260781250000002,2.7866796875,0.697359375,0.98125,-4.297171875,-2.956296875,1.496296875,0.7666875,-3.900484375,-1.83120703125,-4.4348515625,7.07228515625,0.72303515625,-3.95849609375,-4.73614453125,3.84477734375,8.0447890625,-8.5493515625,0.27108984375,-3.35731640625,4.3947265625
2.31825390625,-1.889,-1.66926953125,2.2299609375,-1.01825,-1.12291796875,-2.2878515625,0.22758984375,0.262828125,-1.556078125,0.5806796875,-1.432640625,1.67925,-4.371171875,-4.342296875,0.0222968749999999,-1.5353125,-3.137484375,-1.96120703125,-5.2648515625,5.70528515625,1.68303515625,-2.56249609375,-4.32014453125,3.07277734375,8.0167890625,-6.8373515625,2.61508984375,-1.08631640625,6.0837265625
2.54525390625,-2.182,-3.36126953125,-0.1270390625,-3.21825,-3.09991796875,-3.5788515625,-0.93141015625,0.408828125,-3.510078125,-1.9453203125,-3.379640625,2.35925,-4.848171875,-6.096296875,-1.863703125,-4.0503125,-2.593484375,-2.14220703125,-6.5568515625,3.71928515625,2.36603515625,-1.38049609375,-3.99514453125,1.76377734375,7.6097890625,-5.0153515625,4.20508984375,0.97068359375,6.7417265625
1.91225390625,-2.581,-4.46126953125,-2.5950390625,-5.51725,-5.06591796875,-5.3028515625,-2.46941015625,0.163828125,-5.541078125,-4.3403203125,-5.127640625,2.89725,-5.669171875,-7.942296875,-3.849703125,-6.3563125,-2.290484375,-2.25220703125,-8.0788515625,1.41828515625,2.84603515625,-0.46749609375,-3.71814453125,0.29377734375,7.1307890625,-3.0513515625,5.09808984375,3.02968359375,6.8777265625
0.595253906249999,-3.052,-4.89326953125,-4.2650390625,-7.49925,-6.76391796875,-7.3318515625,-4.30141015625,-0.503171875,-7.318078125,-6.2033203125,-6.547640625,3.20025,-6.666171875,-9.572296875,-5.597703125,-8.1233125,-2.222484375,-2.24820703125,-9.5488515625,-0.86171484375,3.16503515625,0.14950390625,-3.45214453125,-1.01622265625,6.7177890625,-0.9923515625,5.44808984375,5.13968359375,6.9347265625
-0.925746093750001,-3.487,-4.76226953125,-4.4570390625,-8.85325,-7.98791796875,-9.3448515625,-6.29841015625,-1.481171875,-8.599078125,-7.2603203125,-7.379640625,3.29525,-7.566171875,-10.710296875,-6.833703125,-9.2143125,-2.298484375,-2.13120703125,-10.7008515625,-2.84871484375,3.36403515625,0.51950390625,-3.14314453125,-2.00722265625,6.2887890625,1.0516484375,5.46108984375,7.12168359375,7.0587265625
-2.08074609375,-3.717,-4.28426953125,-3.0290390625,-9.39125,-8.58291796875,-10.9008515625,-8.20341015625,-2.484171875,-9.239078125,-7.3943203125,-7.359640625,3.37625,-8.036171875,-11.140296875,-7.401703125,-9.6923125,-2.313484375,-1.87920703125,-11.3408515625,-4.37571484375,3.50703515625,0.79450390625,-2.69914453125,-2.69322265625,5.6587890625,2.9536484375,5.34908984375,8.64568359375,7.0477265625
-2.43074609375,-3.566,-3.69526953125,-0.4470390625,-9.06225,-8.44591796875,-11.5508515625,-9.55741015625,-3.111171875,-9.179078125,-6.6303203125,-6.427640625,3.75125,-7.772171875,-10.723296875,-7.277703125,-9.7473125,-2.003484375,-1.41320703125,-11.3618515625,-5.37771484375,3.67203515625,1.19750390625,-1.99914453125,-3.16822265625,4.7077890625,4.6286484375,5.29208984375,9.41968359375,6.5337265625
-1.81574609375,-2.931,-3.16226953125,2.4379609375,-7.96525,-7.55891796875,-10.9858515625,-9.79141015625,-2.999171875,-8.436078125,-5.1253203125,-4.889640625,4.68925,-6.623171875,-9.424296875,-6.551703125,-9.5913125,-1.160484375,-0.60920703125,-10.7398515625,-5.86671484375,3.91903515625,1.94050390625,-0.93414453125,-3.52422265625,3.4947890625,6.0396484375,5.43108984375,9.39268359375,5.2957265625
-0.420746093750001,-1.87,-2.73026953125,4.7669609375,-6.34425,-6.04691796875,-9.1998515625,-8.48641015625,-2.007171875,-7.110078125,-3.1553203125,-3.369640625,6.25225,-4.683171875,-7.366296875,-5.405703125,-9.3853125,0.240515625,0.60879296875,-9.5328515625,-5.91571484375,4.24303515625,3.10050390625,0.51085546875,-3.81122265625,2.2197890625,7.1466484375,5.82308984375,8.80168359375,3.4637265625
1.27025390625,-0.612,-2.33626953125,5.9769609375,-4.54125,-4.22191796875,-6.5798515625,-5.68441015625,-0.317171875,-5.394078125,-1.0843203125,-2.560640625,8.20025,-2.306171875,-4.871296875,-4.078703125,-9.2273125,1.982515625,2.17379296875,-7.8978515625,-5.65671484375,4.53403515625,4.52050390625,2.19185546875,-4.06822265625,1.0917890625,7.8106484375,6.35508984375,8.00768359375,1.4377265625
2.66725390625,0.51,-1.85426953125,5.9639609375,-2.89925,-2.52491796875,-3.8098515625,-1.98141015625,1.627828125,-3.561078125,0.7116796875,-2.883640625,10.05725,-0.00117187500000027,-2.409296875,-2.831703125,-9.1693125,3.653515625,3.83979296875,-6.0988515625,-5.27571484375,4.61203515625,5.82450390625,3.79885546875,-4.35122265625,0.207789062500001,7.7776484375,6.70708984375,7.23868359375,-0.3932734375
3.35325390625,1.201,-1.17626953125,5.0809609375,-1.64525,-1.34491796875,-1.5838515625,1.67758984375,3.321828125,-1.892078125,1.9726796875,-4.266640625,11.31125,1.762828125,-0.435296875,-1.863703125,-9.2373125,4.819515625,5.26979296875,-4.4368515625,-4.94071484375,4.33903515625,6.57050390625,4.97985546875,-4.69322265625,-0.427210937499999,6.7946484375,6.46308984375,6.46968359375,-1.8672734375
3.26925390625,1.367,-0.28126953125,4.0149609375,-0.79425,-0.81391796875,-0.3048515625,4.39558984375,4.437828125,-0.535078125000001,2.6966796875,-6.140640625,11.65725,2.756828125,0.840703125,-1.208703125,-9.4033125,5.245515625,6.23179296875,-3.1028515625,-4.69871484375,3.75603515625,6.50450390625,5.52785546875,-5.00822265625,-0.781210937499999,4.8136484375,5.37008984375,5.53668359375,-3.0282734375
2.70025390625,1.198,0.72873046875,3.5649609375,-0.13625,-0.68391796875,0.0861484374999999,5.65058984375,4.966828125,0.600921875,3.1996796875,-7.639640625,11.14125,3.089828125,1.594703125,-0.649703125,-9.5523125,5.023515625,6.75479296875,-2.0458515625,-4.42371484375,3.11303515625,5.74750390625,5.53285546875,-5.03922265625,-0.682210937499999,2.1296484375,3.55208984375,4.35568359375,-3.9372734375
2.14025390625,1.102,1.66373046875,4.3749609375,0.677750000000001,-0.41591796875,0.0621484374999999,5.43658984375,5.181828125,1.821921875,4.0146796875,-7.899640625,10.13225,3.133828125,2.307703125,0.233296875,-9.4903125,4.521515625,7.13079296875,-0.971851562499999,-3.86271484375,2.74103515625,4.76550390625,5.34285546875,-4.45822265625,0.122789062500001,-0.6863515625,1.48608984375,3.03668359375,-4.5502734375
2.10725390625,1.499,2.36173046875,6.6739609375,1.94175,0.56008203125,0.2951484375,4.18258984375,5.459828125,3.450921875,5.6456796875,-6.375640625,9.13225,3.315828125,3.496703125,1.881296875,-9.0113125,4.166515625,7.73079296875,0.4721484375,-2.78671484375,2.82803515625,4.10650390625,5.35485546875,-3.07322265625,1.7817890625,-3.0443515625,-0.26491015625,1.80368359375,-4.7572734375
2.95225390625,2.6,2.78573046875,10.1409609375,3.72175,2.52908203125,1.3411484375,2.55158984375,6.066828125,5.587921875,8.2846796875,-3.065640625,8.54125,3.878828125,5.398703125,4.498296875,-7.9933125,4.201515625,8.76479296875,2.4341484375,-1.13371484375,3.26803515625,4.09150390625,5.77285546875,-1.01722265625,4.1867890625,-4.6163515625,-1.37691015625,0.82968359375,-4.5162734375
4.67525390625,4.292,3.03973046875,13.9819609375,5.77875,5.29708203125,3.3501484375,1.21758984375,7.015828125,7.969921875,11.6516796875,1.433359375,8.50125,4.764828125,7.807703125,7.873296875,-6.4353125,4.584515625,10.12779296875,4.7171484375,0.93128515625,3.72003515625,4.64550390625,6.50685546875,1.25577734375,6.9937890625,-5.4453515625,-1.86891015625,0.13768359375,-3.9152734375
6.89125390625,6.177,3.29373046875,17.1989609375,7.64775,8.23008203125,5.9621484375,0.68458984375,8.078828125,10.040921875,15.0476796875,6.068359375,8.88025,5.653828125,10.153703125,11.400296875,-4.4393125,5.050515625,11.45379296875,6.8361484375,3.09228515625,3.81703515625,5.38650390625,7.25285546875,3.16477734375,9.8327890625,-5.8383515625,-1.95991015625,-0.36231640625,-3.1102734375
9.00125390625,7.729,3.66273046875,18.9229609375,8.80875,10.50508203125,8.4481484375,1.17858984375,8.892828125,11.171921875,17.5916796875,9.637359375,9.35825,6.128828125,11.750703125,14.268296875,-2.1703125,5.260515625,12.28779296875,8.2351484375,5.00228515625,3.38203515625,5.84850390625,7.66685546875,4.27177734375,12.4897890625,-6.1303515625,-1.84091015625,-0.74831640625,-2.2252734375
10.46925390625,8.494,4.11273046875,18.6549609375,8.88275,11.43608203125,10.0201484375,2.59558984375,9.132828125,10.931921875,18.5476796875,11.184359375,9.58425,5.865828125,12.095703125,15.759296875,0.137687499999999,4.967515625,12.29479296875,8.5201484375,6.38928515625,2.49403515625,5.72150390625,7.52385546875,4.43377734375,14.9177890625,-6.4883515625,-1.53991015625,-1.00631640625,-1.3122734375
11.02225390625,8.265,4.43473046875,16.3669609375,7.76175,10.72408203125,10.1561484375,4.53358984375,8.645828125,9.274921875,17.5946796875,10.323359375,9.32825,4.766828125,11.049703125,15.503296875,2.1616875,4.113515625,11.38679296875,7.6051484375,7.08428515625,1.43303515625,4.97150390625,6.79785546875,3.79377734375,17.0697890625,-6.8453515625,-0.95791015625,-1.02431640625,-0.4012734375
10.69625390625,7.162,4.33273046875,12.5319609375,5.66375,8.54408203125,8.8091484375,6.43358984375,7.500828125,6.569921875,14.9556796875,7.389359375,8.57125,2.991828125,8.875703125,13.605296875,3.5246875,2.860515625,9.74379296875,5.7161484375,7.01028515625,0.55603515625,3.82750390625,5.65785546875,2.65777734375,18.7377890625,-6.9603515625,0.03008984375,-0.641316406250001,0.4657265625
9.74925390625,5.587,3.59573046875,8.0779609375,3.07575,5.48308203125,6.4511484375,7.81058984375,5.954828125,3.473921875,11.3156796875,3.318359375,7.48425,0.909828125,6.123703125,10.591296875,3.9146875,1.530515625,7.75079296875,3.3061484375,6.18728515625,0.16203515625,2.66750390625,4.39885546875,1.39077734375,19.5887890625,-6.5393515625,1.49108984375,0.29668359375,1.2617265625
8.49725390625,4.054,2.28273046875,4.2089609375,0.62175,2.35408203125,3.8941484375,8.43858984375,4.357828125,0.722921875,7.5956796875,-0.697640625,6.33425,-1.014171875,3.450703125,7.233296875,3.2536875,0.490515625,5.89179296875,0.919148437500001,4.77128515625,0.39503515625,1.87750390625,3.35285546875,0.35577734375,19.3807890625,-5.3413515625,3.40608984375,1.89868359375,2.0597265625
7.13425390625,2.982,0.77073046875,1.9919609375,-1.11625,-0.0669179687499999,1.9381484375,8.34758984375,3.042828125,-1.092078125,4.6266796875,-3.644640625,5.37425,-2.366171875,1.421703125,4.299296875,1.7966875,0.0225156249999996,4.59379296875,-0.9518515625,3.06328515625,1.19103515625,1.72050390625,2.79785546875,-0.15422265625,18.1887890625,-3.2773515625,5.66908984375,4.15468359375,3.0497265625
5.68025390625,2.547,-0.37726953125,1.8869609375,-1.78525,-1.28491796875,1.0271484375,7.66758984375,2.233828125,-1.698078125,2.8896796875,-5.001640625,4.78125,-2.920171875,0.352703125,2.321296875,0.0766874999999994,0.215515624999999,4.08179296875,-1.9938515625,1.43328515625,2.29003515625,2.24450390625,2.87485546875,-0.02122265625,16.4207890625,-0.4883515625,8.06408984375,6.86368359375,4.4227265625
4.12325390625,2.643,-0.65826953125,3.5109609375,-1.37225,-1.22291796875,1.0991484375,6.48758984375,1.992828125,-1.212078125,2.3986796875,-4.824640625,4.62925,-2.723171875,0.230703125,1.452296875,-1.2963125,0.929515625,4.27979296875,-2.1618515625,0.16928515625,3.31003515625,3.25850390625,3.53185546875,0.602777343750001,14.6007890625,2.6356484375,10.26408984375,9.58568359375,6.1857265625
2.64625390625,2.967,0.12173046875,5.8349609375,-0.218249999999999,-0.17591796875,1.7071484375,4.87958984375,2.209828125,-0.0860781250000002,2.7906796875,-3.595640625,4.88225,-2.065171875,0.757703125,1.478296875,-1.8663125,1.847515625,4.85279296875,-1.6908515625,-0.63971484375,3.87803515625,4.38450390625,4.52885546875,1.31777734375,13.0947890625,5.5286484375,11.87208984375,11.71468359375,8.0217265625
1.65225390625,3.195,1.70873046875,7.7179609375,1.11875,1.35908203125,2.2651484375,3.03358984375,2.656828125,1.093921875,3.5506796875,-1.955640625,5.39825,-1.341171875,1.508703125,1.974296875,-1.4943125,2.611515625,5.36679296875,-0.9808515625,-1.11771484375,3.75903515625,5.20450390625,5.50985546875,1.63877734375,11.9507890625,7.6126484375,12.53408984375,12.65768359375,9.3397265625
1.54725390625,3.153,3.46073046875,8.4389609375,2.10175,2.90008203125,2.3131484375,1.36058984375,3.088828125,1.864921875,4.2586796875,-0.455640625,5.95825,-0.857171875,2.140703125,2.527296875,-0.383312500000001,2.991515625,5.50179296875,-0.4178515625,-1.49471484375,2.96203515625,5.44150390625,6.15285546875,1.23177734375,10.9807890625,8.5066484375,12.07508984375,12.08368359375,9.5277265625
2.47025390625,2.894,4.63673046875,7.9819609375,2.45375,4.14308203125,1.7371484375,0.41858984375,3.389828125,2.094921875,4.7526796875,0.593359375,6.34425,-0.680171875000001,2.550703125,2.926296875,1.0346875,3.009515625,5.22579296875,-0.1888515625,-1.93871484375,1.75603515625,5.09950390625,6.30385546875,0.0867773437500006,9.9867890625,8.1726484375,10.62908984375,10.12168359375,8.2897265625
4.22125390625,2.632,4.78273046875,6.9789609375,2.28275,5.03008203125,0.8501484375,0.65158984375,3.642828125,2.021921875,5.1436796875,1.136359375,6.43525,-0.597171875,2.901703125,3.218296875,2.2906875,2.931515625,4.80879296875,-0.2148515625,-2.43371484375,0.61203515625,4.48750390625,6.04985546875,-1.46322265625,8.9567890625,6.9476484375,8.66408984375,7.39068359375,5.8627265625
6.35825390625,2.579,3.97973046875,6.3779609375,2.00575,5.69008203125,0.2431484375,2.09058984375,4.078828125,2.090921875,5.6696796875,1.288359375,6.28325,-0.242171875,3.475703125,3.607296875,3.0606875,3.136515625,4.66179296875,-0.2338515625,-2.77571484375,0.0550351562499998,4.07450390625,5.65085546875,-2.89622265625,8.0947890625,5.4076484375,6.84108984375,4.78068359375,2.9567265625
8.34525390625,2.811,2.78273046875,6.9819609375,2.10675,6.27708203125,0.4381484375,4.21458984375,4.898828125,2.676921875,6.5066796875,1.223359375,6.10025,0.673828125,4.445703125,4.280296875,3.2566875,3.880515625,5.05679296875,0.00114843750000038,-2.69971484375,0.44503515625,4.22850390625,5.36685546875,-3.75222265625,7.6817890625,4.1026484375,5.71908984375,3.05468359375,0.4617265625
9.70325390625,3.226,1.91873046875,9.0659609375,2.86375,6.85208203125,1.5941484375,6.14658984375,6.095828125,3.846921875,7.6326796875,1.097359375,6.15525,2.139828125,5.690703125,5.248296875,3.0106875,5.104515625,5.90879296875,0.5251484375,-2.06271484375,1.76703515625,4.95950390625,5.25885546875,-3.84322265625,7.8877890625,3.2776484375,5.43108984375,2.49868359375,-0.9272734375
10.17225390625,3.624,1.93673046875,12.2119609375,4.18875,7.35308203125,3.4591484375,7.08958984375,7.406828125,5.286921875,8.8276796875,1.036359375,6.60925,3.767828125,6.780703125,6.309296875,2.5856875,6.381515625,6.75279296875,1.0881484375,-0.97271484375,3.56403515625,5.82650390625,5.09385546875,-3.34922265625,8.6587890625,2.7396484375,5.57108984375,2.79268359375,-0.9802734375
9.82025390625,3.82,2.97173046875,15.4329609375,5.65475,7.66408203125,5.5351484375,6.70058984375,8.400828125,6.435921875,9.7706796875,1.140359375,7.41525,4.936828125,7.163703125,7.126296875,2.2436875,7.078515625,6.95379296875,1.2511484375,0.20228515625,5.08103515625,6.09950390625,4.42385546875,-2.73122265625,9.7387890625,1.9176484375,5.37508984375,3.17068359375,0.00272656250000003
8.97025390625,3.729,4.68073046875,17.5379609375,6.68675,7.67608203125,7.2671484375,5.17058984375,8.677828125,6.755921875,10.1636796875,1.427359375,8.32025,5.069828125,6.432703125,7.382296875,2.1116875,6.656515625,6.02979296875,0.6041484375,0.97028515625,5.59803515625,5.11250390625,2.82685546875,-2.54022265625,10.7677890625,0.146648437500001,4.13108984375,2.77468359375,1.3117265625
7.99725390625,3.386,6.37673046875,17.6269609375,6.81275,7.31808203125,8.1741484375,3.03558984375,8.041828125,5.988921875,9.8066796875,1.773359375,8.97925,3.914828125,4.548703125,6.902296875,2.1406875,4.965515625,3.91379296875,-1.0158515625,0.91528515625,4.75303515625,2.62950390625,0.16685546875,-3.18622265625,11.4177890625,-2.9913515625,1.54808984375,0.99768359375,2.0877265625
7.16625390625,2.894,7.31873046875,15.5029609375,5.87775,6.58708203125,7.9781484375,0.92958984375,6.593828125,4.265921875,8.6526796875,1.902359375,9.11825,1.682828125,1.883703125,5.723296875,2.1606875,2.339515625,1.02079296875,-3.4158515625,-0.0937148437500004,2.67603515625,-0.99449609375,-3.26714453125,-4.75522265625,11.4977890625,-7.3903515625,-2.10291015625,-2.28631640625,1.6367265625
6.60325390625,2.377,7.03073046875,11.8329609375,4.10075,5.57408203125,6.7261484375,-0.58041015625,4.696828125,2.048921875,6.8246796875,1.499359375,8.64425,-1.025171875,-0.930296875,4.090296875,2.0106875,-0.544484375000001,-1.91720703125,-6.0878515625,-1.79971484375,-0.12096484375,-4.94049609375,-6.81414453125,-6.91922265625,11.0257890625,-12.3733515625,-6.12191015625,-6.66031640625,-0.2742734375
6.35225390625,1.943,5.51473046875,7.9299609375,1.97975,4.47008203125,4.8211484375,-1.11441015625,2.828828125,-0.0730781250000003,4.6216796875,0.423359375,7.67325,-3.454171875,-3.228296875,2.406296875,1.6616875,-2.962484375,-4.13620703125,-8.3628515625,-3.61171484375,-3.00096484375,-8.23649609375,-9.65714453125,-8.98622265625,10.2477890625,-16.8663515625,-9.64591015625,-11.24631640625,-3.2212734375
6.41425390625,1.684,3.25773046875,5.2239609375,0.0847500000000005,3.51008203125,2.8941484375,-0.61041015625,1.390828125,-1.587078125,2.4826796875,-1.121640625,6.47625,-4.981171875,-4.532296875,1.141296875,1.2416875,-4.415484375,-5.11320703125,-9.6138515625,-4.81671484375,-5.41096484375,-10.10049609375,-11.07314453125,-10.09922265625,9.5767890625,-19.7343515625,-11.90391015625,-14.91931640625,-6.1762734375
6.75225390625,1.657,1.05473046875,4.6349609375,-1.17125,2.89708203125,1.5801484375,0.63558984375,0.555828125,-2.217078125,0.9006796875,-2.605640625,5.36725,-5.318171875,-4.649296875,0.706296875,0.962687499999999,-4.756484375,-4.71220703125,-9.4498515625,-4.88571484375,-6.96596484375,-10.16449609375,-10.66614453125,-9.56122265625,9.4167890625,-20.1743515625,-12.37091015625,-16.64631640625,-7.8802734375
7.26825390625,1.852,-0.26226953125,6.1419609375,-1.67425,2.72108203125,1.3111484375,2.08158984375,0.235828125,-1.971078125,0.2766796875,-3.405640625,4.59525,-4.586171875,-3.691296875,1.296296875,0.9826875,-4.172484375,-3.17920703125,-7.8588515625,-3.71271484375,-7.43196484375,-8.54549609375,-8.49914453125,-7.17122265625,9.9417890625,-18.0083515625,-10.87991015625,-15.87731640625,-7.4492734375
7.76525390625,2.17,-0.12626953125,8.7909609375,-1.62625,2.89608203125,2.1501484375,3.15458984375,0.139828125,-1.119078125,0.7476796875,-3.160640625,4.25525,-3.243171875,-2.021296875,2.781296875,1.2946875,-3.064484375,-1.03920703125,-5.2368515625,-1.68171484375,-6.74196484375,-5.78049609375,-5.10014453125,-3.39222265625,10.9677890625,-13.7873515625,-7.68091015625,-12.80731640625,-4.8642734375
7.95925390625,2.44,1.51473046875,11.1649609375,-1.41625,3.16908203125,3.7201484375,3.45358984375,-0.0751718749999999,-0.0860781250000002,2.0816796875,-1.986640625,4.28725,-1.906171875,-0.154296875,4.713296875,1.6966875,-1.884484375,1.06879296875,-2.2868515625,0.49528515625,-5.03796484375,-2.64449609375,-1.30514453125,0.79477734375,12.0327890625,-8.6123515625,-3.41191015625,-8.33831640625,-1.0072734375
7.59825390625,2.498,4.15773046875,12.0789609375,-1.41025,3.22408203125,5.3121484375,2.85358984375,-0.628171875,0.690921875,3.7336796875,-0.429640625,4.56025,-1.115171875,1.389703125,6.481296875,1.8906875,-0.971484375,2.57679296875,0.2371484375,2.09728515625,-2.67696484375,0.10750390625,2.04185546875,4.29977734375,12.6427890625,-3.7203515625,1.08508984375,-3.71731640625,2.7927265625
6.64925390625,2.267,6.94073046875,11.1189609375,-1.76525,2.85208203125,6.1721484375,1.49758984375,-1.462171875,0.923921875,5.0586796875,0.831359375,4.98425,-1.119171875,2.262703125,7.554296875,1.6276875,-0.435484375000001,3.18179296875,1.8051484375,2.70128515625,-0.12196484375,2.00550390625,4.38785546875,6.39877734375,12.5117890625,-0.0323515624999997,5.04508984375,-0.0193164062499998,5.4267265625
5.38225390625,1.794,8.99073046875,8.7309609375,-2.36025,2.07608203125,5.8311484375,-0.32441015625,-2.250171875,0.566921875,5.5696796875,1.307359375,5.55125,-1.793171875,2.395703125,7.682296875,0.8196875,-0.154484375,2.93979296875,2.2791484375,2.30428515625,2.19503515625,2.98950390625,5.64185546875,7.00777734375,11.6527890625,2.1316484375,8.01308984375,2.23168359375,6.4657265625
4.23525390625,1.227,9.71373046875,5.8829609375,-2.90425,1.11908203125,4.2581484375,-2.34841015625,-2.564171875,-0.183078125,5.1156796875,0.854359375,6.26825,-2.742171875,1.987703125,6.939296875,-0.4623125,0.103515625,2.18879296875,1.8851484375,1.22428515625,3.96803515625,3.33750390625,6.10785546875,6.59277734375,10.2927890625,2.9996484375,9.87908984375,3.10968359375,6.1957265625
3.57825390625,0.728,8.92173046875,3.5709609375,-3.11925,0.25508203125,1.8041484375,-4.41541015625,-2.142171875,-0.999078125,3.8846796875,-0.370640625,7.02925,-3.531171875,1.383703125,5.615296875,-2.0663125,0.504515625,1.36879296875,1.0281484375,-0.13871484375,5.01503515625,3.43450390625,6.22885546875,5.82277734375,8.7087890625,3.0706484375,10.75508984375,3.03868359375,5.2597265625
3.55125390625,0.381,6.84373046875,2.4449609375,-2.89825,-0.33991796875,-0.9698515625,-6.38741015625,-1.074171875,-1.573078125,2.2866796875,-2.064640625,7.58025,-3.884171875,0.910703125,4.056296875,-3.8293125,1.038515625,0.825792968750001,0.0781484375000003,-1.49071484375,5.25703515625,3.55450390625,6.33485546875,5.17777734375,7.1087890625,2.7996484375,10.82208984375,2.48468359375,4.2237265625
4.04525390625,0.167,4.04173046875,2.6939609375,-2.34725,-0.64891796875,-3.4618515625,-7.99641015625,0.230828125,-1.735078125,0.7906796875,-3.894640625,7.63125,-3.754171875,0.767703125,2.564296875,-5.5943125,1.560515625,0.729792968750001,-0.7338515625,-2.69671484375,4.76103515625,3.77550390625,6.52685546875,4.77777734375,5.6227890625,2.4596484375,10.29708984375,1.80868359375,3.3507265625
4.76625390625,0.019,1.26173046875,4.0829609375,-1.70325,-0.79491796875,-5.1688515625,-8.83241015625,1.270828125,-1.487078125,-0.2273203125,-5.534640625,7.02925,-3.253171875,0.990703125,1.377296875,-7.1693125,1.938515625,1.08379296875,-1.3248515625,-3.69271484375,3.80203515625,4.05050390625,6.73085546875,4.44977734375,4.3817890625,2.1776484375,9.47508984375,1.29768359375,2.6797265625
5.34625390625,-0.098,-0.77426953125,6.0949609375,-1.19725,-0.94491796875,-5.7798515625,-8.51141015625,1.727828125,-0.955078125,-0.5713203125,-6.656640625,5.88225,-2.526171875,1.483703125,0.688296875,-8.2943125,2.185515625,1.78379296875,-1.6838515625,-4.37871484375,2.85703515625,4.32350390625,6.82785546875,3.96077734375,3.5737890625,2.0406484375,8.74608984375,1.22468359375,2.2497265625
5.53625390625,-0.162,-1.57526953125,8.0929609375,-0.94825,-1.21191796875,-5.1918515625,-6.92541015625,1.621828125,-0.301078125,-0.2413203125,-6.961640625,4.51725,-1.658171875,2.085703125,0.614296875,-8.6743125,2.466515625,2.66479296875,-1.8268515625,-4.57671484375,2.44103515625,4.58050390625,6.73785546875,3.20377734375,3.4257890625,2.1186484375,8.46308984375,1.79568359375,2.2207265625
5.36025390625,-0.138,-1.02626953125,9.4889609375,-0.92725,-1.58691796875,-3.5138515625,-4.38141015625,1.238828125,0.346921875,0.5946796875,-6.287640625,3.32725,-0.691171875,2.629703125,1.136296875,-8.0803125,2.963515625,3.52479296875,-1.7918515625,-4.10771484375,2.84903515625,4.79450390625,6.40985546875,2.24477734375,4.0987890625,2.3856484375,8.73408984375,2.98268359375,2.7727265625
5.08125390625,-0.049,0.57973046875,9.8619609375,-0.99925,-1.97191796875,-1.0988515625,-1.55041015625,0.904828125,0.914921875,1.6696796875,-4.744640625,2.59525,0.301828125,2.977703125,2.051296875,-6.4843125,3.688515625,4.13679296875,-1.6698515625,-2.93471484375,3.96303515625,4.84950390625,5.76885546875,1.22677734375,5.5517890625,2.6166484375,9.28008984375,4.39468359375,3.8647265625
4.97725390625,0.011,2.62773046875,9.0459609375,-1.00925,-2.25991796875,1.4411484375,0.76058984375,0.784828125,1.368921875,2.6746796875,-2.779640625,2.39825,1.152828125,3.041703125,3.013296875,-4.1493125,4.418515625,4.28879296875,-1.6048515625,-1.28171484375,5.28703515625,4.53550390625,4.72085546875,0.24177734375,7.4797890625,2.4046484375,9.50808984375,5.33268359375,5.0837265625
5.12525390625,-0.071,4.40373046875,7.1849609375,-0.84625,-2.40191796875,3.3531484375,1.91858984375,0.823828125,1.690921875,3.3436796875,-1.060640625,2.63825,1.641828125,2.795703125,3.657296875,-1.5973125,4.796515625,3.86079296875,-1.7268515625,0.40528515625,6.21403515625,3.66650390625,3.23585546875,-0.695222656249999,9.3787890625,1.3616484375,8.84508984375,5.11568359375,5.7707265625
5.37225390625,-0.351,5.37373046875,4.7569609375,-0.49325,-2.41291796875,4.0171484375,1.73558984375,0.856828125,1.861921875,3.5256796875,-0.198640624999999,3.11625,1.621828125,2.287703125,3.763296875,0.560687499999999,4.559515625,2.92579296875,-2.0538515625,1.63828515625,6.37003515625,2.26050390625,1.46585546875,-1.56022265625,10.7457890625,-0.5863515625,7.11408984375,3.49668359375,5.3937265625
5.47825390625,-0.792,5.36673046875,2.4569609375,-0.0202499999999994,-2.34891796875,3.2021484375,0.52058984375,0.755828125,1.864921875,3.2246796875,-0.447640625,3.62025,1.131828125,1.646703125,3.352296875,1.8356875,3.712515625,1.76379296875,-2.4378515625,2.12328515625,5.79603515625,0.62850390625,-0.20814453125,-2.20422265625,11.3017890625,-3.0193515625,4.72108984375,0.88868359375,3.9097265625
5.29825390625,-1.293,4.58273046875,0.9469609375,0.44975,-2.27791796875,1.1461484375,-1.10241015625,0.501828125,1.683921875,2.5816796875,-1.581640625,3.96425,0.391828125,1.043703125,2.661296875,2.0106875,2.547515625,0.771792968750001,-2.6238515625,1.87928515625,4.86403515625,-0.71549609375,-1.28514453125,-2.36922265625,11.1007890625,-5.1263515625,2.47608984375,-1.79131640625,1.8527265625
4.91725390625,-1.745,3.43873046875,0.6089609375,0.80875,-2.25391796875,-1.5458515625,-2.51641015625,0.179828125,1.324921875,1.8086796875,-3.011640625,4.03425,-0.310171875,0.641703125,1.996296875,1.1596875,1.473515625,0.276792968750001,-2.3998515625,1.15828515625,4.00503515625,-1.30149609375,-1.36114453125,-1.82822265625,10.4497890625,-6.0433515625,1.17808984375,-3.56831640625,0.0637265625
4.67625390625,-2.071,2.37773046875,1.4469609375,1.01875,-2.25691796875,-4.0938515625,-3.34641015625,-0.0801718749999999,0.839921875,1.1186796875,-4.101640625,3.81525,-0.753171875,0.534703125,1.576296875,-0.4483125,0.812515625,0.389792968750001,-1.7338515625,0.25228515625,3.47003515625,-0.94049609375,-0.326144531250001,-0.57522265625,9.6907890625,-5.2453515625,1.24008984375,-3.83431640625,-0.7252734375
5.01625390625,-2.214,1.71473046875,3.1729609375,1.13675,-2.17691796875,-5.7568515625,-3.50741015625,-0.151171875,0.349921875,0.6866796875,-4.474640625,3.41825,-0.831171875,0.750703125,1.456296875,-2.4753125,0.676515625,0.999792968750001,-0.7928515625,-0.66771484375,3.26803515625,0.20850390625,1.58785546875,1.11677734375,9.0107890625,-2.7483515625,2.58108984375,-2.51031640625,-0.1822734375
6.17325390625,-2.104,1.57073046875,5.3419609375,1.29275,-1.84591796875,-6.0328515625,-3.11941015625,0.0588281250000001,0.0559218749999997,0.6386796875,-4.148640625,3.05325,-0.510171875000001,1.296703125,1.568296875,-4.6053125,1.014515625,1.90179296875,0.175148437500001,-1.58671484375,3.30103515625,1.78250390625,3.95185546875,2.82577734375,8.3767890625,0.9416484375,4.79508984375,0.07568359375,1.5627265625
7.94425390625,-1.654,1.88673046875,7.4459609375,1.62975,-1.12791796875,-4.7908515625,-2.39541015625,0.592828125,0.193921875,1.0406796875,-3.443640625,2.96025,0.256828125,2.202703125,1.824296875,-6.5803125,1.727515625,2.95879296875,1.0131484375,-2.54571484375,3.52903515625,3.44150390625,6.34385546875,4.18977734375,7.6237890625,5.0666484375,7.41608984375,3.42368359375,4.0627265625
9.75925390625,-0.819,2.51473046875,8.9969609375,2.23875,-0.00691796874999984,-2.2918515625,-1.57641015625,1.437828125,0.939921875,1.8746796875,-2.758640625,3.29225,1.540828125,3.499703125,2.188296875,-8.1893125,2.747515625,4.16579296875,1.7291484375,-3.52571484375,4.01403515625,5.01450390625,8.48985546875,5.07677734375,6.6207890625,8.8826484375,10.07008984375,7.05568359375,6.7697265625
11.00225390625,0.314,3.30173046875,9.6589609375,3.11775,1.37408203125,0.8791484375,-0.89941015625,2.527828125,2.298921875,3.0026796875,-2.374640625,4.02925,3.368828125,5.139703125,2.684296875,-9.2633125,4.009515625,5.58279296875,2.4451484375,-4.39371484375,4.81103515625,6.48050390625,10.27185546875,5.58777734375,5.4007890625,11.8416484375,12.47908984375,10.57768359375,9.2267265625
11.33825390625,1.495,4.09873046875,9.4159609375,4.15675,2.72808203125,3.8961484375,-0.55941015625,3.745828125,4.061921875,4.1676796875,-2.362640625,4.97325,5.599828125,6.915703125,3.322296875,-9.6873125,5.383515625,7.17879296875,3.2411484375,-4.95271484375,5.80803515625,7.83250390625,11.64285546875,5.91677734375,4.1547890625,13.6376484375,14.36908984375,13.64668359375,11.1507265625
10.80725390625,2.366,4.72173046875,8.6369609375,5.16775,3.70208203125,5.8471484375,-0.66041015625,4.918828125,5.834921875,5.0336796875,-2.646640625,5.85125,7.852828125,8.457703125,4.018296875,-9.4213125,6.625515625,8.72379296875,4.0221484375,-5.06471484375,6.67803515625,8.95650390625,12.52485546875,6.15777734375,3.0757890625,14.1606484375,15.41708984375,15.89468359375,12.3677265625
9.70325390625,2.594,4.97573046875,7.9479609375,5.92475,3.98708203125,6.0111484375,-1.15341015625,5.834828125,7.143921875,5.2676796875,-3.109640625,6.44325,9.564828125,9.322703125,4.546296875,-8.5273125,7.430515625,9.81379296875,4.4821484375,-4.75271484375,7.00203515625,9.59850390625,12.76985546875,6.19877734375,2.1907890625,13.4206484375,15.31508984375,16.91668359375,12.6847265625
8.36325390625,2.015,4.75573046875,7.9299609375,6.20375,3.42508203125,4.1741484375,-1.84341015625,6.284828125,7.559921875,4.6146796875,-3.694640625,6.68125,10.160828125,9.144703125,4.598296875,-7.1553125,7.549515625,10.02679296875,4.2211484375,-4.18871484375,6.49603515625,9.47550390625,12.20585546875,5.79677734375,1.3347890625,11.5546484375,13.93808984375,16.39968359375,11.8947265625
6.97125390625,0.706,4.15773046875,8.8019609375,5.84175,2.05508203125,0.7701484375,-2.45241015625,6.129828125,6.826921875,2.9886796875,-4.410640625,6.66525,9.306828125,7.799703125,3.922296875,-5.5043125,6.912515625,9.12479296875,2.9801484375,-3.57971484375,5.21903515625,8.44750390625,10.77285546875,4.79077734375,0.339789062500001,8.8796484375,11.52408984375,14.35768359375,9.9787265625
5.50925390625,-1.017,3.44773046875,10.3019609375,4.78175,0.07508203125,-3.2768515625,-2.73541015625,5.351828125,4.959921875,0.5336796875,-5.262640625,6.58725,7.098828125,5.489703125,2.496296875,-3.7623125,5.675515625,7.19479296875,0.8441484375,-3.01871484375,3.56703515625,6.64250390625,8.64185546875,3.31477734375,-0.724210937499999,5.9186484375,8.68608984375,11.27368359375,7.3557265625
3.89025390625,-2.704,2.90873046875,11.8169609375,3.10875,-2.21791796875,-6.9278515625,-2.55841015625,4.058828125,2.283921875,-2.3603203125,-6.166640625,6.60225,4.083828125,2.718703125,0.607296875,-2.0763125,4.154515625,4.64579296875,-1.7028515625,-2.43571484375,2.06703515625,4.43750390625,6.21885546875,1.81477734375,-1.4962109375,3.2886484375,6.18508984375,7.97968359375,4.8617265625
2.17125390625,-3.93,2.68073046875,12.6609609375,1.05775,-4.47491796875,-9.3738515625,-1.90941015625,2.445828125,-0.637078125,-5.1003203125,-6.910640625,6.72025,1.093828125,0.156703125,-1.214703125,-0.5653125,2.673515625,2.06879296875,-3.9508515625,-1.65571484375,1.08303515625,2.29750390625,4.00785546875,0.85977734375,-1.5272109375,1.4766484375,4.56508984375,5.30368359375,3.3707265625
0.637253906249999,-4.425,2.70473046875,12.3419609375,-0.99925,-6.32791796875,-10.2298515625,-0.89041015625,0.743828125,-3.151078125,-7.0313203125,-7.223640625,6.77925,-1.070171875,-1.576296875,-2.384703125,0.6626875,1.439515625,0.0297929687500007,-5.2638515625,-0.55471484375,0.64803515625,0.56950390625,2.39985546875,0.85677734375,-0.603210937499999,0.6056484375,3.89108984375,3.67068359375,3.2837265625
-0.327746093750001,-4.154,2.80673046875,10.7189609375,-2.62525,-7.44891796875,-9.5278515625,0.32658984375,-0.806171875,-4.712078125,-7.6313203125,-6.920640625,6.52125,-1.930171875,-2.115296875,-2.503703125,1.5016875,0.493515625,-1.12720703125,-5.3698515625,0.83128515625,0.51403515625,-0.63649609375,1.50285546875,1.82477734375,1.0637890625,0.3526484375,3.74908984375,2.90868359375,4.2417265625
-0.472746093750001,-3.303,2.85873046875,8.0519609375,-3.42525,-7.63091796875,-7.5738515625,1.57658984375,-1.977171875,-5.052078125,-6.7183203125,-6.023640625,5.74325,-1.483171875,-1.477296875,-1.529703125,1.8816875,-0.239484375,-1.37720703125,-4.4668515625,2.27728515625,0.35303515625,-1.44349609375,1.11485546875,3.37577734375,2.8947890625,0.0856484374999997,3.51408984375,2.40868359375,5.3087265625
0.197253906249999,-2.206,2.87973046875,4.9409609375,-3.19325,-6.86991796875,-4.7728515625,2.78058984375,-2.590171875,-4.267078125,-4.5533203125,-4.767640625,4.44825,-0.151171875,-0.0592968750000002,0.184296875,1.7996875,-0.861484375000001,-0.967207031249999,-3.1228515625,3.45428515625,-0.0159648437500004,-2.07849609375,0.84185546875,4.89777734375,4.2097890625,-0.8233515625,2.73408984375,1.52668359375,5.5247265625
1.42425390625,-1.231,3.00373046875,2.1309609375,-2.03125,-5.41491796875,-1.5478515625,3.92558984375,-2.602171875,-2.790078125,-1.8063203125,-3.484640625,2.89325,1.419828125,1.507703125,2.034296875,1.3296875,-1.415484375,-0.28220703125,-2.0148515625,4.06228515625,-0.52296484375,-2.70949609375,0.31085546875,5.82977734375,4.5287890625,-2.6563515625,1.39708984375,0.00468359375000027,4.4697265625
2.79025390625,-0.66,3.31173046875,0.2529609375,-0.37825,-3.74791796875,1.6061484375,4.92058984375,-2.185171875,-1.255078125,0.6486796875,-2.466640625,1.50225,2.592828125,2.571703125,3.391296875,0.5706875,-1.868484375,0.29979296875,-1.6538515625,3.93928515625,-0.91896484375,-3.35349609375,-0.648144531250001,5.88377734375,3.7497890625,-5.1893515625,-0.0689101562499999,-1.88731640625,2.4727265625
3.83925390625,-0.629,3.68873046875,-0.3970390625,1.09575,-2.47491796875,4.0581484375,5.47258984375,-1.721171875,-0.297078125,2.0076796875,-1.921640625,0.67925,2.908828125,2.664703125,3.803296875,-0.4323125,-2.154484375,0.489792968750001,-2.2338515625,3.09228515625,-0.93796484375,-3.90149609375,-1.94314453125,5.11477734375,2.1007890625,-7.7893515625,-1.06591015625,-3.54131640625,0.3607265625
4.24125390625,-1.133,3.84273046875,0.0779609374999999,1.72075,-2.12091796875,5.1301484375,5.12758984375,-1.663171875,-0.360078125,1.8046796875,-2.020640625,0.62825,2.189828125,1.637703125,3.104296875,-1.7303125,-2.247484375,0.135792968750001,-3.6198515625,1.65328515625,-0.46396484375,-4.22049609375,-3.30014453125,3.82377734375,-0.0392109374999992,-9.6993515625,-1.15591015625,-4.37931640625,-1.0412734375
3.93525390625,-2.065,3.49173046875,1.2539609375,1.11075,-2.90891796875,4.3471484375,3.53258984375,-2.282171875,-1.536078125,0.0676796875000001,-2.952640625,1.30625,0.571828125,-0.288296875,1.434296875,-3.4243125,-2.183484375,-0.733207031249999,-5.4448515625,-0.17171484375,0.41203515625,-4.22949609375,-4.37214453125,2.42077734375,-2.3152109375,-10.3303515625,-0.26391015625,-4.11431640625,-1.2952734375
3.14525390625,-3.238,2.57173046875,2.5579609375,-0.619249999999999,-4.62291796875,1.7121484375,0.72058984375,-3.460171875,-3.511078125,-2.6663203125,-4.854640625,2.50525,-1.499171875,-2.553296875,-0.790703125,-5.5433125,-2.020484375,-1.87220703125,-7.2038515625,-2.12771484375,1.45603515625,-3.90249609375,-4.82114453125,1.29077734375,-4.4502109375,-9.4283515625,1.35008984375,-2.79331640625,-0.4092734375
2.27525390625,-4.376,1.30573046875,3.4719609375,-2.83225,-6.64191796875,-2.1668515625,-2.74841015625,-4.672171875,-5.634078125,-5.5113203125,-7.643640625,4.01025,-3.358171875,-4.387296875,-2.946703125,-7.9443125,-1.738484375,-2.83920703125,-8.3648515625,-3.91971484375,2.43503515625,-3.19549609375,-4.36114453125,0.71077734375,-6.2232109375,-7.0603515625,3.30308984375,-0.64831640625,1.3627265625
1.78125390625,-5.153,0.11473046875,3.7229609375,-4.58325,-8.13891796875,-6.1578515625,-5.89741015625,-5.176171875,-7.111078125,-7.5043203125,-10.864640625,5.71325,-4.290171875,-5.039296875,-4.357703125,-10.3053125,-1.182484375,-3.10520703125,-8.4778515625,-5.25871484375,3.26603515625,-1.98849609375,-2.79714453125,0.791777343750001,-7.4632109375,-3.5063515625,5.32408984375,2.07868359375,3.7457265625
2.06325390625,-5.294,-0.55326953125,3.4049609375,-4.99325,-8.37991796875,-8.9288515625,-7.67341015625,-4.348171875,-7.292078125,-7.9113203125,-13.713640625,7.60725,-3.762171875,-4.027296875,-4.507703125,-12.2453125,-0.0884843750000002,-2.23820703125,-7.3168515625,-5.94271484375,4.07503515625,-0.0944960937500001,-0.105144531250001,1.45677734375,-8.1182109375,0.8536484375,7.38608984375,5.21368359375,6.5147265625
3.34025390625,-4.709,-0.39426953125,2.9509609375,-3.61525,-7.01791796875,-9.4318515625,-7.38341015625,-1.993171875,-5.930078125,-6.4593203125,-15.301640625,9.68125,-1.609171875,-1.340296875,-3.248703125,-13.4873125,1.789515625,-0.0722070312499996,-4.9798515625,-5.93771484375,5.13303515625,2.63750390625,3.51385546875,2.48377734375,-8.3272109375,5.6056484375,9.64708984375,8.60168359375,9.4347265625
5.49925390625,-3.567,0.63773046875,2.9609609375,-0.61025,-4.25391796875,-7.3468515625,-5.01341015625,1.511828125,-3.293078125,-3.4213203125,-15.052640625,11.79125,1.881828125,2.536703125,-0.887703125,-13.9723125,4.513515625,3.19579296875,-1.8998515625,-5.39771484375,6.69703515625,6.18050390625,7.62785546875,3.59177734375,-8.3932109375,10.3166484375,12.26608984375,12.01568359375,12.1737265625
8.08425390625,-2.233,2.32373046875,3.9389609375,3.32075,-0.75591796875,-3.2248515625,-1.24541015625,5.334828125,-0.0670781250000001,0.4846796875,-13.017640625,13.62425,6.064828125,6.776703125,1.917296875,-13.8383125,7.854515625,7.04979296875,1.2921484375,-4.60171484375,8.83403515625,10.23150390625,11.66985546875,4.54177734375,-8.6452109375,14.5436484375,15.20408984375,15.10368359375,14.3187265625
10.48025390625,-1.103,4.27773046875,6.0459609375,7.23975,2.63308203125,1.7691484375,2.83058984375,8.528828125,2.938921875,4.3596796875,-9.853640625,14.79725,10.165828125,10.522703125,4.416296875,-13.3003125,11.298515625,10.80879296875,3.9841484375,-3.83371484375,11.29203515625,14.21750390625,15.06885546875,5.20077734375,-9.2532109375,17.8606484375,18.09608984375,17.41968359375,15.4577265625
12.18725390625,-0.421,6.09773046875,8.9589609375,10.33275,5.24308203125,6.3521484375,6.12658984375,10.409828125,5.128921875,7.4476796875,-6.478640625,15.02125,13.530828125,13.186703125,6.074296875,-12.5073125,14.164515625,13.82979296875,5.7981484375,-3.27771484375,13.49803515625,17.39950390625,17.38785546875,5.54877734375,-10.1362109375,19.8936484375,20.26508984375,18.50068359375,15.3037265625
12.99525390625,-0.182,7.48373046875,11.9149609375,12.17575,6.79608203125,9.5701484375,7.90158984375,10.780828125,6.329921875,9.3756796875,-3.620640625,14.21325,15.784828125,14.612703125,6.751296875,-11.4813125,15.782515625,15.66379296875,6.6761484375,-2.97471484375,14.69203515625,19.06850390625,18.40085546875,5.64877734375,-11.0092109375,20.3956484375,20.90008984375,17.96768359375,13.7817265625
13.00425390625,-0.189,8.30573046875,13.9929609375,12.80575,7.43808203125,11.0491484375,7.94058984375,9.917828125,6.784921875,10.2116796875,-1.556640625,12.51125,16.859828125,15.040703125,6.693296875,-10.1663125,15.698515625,16.14979296875,6.8351484375,-2.83771484375,14.20703515625,18.77850390625,18.12585546875,5.61577734375,-11.5172109375,19.3336484375,19.37808984375,15.66568359375,11.1017265625
12.54125390625,-0.202,8.63873046875,14.5019609375,12.59575,7.59308203125,11.0311484375,6.60958984375,8.394828125,6.946921875,10.3356796875,-0.173640625,10.23325,16.936828125,14.925703125,6.344296875,-8.5063125,13.864515625,15.42979296875,6.6161484375,-2.70871484375,11.80203515625,16.54850390625,16.80985546875,5.58277734375,-11.3832109375,16.9696484375,15.62708984375,11.81268359375,7.7587265625
12.01725390625,-0.093,8.71773046875,13.2549609375,12.02675,7.73008203125,10.1831484375,4.75258984375,6.840828125,7.219921875,10.1876796875,0.786359375,7.79925,16.339828125,14.710703125,6.096296875,-6.5203125,10.720515625,13.90179296875,6.3241484375,-2.42871484375,7.88203515625,12.92750390625,14.85685546875,5.65677734375,-10.4952109375,13.8336484375,10.27808984375,7.02568359375,4.4217265625
11.73225390625,0.084,8.79973046875,10.5879609375,11.44175,8.10008203125,9.2451484375,3.40458984375,5.724828125,7.726921875,10.0266796875,1.500359375,5.64925,15.404828125,14.625703125,6.102296875,-4.3383125,7.084515625,12.05879296875,6.0991484375,-1.91471484375,3.40803515625,8.81250390625,12.68185546875,5.85177734375,-8.9322109375,10.5326484375,4.47608984375,2.14368359375,1.7107265625
11.73225390625,0.16,8.98973046875,7.1769609375,10.89975,8.57508203125,8.6751484375,3.33958984375,5.181828125,8.230921875,9.8086796875,2.008359375,4.12225,14.349828125,14.575703125,6.229296875,-2.2063125,3.844515625,10.26979296875,5.8601484375,-1.22471484375,-0.48396484375,5.08950390625,10.52385546875,6.02577734375,-6.9682109375,7.4586484375,-0.59691015625,-2.10131640625,-0.0562734375
11.80325390625,-0.026,9.15873046875,3.8089609375,10.17075,8.68408203125,8.5051484375,4.66158984375,4.970828125,8.212921875,9.2476796875,2.292359375,3.34725,13.202828125,14.170703125,6.158296875,-0.4223125,1.603515625,8.60979296875,5.3361484375,-0.56371484375,-2.96396484375,2.25250390625,8.33385546875,5.88777734375,-5.0302109375,4.5876484375,-4.22491015625,-5.39131640625,-1.0032734375
11.61625390625,-0.517,9.03173046875,1.1909609375,8.88275,7.85508203125,8.4411484375,6.71858984375,4.591828125,7.102921875,8.0026796875,2.372359375,3.20725,11.831828125,12.900703125,5.574296875,0.7396875,0.467515625,6.87179296875,4.1941484375,-0.22271484375,-3.80296484375,0.24150390625,5.80785546875,5.10277734375,-3.6122109375,1.5056484375,-6.38891015625,-7.90231640625,-1.6332734375
10.87725390625,-1.221,8.38073046875,-0.2250390625,6.74875,5.72108203125,8.0741484375,8.43458984375,3.547828125,4.568921875,5.8986796875,2.325359375,3.41725,10.074828125,10.406703125,4.334296875,1.1106875,0.0925156249999999,4.74079296875,2.1971484375,-0.47171484375,-3.38196484375,-1.40149609375,2.60985546875,3.44377734375,-3.1272109375,-2.3023515625,-7.63591015625,-10.10831640625,-2.5582734375
9.44725390625,-1.972,7.19873046875,-0.3620390625,3.79675,2.37808203125,7.1211484375,8.90458984375,1.647828125,0.758921875,3.0776796875,2.227359375,3.69525,7.913828125,6.750703125,2.554296875,0.6736875,-0.0474843750000007,2.06379296875,-0.6218515625,-1.44071484375,-2.41496484375,-3.16349609375,-1.33414453125,0.95477734375,-3.7082109375,-7.0363515625,-8.65391015625,-12.39031640625,-4.1082734375
7.47725390625,-2.605,5.79773046875,0.4949609375,0.49375,-1.52591796875,5.6411484375,7.90158984375,-0.779171875,-3.619078125,0.0466796875000001,2.091359375,3.92225,5.619828125,2.560703125,0.590296875,-0.4113125,-0.318484375000001,-0.92320703125,-3.8738515625,-3.00471484375,-1.57996484375,-5.17549609375,-5.61414453125,-1.95722265625,-5.0462109375,-12.2573515625,-9.78491015625,-14.65031640625,-6.0012734375
5.47225390625,-3.003,4.76273046875,1.8939609375,-2.31525,-4.91391796875,4.1481484375,6.01158984375,-2.921171875,-7.454078125,-2.4203203125,1.860359375,4.19325,3.753828125,-1.091296875,-1.068703125,-1.8203125,-0.728484375000001,-3.56220703125,-6.8578515625,-4.76571484375,-1.23296484375,-7.06249609375,-9.35914453125,-4.57322265625,-6.3792109375,-16.8913515625,-10.75191015625,-16.15031640625,-7.2592734375
4.16225390625,-3.101,4.73773046875,3.4419609375,-3.69325,-6.64891796875,3.4631484375,4.29858984375,-3.788171875,-9.605078125,-3.5313203125,1.458359375,4.73025,2.988828125,-3.052296875,-1.966703125,-3.1543125,-0.956484375,-4.98920703125,-8.7868515625,-6.16071484375,-1.34696484375,-8.11849609375,-11.53614453125,-6.08122265625,-6.7242109375,-19.6103515625,-10.79191015625,-15.75031640625,-6.5292734375
4.14125390625,-2.884,6.13473046875,4.9319609375,-3.02125,-6.00891796875,4.2931484375,3.71358984375,-2.681171875,-9.370078125,-2.7993203125,0.850359375,5.72125,3.787828125,-2.587296875,-1.850703125,-4.0833125,-0.607484375,-4.55420703125,-9.1188515625,-6.71071484375,-1.65796484375,-7.71949609375,-11.42214453125,-5.91822265625,-5.3072109375,-19.4523515625,-9.13891015625,-12.50331640625,-2.7292734375
5.51425390625,-2.399,8.89973046875,6.3259609375,-0.337249999999999,-3.05691796875,6.7871484375,4.59058984375,0.420828125,-6.829078125,-0.3033203125,0.0593593750000005,7.19525,6.131828125,0.242703125,-0.787703125,-4.5023125,0.502515625,-2.20820703125,-7.8498515625,-6.28371484375,-1.90096484375,-5.73249609375,-9.01814453125,-4.07722265625,-2.0022109375,-16.3833515625,-5.56691015625,-6.30031640625,4.2647265625
7.78125390625,-1.763,12.50273046875,7.6759609375,3.59075,1.30608203125,10.3761484375,6.50258984375,4.780828125,-2.885078125,3.2636796875,-0.841640625,8.99525,9.441828125,4.522703125,0.840296875,-4.5853125,2.180515625,1.36179296875,-5.5858515625,-5.20771484375,-1.97096484375,-2.67349609375,-5.17114453125,-1.19122265625,2.5137890625,-11.4663515625,-0.66991015625,1.83368359375,13.3277265625
7.78125390625,-1.763,12.50273046875,7.6759609375,3.59075,1.30608203125,10.3761484375,6.50258984375,4.780828125,-2.885078125,3.2636796875,-0.841640625,8.99525,9.441828125,4.522703125,0.840296875,-4.5853125,2.180515625,1.36179296875,-5.5858515625,-5.20771484375,-1.97096484375,-2.67349609375,-5.17114453125,-1.19122265625,2.5137890625,-11.4663515625,-0.66991015625,1.83368359375,13.3277265625
