"Fp1","Fpz","Fp2","F7","F3","Fz","F4","F8","FC5","FC1","FC2","FC6","T7","C3","Cz","C4","T8","CP5","CP1","CP2","CP6","P7","P3","Pz","P4","P8","POz","O1","Oz","O2"
4.22434765625,5.14734375,4.934390625,6.00640625,2.91167578125,6.06889453125,10.63764453125,11.93734375,-2.7355234375,5.40475,12.8740625,1.67981640625,-3.9270234375,-1.431265625,8.33005078125,11.60041015625,7.24979296875,-7.0916484375,6.84561328125,13.97197265625,15.0373046875,-6.45869140625,1.34613671875,13.98057421875,12.4098359375,3.14611328125,4.33921484375,-11.0651484375,-3.7595546875,1.31737109375
4.92834765625,4.93334375,2.941390625,5.51940625,3.27867578125,4.50089453125,10.04664453125,12.18734375,-3.3035234375,5.49475,11.8560625,1.36381640625,-4.0060234375,-1.275265625,10.98205078125,11.04641015625,7.01979296875,-7.3186484375,5.22661328125,14.11797265625,13.9973046875,-8.46769140625,-1.27486328125,12.62057421875,11.1618359375,2.62811328125,1.65021484375,-14.0091484375,-6.3805546875,0.43437109375
5.66234765625,5.25934375,2.302390625,5.59040625,4.14267578125,3.95489453125,9.21964453125,11.65834375,-2.9715234375,6.15075,10.6300625,0.69281640625,-3.3530234375,-0.898265625,13.15005078125,9.59541015625,6.53579296875,-7.1356484375,4.34261328125,13.66597265625,12.1903046875,-9.08069140625,-2.82086328125,11.22857421875,9.3418359375,1.76611328125,-0.49478515625,-15.3641484375,-8.2725546875,-0.99262890625
6.24234765625,6.10334375,3.257390625,6.05140625,5.26067578125,4.17789453125,8.03064453125,10.28434375,-1.8985234375,7.06575,9.1060625,-0.355183593750001,-2.3350234375,-0.507265625,14.49705078125,7.27841015625,5.72879296875,-6.6926484375,4.05461328125,12.56097265625,9.6753046875,-8.06069140625,-3.14586328125,9.82457421875,7.0338359375,0.54111328125,-1.92178515625,-14.9741484375,-9.2265546875,-2.81962890625
6.34034765625,7.14434375,5.408390625,6.46840625,6.10067578125,4.50989453125,6.38764453125,8.26634375,-0.6105234375,7.62375,7.2380625,-1.66518359375,-1.5740234375,-0.456265625,14.66905078125,4.47741015625,4.63079296875,-6.2856484375,3.91061328125,10.91197265625,6.8423046875,-5.67069140625,-2.43986328125,8.45357421875,4.5778359375,-0.86588671875,-2.56878515625,-13.1591484375,-9.1825546875,-4.60862890625
5.61434765625,7.84434375,7.785390625,6.36940625,6.09667578125,4.24389453125,4.29964453125,5.99034375,0.2574765625,7.20175,5.0600625,-2.99918359375,-1.5690234375,-1.073265625,13.38805078125,1.74641015625,3.37579296875,-6.1936484375,3.33961328125,8.88797265625,4.2353046875,-2.65969140625,-1.16386328125,7.15357421875,2.3988359375,-2.14488671875,-2.51278515625,-10.5621484375,-8.2645546875,-5.84462890625
3.91534765625,7.67734375,9.247390625,5.49740625,4.95567578125,2.99589453125,1.94264453125,3.89534375,0.2464765625,5.49575,2.7010625,-4.07418359375,-2.4380234375,-2.479265625,10.58405078125,-0.42858984375,2.14879296875,-6.5356484375,1.91161328125,6.61797265625,2.2813046875,-0.00269140624999986,0.0941367187500002,5.91757421875,0.7938359375,-3.04688671875,-1.96978515625,-7.9201484375,-6.7815546875,-6.20162890625
1.45134765625,6.37934375,9.019390625,3.95040625,2.86667578125,0.90589453125,-0.290355468750001,2.33634375,-0.7285234375,2.72175,0.4000625,-4.67518359375,-3.8860234375,-4.476265625,6.55205078125,-1.80558984375,1.10879296875,-7.2146484375,-0.43238671875,4.18497265625,1.0943046875,1.52030859375,0.84113671875,4.70657421875,-0.1831640625,-3.52788671875,-1.21078515625,-5.8161484375,-5.1535546875,-5.69162890625
-1.22565234375,4.10834375,7.018390625,2.12840625,0.46167578125,-1.41210546875,-1.86335546875,1.50834375,-2.3435234375,-0.38725,-1.5129375,-4.76518359375,-5.3400234375,-6.548265625,2.02105078125,-2.40658984375,0.33979296875,-7.9206484375,-3.29738671875,1.70597265625,0.4953046875,1.69030859375,0.89713671875,3.53057421875,-0.6731640625,-3.73788671875,-0.43578515625,-4.5011484375,-3.7455546875,-4.61162890625
-3.43665234375,1.41034375,3.827390625,0.55440625,-1.45832421875,-3.14710546875,-2.31135546875,1.43634375,-3.9905234375,-2.84625,-2.6879375,-4.49718359375,-6.1670234375,-8.019265625,-1.97294921875,-2.42058984375,-0.13720703125,-8.2376484375,-5.93538671875,-0.569027343749999,0.2053046875,0.94030859375,0.47613671875,2.50957421875,-0.8481640625,-3.86388671875,0.31821484375,-3.8611484375,-2.7215546875,-3.35662890625
-4.68365234375,-0.97165625,0.410390625,-0.35359375,-2.29932421875,-3.68510546875,-1.49435546875,1.99734375,-5.0515234375,-3.82125,-2.8799375,-4.13118359375,-5.9310234375,-8.319265625,-4.42394921875,-2.06358984375,-0.34920703125,-7.8236484375,-7.53838671875,-2.26102734375,0.0623046875000002,0.0923085937500001,0.0781367187500001,1.87857421875,-0.7691640625,-3.98488671875,1.16421484375,-3.5321484375,-2.0095546875,-2.22762890625
-4.85565234375,-2.34565625,-2.201609375,-0.45959375,-1.92232421875,-2.89810546875,0.29164453125,2.93234375,-5.1715234375,-3.00625,-2.0619375,-3.86118359375,-4.6060234375,-7.240265625,-4.74694921875,-1.48658984375,-0.34920703125,-6.5816484375,-7.56838671875,-2.97502734375,0.1163046875,-0.13369140625,0.21513671875,1.88957421875,-0.345164062499999,-4.03188671875,2.27121484375,-3.1231484375,-1.3835546875,-1.34562890625
-4.19365234375,-2.29465625,-3.179609375,0.0774062500000001,-0.63332421875,-1.17010546875,2.43964453125,3.88734375,-4.3775234375,-0.74025,-0.451937500000001,-3.69118359375,-2.6590234375,-5.037265625,-2.99894921875,-0.73758984375,-0.20620703125,-4.7396484375,-5.96338671875,-2.47302734375,0.5603046875,0.48430859375,1.14613671875,2.69357421875,0.598835937500001,-3.86788671875,3.75321484375,-2.3951484375,-0.6175546875,-0.65362890625
-3.09465234375,-0.82865625,-2.144609375,0.90940625,1.02367578125,0.85489453125,4.31064453125,4.52734375,-3.0065234375,2.17675,1.5700625,-3.44318359375,-0.9170234375,-2.318265625,0.18505078125,0.21041015625,0.0247929687499999,-2.7676484375,-3.13838671875,-0.806027343749999,1.5863046875,1.59630859375,2.74813671875,4.26457421875,2.1928359375,-3.36488671875,5.59121484375,-1.3511484375,0.3924453125,0.0133710937500002
-1.91365234375,1.58734375,0.628390625,1.64940625,2.51367578125,2.60389453125,5.51164453125,4.68434375,-1.5325234375,4.83175,3.5890625,-2.92018359375,-0.2230234375,0.185734375,3.85705078125,1.38441015625,0.31879296875,-1.1966484375,0.18961328125,1.65797265625,3.2373046875,2.55830859375,4.58013671875,6.36957421875,4.4098359375,-2.45388671875,7.62221484375,-0.203148437499999,1.5864453125,0.84437109375
-0.87665234375,4.14134375,4.210390625,1.99240625,3.45167578125,3.76089453125,6.00064453125,4.44334375,-0.4345234375,6.50975,5.2620625,-2.10418359375,-1.0210234375,1.839734375,7.08005078125,2.73741015625,0.69179296875,-0.4256484375,3.21261328125,4.32997265625,5.3373046875,2.82030859375,6.07313671875,8.61757421875,7.0078359375,-1.12688671875,9.56421484375,0.730851562500001,2.7654453125,1.95837109375
-0.10165234375,5.96834375,7.350390625,1.80640625,3.64567578125,4.26589453125,6.00664453125,4.09734375,-0.1105234375,6.85775,6.3560625,-1.23018359375,-3.0650234375,2.259734375,9.14505078125,4.09641015625,1.16679296875,-0.5966484375,5.22561328125,6.57797265625,7.5183046875,2.18030859375,6.74413671875,10.53557421875,9.5528359375,0.53711328125,11.05721484375,1.1408515625,3.6504453125,3.31137109375
0.35634765625,6.50434375,9.026390625,1.19440625,3.08967578125,4.20789453125,5.82964453125,3.97134375,-0.7655234375,5.90075,6.7490625,-0.67518359375,-5.4420234375,1.391734375,9.68105078125,5.17741015625,1.72979296875,-1.5596484375,5.76461328125,7.90097265625,9.3223046875,0.82230859375,6.33913671875,11.68357421875,11.5138359375,2.33711328125,11.74021484375,0.8178515625,3.9504453125,4.64837109375
0.49534765625,5.73534375,8.911390625,0.48240625,1.96367578125,3.72389453125,5.63764453125,4.22634375,-2.2755234375,3.97575,6.4110625,-0.746183593750001,-6.9480234375,-0.480265625,8.66305078125,5.67241015625,2.30179296875,-2.9286484375,4.70461328125,8.03997265625,10.3403046875,-0.81769140625,4.88113671875,11.75857421875,12.3948359375,3.94011328125,11.34121484375,-0.3151484375,3.4374453125,5.54537109375
0.36234765625,4.16834375,7.435390625,0.0914062499999999,0.60767578125,2.92289453125,5.37064453125,4.74234375,-4.1515234375,1.60275,5.3870625,-1.49718359375,-6.6670234375,-2.810265625,6.37905078125,5.35641015625,2.75679296875,-4.2126484375,2.28561328125,6.99597265625,10.3203046875,-2.24269140625,2.62913671875,10.68657421875,11.8758359375,4.93311328125,9.76921484375,-2.1961484375,2.0184453125,5.55437109375
0.0453476562499999,2.54534375,5.440390625,0.32840625,-0.55432421875,1.86789453125,4.77864453125,5.18034375,-5.7025234375,-0.66025,3.7930625,-2.71818359375,-4.4760234375,-4.949265625,3.38105078125,4.18341015625,2.97579296875,-5.0006484375,-0.92638671875,4.98997265625,9.2113046875,-3.08169140625,-0.00986328124999986,8.65357421875,9.8988359375,4.94911328125,7.17521484375,-4.6491484375,-0.2205546875,4.39737109375
-0.31765234375,1.48334375,3.694390625,1.24640625,-1.14532421875,0.62889453125,3.59364453125,5.18634375,-6.3105234375,-2.32925,1.8230625,-4.07018359375,-1.1610234375,-6.329265625,0.40205078125,2.32741015625,2.88379296875,-5.1146484375,-4.16338671875,2.40497265625,7.1563046875,-3.19569140625,-2.57886328125,6.07157421875,6.6948359375,3.77311328125,3.92921484375,-7.4151484375,-3.0255546875,2.09437109375
-0.51265234375,1.26734375,2.599390625,2.66840625,-0.95332421875,-0.61710546875,1.74464453125,4.61234375,-5.6675234375,-3.06325,-0.2179375,-5.26318359375,1.9769765625,-6.590265625,-1.76594921875,0.139410156249999,2.44279296875,-4.6626484375,-6.60938671875,-0.279027343749999,4.4413046875,-2.66669140625,-4.65386328125,3.48557421875,2.7218359375,1.41811328125,0.52421484375,-10.1841484375,-6.0485546875,-1.04262890625
-0.27265234375,1.87034375,2.217390625,4.30940625,0.0196757812499999,-1.54210546875,-0.50835546875,3.59034375,-3.8475234375,-2.70625,-1.9219375,-6.17518359375,3.7889765625,-5.629265625,-2.45494921875,-1.94658984375,1.63679296875,-3.9446484375,-7.60138671875,-2.55102734375,1.4473046875,-1.70069140625,-5.89386328125,1.42557421875,-1.4221640625,-1.85288671875,-2.54278515625,-12.6231484375,-8.9375546875,-4.52062890625
0.61334765625,3.09434375,2.470390625,5.88240625,1.58167578125,-1.77310546875,-2.60435546875,2.47234375,-1.2125234375,-1.30925,-2.8499375,-6.84418359375,3.8509765625,-3.601265625,-1.32294921875,-3.53658984375,0.49279296875,-3.2736484375,-6.80938671875,-3.96702734375,-1.3956953125,-0.52569140625,-6.09386328125,0.26157421875,-5.1191640625,-5.54688671875,-4.86878515625,-14.4061484375,-11.3875546875,-7.80862890625
2.15934765625,4.68434375,3.277390625,7.14540625,3.42267578125,-1.06210546875,-3.88935546875,1.66934375,1.7174765625,0.85375,-2.6799375,-7.38418359375,2.5849765625,-0.893265625,1.48605078125,-4.38458984375,-0.87620703125,-2.8196484375,-4.37838671875,-4.26102734375,-3.6706953125,0.64730859375,-5.24086328125,0.0935742187500006,-7.8481640625,-9.02888671875,-6.19378515625,-15.2531484375,-13.1405546875,-10.42862890625
4.10334765625,6.34134375,4.515390625,7.92440625,5.20567578125,0.57189453125,-3.90935546875,1.48634375,4.3884765625,3.34475,-1.3669375,-7.89218359375,0.9079765625,1.933734375,5.31105078125,-4.47158984375,-2.25920703125,-2.5826484375,-0.93038671875,-3.45302734375,-5.0686953125,1.62030859375,-3.55686328125,0.72857421875,-9.3041640625,-11.68388671875,-6.42878515625,-14.9991484375,-13.9745546875,-12.01662890625
5.96634765625,7.70034375,5.917390625,8.15240625,6.64967578125,2.79789453125,-2.65635546875,1.94934375,6.3234765625,5.65775,0.7600625,-8.39418359375,-0.3390234375,4.236734375,9.12605078125,-4.02258984375,-3.39820703125,-2.5086484375,2.55861328125,-1.90202734375,-5.5016953125,2.21430859375,-1.50286328125,1.74557421875,-9.4761640625,-13.12388671875,-5.65378515625,-13.6741484375,-13.7275546875,-12.37062890625
7.19234765625,8.36534375,7.054390625,7.87140625,7.57467578125,5.02389453125,-0.631355468750001,2.70034375,7.2214765625,7.32275,3.0420625,-8.88618359375,-0.8370234375,5.439734375,11.83005078125,-3.45558984375,-4.09720703125,-2.6306484375,5.02161328125,-0.242027343749999,-5.1686953125,2.30830859375,0.30413671875,2.63757421875,-8.6461640625,-13.30588671875,-4.10178515625,-11.5431484375,-12.3695546875,-11.48462890625
7.30934765625,8.01734375,7.442390625,7.18840625,7.87467578125,6.53889453125,1.30664453125,3.06434375,7.0244765625,7.98375,4.6770625,-9.40418359375,-0.8900234375,5.183734375,12.58305078125,-3.25558984375,-4.31720703125,-3.1036484375,5.61961328125,0.80797265625,-4.4966953125,1.87630859375,1.26113671875,2.98157421875,-7.2801640625,-12.48688671875,-2.10878515625,-9.0531484375,-10.0585546875,-9.55162890625
6.05134765625,6.54034375,6.714390625,6.18040625,7.45967578125,6.73489453125,2.27464453125,2.34934375,5.9114765625,7.45575,5.0070625,-10.05018359375,-1.1530234375,3.441734375,11.07005078125,-3.79358984375,-4.20120703125,-4.0936484375,4.00861328125,0.68697265625,-3.9656953125,0.99430859375,0.97613671875,2.56057421875,-5.8561640625,-11.05588671875,-0.0427851562499999,-6.7041484375,-7.1475546875,-6.91362890625
3.45234765625,4.08334375,4.771390625,4.83840625,6.25567578125,5.33189453125,1.72964453125,0.238343749999999,4.1804765625,5.77275,3.7670625,-10.92818359375,-2.1560234375,0.544734375,7.58805078125,-5.17658984375,-4.02420703125,-5.6226484375,0.48161328125,-0.80202734375,-3.9066953125,-0.15069140625,-0.58586328125,1.41357421875,-4.7091640625,-9.35388671875,1.76721484375,-4.8821484375,-4.1135546875,-3.96662890625
-0.12465234375,1.02334375,1.859390625,3.10540625,4.27567578125,2.49689453125,-0.29535546875,-2.96765625,2.0864765625,3.20975,1.1960625,-12.03318359375,-3.9240234375,-2.913265625,2.93805078125,-7.18458984375,-4.07620703125,-7.4876484375,-4.10738671875,-3.43102734375,-4.3746953125,-1.29169140625,-3.07586328125,-0.19942578125,-3.9581640625,-7.58788671875,3.08821484375,-3.7481484375,-1.4305546875,-1.07262890625
-4.04365234375,-2.13265625,-1.478609375,0.95940625,1.70767578125,-1.21210546875,-3.21935546875,-6.43265625,-0.2635234375,0.24175,-2.0549375,-13.19918359375,-5.9300234375,-6.239265625,-1.81494921875,-9.34458984375,-4.53720703125,-9.3226484375,-8.58938671875,-6.62702734375,-5.1586953125,-2.16469140625,-5.87186328125,-1.89742578125,-3.5331640625,-5.87188671875,3.81921484375,-3.2371484375,0.5774453125,1.49737109375
-7.55465234375,-4.88565625,-4.589609375,-1.50059375,-1.09232421875,-5.02710546875,-6.18235546875,-9.14265625,-2.8595234375,-2.56025,-5.1809375,-14.13818359375,-7.4540234375,-8.846265625,-5.64294921875,-11.09558984375,-5.39520703125,-10.7456484375,-11.83338671875,-9.64302734375,-5.9036953125,-2.64469140625,-8.28686328125,-3.28242578125,-3.2651640625,-4.32088671875,3.99121484375,-3.1491484375,1.8044453125,3.56137109375
-10.00965234375,-6.86165625,-6.944609375,-4.02859375,-3.70032421875,-8.20010546875,-8.38235546875,-10.34265625,-5.6345234375,-4.67725,-7.4979375,-14.54818359375,-8.0750234375,-10.392265625,-7.81194921875,-11.94858984375,-6.43320703125,-11.5146484375,-13.08038671875,-11.75502734375,-6.2436953125,-2.82669140625,-9.77286328125,-4.03142578125,-2.9701640625,-3.10488671875,3.76121484375,-3.2801484375,2.3624453125,4.99837109375
-11.03465234375,-7.86465625,-8.274609375,-6.25459375,-5.72932421875,-10.19310546875,-9.31535546875,-9.78565625,-8.3295234375,-5.75925,-8.6209375,-14.19918359375,-7.8910234375,-10.829265625,-8.03094921875,-11.60258984375,-7.29320703125,-11.5866484375,-12.15138671875,-12.42702734375,-5.9136953125,-2.93769140625,-10.06386328125,-3.95242578125,-2.4911640625,-2.39388671875,3.36821484375,-3.5021484375,2.4804453125,5.74937109375
-10.60565234375,-7.86865625,-8.575609375,-7.75859375,-6.88732421875,-10.79110546875,-8.87235546875,-7.73765625,-10.4925234375,-5.70125,-8.5169375,-12.99418359375,-7.3390234375,-10.348265625,-6.49294921875,-10.00258984375,-7.59420703125,-11.0836484375,-9.46738671875,-11.42402734375,-4.8006953125,-3.14869140625,-9.21086328125,-3.00242578125,-1.7121640625,-2.23488671875,3.08021484375,-3.7761484375,2.3864453125,5.84037109375
-9.02365234375,-6.99465625,-8.003609375,-8.18559375,-7.00332421875,-10.11310546875,-7.34535546875,-4.79565625,-11.6395234375,-4.66125,-7.4569375,-11.04118359375,-6.8210234375,-9.273265625,-3.80894921875,-7.38358984375,-7.08120703125,-10.2026484375,-5.87738671875,-8.88502734375,-2.9806953125,-3.42269140625,-7.54086328125,-1.31142578125,-0.584164062499999,-2.46488671875,3.10321484375,-4.1261484375,2.2104453125,5.40137109375
-6.78165234375,-5.47865625,-6.772609375,-7.38059375,-6.08032421875,-8.55010546875,-5.33735546875,-1.68265625,-11.4585234375,-3.01825,-5.9269375,-8.69318359375,-6.4290234375,-7.944265625,-0.86894921875,-4.26658984375,-5.71520703125,-9.1466484375,-2.36438671875,-5.33602734375,-0.715695312499999,-3.53769140625,-5.54686328125,0.803574218750001,0.8188359375,-2.76788671875,3.47721484375,-4.5961484375,1.9254453125,4.61337109375
-4.40665234375,-3.62465625,-5.065609375,-5.45659375,-4.33332421875,-6.65010546875,-3.56935546875,0.911343749999999,-9.9535234375,-1.28125,-4.4859375,-6.49818359375,-5.9430234375,-6.643265625,1.39805078125,-1.36758984375,-3.68720703125,-8.0546484375,0.28161328125,-1.58802734375,1.5753046875,-3.26969140625,-3.73086328125,2.88157421875,2.2768359375,-2.84688671875,4.04421484375,-5.2301484375,1.3744453125,3.61337109375
-2.32165234375,-1.73765625,-3.035609375,-2.80659375,-2.19232421875,-4.98310546875,-2.61835546875,2.45634375,-7.4615234375,0.0517500000000002,-3.5989375,-5.02418359375,-5.0350234375,-5.545265625,2.31805078125,0.60041015625,-1.36720703125,-6.9606484375,1.68861328125,1.47597265625,3.3993046875,-2.57369140625,-2.45286328125,4.43757421875,3.4578359375,-2.60188671875,4.48921484375,-6.0331484375,0.3444453125,2.42237109375
-0.80265234375,-0.0756562499999998,-0.872609375,-0.0205937499999997,-0.21432421875,-4.00410546875,-2.70335546875,2.69734375,-4.5745234375,0.65075,-3.4789375,-4.63718359375,-3.5050234375,-4.716265625,1.71705078125,1.15841015625,0.78079296875,-5.7866484375,1.97061328125,3.18197265625,4.3183046875,-1.64069140625,-1.82386328125,5.13257421875,4.0358359375,-2.18388671875,4.48021484375,-6.9471484375,-1.3055546875,0.97937109375
0.0283476562499999,1.18834375,1.139390625,2.27240625,1.09467578125,-3.90210546875,-3.63735546875,1.76334375,-1.9455234375,0.47675,-4.0139375,-5.33818359375,-1.4230234375,-4.109265625,0.0130507812500005,0.24241015625,2.30279296875,-4.3926484375,1.61261328125,3.29697265625,4.0873046875,-0.77369140625,-1.69986328125,4.91257421875,3.8258359375,-1.89888671875,3.83221484375,-7.8401484375,-3.5145546875,-0.73962890625
0.22534765625,1.99634375,2.660390625,3.64640625,1.50367578125,-4.52210546875,-4.93835546875,0.176343749999999,-0.0455234375000004,-0.17125,-4.8119375,-6.73718359375,0.8699765625,-3.564265625,-1.91794921875,-1.77058984375,2.89079296875,-2.6726484375,1.26661328125,2.10697265625,2.7553046875,-0.18169140625,-1.76286328125,4.06157421875,2.8808359375,-2.01188671875,2.62421484375,-8.5191484375,-5.9585546875,-2.59562890625
0.0343476562499999,2.40434375,3.414390625,4.07540625,1.19267578125,-5.41010546875,-6.05135546875,-1.31065625,1.0384765625,-0.76025,-5.3859375,-8.21818359375,2.8939765625,-2.842265625,-3.06194921875,-4.20658984375,2.50879296875,-0.6796484375,1.49861328125,0.28397265625,0.6523046875,0.19230859375,-1.65786328125,3.10157421875,1.4808359375,-2.60688671875,1.19421484375,-8.7761484375,-8.1245546875,-4.28462890625
-0.18965234375,2.53534375,3.296390625,3.94240625,0.66667578125,-6.02710546875,-6.59235546875,-2.03565625,1.5684765625,-0.76625,-5.4049375,-9.21418359375,4.1799765625,-1.724265625,-2.69194921875,-6.37458984375,1.39279296875,1.2943515625,2.57961328125,-1.42002734375,-1.7506953125,0.65430859375,-1.16686328125,2.55557421875,-0.00516406249999957,-3.57988671875,-0.0107851562499999,-8.4821484375,-9.5235546875,-5.48562890625
-0.17765234375,2.50034375,2.389390625,3.79040625,0.45167578125,-6.02410546875,-6.51935546875,-1.75665625,1.9084765625,0.0317500000000002,-4.8919375,-9.46118359375,4.4139765625,-0.184265625,-0.70294921875,-7.85958984375,-0.0782070312500003,2.7483515625,4.35261328125,-2.51202734375,-4.0646953125,1.53230859375,-0.34686328125,2.65857421875,-1.3201640625,-4.76788671875,-0.68878515625,-7.6901484375,-9.9445546875,-6.08862890625
0.0983476562499999,2.34234375,0.939390625,3.97040625,0.78367578125,-5.41710546875,-6.11935546875,-0.754656250000001,2.2254765625,1.38975,-4.2289375,-9.07218359375,3.5209765625,1.500734375,2.30505078125,-8.64558984375,-1.57020703125,3.1553515625,6.24961328125,-2.96102734375,-6.1396953125,2.86330859375,0.44713671875,3.20057421875,-2.4621640625,-6.09788671875,-0.86678515625,-6.6631484375,-9.5865546875,-6.31362890625
0.43834765625,2.05034375,-0.670609375,4.44740625,1.51767578125,-4.54210546875,-5.77135546875,0.36734375,2.3974765625,2.70775,-3.9229375,-8.39418359375,1.7049765625,2.806734375,5.29605078125,-9.00858984375,-2.89620703125,2.2303515625,7.50461328125,-3.12002734375,-8.0386953125,4.23730859375,0.71113671875,3.62857421875,-3.6251640625,-7.57488671875,-0.89278515625,-5.7681484375,-8.9345546875,-6.58762890625
0.62234765625,1.63234375,-1.951609375,4.87840625,2.31767578125,-3.80410546875,-5.64735546875,1.05734375,2.1824765625,3.37175,-4.2769375,-7.74718359375,-0.5810234375,3.223734375,7.28705078125,-9.23258984375,-3.99520703125,0.1143515625,7.48561328125,-3.42902734375,-9.8356953125,4.93130859375,0.0601367187500002,3.39557421875,-4.9701640625,-9.14188671875,-1.19178515625,-5.2601484375,-8.4475546875,-7.22962890625
0.62534765625,1.16834375,-2.421609375,4.90740625,2.94067578125,-3.37310546875,-5.56735546875,1.12134375,1.4984765625,3.12375,-5.1569375,-7.23718359375,-2.7410234375,2.555734375,7.80105078125,-9.35258984375,-4.83620703125,-2.6616484375,6.00361328125,-4.07902734375,-11.3926953125,4.29730859375,-1.52786328125,2.32957421875,-6.3941640625,-10.51088671875,-1.94278515625,-5.0951484375,-8.2495546875,-8.16362890625
0.66034765625,0.788343750000001,-1.791609375,4.43040625,3.38267578125,-3.07610546875,-5.13535546875,0.74434375,0.5454765625,2.20175,-6.0329375,-6.75718359375,-4.2470234375,1.064734375,7.03205078125,-9.12358984375,-5.35120703125,-5.4046484375,3.43161328125,-4.88302734375,-12.3146953125,2.18730859375,-3.64986328125,0.77857421875,-7.4761640625,-11.17288671875,-2.91378515625,-4.9111484375,-8.0475546875,-8.88262890625
0.99934765625,0.590343750000001,-0.150609375,3.64840625,3.79367578125,-2.57110546875,-4.05335546875,0.269343749999999,-0.326523437500001,1.15475,-6.2749375,-6.13118359375,-4.8710234375,-0.655265625,5.64905078125,-8.21258984375,-5.44020703125,-7.5156484375,0.53261328125,-5.43002734375,-12.1376953125,-0.84169140625,-5.63886328125,-0.58042578125,-7.6841640625,-10.60488671875,-3.55678515625,-4.2251484375,-7.3345546875,-8.72762890625
1.68034765625,0.546343750000001,1.972390625,2.87540625,4.24367578125,-1.67610546875,-2.39735546875,-0.068656250000001,-0.9015234375,0.47475,-5.5339375,-5.31218359375,-4.7840234375,-1.983265625,4.38305078125,-6.51258984375,-5.03120703125,-8.6606484375,-1.88038671875,-5.40102734375,-10.6456953125,-3.70769140625,-6.85086328125,-1.13442578125,-6.6961640625,-8.57388671875,-3.32878515625,-2.7201484375,-5.7315546875,-7.29662890625
2.35334765625,0.47234375,3.726390625,2.28840625,4.54467578125,-0.58210546875,-0.66435546875,-0.277656250000001,-1.2805234375,0.28875,-3.9679375,-4.47818359375,-4.4250234375,-2.588265625,3.64105078125,-4.32958984375,-4.15920703125,-8.8186484375,-3.29438671875,-4.82802734375,-8.0906953125,-5.31869140625,-6.94786328125,-0.67442578125,-4.6241640625,-5.32388671875,-2.00678515625,-0.4491484375,-3.2525546875,-4.71162890625
2.39734765625,0.10834375,4.249390625,1.80740625,4.29467578125,0.21289453125,0.447644531249999,-0.54565625,-1.7965234375,0.32375,-2.1769375,-3.97218359375,-4.2270234375,-2.554265625,3.36905078125,-2.30058984375,-2.99820703125,-8.2256484375,-3.64938671875,-4.09602734375,-5.1396953125,-5.11269140625,-6.00786328125,0.53057421875,-1.9761640625,-1.51888671875,0.19521484375,2.1768515625,-0.3175546875,-1.56062890625
1.29334765625,-0.71665625,3.076390625,1.20740625,3.16267578125,0.22389453125,0.42864453125,-1.07365625,-2.7485234375,0.14175,-0.874937500000001,-4.09218359375,-4.3580234375,-2.253265625,3.22405078125,-1.07158984375,-1.81720703125,-7.2476484375,-3.24338671875,-3.70602734375,-2.5696953125,-3.30969140625,-4.42386328125,1.94257421875,0.609835937500001,2.04511328125,2.77321484375,4.5828515625,2.4554453125,1.41937109375
-0.98965234375,-1.91565625,0.452390625,0.35040625,1.21667578125,-0.69710546875,-0.708355468750001,-1.91865625,-4.1255234375,-0.52525,-0.4969375,-4.86718359375,-4.6470234375,-2.065265625,2.89405078125,-0.93258984375,-0.87020703125,-6.2266484375,-2.48138671875,-3.94002734375,-0.9076953125,-0.72769140625,-2.66386328125,3.08657421875,2.6788359375,4.76911328125,5.21221484375,6.2838515625,4.5304453125,3.69037109375
-3.83165234375,-3.11265625,-2.676609375,-0.62659375,-0.97832421875,-2.22010546875,-2.36035546875,-2.92365625,-5.5335234375,-1.57325,-0.9739375,-5.96218359375,-4.6910234375,-2.137265625,2.34705078125,-1.66258984375,-0.27220703125,-5.3576484375,-1.64838671875,-4.67002734375,-0.2386953125,1.66330859375,-1.06086328125,3.76957421875,4.1008359375,6.41111328125,7.19821484375,7.0338515625,5.6274453125,5.07037109375
-6.15065234375,-3.78065625,-5.030609375,-1.34159375,-2.58332421875,-3.66310546875,-3.62335546875,-3.76665625,-6.3705234375,-2.56525,-1.7989375,-6.80618359375,-4.0830234375,-2.294265625,1.84505078125,-2.67058984375,0.0487929687499999,-4.6456484375,-0.80438671875,-5.43002734375,-0.2696953125,3.19330859375,0.27013671875,4.10057421875,5.0038359375,7.02711328125,8.65221484375,6.8338515625,5.7344453125,5.66437109375
-6.87465234375,-3.49165625,-5.561609375,-1.37159375,-2.90332421875,-4.30410546875,-3.75335546875,-4.08765625,-6.1235234375,-2.97125,-2.3219375,-6.85318359375,-2.6070234375,-2.158265625,1.73705078125,-3.31258984375,0.28679296875,-3.9446484375,0.15661328125,-5.67502734375,-0.5676953125,3.74530859375,1.39013671875,4.34657421875,5.6048359375,6.81711328125,9.62221484375,5.8518515625,5.0254453125,5.68337109375
-5.43565234375,-2.13865625,-3.915609375,-0.50659375,-1.71732421875,-3.71210546875,-2.53235546875,-3.63665625,-4.5995234375,-2.44025,-2.0829375,-5.85218359375,-0.3440234375,-1.362265625,2.20705078125,-3.18458984375,0.62379296875,-3.0446484375,1.37061328125,-5.07002734375,-0.7826953125,3.70730859375,2.42413671875,4.74957421875,6.0738359375,6.01711328125,10.16621484375,4.3418515625,3.7614453125,5.31437109375
-2.04565234375,-0.00465624999999958,-0.565609374999999,1.11040625,0.63667578125,-1.94510546875,-0.33135546875,-2.37865625,-1.9925234375,-0.97325,-1.0049375,-3.96318359375,2.3369765625,0.255734375,3.13605078125,-2.23358984375,1.11379296875,-1.7886484375,2.87761328125,-3.62902734375,-0.7536953125,3.66030859375,3.46013671875,5.41957421875,6.5008359375,4.86711328125,10.31121484375,2.5888515625,2.2314453125,4.67037109375
2.38734765625,2.37334375,3.449390625,3.05440625,3.45367578125,0.50189453125,2.11064453125,-0.504656250000001,1.2064765625,1.09775,0.6220625,-1.67218359375,4.8719765625,2.553734375,4.16705078125,-0.675589843750001,1.65779296875,-0.1646484375,4.57461328125,-1.64302734375,-0.4666953125,3.98630859375,4.48313671875,6.33357421875,6.9338359375,3.61111328125,10.07821484375,0.8698515625,0.7044453125,3.81637109375
6.64334765625,4.45434375,7.020390625,4.83040625,5.96667578125,2.94189453125,4.04964453125,1.64134375,4.3734765625,3.27275,2.3290625,0.43481640625,6.6639765625,5.130734375,4.91205078125,1.19241015625,2.07579296875,1.6773515625,6.25461328125,0.51197265625,0.0273046875,4.65230859375,5.38513671875,7.39357421875,7.4048359375,2.47811328125,9.53821484375,-0.586148437499999,-0.6035546875,2.81337109375
9.66034765625,5.91534375,9.418390625,6.09940625,7.64067578125,4.76889453125,5.03564453125,3.68534375,6.9124765625,5.08775,3.6870625,1.90181640625,7.2959765625,7.460734375,5.17105078125,3.12341015625,2.23479296875,3.4813515625,7.69961328125,2.55497265625,0.659304687500001,5.28130859375,6.02613671875,8.48357421875,7.9288359375,1.61711328125,8.84221484375,-1.6451484375,-1.5515546875,1.74937109375
10.88734765625,6.72734375,10.458390625,6.78740625,8.29467578125,5.64889453125,5.02964453125,5.33934375,8.4034765625,6.25475,4.4590625,2.52781640625,6.7479765625,9.058734375,5.03405078125,4.93641015625,2.12479296875,4.9663515625,8.74161328125,4.35297265625,1.3213046875,5.41430859375,6.29413671875,9.47557421875,8.4458359375,1.03011328125,8.18621484375,-2.2961484375,-2.0905546875,0.75837109375
10.39234765625,7.06634375,10.367390625,7.06240625,8.07067578125,5.56689453125,4.31264453125,6.43734375,8.7224765625,6.71575,4.6200625,2.35581640625,5.4649765625,9.610734375,4.81105078125,6.44941015625,1.84979296875,5.8893515625,9.30361328125,5.85497265625,1.8263046875,4.77730859375,6.12113671875,10.21857421875,8.8048359375,0.56211328125,7.74021484375,-2.6371484375,-2.2565546875,-0.00562890624999968
8.71734765625,7.15734375,9.520390625,7.20440625,7.29167578125,4.77389453125,3.30164453125,6.91534375,8.0684765625,6.59475,4.2970625,1.59981640625,4.2199765625,9.046734375,4.86905078125,7.44441015625,1.53879296875,6.0793515625,9.38761328125,7.02097265625,1.9473046875,3.42530859375,5.47213671875,10.54857421875,8.8108359375,-0.00288671874999979,7.58821484375,-2.8141484375,-2.1315546875,-0.41062890625
6.59534765625,7.16334375,8.253390625,7.44440625,6.32167578125,3.65489453125,2.40364453125,6.76034375,6.8834765625,6.12275,3.6910625,0.57881640625,3.7819765625,7.536734375,5.47105078125,7.73341015625,1.26179296875,5.4603515625,9.06761328125,7.79597265625,1.5113046875,1.73330859375,4.34113671875,10.35757421875,8.3408359375,-0.78688671875,7.70221484375,-2.9441484375,-1.8105546875,-0.39562890625
4.67434765625,7.14134375,6.812390625,7.84140625,5.46567578125,2.57789453125,1.94064453125,5.99534375,5.6644765625,5.53675,3.0150625,-0.343183593750001,4.5549765625,5.432734375,6.67605078125,7.27441015625,1.01979296875,4.1003515625,8.44361328125,8.13297265625,0.5063046875,0.24830859375,2.78313671875,9.64957421875,7.4148359375,-1.71488671875,7.94721484375,-3.0611484375,-1.3845546875,-0.0156289062499997
3.36534765625,7.06934375,5.394390625,8.25840625,4.91067578125,1.79089453125,2.10664453125,4.73134375,4.7834765625,5.01175,2.4410625,-0.839183593750001,6.3739765625,3.160734375,8.29705078125,6.21641015625,0.80579296875,2.2193515625,7.58861328125,8.00597265625,-0.9156953125,-0.55569140625,0.91813671875,8.52657421875,6.1718359375,-2.58088671875,8.10421484375,-3.1491484375,-0.9685546875,0.53137109375
2.82834765625,6.89434375,4.226390625,8.45240625,4.68467578125,1.38389453125,2.88864453125,3.20734375,4.3874765625,4.61575,2.0550625,-0.75318359375,8.5429765625,1.098734375,9.92105078125,4.80541015625,0.64279296875,0.1363515625,6.50261328125,7.37397265625,-2.5436953125,-0.53469140625,-1.09086328125,7.10557421875,4.7498359375,-3.20188671875,7.90421484375,-3.2041484375,-0.7255546875,0.91737109375
3.00834765625,6.58634375,3.590390625,8.21240625,4.67767578125,1.31789453125,4.00264453125,1.77834375,4.4064765625,4.32075,1.8280625,-0.201183593750001,10.1149765625,-0.496265625,11.01505078125,3.24141015625,0.56479296875,-1.8586484375,5.12561328125,6.15597265625,-4.2186953125,0.0343085937500001,-3.08386328125,5.44457421875,3.1938359375,-3.53788671875,7.12121484375,-3.2691484375,-0.8235546875,0.80737109375
3.67534765625,6.17634375,3.756390625,7.48240625,4.72267578125,1.47489453125,4.96464453125,0.831343749999999,4.6504765625,4.06375,1.6540625,0.44981640625,10.2829765625,-1.487265625,11.12205078125,1.60141015625,0.57579296875,-3.5766484375,3.43461328125,4.28897265625,-5.8666953125,0.59330859375,-4.91286328125,3.56957421875,1.4898359375,-3.64988671875,5.70021484375,-3.3831484375,-1.3205546875,0.0613710937500003
4.48534765625,5.74334375,4.829390625,6.40840625,4.72667578125,1.74889453125,5.32264453125,0.69434375,4.9254765625,3.84575,1.4350625,0.778816406249999,8.7589765625,-1.786265625,10.08605078125,-0.0995898437500005,0.64479296875,-4.8956484375,1.57361328125,1.84897265625,-7.4256953125,0.63430859375,-6.40986328125,1.57157421875,-0.3081640625,-3.58388671875,3.86921484375,-3.4851484375,-2.0565546875,-1.11662890625
5.07634765625,5.37434375,6.608390625,5.28140625,4.74667578125,2.12589453125,4.91164453125,1.52434375,5.1284765625,3.81475,1.1660625,0.55181640625,5.9489765625,-1.311265625,8.16105078125,-1.77658984375,0.73979296875,-5.6836484375,-0.0863867187500001,-0.862027343749999,-8.7486953125,-0.01569140625,-7.35586328125,-0.30742578125,-1.9781640625,-3.29488671875,2.10521484375,-3.3791484375,-2.6685546875,-2.20762890625
5.18634765625,5.10434375,8.553390625,4.39240625,4.94567578125,2.68589453125,3.93364453125,3.18734375,5.2764765625,4.21175,0.9320625,-0.149183593750001,2.8039765625,-0.0222656250000002,5.92805078125,-3.20858984375,0.83779296875,-5.7966484375,-1.05038671875,-3.34302734375,-9.6046953125,-1.13169140625,-7.52486328125,-1.71842578125,-3.1631640625,-2.70188671875,0.96621484375,-2.8191484375,-2.7595546875,-2.64162890625
4.72534765625,4.87834375,9.928390625,3.86340625,5.44167578125,3.47689453125,2.80264453125,5.19234375,5.4424765625,5.19675,0.8030625,-1.03318359375,0.3889765625,1.946734375,4.02605078125,-4.11358984375,0.91079296875,-5.1956484375,-0.94038671875,-5.07302734375,-9.7916953125,-2.26969140625,-6.80686328125,-2.36042578125,-3.5501640625,-1.79888671875,0.82021484375,-1.6711484375,-2.1465546875,-2.11462890625
3.80834765625,4.57134375,10.113390625,3.60340625,6.18167578125,4.39889453125,1.90964453125,6.82534375,5.6534765625,6.67275,0.7480625,-1.81618359375,-0.6140234375,4.213734375,2.87305078125,-4.29758984375,0.88779296875,-4.0436484375,0.27961328125,-5.72902734375,-9.2786953125,-3.03269140625,-5.32186328125,-2.15142578125,-3.0631640625,-0.73788671875,1.66521484375,-0.0641484374999992,-1.0055546875,-0.78662890625
2.73534765625,4.07534375,8.931390625,3.42840625,6.94467578125,5.23189453125,1.48564453125,7.49734375,5.8324765625,8.27275,0.6550625,-2.34918359375,-0.1830234375,6.221734375,2.54905078125,-3.75458984375,0.67979296875,-2.6946484375,2.24961328125,-5.30302734375,-8.2526953125,-3.24269140625,-3.42686328125,-1.30542578125,-1.9201640625,0.20111328125,3.10621484375,1.6178515625,0.1894453125,0.78737109375
1.90834765625,3.40834375,6.786390625,3.25640625,7.46267578125,5.77789453125,1.62064453125,7.06734375,5.8294765625,9.52775,0.4630625,-2.57218359375,1.1029765625,7.459734375,2.86705078125,-2.62658984375,0.22879296875,-1.5276484375,4.36861328125,-4.06902734375,-7.0246953125,-2.93169140625,-1.59786328125,-0.236425781249999,-0.5291640625,0.73511328125,4.53021484375,2.8868515625,0.8944453125,1.93337109375
1.64534765625,2.74634375,4.495390625,3.16340625,7.55667578125,5.98289453125,2.34864453125,5.89434375,5.5234765625,10.08375,0.2740625,-2.40018359375,2.3959765625,7.686734375,3.56605078125,-1.08258984375,-0.44520703125,-0.7866484375,6.05661328125,-2.41902734375,-5.8696953125,-2.22169140625,-0.24186328125,0.63257421875,0.730835937500001,0.74611328125,5.38721484375,3.3818515625,0.7684453125,2.18937109375
1.98834765625,2.33934375,2.883390625,3.26640625,7.19767578125,5.91889453125,3.65264453125,4.56434375,4.9184765625,9.82975,0.3250625,-1.70918359375,2.9909765625,6.993734375,4.42405078125,0.77241015625,-1.24120703125,-0.5036484375,6.93861328125,-0.710027343749999,-4.9036953125,-1.22269140625,0.42113671875,1.05657421875,1.6778359375,0.37611328125,5.41821484375,3.0448515625,-0.1555546875,1.52637109375
2.64534765625,2.34334375,2.386390625,3.55140625,6.43467578125,5.66389453125,5.37164453125,3.50734375,4.1374765625,8.84875,0.8090625,-0.44818359375,2.5999765625,5.684734375,5.24005078125,2.86641015625,-2.01420703125,-0.5666484375,6.89961328125,0.810972656250001,-4.0856953125,-0.0246914062499999,0.37413671875,1.03557421875,2.3548359375,-0.0228867187499997,4.73521484375,2.1508515625,-1.4945546875,0.34537109375
3.13634765625,2.67734375,2.867390625,3.81640625,5.28667578125,5.18089453125,7.08164453125,2.77834375,3.3184765625,7.29275,1.6640625,1.20681640625,1.4149765625,4.074734375,5.74805078125,5.04841015625,-2.62820703125,-0.840648437500001,6.01461328125,1.98697265625,-3.3106953125,1.25530859375,-0.25786328125,0.74857421875,2.9188359375,-0.0808867187499998,3.71621484375,1.1938515625,-2.6825546875,-0.71762890625
3.03634765625,3.01834375,3.738390625,3.77340625,3.70667578125,4.30189453125,8.09664453125,2.10634375,2.4894765625,5.26475,2.5020625,2.81881640625,-0.0420234375000001,2.350734375,5.59405078125,7.01341015625,-2.97820703125,-1.2546484375,4.47161328125,2.70597265625,-2.5276953125,2.44730859375,-1.26086328125,0.42757421875,3.4968359375,0.40811328125,2.81821484375,0.7128515625,-3.1875546875,-1.06462890625
2.16334765625,2.93634375,4.283390625,3.22340625,1.64567578125,2.81589453125,7.67464453125,1.13734375,1.5404765625,2.82175,2.7460625,3.82281640625,-1.2050234375,0.570734375,4.45705078125,8.33641015625,-2.98520703125,-1.8036484375,2.51161328125,2.88497265625,-1.7936953125,3.35830859375,-2.35186328125,0.25357421875,4.1168359375,1.41611328125,2.40221484375,1.1278515625,-2.6785546875,-0.35862890625
0.62734765625,2.12034375,3.994390625,2.18240625,-0.82532421875,0.63789453125,5.35864453125,-0.320656250000001,0.3334765625,0.06575,1.9060625,3.74681640625,-1.7300234375,-1.238265625,2.22105078125,8.60241015625,-2.63120703125,-2.4786484375,0.40961328125,2.49397265625,-1.2656953125,3.85530859375,-3.20786328125,0.30157421875,4.6978359375,2.72411328125,2.62421484375,2.5938515625,-1.1265546875,1.34937109375
-1.24865234375,0.546343750000001,2.774390625,0.91040625,-3.42832421875,-2.04710546875,1.28164453125,-2.18765625,-1.1305234375,-2.74925,-0.1629375,2.40881640625,-1.5780234375,-2.961265625,-0.89694921875,7.54541015625,-2.02920703125,-3.1696484375,-1.55038671875,1.56097265625,-1.1656953125,3.91930859375,-3.54286328125,0.53357421875,5.0768359375,4.00111328125,3.38221484375,4.9138515625,1.1514453125,3.61637109375
-3.04965234375,-1.48265625,0.926390625,-0.20159375,-5.72032421875,-4.77710546875,-3.77235546875,-4.15365625,-2.6225234375,-5.21825,-3.1749375,-0.0251835937500005,-0.9070234375,-4.365265625,-4.36194921875,5.15441015625,-1.46720703125,-3.6356484375,-3.11338671875,0.17697265625,-1.7276953125,3.65530859375,-3.21286328125,0.82357421875,5.0368359375,4.89111328125,4.36221484375,7.5608515625,3.5654453125,5.73737109375
-4.40465234375,-3.46165625,-1.011609375,-0.83959375,-7.23332421875,-6.98110546875,-8.60435546875,-5.81065625,-3.7585234375,-6.91025,-6.5179375,-3.10018359375,0.0869765624999999,-5.171265625,-7.47894921875,1.70541015625,-1.31920703125,-3.5776484375,-4.09338671875,-1.52002734375,-3.0976953125,3.23530859375,-2.30086328125,1.01057421875,4.3838359375,5.12711328125,5.14821484375,9.8238515625,5.4314453125,7.00737109375
-5.09065234375,-4.89965625,-2.500609375,-0.94659375,-7.65832421875,-8.20410546875,-12.03635546875,-6.77765625,-4.2005234375,-7.55325,-9.4789375,-6.21718359375,1.2179765625,-5.192265625,-9.62994921875,-2.27158984375,-1.83820703125,-2.8186484375,-4.42438671875,-3.35102734375,-5.2256953125,2.82230859375,-1.11586328125,0.94657421875,3.0308359375,4.64411328125,5.37721484375,11.0558515625,6.2134453125,7.00337109375
-5.08765234375,-5.51865625,-3.207609375,-0.73559375,-6.94532421875,-8.24710546875,-13.31735546875,-6.81665625,-3.8055234375,-7.14125,-11.4669375,-8.79018359375,2.2709765625,-4.451265625,-10.48594921875,-6.11258984375,-2.99920703125,-1.4566484375,-4.17938671875,-5.12902734375,-7.8236953125,2.53230859375,-0.10586328125,0.51957421875,1.0518359375,3.60111328125,4.85021484375,10.8918515625,5.7014453125,5.72037109375
-4.56465234375,-5.34665625,-3.126609375,-0.53459375,-5.32132421875,-7.20310546875,-12.34635546875,-5.97265625,-2.6745234375,-5.93325,-12.1609375,-10.40618359375,2.9939765625,-3.202265625,-10.11294921875,-9.20458984375,-4.50420703125,0.1083515625,-3.57638671875,-6.69302734375,-10.4486953125,2.45430859375,0.29113671875,-0.34442578125,-1.3341640625,2.27811328125,3.57721484375,9.3638515625,4.0414453125,3.51037109375
-3.82965234375,-4.69665625,-2.582609375,-0.59459375,-3.23032421875,-5.44710546875,-9.66035546875,-4.65865625,-1.1325234375,-4.37325,-11.5869375,-10.94718359375,3.1809765625,-1.875265625,-8.94894921875,-11.17158984375,-5.96120703125,1.3033515625,-2.95038671875,-7.96102734375,-12.6826953125,2.67730859375,-0.20386328125,-1.67042578125,-3.8391640625,0.92811328125,1.76121484375,6.8708515625,1.6444453125,0.89737109375
-3.25065234375,-4.03065625,-2.090609375,-0.98559375,-1.26832421875,-3.56810546875,-6.22635546875,-3.53865625,0.3114765625,-2.98125,-10.0939375,-10.61818359375,2.7789765625,-0.958265625,-7.64694921875,-11.96058984375,-7.08320703125,1.6063515625,-2.68738671875,-8.94502734375,-14.2826953125,3.24930859375,-1.61086328125,-3.40642578125,-6.1821640625,-0.31088671875,-0.27678515625,4.0328515625,-0.9625546875,-1.61162890625
-3.13165234375,-3.76565625,-2.107609375,-1.61359375,-0.0553242187500003,-2.21010546875,-3.11335546875,-3.18065625,1.0684765625,-2.20425,-8.2429375,-9.82118359375,1.9269765625,-0.826265625,-6.83194921875,-11.79758984375,-7.74420703125,0.7713515625,-3.09238671875,-9.72502734375,-15.2016953125,4.09730859375,-3.66886328125,-5.39042578125,-8.1291640625,-1.38388671875,-2.18778515625,1.4928515625,-3.2655546875,-3.64062890625
-3.57665234375,-4.08065625,-2.772609375,-2.28559375,-0.0263242187500001,-1.81910546875,-1.16335546875,-3.68865625,0.6984765625,-2.24725,-6.5969375,-8.96018359375,0.8729765625,-1.558265625,-6.86194921875,-11.03558984375,-7.91820703125,-1.0326484375,-4.23138671875,-10.38402734375,-15.4936953125,4.97730859375,-5.89786328125,-7.33342578125,-9.5001640625,-2.23088671875,-3.68178515625,-0.2541484375,-4.8685546875,-4.98162890625
-4.43465234375,-4.82765625,-3.808609375,-2.77859375,-1.19432421875,-2.44310546875,-0.745355468750001,-4.62565625,-0.8125234375,-2.98125,-5.5199375,-8.27618359375,-0.1770234375,-2.856265625,-7.68694921875,-10.01058984375,-7.57920703125,-3.2726484375,-5.85338671875,-10.95302734375,-15.2126953125,5.53430859375,-7.73586328125,-8.88142578125,-10.1761640625,-2.74488671875,-4.57978515625,-0.982148437499999,-5.5525546875,-5.58562890625
-5.38365234375,-5.60565625,-4.659609375,-2.93259375,-3.08832421875,-3.74910546875,-1.72535546875,-5.29765625,-2.9485234375,-4.01925,-5.0949375,-7.81818359375,-1.1300234375,-4.145265625,-8.91894921875,-8.97458984375,-6.72520703125,-5.2746484375,-7.48338671875,-11.42702734375,-14.4056953125,5.44930859375,-8.74486328125,-9.73242578125,-10.1501640625,-2.84488671875,-4.85678515625,-0.7751484375,-5.3465546875,-5.56762890625
-6.11665234375,-5.98065625,-4.823609375,-2.72759375,-4.96632421875,-5.24510546875,-3.63935546875,-5.21765625,-4.8865234375,-4.93625,-5.1989375,-7.53018359375,-1.9460234375,-4.868265625,-10.05194921875,-8.10258984375,-5.46920703125,-6.5116484375,-8.64638671875,-11.80002734375,-13.1826953125,4.60130859375,-8.79386328125,-9.77842578125,-9.5731640625,-2.60188671875,-4.65178515625,0.0128515625000007,-4.5435546875,-5.19862890625
-6.49865234375,-5.70765625,-4.152609375,-2.32559375,-6.19732421875,-6.53610546875,-5.93535546875,-4.40465625,-5.9355234375,-5.50625,-5.6409375,-7.34418359375,-2.5130234375,-4.771265625,-10.70194921875,-7.50358984375,-4.10020703125,-6.7916484375,-9.08138671875,-12.07902734375,-11.7636953125,3.15330859375,-8.09686328125,-9.14842578125,-8.7351640625,-2.29088671875,-4.21378515625,0.8858515625,-3.6205546875,-4.84362890625
-6.59665234375,-4.85065625,-2.972609375,-1.99759375,-6.52832421875,-7.45810546875,-8.11735546875,-3.33865625,-5.8705234375,-5.75125,-6.2329375,-7.20218359375,-2.6210234375,-4.004265625,-10.71594921875,-7.16258984375,-2.99620703125,-6.2446484375,-8.79938671875,-12.22002734375,-10.4436953125,1.51830859375,-7.08086328125,-8.12242578125,-7.9511640625,-2.27688671875,-3.76678515625,1.4278515625,-3.0405546875,-4.82562890625
-6.58765234375,-3.74065625,-1.936609375,-1.98759375,-6.09532421875,-8.03910546875,-9.75035546875,-2.64565625,-4.9505234375,-5.83325,-6.7749375,-7.02618359375,-2.1060234375,-2.985265625,-10.14894921875,-6.89258984375,-2.43720703125,-5.1936484375,-8.00938671875,-12.08702734375,-9.4786953125,0.21030859375,-6.15886328125,-6.98042578125,-7.4041640625,-2.78988671875,-3.39078515625,1.4748515625,-3.0355546875,-5.26362890625
-6.62865234375,-2.82465625,-1.700609375,-2.36959375,-5.25532421875,-8.38010546875,-10.45435546875,-2.70865625,-3.6935234375,-5.88925,-7.0429375,-6.67618359375,-1.0650234375,-2.162265625,-9.18294921875,-6.37858984375,-2.45020703125,-4.0156484375,-7.02238671875,-11.48802734375,-8.9656953125,-0.38269140625,-5.58786328125,-5.91542578125,-7.0701640625,-3.76788671875,-3.01178515625,1.1498515625,-3.5195546875,-6.01162890625
-6.77465234375,-2.44865625,-2.561609375,-3.01959375,-4.40832421875,-8.54810546875,-10.00235546875,-3.43865625,-2.6235234375,-5.97425,-6.8609375,-5.97818359375,0.0839765624999997,-1.841265625,-8.08494921875,-5.34658984375,-2.79320703125,-3.0696484375,-6.19438671875,-10.31102734375,-8.8016953125,-0.19869140625,-5.46886328125,-5.03242578125,-6.7631640625,-4.86088671875,-2.50378515625,0.727851562500001,-4.1725546875,-6.73662890625
-6.99565234375,-2.70765625,-4.259609375,-3.68259375,-3.89132421875,-8.56810546875,-8.47535546875,-4.31765625,-2.1245234375,-6.11125,-6.2159375,-4.80518359375,0.7729765625,-2.149265625,-7.16394921875,-3.76658984375,-3.08520703125,-2.6566484375,-5.89138671875,-8.65402734375,-8.7356953125,0.46630859375,-5.82186328125,-4.41242578125,-6.2721640625,-5.58088671875,-1.81978515625,0.443851562500001,-4.6215546875,-7.07662890625
-7.24065234375,-3.41765625,-6.079609375,-4.11459375,-3.93232421875,-8.47710546875,-6.34035546875,-4.70365625,-2.4005234375,-6.37325,-5.3109375,-3.20018359375,0.5999765625,-3.063265625,-6.71794921875,-1.94258984375,-2.98820703125,-2.9696484375,-6.41138671875,-6.84702734375,-8.5046953125,1.12430859375,-6.62886328125,-4.13142578125,-5.4891640625,-5.51288671875,-1.03178515625,0.379851562500001,-4.6105546875,-6.79262890625
-7.47965234375,-4.24065625,-7.212609375,-4.19859375,-4.60832421875,-8.34710546875,-4.30735546875,-4.19665625,-3.4495234375,-6.86825,-4.4869375,-1.43518359375,-0.4440234375,-4.442265625,-6.92594921875,-0.42758984375,-2.37520703125,-4.0066484375,-7.84338671875,-5.33202734375,-7.9836953125,1.35930859375,-7.80186328125,-4.22242578125,-4.4721640625,-4.50088671875,-0.27178515625,0.493851562500001,-4.0605546875,-5.83962890625
-7.66265234375,-4.84265625,-7.132609375,-3.96759375,-5.78432421875,-8.22510546875,-3.00435546875,-2.84065625,-5.0215234375,-7.62725,-4.0179375,0.0628164062499996,-1.9550234375,-6.016265625,-7.72794921875,0.22441015625,-1.35520703125,-5.5196484375,-9.93638671875,-4.47502734375,-7.2716953125,1.02330859375,-9.12486328125,-4.61742578125,-3.4271640625,-2.73588671875,0.35921484375,0.711851562500001,-3.0545546875,-4.37162890625
-7.64065234375,-4.99065625,-5.760609375,-3.52359375,-7.08432421875,-8.04510546875,-2.66835546875,-1.06265625,-6.6205234375,-8.47025,-3.9149375,0.914816406249999,-3.3050234375,-7.371265625,-8.76994921875,-0.25458984375,-0.18020703125,-7.0376484375,-12.08838671875,-4.39302734375,-6.6316953125,0.29830859375,-10.26286328125,-5.10442578125,-2.6021640625,-0.72188671875,0.84421484375,1.0088515625,-1.7845546875,-2.68362890625
-7.17765234375,-4.56565625,-3.385609375,-2.94259375,-7.96132421875,-7.62510546875,-3.04435546875,0.56634375,-7.6325234375,-9.01825,-3.8959375,0.99281640625,-3.9490234375,-8.039265625,-9.48194921875,-1.67858984375,0.90879296875,-8.0106484375,-13.52838671875,-4.89002734375,-6.3416953125,-0.42069140625,-10.85886328125,-5.38842578125,-2.1861640625,0.92611328125,1.23321484375,1.3898515625,-0.5005546875,-1.11762890625
-6.09365234375,-3.56865625,-0.508609375,-2.24459375,-7.89932421875,-6.79910546875,-3.58935546875,1.60934375,-7.5905234375,-8.87225,-3.5699375,0.48581640625,-3.6840234375,-7.683265625,-9.32094921875,-3.48858984375,1.77079296875,-8.0246484375,-13.66538671875,-5.55402734375,-6.5466953125,-0.72769140625,-10.71986328125,-5.23242578125,-2.2431640625,1.71311328125,1.55521484375,1.7918515625,0.5104453125,0.00737109375000022
-4.45165234375,-2.15765625,2.241390625,-1.45259375,-6.68032421875,-5.55910546875,-3.82635546875,1.93334375,-6.4065234375,-7.86225,-2.7239375,-0.209183593750001,-2.7270234375,-6.313265625,-8.05894921875,-5.01958984375,2.35779296875,-7.0136484375,-12.40538671875,-5.96602734375,-7.2166953125,-0.41669140625,-9.95586328125,-4.61842578125,-2.7471640625,1.42111328125,1.73321484375,2.0168515625,0.9534453125,0.44737109375
-2.62665234375,-0.66265625,4.184390625,-0.63559375,-4.51032421875,-4.09710546875,-3.59435546875,1.71634375,-4.4045234375,-6.18225,-1.4919375,-0.69918359375,-1.5850234375,-4.346265625,-5.95894921875,-5.82658984375,2.65079296875,-5.3096484375,-10.25538671875,-5.92002734375,-8.2006953125,0.44330859375,-8.96286328125,-3.79742578125,-3.6531640625,0.11611328125,1.57821484375,1.7718515625,0.613445312500001,0.0793710937500003
-1.15065234375,0.513343750000001,4.780390625,0.13240625,-1.92732421875,-2.71310546875,-3.03435546875,1.28934375,-2.1075234375,-4.30625,-0.2819375,-0.75818359375,-0.7540234375,-2.434265625,-3.68994921875,-5.83658984375,2.64979296875,-3.5096484375,-8.09538671875,-5.51002734375,-9.3076953125,1.58230859375,-8.22786328125,-3.17142578125,-4.9201640625,-1.90688671875,0.90421484375,0.850851562500001,-0.5205546875,-1.03362890625
-0.42965234375,1.07234375,3.911390625,0.85340625,0.46367578125,-1.66410546875,-2.38635546875,0.939343749999999,0.0174765624999997,-2.74125,0.4740625,-0.38118359375,-0.4450234375,-1.161265625,-2.02294921875,-5.30058984375,2.38279296875,-2.2316484375,-6.77738671875,-5.05702734375,-10.3686953125,2.66830859375,-8.07586328125,-3.07542578125,-6.4701640625,-4.20088671875,-0.32178515625,-0.6901484375,-2.1905546875,-2.62662890625
-0.49865234375,0.970343750000001,2.029390625,1.64240625,2.22767578125,-1.04810546875,-1.80135546875,0.80034375,1.6954765625,-1.78725,0.5650625,0.257816406249999,-0.4920234375,-0.777265625,-1.50194921875,-4.60358984375,1.89479296875,-1.8716484375,-6.75338671875,-4.94002734375,-11.2756953125,3.39330859375,-8.54086328125,-3.62342578125,-8.1681640625,-6.27388671875,-1.90978515625,-2.5061484375,-3.9465546875,-4.31162890625
-0.98765234375,0.42634375,0.0283906250000001,2.66540625,3.20267578125,-0.79510546875,-1.28935546875,0.88034375,2.8274765625,-1.43825,0.0830625,0.90081640625,-0.5260234375,-1.126265625,-2.23594921875,-4.08558984375,1.18879296875,-2.4906484375,-7.94238671875,-5.43802734375,-12.0276953125,3.46630859375,-9.41286328125,-4.68842578125,-9.8521640625,-7.75788671875,-3.54878515625,-4.1201484375,-5.3625546875,-5.75962890625
-1.29665234375,-0.18165625,-1.124609375,4.02540625,3.49667578125,-0.73310546875,-0.79535546875,1.13334375,3.4464765625,-1.43225,-0.6509375,1.32481640625,-0.2700234375,-1.753265625,-3.86794921875,-3.92458984375,0.20779296875,-3.7966484375,-9.81838671875,-6.62002734375,-12.7296953125,2.64630859375,-10.37886328125,-6.00542578125,-11.4001640625,-8.54088671875,-4.95078515625,-5.1521484375,-6.2325546875,-6.85462890625
-0.90665234375,-0.46865625,-0.807609374999999,5.69740625,3.41167578125,-0.68710546875,-0.27235546875,1.51434375,3.7094765625,-1.38825,-1.2289375,1.44881640625,0.2839765625,-2.092265625,-5.69894921875,-4.08758984375,-1.08220703125,-5.2226484375,-11.63738671875,-8.28302734375,-13.5176953125,0.89830859375,-11.13286328125,-7.26342578125,-12.7351640625,-8.78288671875,-5.95678515625,-5.4691484375,-6.6385546875,-7.70762890625
0.34134765625,-0.17465625,0.971390625,7.48940625,3.32167578125,-0.55410546875,0.26964453125,1.98234375,3.8704765625,-0.97325,-1.2989375,1.35381640625,0.9199765625,-1.678265625,-6.92294921875,-4.34458984375,-2.56520703125,-6.1126484375,-12.68038671875,-9.97502734375,-14.4306953125,-1.44069140625,-11.41986328125,-8.17142578125,-13.7721640625,-8.78088671875,-6.52978515625,-5.1661484375,-6.8425546875,-8.52662890625
2.11434765625,0.731343750000001,3.571390625,9.02940625,3.48767578125,-0.33110546875,0.74964453125,2.48134375,4.1464765625,-0.0522499999999999,-0.6919375,1.21081640625,1.4239765625,-0.324265625,-6.93794921875,-4.36758984375,-3.93020703125,-6.0026484375,-12.48938671875,-11.13902734375,-15.3206953125,-3.68969140625,-11.07586328125,-8.50842578125,-14.3701640625,-8.77488671875,-6.69378515625,-4.4621484375,-7.0935546875,-9.42762890625
3.70634765625,2.03734375,6.015390625,9.81840625,3.91067578125,-0.0991054687499999,1.04364453125,2.92234375,4.5464765625,1.21675,0.5150625,1.17181640625,1.7639765625,1.754734375,-5.62394921875,-3.86058984375,-4.80120703125,-4.8606484375,-11.02438671875,-11.32502734375,-15.8646953125,-5.10569140625,-10.08886328125,-8.17642578125,-14.3391640625,-8.79788671875,-6.49278515625,-3.5721484375,-7.4635546875,-10.31162890625
4.37334765625,3.36634375,7.456390625,9.41840625,4.34167578125,0.0218945312500001,1.07864453125,3.18234375,4.8324765625,2.42875,2.0230625,1.33681640625,2.1319765625,3.983734375,-3.42694921875,-2.67058984375,-4.93920703125,-3.1126484375,-8.70138671875,-10.37102734375,-15.6786953125,-5.24769140625,-8.61686328125,-7.22342578125,-13.5051640625,-8.63588671875,-5.95778515625,-2.6311484375,-7.8035546875,-10.86162890625
3.71234765625,4.32534375,7.534390625,7.72240625,4.45267578125,-0.06410546875,0.92264453125,3.14934375,4.6844765625,3.09275,3.4320625,1.78981640625,2.7949765625,5.630734375,-1.20194921875,-0.82958984375,-4.34320703125,-1.4226484375,-6.26338671875,-8.47202734375,-14.4876953125,-4.16069140625,-6.96186328125,-5.83642578125,-11.8031640625,-7.93188671875,-5.11878515625,-1.6821484375,-7.8315546875,-10.68762890625
1.84834765625,4.62634375,6.416390625,5.12140625,4.03167578125,-0.38710546875,0.76564453125,2.76534375,3.9474765625,2.85875,4.3650625,2.60181640625,3.8939765625,6.103734375,0.11605078125,1.42741015625,-3.22120703125,-0.3616484375,-4.51738671875,-6.12102734375,-12.2896953125,-2.29769140625,-5.48086328125,-4.28942578125,-9.3811640625,-6.41688671875,-4.04578515625,-0.737148437499999,-7.3375546875,-9.55362890625
-0.67665234375,4.14634375,4.562390625,2.35540625,3.07567578125,-0.93710546875,0.77664453125,2.04334375,2.7344765625,1.65575,4.5390625,3.73681640625,5.3009765625,5.176734375,-0.12894921875,3.68441015625,-1.88720703125,-0.1696484375,-4.05138671875,-3.95102734375,-9.4486953125,-0.27169140625,-4.49886328125,-2.90242578125,-6.6391640625,-4.15788671875,-2.89878515625,0.148851562500001,-6.3585546875,-7.57562890625
-3.20665234375,2.94734375,2.456390625,0.14940625,1.74667578125,-1.70510546875,0.96564453125,1.07834375,1.3224765625,-0.28725,3.8210625,4.96581640625,6.6229765625,3.066734375,-2.04694921875,5.44941015625,-0.64920703125,-0.7296484375,-5.02338671875,-2.52302734375,-6.6116953125,1.40630859375,-4.22586328125,-1.95642578125,-4.1521640625,-1.62288671875,-1.91078515625,0.852851562500001,-5.2045546875,-5.23562890625
-5.24465234375,1.28134375,0.487390625,-1.12459375,0.30067578125,-2.67410546875,1.19964453125,0.0673437499999991,-0.0455234375000004,-2.50825,2.3070625,5.93681640625,7.3409765625,0.357734375,-5.11994921875,6.32941015625,0.27879296875,-1.7006484375,-7.09738671875,-2.09002734375,-4.4476953125,2.47430859375,-4.68886328125,-1.59142578125,-2.4461640625,0.51611328125,-1.28278515625,1.2308515625,-4.2895546875,-3.17362890625
-6.55865234375,-0.449656249999999,-1.040609375,-1.54359375,-1.00732421875,-3.75610546875,1.34964453125,-0.68365625,-1.2625234375,-4.43925,0.3800625,6.37681640625,6.9989765625,-2.206265625,-8.34394921875,6.23341015625,0.84679296875,-2.7236484375,-9.57038671875,-2.47502734375,-3.3196953125,2.90930859375,-5.70186328125,-1.73142578125,-1.7401640625,1.76611328125,-1.04878515625,1.2178515625,-3.8795546875,-1.86462890625
-7.16665234375,-1.79165625,-1.877609375,-1.51059375,-1.99232421875,-4.75310546875,1.40664453125,-0.84365625,-2.3445234375,-5.58625,-1.3589375,6.30481640625,5.3769765625,-3.995265625,-10.61094921875,5.42641015625,1.17479296875,-3.5896484375,-11.63738671875,-3.14602734375,-3.1086953125,2.80730859375,-6.91686328125,-2.09642578125,-1.8261640625,2.11011328125,-1.02678515625,0.8808515625,-3.9205546875,-1.37162890625
-7.24265234375,-2.39765625,-1.858609375,-1.50159375,-2.59432421875,-5.44210546875,1.47964453125,-0.248656250000001,-3.3355234375,-5.71925,-2.3129375,6.04181640625,2.5919765625,-4.715265625,-11.16994921875,4.39841015625,1.44379296875,-4.3086484375,-12.70938671875,-3.47502734375,-3.3256953125,2.24530859375,-7.93986328125,-2.32742578125,-2.1681640625,2.02011328125,-0.88878515625,0.421851562500001,-4.0655546875,-1.34162890625
-7.01965234375,-2.17465625,-0.992609375,-1.82459375,-2.85832421875,-5.70110546875,1.68264453125,0.972343749999999,-4.2095234375,-4.97325,-2.1759375,6.03981640625,-0.8800234375,-4.480265625,-9.94694921875,3.61241015625,1.76279296875,-5.0266484375,-12.62338671875,-3.05102734375,-3.4296953125,1.25830859375,-8.47186328125,-2.14742578125,-2.1871640625,2.17411328125,-0.32878515625,0.0958515625,-3.8655546875,-1.21662890625
-6.68065234375,-1.33365625,0.469390625,-2.48459375,-2.86932421875,-5.57310546875,2.03564453125,2.45034375,-4.8255234375,-3.77725,-1.0899375,6.61381640625,-4.3030234375,-3.699265625,-7.56494921875,3.28441015625,2.10479296875,-5.8386484375,-11.65738671875,-1.86802734375,-3.1356953125,-0.0746914062499999,-8.39286328125,-1.47842578125,-1.5591640625,3.05711328125,0.78321484375,0.129851562500001,-3.0075546875,-0.53462890625
-6.29165234375,-0.31865625,2.059390625,-3.20959375,-2.70332421875,-5.20210546875,2.44264453125,3.81234375,-5.0075234375,-2.63925,0.4300625,7.76281640625,-6.8720234375,-2.852265625,-5.04994921875,3.31641015625,2.39579296875,-6.6446484375,-10.35438671875,-0.31502734375,-2.5306953125,-1.53469140625,-7.76986328125,-0.47142578125,-0.3561640625,4.70611328125,2.32221484375,0.629851562500001,-1.4845546875,0.84237109375
-5.82165234375,0.368343750000001,3.221390625,-3.65759375,-2.41432421875,-4.72710546875,2.74664453125,4.86834375,-4.6925234375,-1.92525,1.7460625,9.14981640625,-7.9810234375,-2.312265625,-3.36494921875,3.39441015625,2.63679296875,-7.1576484375,-9.27738671875,1.02297265625,-1.9586953125,-2.79069140625,-6.82186328125,0.55457421875,0.9998359375,6.70511328125,3.92321484375,1.5428515625,0.3824453125,2.65737109375
-5.23065234375,0.361343750000001,3.512390625,-3.64259375,-2.05932421875,-4.23510546875,2.81664453125,5.63434375,-4.0515234375,-1.74425,2.3910625,10.24881640625,-7.4650234375,-2.256265625,-3.00094921875,3.15641015625,2.95179296875,-7.0926484375,-8.80938671875,1.62497265625,-1.8166953125,-3.57069140625,-5.86586328125,1.21457421875,1.9418359375,8.38911328125,5.09921484375,2.6538515625,2.0684453125,4.36737109375
-4.54365234375,-0.40565625,2.784390625,-3.24259375,-1.70932421875,-3.77310546875,2.61164453125,6.20234375,-3.4315234375,-1.95825,2.2600625,10.59081640625,-5.6660234375,-2.659265625,-3.80394921875,2.35241015625,3.47579296875,-6.3886484375,-9.05538671875,1.23597265625,-2.3686953125,-3.81769140625,-5.23886328125,1.18957421875,1.9888359375,9.12911328125,5.39521484375,3.6508515625,3.0504453125,5.35837109375
-3.86765234375,-1.65665625,1.272390625,-2.70559375,-1.44932421875,-3.37010546875,2.16264453125,6.60534375,-3.1425234375,-2.29425,1.5920625,9.97281640625,-3.2530234375,-3.347265625,-5.10294921875,0.91341015625,4.18179296875,-5.2936484375,-9.86738671875,-0.0780273437499996,-3.6826953125,-3.69969140625,-5.21086328125,0.31857421875,0.8938359375,8.54011328125,4.54121484375,4.2128515625,3.0094453125,5.19437109375
-3.36665234375,-2.89965625,-0.517609375,-2.26959375,-1.37832421875,-3.08310546875,1.48564453125,6.73334375,-3.2675234375,-2.51325,0.7640625,8.50781640625,-0.9230234375,-4.092265625,-6.09594921875,-1.07458984375,4.80679296875,-4.2996484375,-10.97438671875,-2.05302734375,-5.6796953125,-3.47269140625,-5.91586328125,-1.37342578125,-1.3261640625,6.57211328125,2.51421484375,4.1068515625,1.9324453125,3.79137109375
-3.22565234375,-3.68765625,-2.080609375,-2.05459375,-1.63132421875,-3.03810546875,0.48164453125,6.34734375,-3.6755234375,-2.58125,0.00406249999999986,6.49581640625,0.8209765625,-4.765265625,-6.30794921875,-3.45558984375,4.95679296875,-3.9516484375,-12.17938671875,-4.41402734375,-8.2286953125,-3.34369140625,-7.35986328125,-3.74942578125,-4.4811640625,3.47911328125,-0.51478515625,3.2178515625,0.0504453125,1.40937109375
-3.60165234375,-3.87265625,-3.161609375,-2.05859375,-2.37932421875,-3.44610546875,-1.06235546875,5.19434375,-4.2365234375,-2.74925,-0.7809375,4.23581640625,1.7199765625,-5.460265625,-5.86694921875,-6.07658984375,4.30679296875,-4.6326484375,-13.50338671875,-7.03702734375,-11.2076953125,-3.43169140625,-9.46386328125,-6.66142578125,-8.3101640625,-0.27788671875,-4.29678515625,1.5508515625,-2.3355546875,-1.52962890625
-4.53465234375,-3.67865625,-3.803609375,-2.21259375,-3.76532421875,-4.51310546875,-3.33335546875,3.18534375,-4.9915234375,-3.44725,-1.9409375,1.91581640625,1.7079765625,-6.461265625,-5.45094921875,-8.79258984375,2.79279296875,-6.3896484375,-15.16738671875,-9.93902734375,-14.4766953125,-3.81369140625,-12.09986328125,-10.00842578125,-12.5291640625,-4.15088671875,-8.58478515625,-0.774148437499999,-4.9975546875,-4.64662890625
-5.87865234375,-3.54665625,-4.203609375,-2.43159375,-5.78432421875,-6.28410546875,-6.26335546875,0.536343749999999,-6.0935234375,-5.03525,-3.8229375,-0.33218359375,0.8619765625,-8.053265625,-5.93094921875,-11.40758984375,0.67179296875,-8.8866484375,-17.38738671875,-13.15102734375,-17.7936953125,-4.54769140625,-15.05086328125,-13.67842578125,-16.7991640625,-7.62888671875,-13.11078515625,-3.4971484375,-7.7985546875,-7.70462890625
-7.33165234375,-3.87965625,-4.542609375,-2.66359375,-8.18832421875,-8.55510546875,-9.40635546875,-2.27165625,-7.5795234375,-7.54925,-6.4709375,-2.33318359375,-0.6000234375,-10.275265625,-7.91194921875,-13.63258984375,-1.58620703125,-11.5236484375,-20.13438671875,-16.54002734375,-20.7826953125,-5.65269140625,-17.96386328125,-17.43942578125,-20.6801640625,-10.32288671875,-17.51278515625,-6.2061484375,-10.5795546875,-10.54962890625
-8.57765234375,-4.85165625,-4.951609375,-2.91759375,-10.52632421875,-10.91710546875,-12.03135546875,-4.69165625,-9.2185234375,-10.60925,-9.4989375,-3.83718359375,-2.3320234375,-12.800265625,-11.38694921875,-15.11358984375,-3.49620703125,-13.6656484375,-23.00038671875,-19.71402734375,-22.9886953125,-7.04469140625,-20.34686328125,-20.85042578125,-23.6401640625,-11.99688671875,-21.28878515625,-8.4011484375,-13.0595546875,-12.97662890625
-9.41165234375,-6.36365625,-5.565609375,-3.24959375,-12.30832421875,-12.89810546875,-13.43435546875,-6.30765625,-10.5845234375,-13.53625,-12.1929375,-4.60118359375,-3.9260234375,-15.011265625,-15.66294921875,-15.52458984375,-4.76520703125,-14.8486484375,-25.26838671875,-22.06802734375,-24.0096953125,-8.48769140625,-21.65186328125,-23.30042578125,-25.1551640625,-12.56688671875,-23.87078515625,-9.6211484375,-14.8295546875,-14.66862890625
-9.79465234375,-8.08865625,-6.516609375,-3.68359375,-13.19132421875,-14.10110546875,-13.25835546875,-6.94265625,-11.2745234375,-15.59825,-13.7839375,-4.51018359375,-5.0380234375,-16.216265625,-19.56394921875,-14.65758984375,-5.38120703125,-14.8646484375,-26.12138671875,-22.94202734375,-23.5976953125,-9.59469140625,-21.42486328125,-24.14642578125,-24.8361640625,-12.07088671875,-24.75178515625,-9.5791484375,-15.4635546875,-15.24862890625
-9.79065234375,-9.56165625,-7.807609375,-4.14159375,-13.05732421875,-14.29010546875,-11.63535546875,-6.64965625,-11.1035234375,-16.24225,-13.7359375,-3.61618359375,-5.5040234375,-15.887265625,-21.80294921875,-12.46358984375,-5.53720703125,-13.7166484375,-24.90838671875,-21.81602734375,-21.7056953125,-9.89269140625,-19.43786328125,-22.91242578125,-22.5271640625,-10.61088671875,-23.62178515625,-8.2201484375,-14.6575546875,-14.40562890625
-9.45265234375,-10.29665625,-9.179609375,-4.42459375,-11.96832421875,-13.44110546875,-9.09035546875,-5.69665625,-10.1355234375,-15.25825,-11.9339375,-2.11018359375,-5.3810234375,-13.833265625,-21.41394921875,-9.05458984375,-5.45820703125,-11.5196484375,-21.36438671875,-18.49802734375,-18.4756953125,-8.98769140625,-15.76586328125,-19.46042578125,-18.3441640625,-8.30788671875,-20.44178515625,-5.6881484375,-12.3305546875,-12.02062890625
-8.74965234375,-9.96465625,-10.174609375,-4.28459375,-10.11232421875,-11.73910546875,-6.31735546875,-4.52965625,-8.6105234375,-12.82225,-8.7199375,-0.27718359375,-4.8480234375,-10.280265625,-18.11394921875,-4.73558984375,-5.25820703125,-8.4476484375,-15.75338671875,-13.26002734375,-14.2486953125,-6.76069140625,-10.80586328125,-14.10042578125,-12.6811640625,-5.31388671875,-15.48178515625,-2.2731484375,-8.6635546875,-8.26062890625
-7.58465234375,-8.55965625,-10.381609375,-3.55159375,-7.78132421875,-9.55410546875,-3.97135546875,-3.67665625,-6.8065234375,-9.47425,-4.8029375,1.51881640625,-4.0360234375,-5.846265625,-12.48594921875,-0.0635898437500004,-4.92420703125,-4.7696484375,-8.87538671875,-6.86602734375,-9.5716953125,-3.50869140625,-5.23886328125,-7.58542578125,-6.2181640625,-1.88288671875,-9.31978515625,1.6348515625,-4.1115546875,-3.60662890625
-5.93265234375,-6.45665625,-9.713609375,-2.27159375,-5.38732421875,-7.37010546875,-2.53235546875,-3.57365625,-4.9375234375,-5.98125,-1.0759375,2.86481640625,-2.9300234375,-1.380265625,-5.86194921875,4.16541015625,-4.41320703125,-0.9036484375,-1.90438671875,-0.455027343749999,-5.1736953125,0.10330859375,0.0941367187500002,-0.967425781249999,0.139835937500001,1.55511328125,-2.77478515625,5.5738515625,0.6554453125,1.20937109375
-3.98065234375,-4.28065625,-8.468609375,-0.75859375,-3.40532421875,-5.67410546875,-2.25535546875,-4.36965625,-3.1005234375,-3.12525,1.6190625,3.37781640625,-1.4410234375,2.301734375,0.07805078125,7.05441015625,-3.76920703125,2.6183515625,3.93761328125,4.74597265625,-1.8186953125,3.29230859375,4.41013671875,4.67757421875,5.4238359375,4.42311328125,3.25021484375,9.0738515625,4.8914453125,5.37637109375
-2.14365234375,-2.64565625,-7.152609375,0.52540625,-2.22732421875,-4.81110546875,-3.13835546875,-5.84465625,-1.3005234375,-1.46125,2.7210625,2.83281640625,0.4549765625,4.692734375,3.86905078125,7.88941015625,-3.15620703125,5.2993515625,7.75061328125,7.78497265625,-0.0826953124999994,5.48030859375,7.21313671875,8.56157421875,8.8378359375,6.13111328125,7.97021484375,11.7468515625,7.9684453125,8.23337109375
-0.92065234375,-1.90365625,-6.205609375,1.20740625,-2.00532421875,-4.84910546875,-4.91835546875,-7.47165625,0.443476562499999,-1.13325,2.1190625,1.28081640625,2.6299765625,5.734734375,4.75705078125,6.43541015625,-2.75320703125,6.8743515625,9.23661328125,8.27597265625,-0.1256953125,6.51230859375,8.42813671875,10.38057421875,9.9928359375,6.30711328125,10.89421484375,13.3678515625,9.5454453125,9.45637109375
-0.64965234375,-2.04765625,-5.833609375,1.20440625,-2.58832421875,-5.54210546875,-7.12135546875,-8.65865625,1.9904765625,-1.86725,0.1760625,-0.91818359375,4.8479765625,5.755734375,2.91605078125,3.09141015625,-2.58720703125,7.4003515625,8.73461328125,6.49297265625,-1.6076953125,6.61930859375,8.34713671875,10.32157421875,9.0228359375,4.99411328125,11.89421484375,13.8958515625,9.6224453125,9.11637109375
-1.34265234375,-2.79865625,-6.015609375,0.75340625,-3.58632421875,-6.44610546875,-9.16735546875,-9.01565625,3.0444765625,-3.13725,-2.3969375,-3.18818359375,6.8279765625,5.242734375,-0.67994921875,-1.20258984375,-2.48320703125,7.1903515625,7.00861328125,3.22697265625,-3.8086953125,6.18830859375,7.42513671875,8.87657421875,6.5228359375,2.67611328125,11.15621484375,13.4258515625,8.4754453125,7.58937109375
-2.64965234375,-3.78765625,-6.619609375,0.24740625,-4.52932421875,-7.10110546875,-10.52035546875,-8.51965625,3.2834765625,-4.39525,-4.7809375,-4.92018359375,8.2849765625,4.597734375,-4.64994921875,-5.28458984375,-2.17020703125,6.6483515625,4.90961328125,-0.49902734375,-5.9146953125,5.50230859375,6.05713671875,6.60257421875,3.3308359375,0.0921132812500003,9.06221484375,12.1148515625,6.5124453125,5.36937109375
-3.96665234375,-4.68665625,-7.456609375,0.0134062500000001,-5.00032421875,-7.15510546875,-10.81335546875,-7.47165625,2.6044765625,-5.21925,-6.2779375,-5.66718359375,8.9819765625,4.006734375,-7.67494921875,-8.16258984375,-1.50120703125,6.1133515625,3.07161328125,-3.74802734375,-7.3326953125,4.62630859375,4.45213671875,3.94057421875,0.2448359375,-2.08188671875,6.05321484375,10.1308515625,4.1374453125,2.90037109375
-4.63365234375,-5.24565625,-8.258609375,0.17640625,-4.73632421875,-6.40610546875,-9.92235546875,-6.30665625,1.2964765625,-5.35625,-6.4749375,-5.25818359375,8.8039765625,3.471734375,-8.85694921875,-9.32958984375,-0.60820703125,5.7633515625,1.77861328125,-5.90102734375,-7.8836953125,3.45930859375,2.66413671875,1.15557421875,-2.2031640625,-3.49288671875,2.54321484375,7.6558515625,1.6724453125,0.49437109375
-4.18165234375,-5.27965625,-8.649609375,0.64240625,-3.67532421875,-4.81410546875,-7.97435546875,-5.40665625,-0.0485234375000005,-4.71025,-5.3109375,-3.82718359375,7.8309765625,2.907734375,-7.91594921875,-8.86458984375,0.11179296875,5.5913515625,0.97161328125,-6.77102734375,-7.7956953125,1.88830859375,0.69513671875,-1.62442578125,-3.8661640625,-4.17588671875,-1.12878515625,4.9138515625,-0.6705546875,-1.68162890625
-2.53865234375,-4.69065625,-8.239609375,1.18940625,-1.98332421875,-2.54510546875,-5.31735546875,-4.96865625,-0.8385234375,-3.34225,-3.0609375,-1.75318359375,6.3219765625,2.232734375,-5.19694921875,-7.32358984375,0.20079296875,5.4183515625,0.36661328125,-6.58302734375,-7.5196953125,-0.07369140625,-1.41686328125,-4.34142578125,-4.9431640625,-4.42388671875,-4.71678515625,2.1778515625,-2.7865546875,-3.56562890625
-0.11865234375,-3.54065625,-6.869609375,1.57840625,-0.0403242187500001,0.0198945312500001,-2.45335546875,-4.95965625,-0.7825234375,-1.48525,-0.2569375,0.45281640625,4.5989765625,1.419734375,-1.53294921875,-5.45858984375,-0.56520703125,4.9723515625,-0.39338671875,-5.85402734375,-7.4646953125,-2.21769140625,-3.57686328125,-6.95842578125,-5.8251640625,-4.56588671875,-8.06778515625,-0.2671484375,-4.6445546875,-5.14962890625
2.31034765625,-2.10665625,-4.817609375,1.66840625,1.63667578125,2.35789453125,0.0576445312499998,-5.15665625,0.0264765624999996,0.47475,2.4540625,2.29381640625,2.9119765625,0.503734375,1.99205078125,-3.91558984375,-1.98720703125,4.0173515625,-1.58538671875,-5.18402734375,-7.7856953125,-4.16569140625,-5.63886328125,-9.42742578125,-6.8771640625,-4.79088671875,-11.09378515625,-2.1811484375,-6.2495546875,-6.43162890625
3.92934765625,-0.82865625,-2.770609375,1.46640625,2.57367578125,3.96589453125,1.74164453125,-5.28465625,1.2094765625,2.07875,4.4690625,3.41581640625,1.3889765625,-0.410265625,4.35905078125,-3.01658984375,-3.47420703125,2.5363515625,-3.29138671875,-5.04802734375,-8.3356953125,-5.48169140625,-7.41486328125,-11.66042578125,-8.2441640625,-5.08188671875,-13.70778515625,-3.4121484375,-7.5885546875,-7.38462890625
4.24234765625,-0.14465625,-1.505609375,1.12140625,2.55067578125,4.55589453125,2.37364453125,-5.15865625,2.3244765625,2.95275,5.4060625,3.70881640625,0.1069765625,-1.143265625,4.92005078125,-2.68558984375,-4.29820703125,0.8553515625,-5.32138671875,-5.60202734375,-8.7516953125,-5.80069140625,-8.65686328125,-13.49842578125,-9.7351640625,-5.26688671875,-15.75378515625,-3.8861484375,-8.5695546875,-7.92762890625
3.32134765625,-0.280656249999999,-1.463609375,0.85640625,1.75267578125,4.20189453125,2.09664453125,-4.74665625,3.0684765625,2.97575,5.2380625,3.35181640625,-0.7640234375,-1.449265625,3.61305078125,-2.51658984375,-3.93920703125,-0.3936484375,-7.20138671875,-6.59902734375,-8.6016953125,-4.93169140625,-9.04786328125,-14.67042578125,-10.8601640625,-5.10788671875,-16.95878515625,-3.5421484375,-8.9865546875,-7.92262890625
1.76634765625,-1.12465625,-2.517609375,0.85840625,0.72467578125,3.33889453125,1.37464453125,-4.10765625,3.4154765625,2.37175,4.3040625,2.76681640625,-0.8930234375,-1.067265625,0.99405078125,-1.96358984375,-2.33820703125,-0.5206484375,-8.26738671875,-7.44302734375,-7.5416953125,-2.89769140625,-8.24886328125,-14.81742578125,-10.9971640625,-4.41188671875,-16.96678515625,-2.2891484375,-8.5535546875,-7.21162890625
0.38634765625,-2.26565625,-4.055609375,1.19040625,0.13767578125,2.57789453125,0.75964453125,-3.31765625,3.6124765625,1.64775,3.1770625,2.42781640625,0.0809765625000001,0.191734375,-1.95994921875,-0.590589843750001,0.0587929687499997,0.8703515625,-7.86338671875,-7.39902734375,-5.4476953125,0.08530859375,-6.02286328125,-13.58242578125,-9.6331640625,-3.11188671875,-15.46978515625,-0.0411484374999995,-7.0225546875,-5.69062890625
-0.20865234375,-3.15465625,-5.301609375,1.76240625,0.48667578125,2.41889453125,0.617644531249999,-2.46865625,4.0554765625,1.39175,2.4250625,2.62781640625,2.2829765625,2.364734375,-4.17794921875,1.73241015625,2.48279296875,3.6833515625,-5.58238671875,-5.87702734375,-2.4676953125,3.64630859375,-2.35186328125,-10.74942578125,-6.5811640625,-1.29288671875,-12.34878515625,3.1798515625,-4.3295546875,-3.38562890625
0.15434765625,-3.31665625,-5.667609375,2.38340625,1.89067578125,3.05489453125,1.01064453125,-1.70665625,5.0944765625,2.04575,2.4210625,3.34681640625,5.3949765625,5.321734375,-4.82094921875,4.77041015625,4.16179296875,7.3923515625,-1.42638671875,-2.67102734375,1.0193046875,7.31230859375,2.49613671875,-6.35542578125,-2.0491640625,0.84311328125,-7.76578515625,7.1588515625,-0.6675546875,-0.46462890625
1.23234765625,-2.52565625,-4.974609375,2.86840625,4.08467578125,4.36789453125,1.79364453125,-1.21865625,6.8604765625,3.75775,3.2800625,4.34481640625,8.7119765625,8.804734375,-3.49594921875,8.04341015625,4.64679296875,11.3083515625,4.17061328125,1.96197265625,4.5463046875,10.55230859375,8.00413671875,-0.74542578125,3.4288359375,3.06711328125,-2.14978515625,11.4748515625,3.5454453125,2.80537109375
2.59434765625,-0.87565625,-3.456609375,3.13340625,6.56667578125,6.08389453125,2.80964453125,-1.13865625,9.1794765625,6.35375,4.9110625,5.38281640625,11.4509765625,12.459734375,-0.33994921875,11.01141015625,4.00579296875,14.8403515625,10.45861328125,7.37997265625,7.7013046875,12.86930859375,13.48113671875,5.44857421875,9.1488359375,5.19011328125,3.87721484375,15.5808515625,7.7944453125,6.13337109375
3.85734765625,1.26134375,-1.609609375,3.22140625,8.79067578125,7.90789453125,3.99764453125,-1.46765625,11.5834765625,9.38475,7.0900625,6.37881640625,13.0849765625,15.849734375,4.03405078125,13.25141015625,2.78179296875,17.6083515625,16.52361328125,12.72797265625,10.2123046875,13.92630859375,18.18713671875,11.40757421875,14.3958359375,7.08111328125,9.61321484375,18.9328515625,11.5794453125,9.22937109375
4.78334765625,3.33834375,-0.00860937499999981,3.23140625,10.30167578125,9.58189453125,5.35364453125,-2.07265625,13.4104765625,12.22775,9.5150625,7.37381640625,13.4879765625,18.448734375,8.70805078125,14.53941015625,1.72079296875,19.3823515625,21.44561328125,17.16097265625,11.9313046875,13.65630859375,21.45213671875,16.29757421875,18.5668359375,8.62211328125,14.39421484375,21.1038515625,14.4934453125,11.80237109375
5.24634765625,4.78034375,0.819390625,3.20640625,10.79967578125,10.87389453125,6.79664453125,-2.72665625,13.9834765625,14.22975,11.8220625,8.36481640625,12.8139765625,19.710734375,12.69705078125,14.86841015625,1.39379296875,19.9803515625,24.45461328125,20.05197265625,12.8063046875,12.23230859375,22.80613671875,19.46257421875,21.2618359375,9.67411328125,17.70021484375,21.8638515625,16.2674453125,13.57937109375
5.15934765625,5.15134375,0.525390625,3.07540625,10.17167578125,11.59489453125,8.12464453125,-3.14965625,12.8584765625,14.89375,13.6450625,9.18281640625,11.2699765625,19.228734375,15.22305078125,14.41941015625,1.93679296875,19.2493515625,25.11361328125,21.15997265625,12.8723046875,9.93730859375,22.10213671875,20.60057421875,22.3598359375,10.11811328125,19.26721484375,21.2238515625,16.8264453125,14.38237109375
4.51234765625,4.33334375,-0.862609375,2.70340625,8.55067578125,11.65189453125,9.09164453125,-3.03965625,10.0614765625,14.05075,14.6960625,9.54381640625,8.9819765625,16.931734375,15.93005078125,13.51041015625,3.06179296875,17.1453515625,23.46961328125,20.67897265625,12.2823046875,7.03330859375,19.58113671875,19.82757421875,22.0318359375,9.94211328125,19.15221484375,19.4228515625,16.3104453125,14.23337109375
3.46734765625,2.62634375,-2.785609375,2.01440625,6.34967578125,11.11189453125,9.57064453125,-2.16165625,6.1724765625,11.94375,14.8440625,9.23381640625,6.0519765625,13.196734375,14.94705078125,12.48741015625,4.30079296875,13.8543515625,20.07061328125,19.11397265625,11.2993046875,3.77030859375,15.82813671875,17.59957421875,20.6668359375,9.31211328125,17.68421484375,16.8678515625,15.0304453125,13.35837109375
2.41834765625,0.68534375,-4.257609375,1.09840625,4.16067578125,10.21089453125,9.62264453125,-0.506656250000001,2.1754765625,9.15475,14.1360625,8.30481640625,2.7259765625,8.776734375,12.78605078125,11.59541015625,5.29779296875,9.8303515625,15.81261328125,17.04297265625,10.2243046875,0.46330859375,11.60613671875,14.51357421875,18.6958359375,8.50611328125,15.31721484375,14.0048515625,13.3324453125,12.08937109375
1.88334765625,-0.74565625,-4.298609375,0.22540625,2.53767578125,9.29089453125,9.44264453125,1.61334375,-0.9095234375,6.41275,12.7650625,7.12081640625,-0.5060234375,4.581734375,10.13105078125,10.88441015625,5.94179296875,5.7193515625,11.65461328125,14.87897265625,9.2843046875,-2.47469140625,7.63213671875,11.10457421875,16.4198359375,7.75011328125,12.44021484375,11.1798515625,11.4514453125,10.68637109375
2.25734765625,-1.15965625,-2.505609375,-0.25259375,1.78167578125,8.69489453125,9.23864453125,3.64834375,-2.4045234375,4.36675,11.0280625,6.22681640625,-2.9920234375,1.404734375,7.63205078125,10.22441015625,6.32279296875,2.2073515625,8.35361328125,12.78897265625,8.5623046875,-4.63369140625,4.40113671875,7.73357421875,13.9408359375,7.08311328125,9.27521484375,8.5728515625,9.4524453125,9.22437109375
3.56634765625,-0.510656249999999,0.604390625,-0.08659375,1.87767578125,8.64789453125,9.15264453125,5.05334375,-2.1795234375,3.42375,9.2880625,6.09181640625,-4.1690234375,-0.274265625,5.79305078125,9.42841015625,6.59479296875,-0.1436484375,6.30861328125,10.77897265625,8.0023046875,-5.76569140625,2.13613671875,4.60957421875,11.2368359375,6.37511328125,5.90621484375,6.2328515625,7.2914453125,7.62037109375
5.39834765625,0.78634375,3.743390625,0.70040625,2.58267578125,9.18889453125,9.25064453125,5.53934375,-0.6115234375,3.68475,7.9290625,6.88881640625,-3.8420234375,-0.373265625,4.92305078125,8.39241015625,6.84779296875,-1.0276484375,5.53761328125,8.84097265625,7.4723046875,-5.90069140625,0.83013671875,1.84457421875,8.2968359375,5.47711328125,2.38621484375,4.1668515625,4.9574453125,5.75037109375
7.08034765625,2.07434375,5.467390625,1.77540625,3.57967578125,10.19289453125,9.54664453125,5.18734375,1.6144765625,4.97275,7.2700625,8.39881640625,-2.3140234375,0.811734375,5.11205078125,7.15141015625,7.06979296875,-0.5156484375,5.74061328125,7.02597265625,6.8313046875,-5.34869140625,0.30513671875,-0.51442578125,5.1998359375,4.36411328125,-1.17578515625,2.4018515625,2.5434453125,3.58037109375
8.02234765625,2.80634375,4.957390625,2.65640625,4.60867578125,11.43089453125,10.01264453125,4.40134375,3.7944765625,6.90375,7.4520625,10.11281640625,-0.2600234375,2.710734375,6.20205078125,5.83541015625,7.18679296875,0.9223515625,6.41861328125,5.40297265625,5.9703046875,-4.61069140625,0.26413671875,-2.51342578125,2.0868359375,3.16211328125,-4.61378515625,0.9708515625,0.2314453125,1.20837109375
8.00934765625,2.81134375,2.511390625,2.97440625,5.52367578125,12.64989453125,10.59364453125,3.70134375,5.4404765625,8.99075,8.3760625,11.46181640625,1.5859765625,4.656734375,7.80005078125,4.58741015625,7.12979296875,2.5473515625,7.02461328125,3.96797265625,4.8333046875,-4.19869140625,0.36313671875,-4.29542578125,-0.900164062499999,2.05211328125,-7.75878515625,-0.1271484375,-1.8095546875,-1.18662890625
7.28034765625,2.36134375,-0.567609375,2.67940625,6.28467578125,13.63389453125,11.23964453125,3.49634375,6.4214765625,10.76375,9.7290625,12.05781640625,2.7419765625,6.104734375,9.37805078125,3.51441015625,6.88879296875,3.6373515625,7.14361328125,2.62297265625,3.4573046875,-4.41669140625,0.33913671875,-6.02142578125,-3.6601640625,1.14711328125,-10.46578515625,-0.9191484375,-3.4875546875,-3.40862890625
6.37234765625,1.98334375,-2.630609375,2.05040625,6.90467578125,14.26089453125,11.91964453125,3.90434375,6.9344765625,11.90075,11.1130625,11.84681640625,3.1399765625,6.814734375,10.44205078125,2.71141015625,6.50179296875,3.8363515625,6.65561328125,1.27297265625,2.0193046875,-5.17369140625,0.14913671875,-7.72942578125,-6.0811640625,0.45111328125,-12.60078515625,-1.4171484375,-4.7695546875,-5.27362890625
5.84334765625,2.14434375,-2.514609375,1.51240625,7.41167578125,14.53489453125,12.61264453125,4.71934375,7.3244765625,12.31675,12.1970625,11.08781640625,3.0579765625,6.904734375,10.71305078125,2.30641015625,6.03179296875,3.3563515625,5.80461328125,-0.0440273437499998,0.8443046875,-5.95769140625,0.0251367187500002,-9.23142578125,-7.9661640625,-0.0918867187499998,-13.99578515625,-1.5581484375,-5.6045546875,-6.61062890625
6.01234765625,2.98234375,-0.0986093749999997,1.37340625,7.82567578125,14.53989453125,13.26964453125,5.50434375,7.8304765625,12.14175,12.8090625,10.19881640625,2.9109765625,6.743734375,10.21105078125,2.45841015625,5.53779296875,2.8743515625,5.09461328125,-1.09202734375,0.316304687500001,-6.03769140625,0.37213671875,-10.13742578125,-9.0211640625,-0.51888671875,-14.45578515625,-1.2041484375,-5.8765546875,-7.25762890625
6.82834765625,4.23834375,3.691390625,1.67640625,8.12467578125,14.33689453125,13.78364453125,5.79734375,8.4204765625,11.59975,12.9180625,9.54881640625,3.0039765625,6.724734375,9.20005078125,3.27741015625,5.07079296875,3.1303515625,5.05161328125,-1.52302734375,0.7023046875,-4.86769140625,1.54613671875,-10.03542578125,-8.9551640625,-0.81988671875,-13.83878515625,-0.232148437499999,-5.4525546875,-7.11162890625
7.92234765625,5.39134375,7.368390625,2.20640625,8.19767578125,13.88589453125,13.96064453125,5.36034375,8.8144765625,10.83875,12.5430625,9.29081640625,3.3859765625,7.048734375,8.01805078125,4.69641015625,4.65079296875,4.4663515625,5.94861328125,-1.06402734375,2.0013046875,-2.46969140625,3.61213671875,-8.72642578125,-7.6621640625,-0.97988671875,-12.19878515625,1.3408515625,-4.3035546875,-6.21362890625
8.80334765625,5.91934375,9.560390625,2.62540625,7.83867578125,13.05489453125,13.54964453125,4.33834375,8.6664765625,9.86175,11.6790625,9.29681640625,3.8449765625,7.638734375,6.91305078125,6.39541015625,4.23379296875,6.6173515625,7.67061328125,0.310972656250001,3.8953046875,0.48330859375,6.27513671875,-6.37442578125,-5.3421640625,-1.02688671875,-9.83278515625,3.2918515625,-2.5895546875,-4.78562890625
9.09434765625,5.53134375,9.564390625,2.64140625,6.84667578125,11.74089453125,12.34164453125,3.20134375,7.7814765625,8.60475,10.3410625,9.21581640625,4.0859765625,8.246734375,5.99205078125,7.88341015625,3.70379296875,8.8993515625,9.80361328125,2.36697265625,5.8953046875,2.99830859375,9.02213671875,-3.43942578125,-2.4531640625,-1.01088671875,-7.18678515625,5.2778515625,-0.6205546875,-3.16562890625
8.69234765625,4.30734375,7.565390625,2.13240625,5.20767578125,10.01689453125,10.34464453125,2.47034375,6.2594765625,7.11075,8.6900625,8.66081640625,3.9719765625,8.663734375,5.29305078125,8.71041015625,2.95779296875,10.6583515625,11.88561328125,4.75097265625,7.5963046875,4.33830859375,11.41113671875,-0.44942578125,0.511835937500001,-0.91288671875,-4.62678515625,7.0238515625,1.3004453125,-1.63762890625
7.78334765625,2.65534375,4.457390625,1.22040625,3.22067578125,8.20589453125,7.89764453125,2.40134375,4.4984765625,5.63975,7.1000625,7.42981640625,3.6889765625,8.868734375,4.88905078125,8.69741015625,2.00379296875,11.6373515625,13.62061328125,7.17597265625,8.8833046875,4.42030859375,13.27113671875,2.23057421875,3.2558359375,-0.58288671875,-2.25978515625,8.4738515625,3.0374453125,-0.27162890625
6.72134765625,1.12834375,1.370390625,0.23940625,1.44667578125,6.79189453125,5.61564453125,2.83734375,3.0534765625,4.59875,6.0590625,5.67281640625,3.6709765625,9.007734375,4.90305078125,8.01341015625,0.97879296875,12.0353515625,14.92761328125,9.49097265625,9.9373046875,3.77730859375,14.68413671875,4.47657421875,5.7328359375,0.17711328125,0.05121484375,9.7628515625,4.6474453125,1.08337109375
5.82034765625,0.147343750000001,-0.861609375,-0.42059375,0.44667578125,6.17489453125,4.12064453125,3.31634375,2.3994765625,4.31375,5.9120625,3.84381640625,4.2959765625,9.226734375,5.38505078125,7.04241015625,0.0477929687499996,12.2223515625,15.81061328125,11.59897265625,11.0143046875,3.13030859375,15.76713671875,6.29457421875,8.0128359375,1.43211328125,2.47521484375,11.0158515625,6.2434453125,2.64137109375
5.18334765625,-0.19065625,-2.016609375,-0.50859375,0.48367578125,6.39389453125,3.71764453125,3.31834375,2.7174765625,4.77475,6.6010625,2.45981640625,5.5369765625,9.482734375,6.17305078125,6.13441015625,-0.72420703125,12.3933515625,16.19561328125,13.31997265625,12.1853046875,2.91430859375,16.45013671875,7.64157421875,10.0578359375,2.95411328125,4.97421484375,12.1518515625,7.8254453125,4.45437109375
4.66534765625,-0.131656249999999,-2.430609375,-0.0435937499999999,1.34367578125,7.02089453125,4.17564453125,2.51434375,3.7994765625,5.55375,7.5950625,1.78281640625,6.8859765625,9.487734375,6.84605078125,5.40141015625,-1.39620703125,12.3853515625,15.86961328125,14.33697265625,13.2233046875,3.06830859375,16.42213671875,8.34557421875,11.6238359375,4.26211328125,7.19621484375,12.8458515625,9.1964453125,6.29737109375
4.02334765625,-0.0966562499999997,-2.657609375,0.68340625,2.40867578125,7.33589453125,4.79964453125,0.89834375,5.1284765625,5.94975,8.0720625,1.65781640625,7.6099765625,8.833734375,6.84705078125,4.69741015625,-2.05520703125,11.8013515625,14.58761328125,14.29597265625,13.7223046875,3.15330859375,15.28813671875,8.17857421875,12.3378359375,4.85911328125,8.60921484375,12.7058515625,10.0534453125,7.74537109375
3.13734765625,-0.43265625,-3.051609375,1.24540625,2.95767578125,6.70089453125,4.76264453125,-1.20065625,6.0914765625,5.31875,7.3030625,1.64781640625,7.1979765625,7.231734375,5.73705078125,3.77041015625,-2.69020703125,10.3203515625,12.27361328125,13.01297265625,13.3793046875,2.69130859375,12.84713671875,7.02457421875,11.9238359375,4.51811328125,8.77221484375,11.5458515625,10.1734453125,8.40037109375
2.13434765625,-1.23065625,-3.556609375,1.28140625,2.52667578125,4.88889453125,3.54164453125,-3.24765625,6.2194765625,3.39375,5.0260625,1.36681640625,5.6609765625,4.722734375,3.44805078125,2.48741015625,-3.15020703125,8.0013515625,9.16261328125,10.64497265625,12.2133046875,1.49630859375,9.30513671875,5.03257421875,10.3908359375,3.42611328125,7.58621484375,9.5538515625,9.5624453125,8.11637109375
1.31934765625,-2.29765625,-3.821609375,0.66240625,1.11867578125,2.20289453125,1.21164453125,-4.70065625,5.3434765625,0.42475,1.6060625,0.76081640625,3.5279765625,1.720734375,0.36305078125,0.97441015625,-3.20820703125,5.3513515625,5.76961328125,7.69297265625,10.6063046875,-0.20269140625,5.27213671875,2.59957421875,8.0748359375,2.08011328125,5.34621484375,7.2208515625,8.4424453125,7.06437109375
0.93634765625,-3.30365625,-3.552609375,-0.48559375,-0.87432421875,-0.69710546875,-1.60135546875,-5.20365625,3.6264765625,-2.94925,-2.1249375,0.137816406249999,1.5449765625,-1.167265625,-2.84694921875,-0.44458984375,-2.69720703125,3.0983515625,2.67261328125,4.80897265625,9.1053046875,-1.90669140625,1.51713671875,0.186574218750001,5.4628359375,0.99911328125,2.53821484375,5.0418515625,7.0774453125,5.58537109375
0.94734765625,-3.97065625,-2.815609375,-1.89459375,-2.94132421875,-3.11910546875,-4.06435546875,-4.70465625,1.4604765625,-6.00625,-5.2709375,-0.0711835937500003,0.2679765625,-3.425265625,-5.53994921875,-1.44358984375,-1.60420703125,1.7963515625,0.22661328125,2.49497265625,8.1233046875,-3.17569140625,-1.37586328125,-1.94842578125,2.9328359375,0.43511328125,-0.46878515625,3.2098515625,5.5484453125,3.93937109375
0.99734765625,-4.20765625,-2.046609375,-3.32459375,-4.72232421875,-4.65910546875,-5.55935546875,-3.44565625,-0.7045234375,-8.25825,-7.2679375,0.378816406249999,-0.2300234375,-4.868265625,-7.37594921875,-1.90758984375,-0.0982070312500003,1.5063515625,-1.59638671875,0.886972656250001,7.7243046875,-3.91169140625,-3.24586328125,-3.89342578125,0.5758359375,0.26411328125,-3.61578515625,1.5178515625,3.6794453125,2.12637109375
0.61934765625,-4.12065625,-1.768609375,-4.65559375,-6.10132421875,-5.31610546875,-5.94935546875,-1.84765625,-2.5465234375,-9.60125,-8.0699375,1.38981640625,-0.3970234375,-5.688265625,-8.39094921875,-1.99458984375,1.53079296875,1.7393515625,-3.13538671875,-0.24902734375,7.6173046875,-4.40769140625,-4.36886328125,-5.99642578125,-1.7751640625,0.11411328125,-7.08578515625,-0.439148437499999,1.1904453125,-0.0566289062499996
-0.45365234375,-3.92665625,-2.236609375,-5.86659375,-7.14432421875,-5.38810546875,-5.55535546875,-0.355656250000001,-3.9595234375,-10.24025,-8.0619375,2.58781640625,-0.9410234375,-6.291265625,-8.88694921875,-2.04758984375,2.94779296875,1.7193515625,-4.79038671875,-1.33102734375,7.3543046875,-5.16169140625,-5.22786328125,-8.60642578125,-4.3541640625,-0.38788671875,-11.02078515625,-2.9101484375,-2.0035546875,-2.78062890625
-2.10165234375,-3.84565625,-3.292609375,-6.95859375,-7.97832421875,-5.25210546875,-4.94235546875,0.676343749999999,-5.0135234375,-10.50725,-7.8109375,3.51481640625,-2.3990234375,-7.030265625,-9.24094921875,-2.43858984375,3.83379296875,0.8283515625,-6.73438671875,-2.70902734375,6.5713046875,-6.54869140625,-6.19686328125,-11.78742578125,-7.2321640625,-1.40488671875,-15.24878515625,-5.7241484375,-5.5815546875,-5.93362890625
-3.88765234375,-4.02665625,-4.497609375,-7.90059375,-8.69332421875,-5.19610546875,-4.65335546875,1.02434375,-5.7965234375,-10.66625,-7.8149375,3.81781640625,-4.7530234375,-7.979265625,-9.75594921875,-3.43558984375,3.92479296875,-0.9986484375,-8.78238671875,-4.51402734375,5.1523046875,-8.54469140625,-7.29686328125,-15.19942578125,-10.2081640625,-2.80088671875,-19.20178515625,-8.3001484375,-8.8175546875,-9.02262890625
-5.30365234375,-4.50365625,-5.426609375,-8.58959375,-9.28532421875,-5.36610546875,-4.99535546875,0.572343749999999,-6.2645234375,-10.82025,-8.3669375,3.32681640625,-7.3330234375,-8.866265625,-10.58394921875,-5.13758984375,3.08079296875,-3.1576484375,-10.46838671875,-6.63102734375,3.2503046875,-10.62769140625,-8.15286328125,-18.18242578125,-12.8411640625,-4.19988671875,-22.07278515625,-9.9021484375,-10.8265546875,-11.29862890625
-6.00465234375,-5.19865625,-5.863609375,-8.85259375,-9.64932421875,-5.77410546875,-5.95635546875,-0.67065625,-6.1955234375,-10.90525,-9.5289375,2.06781640625,-9.1060234375,-9.213265625,-11.71994921875,-7.46158984375,1.36179296875,-4.6446484375,-11.28538671875,-8.80002734375,1.2043046875,-11.93569140625,-8.18986328125,-20.01842578125,-14.6291640625,-5.15188671875,-23.13678515625,-9.9911484375,-10.9235546875,-12.05162890625
-5.89465234375,-5.95165625,-5.813609375,-8.50459375,-9.62632421875,-6.31310546875,-7.23535546875,-2.50365625,-5.3265234375,-10.76325,-11.1619375,0.21581640625,-9.2140234375,-8.599265625,-13.01994921875,-10.15158984375,-0.93520703125,-4.5706484375,-10.92638671875,-10.72102734375,-0.5756953125,-11.65169140625,-6.93686328125,-20.20942578125,-15.1971640625,-5.32088671875,-22.04578515625,-8.4701484375,-8.9025546875,-10.90362890625
-5.08065234375,-6.57865625,-5.382609375,-7.47759375,-9.10032421875,-6.77110546875,-8.37335546875,-4.50665625,-3.5945234375,-10.24825,-12.9499375,-1.93418359375,-7.4480234375,-6.912265625,-14.21794921875,-12.78958984375,-3.33820703125,-2.6166484375,-9.38838671875,-12.10002734375,-1.6896953125,-9.42169140625,-4.26886328125,-18.62642578125,-14.3951640625,-4.58388671875,-18.92678515625,-5.6751484375,-5.0975546875,-7.94162890625
-3.78965234375,-6.91865625,-4.655609375,-5.97359375,-8.09932421875,-6.89510546875,-8.90635546875,-6.11665625,-1.3355234375,-9.32325,-14.4229375,-3.96818359375,-4.3560234375,-4.433265625,-14.93494921875,-14.78758984375,-5.32320703125,0.8393515625,-6.90638671875,-12.61702734375,-1.7886953125,-5.55469140625,-0.43986328125,-15.47142578125,-12.2531640625,-2.97988671875,-14.27078515625,-2.1611484375,-0.2015546875,-3.63362890625
-2.29865234375,-6.85865625,-3.674609375,-4.48959375,-6.82232421875,-6.47810546875,-8.52635546875,-6.83465625,0.7484765625,-8.08425,-15.0309375,-5.39218359375,-0.9460234375,-1.717265625,-14.72594921875,-15.45258984375,-6.43420703125,4.9363515625,-3.79238671875,-11.89402734375,-0.598695312499999,-0.89269140625,4.04613671875,-11.12742578125,-8.8791640625,-0.59688671875,-8.69678515625,1.5408515625,5.0194453125,1.38037109375
-0.88765234375,-6.33065625,-2.491609375,-3.63859375,-5.59432421875,-5.43910546875,-7.18735546875,-6.42065625,1.8794765625,-6.71325,-14.3099375,-5.73318359375,1.7899765625,0.658734375,-13.20994921875,-14.16658984375,-6.39120703125,8.7203515625,-0.33938671875,-9.58702734375,2.0053046875,3.55430859375,8.62413671875,-6.03742578125,-4.4221640625,2.45611328125,-2.78878515625,5.0348515625,9.9354453125,6.46137109375
0.20634765625,-5.31365625,-1.241609375,-3.83659375,-4.72532421875,-3.85810546875,-5.13335546875,-4.99565625,1.6144765625,-5.40325,-12.0869375,-4.73318359375,3.2479765625,2.322734375,-10.24994921875,-10.66158984375,-5.15520703125,11.4703515625,3.18361328125,-5.56502734375,5.8963046875,6.97830859375,12.78713671875,-0.66542578125,0.855835937500001,5.97011328125,2.94221484375,8.0298515625,14.1154453125,11.05237109375
0.83434765625,-3.86565625,-0.162609375,-5.05659375,-4.36432421875,-1.97710546875,-2.80635546875,-2.98865625,0.120476562499999,-4.29125,-8.6149375,-2.51918359375,3.3429765625,3.205734375,-6.08394921875,-5.22558984375,-2.98020703125,12.8473515625,6.47161328125,-0.103027343749999,10.6433046875,8.97930859375,16.13713671875,4.48657421875,6.5108359375,9.54311328125,8.02621484375,10.2568515625,17.2844453125,14.70937109375
0.97534765625,-2.15965625,0.482390625,-6.80859375,-4.41332421875,-0.13910546875,-0.665355468750001,-0.980656250000001,-1.8825234375,-3.45125,-4.5269375,0.394816406249999,2.3769765625,3.466734375,-1.34894921875,1.27341015625,-0.37720703125,12.8753515625,9.15061328125,6.08097265625,15.5793046875,9.55330859375,18.37113671875,8.88057421875,11.9268359375,12.61611328125,12.02421484375,11.4478515625,19.2774453125,17.13537109375
0.75434765625,-0.483656249999999,0.518390625,-8.37559375,-4.58632421875,1.32589453125,0.97864453125,0.512343749999999,-3.4845234375,-2.90825,-0.6389375,3.30581640625,0.7879765625,3.332734375,3.05905078125,7.62841015625,2.02379296875,11.8083515625,10.81361328125,11.96997265625,19.9953046875,8.93430859375,19.26913671875,12.01157421875,16.4368359375,14.66211328125,14.57821484375,11.3748515625,20.0284453125,18.22837109375
0.40234765625,0.82634375,-0.0456093749999997,-9.15559375,-4.58832421875,2.21689453125,2.02264453125,1.22834375,-4.0355234375,-2.67525,2.3130625,5.63481640625,-1.0810234375,2.947734375,6.22405078125,12.67741015625,3.69579296875,10.0013515625,11.14361328125,16.54697265625,23.3553046875,7.42530859375,18.72013671875,13.51357421875,19.5018359375,15.42211328125,15.50021484375,9.9298515625,19.5944453125,18.08037109375
0.15134765625,1.50234375,-1.021609375,-8.93059375,-4.32032421875,2.49889453125,2.54364453125,1.24234375,-3.4455234375,-2.77625,3.8910625,7.15181640625,-3.0430234375,2.323734375,7.49605078125,15.69341015625,4.42279296875,7.8053515625,10.03661328125,19.11597265625,25.4413046875,5.31530859375,16.78613671875,13.26957421875,20.8718359375,15.04211328125,14.83321484375,7.1858515625,18.1514453125,16.93037109375
0.14434765625,1.46534375,-2.096609375,-7.92359375,-3.95132421875,2.25889453125,2.72164453125,0.89834375,-2.1765234375,-3.25025,4.0680625,8.00581640625,-4.9500234375,1.388734375,6.69705078125,16.58041015625,4.39179296875,5.5293515625,7.68361328125,19.50097265625,26.3453046875,2.87430859375,13.74413671875,11.45957421875,20.6398359375,13.98911328125,12.83821484375,3.4128515625,15.9634453125,15.08237109375
0.41334765625,0.89934375,-2.900609375,-6.61159375,-3.80732421875,1.67889453125,2.77964453125,0.637343749999999,-0.9495234375,-4.08725,3.1990625,8.54881640625,-6.5540234375,0.096734375,4.21105078125,15.81441015625,4.11479296875,3.4323515625,4.55061328125,18.06097265625,26.3613046875,0.37330859375,10.07013671875,8.52157421875,19.1688359375,12.80011328125,9.92321484375,-0.950148437499999,13.3154453125,12.81437109375
0.94434765625,0.22534375,-3.047609375,-5.44159375,-4.11532421875,1.01989453125,2.91864453125,0.798343749999999,-0.3335234375,-5.13425,1.8910625,9.08981640625,-7.4970234375,-1.453265625,0.88905078125,14.17541015625,4.19779296875,1.7503515625,1.28461328125,15.51897265625,25.8133046875,-1.95169140625,6.33813671875,5.04957421875,16.9278359375,11.80211328125,6.52821484375,-5.3781484375,10.4624453125,10.33037109375
1.73034765625,-0.0396562499999997,-2.216609375,-4.61659375,-4.78432421875,0.59489453125,3.24464453125,1.44534375,-0.4415234375,-6.07325,0.7700625,9.68881640625,-7.4850234375,-2.980265625,-2.20894921875,12.36941015625,5.01879296875,0.6943515625,-1.43338671875,12.68297265625,24.9143046875,-3.95969140625,3.09713671875,1.64757421875,14.3058359375,10.97111328125,3.03621484375,-9.3651484375,7.6034453125,7.75337109375
2.75834765625,0.486343750000001,-0.300609375,-4.06659375,-5.38632421875,0.65589453125,3.72164453125,2.33134375,-0.9005234375,-6.50225,0.2580625,10.10281640625,-6.5240234375,-4.074265625,-4.15794921875,10.74841015625,6.48379296875,0.417351562499999,-3.06638671875,10.17297265625,23.6843046875,-5.62169140625,0.75513671875,-1.20042578125,11.4928359375,10.00411328125,-0.26978515625,-12.5311484375,4.8894453125,5.16537109375
3.96534765625,1.84034375,2.417390625,-3.55159375,-5.34732421875,1.29289453125,4.16964453125,3.02034375,-1.0855234375,-6.09925,0.4320625,9.92081640625,-4.9820234375,-4.333265625,-4.47694921875,9.23041015625,8.01079296875,0.9563515625,-3.36438671875,8.26497265625,21.9703046875,-6.95669140625,-0.48686328125,-3.22342578125,8.4898359375,8.52711328125,-3.19678515625,-14.6801484375,2.4444453125,2.64137109375
5.21534765625,3.64534375,5.216390625,-2.83159375,-4.26032421875,2.40889453125,4.34364453125,3.14134375,-0.4775234375,-4.75425,1.0550625,8.83181640625,-3.3750234375,-3.539265625,-3.26894921875,7.45741015625,8.82079296875,2.1753515625,-2.42938671875,6.87597265625,19.5793046875,-7.92969140625,-0.65086328125,-4.38842578125,5.2158359375,6.33011328125,-5.60678515625,-15.8001484375,0.3774453125,0.28137109375
6.35134765625,5.24234375,7.158390625,-1.80259375,-2.11332421875,3.78889453125,4.05964453125,2.61034375,1.0494765625,-2.63325,1.7310625,6.86381640625,-2.0400234375,-1.783265625,-1.14794921875,5.09041015625,8.37179296875,3.7593515625,-0.66038671875,5.70097265625,16.4503046875,-8.41369140625,0.0421367187500001,-4.85842578125,1.6618359375,3.54311328125,-7.39478515625,-15.9911484375,-1.1995546875,-1.77562890625
7.25234765625,5.97934375,7.498390625,-0.57859375,0.67467578125,5.19189453125,3.30864453125,1.66834375,3.1674765625,-0.13425,2.1040625,4.45381640625,-0.9670234375,0.530734375,1.03205078125,2.07241015625,6.67379296875,5.3013515625,1.39761328125,4.42397265625,12.7943046875,-8.24069140625,1.25213671875,-4.88742578125,-1.9981640625,0.64711328125,-8.50078515625,-15.3831484375,-2.1575546875,-3.34262890625
7.85034765625,5.51634375,6.044390625,0.52840625,3.44067578125,6.41889453125,2.28264453125,0.716343749999999,5.2714765625,2.26075,2.0190625,2.28281640625,0.0819765625,2.832734375,2.52705078125,-1.26458984375,4.28979296875,6.4823515625,3.26861328125,2.91197265625,9.1063046875,-7.31169140625,2.65413671875,-4.69242578125,-5.3951640625,-1.67188671875,-8.91378515625,-14.0851484375,-2.3555546875,-4.18762890625
8.08634765625,3.96934375,3.243390625,1.11640625,5.54267578125,7.36089453125,1.29664453125,0.0873437499999996,6.7744765625,4.16475,1.5750625,0.975816406249999,1.2729765625,4.634734375,3.00705078125,-4.28758984375,2.04179296875,7.2433515625,4.72861328125,1.31997265625,6.0483046875,-5.65669140625,4.07013671875,-4.34342578125,-8.0331640625,-2.78388671875,-8.66578515625,-12.1821484375,-1.6745546875,-4.08162890625
7.87234765625,1.86534375,-0.0276093749999999,0.86040625,6.57467578125,7.97389453125,0.62464453125,-0.120656250000001,7.3304765625,5.40575,1.0590625,0.80981640625,2.4639765625,5.722734375,2.65905078125,-6.30058984375,0.60579296875,7.7903515625,5.85461328125,0.0369726562500006,4.2293046875,-3.41369140625,5.53313671875,-3.75042578125,-9.4381640625,-2.37488671875,-7.80078515625,-9.7751484375,-0.0935546874999997,-2.90062890625
7.12334765625,-0.0836562499999998,-2.800609375,-0.33459375,6.43867578125,8.23289453125,0.375644531249999,-0.0726562500000005,6.8904765625,6.01875,0.7860625,1.59481640625,3.2149765625,6.184734375,2.04505078125,-6.82258984375,0.20379296875,8.4253515625,6.90261328125,-0.503027343749999,3.9663046875,-0.78269140625,7.21213671875,-2.75642578125,-9.3391640625,-0.59588671875,-6.36578515625,-7.0321484375,2.2414453125,-0.74562890625
5.87034765625,-1.25565625,-4.314609375,-2.26059375,5.32767578125,8.08989453125,0.45664453125,-0.10365625,5.6554765625,6.14175,0.9270625,2.78381640625,3.0229765625,6.281734375,1.77205078125,-5.77858984375,0.53179296875,9.3223515625,8.10461328125,-0.0410273437499997,5.1493046875,2.00430859375,9.24913671875,-1.27342578125,-7.8031640625,1.97111328125,-4.43978515625,-4.2101484375,4.9864453125,1.98537109375
4.34934765625,-1.34465625,-4.207609375,-4.46959375,3.64267578125,7.53689453125,0.66864453125,-0.52365625,3.9904765625,5.91475,1.4370625,3.76181640625,1.6479765625,6.268734375,2.17405078125,-3.51758984375,0.93879296875,10.4343515625,9.51561328125,1.36897265625,7.2863046875,4.70130859375,11.62213671875,0.62157421875,-5.2561640625,4.52111328125,-2.16878515625,-1.6031484375,7.6764453125,4.68437109375
2.96734765625,-0.45865625,-2.609609375,-6.45259375,1.87667578125,6.69189453125,0.86964453125,-1.41765625,2.3414765625,5.43575,2.1030625,4.15081640625,-0.6680234375,6.268734375,3.16005078125,-0.64558984375,0.78779296875,11.5613515625,10.99061328125,3.39397265625,9.7223046875,7.05930859375,14.10413671875,2.71457421875,-2.3211640625,6.36211328125,0.23621484375,0.5488515625,9.8834453125,6.76037109375
2.08134765625,0.93934375,-0.144609375,-7.86159375,0.43767578125,5.80089453125,1.05864453125,-2.56665625,1.0894765625,4.75575,2.6650625,3.94681640625,-3.2130234375,6.231734375,4.30105078125,2.21541015625,-0.19520703125,12.4743515625,12.27961328125,5.58397265625,11.9163046875,8.84330859375,16.35213671875,4.75357421875,0.436835937500001,7.19111328125,2.53921484375,2.1568515625,11.3754453125,7.90637109375
1.75534765625,2.21834375,2.238390625,-8.65759375,-0.50532421875,5.11189453125,1.34164453125,-3.55665625,0.3964765625,3.87675,2.9290625,3.43981640625,-5.1110234375,5.983734375,5.06505078125,4.62541015625,-1.76020703125,12.9993515625,13.14361328125,7.56497265625,13.6193046875,9.84730859375,18.03213671875,6.53957421875,2.7198359375,7.17611328125,4.53421484375,3.2828515625,12.1804453125,8.21637109375
1.70434765625,2.83134375,3.586390625,-9.08859375,-1.08832421875,4.72889453125,1.78764453125,-4.00765625,0.120476562499999,2.78075,2.8100625,3.00481640625,-5.7700234375,5.321734375,5.08505078125,6.39641015625,-3.26120703125,13.0243515625,13.43261328125,9.14797265625,14.8763046875,9.90330859375,18.91913671875,7.95457421875,4.5388359375,6.79011328125,6.08221484375,4.0548515625,12.5084453125,8.08837109375
1.49634765625,2.51634375,3.324390625,-9.52159375,-1.64032421875,4.55689453125,2.30564453125,-3.77465625,-0.1115234375,1.47275,2.3390625,2.90281640625,-5.2020234375,4.136734375,4.32205078125,7.55341015625,-4.01620703125,12.4933515625,13.12461328125,10.31697265625,15.9003046875,8.93730859375,18.94813671875,8.94157421875,6.0808359375,6.51411328125,7.11121484375,4.5558515625,12.6034453125,7.96437109375
0.85634765625,1.38934375,1.500390625,-10.20759375,-2.45532421875,4.36789453125,2.65264453125,-3.03865625,-0.6835234375,0.0517500000000002,1.6380625,3.19181640625,-3.9910234375,2.524734375,3.09005078125,8.25641015625,-3.66620703125,11.4523515625,12.33461328125,11.16197265625,16.9053046875,7.05030859375,18.23313671875,9.49457421875,7.5498359375,6.61111328125,7.61321484375,4.7838515625,12.6334453125,8.11337109375
-0.13165234375,-0.119656249999999,-1.219609375,-11.11559375,-3.57432421875,3.90389453125,2.55464453125,-2.23965625,-1.7595234375,-1.28325,0.9000625,3.78081640625,-2.9460234375,0.821734375,1.93705078125,8.72241015625,-2.31420703125,10.1243515625,11.31161328125,11.80397265625,18.0023046875,4.57030859375,17.04713671875,9.66057421875,9.0588359375,7.08111328125,7.63421484375,4.7028515625,12.6584453125,8.57037109375
-1.06565234375,-1.43965625,-3.837609375,-11.91159375,-4.74932421875,2.97889453125,1.85864453125,-1.88765625,-3.2045234375,-2.29425,0.3430625,4.54181640625,-2.6980234375,-0.497265625,1.42705078125,9.15841015625,-0.39220703125,8.9003515625,10.37061328125,12.34997265625,19.1883046875,1.98730859375,15.74813671875,9.53957421875,10.6218359375,7.77611328125,7.25921484375,4.3158515625,12.6754453125,9.21337109375
-1.47565234375,-2.11065625,-5.475609375,-12.15559375,-5.62432421875,1.53989453125,0.59064453125,-2.31965625,-4.7105234375,-2.81125,0.1330625,5.38781640625,-3.4770234375,-1.030265625,1.91205078125,9.70341015625,1.63079296875,8.1813515625,9.77461328125,12.87697265625,20.3893046875,-0.23669140625,14.64213671875,9.24357421875,12.2008359375,8.53111328125,6.58421484375,3.6818515625,12.6594453125,9.88037109375
-1.13665234375,-1.99465625,-5.802609375,-11.61359375,-5.99432421875,-0.32010546875,-1.09435546875,-3.54565625,-6.0295234375,-2.83025,0.3000625,6.28181640625,-5.1310234375,-0.682265625,3.38105078125,10.39241015625,3.47079296875,8.1323515625,9.60661328125,13.41697265625,21.5323046875,-1.90069140625,13.85213671875,8.85657421875,13.7448359375,9.24211328125,5.69921484375,2.8838515625,12.5904453125,10.46137109375
-0.23765234375,-1.34465625,-5.206609375,-10.47559375,-5.96832421875,-2.40910546875,-2.99335546875,-5.26665625,-7.1405234375,-2.53925,0.7060625,7.19081640625,-7.2660234375,0.246734375,5.45205078125,11.16041015625,5.10179296875,8.5473515625,9.72061328125,13.96097265625,22.5963046875,-3.17069140625,13.27913671875,8.42557421875,15.2318359375,9.86911328125,4.69721484375,1.9898515625,12.4584453125,10.92837109375
-0.23765234375,-1.34465625,-5.206609375,-10.47559375,-5.96832421875,-2.40910546875,-2.99335546875,-5.26665625,-7.1405234375,-2.53925,0.7060625,7.19081640625,-7.2660234375,0.246734375,5.45205078125,11.16041015625,5.10179296875,8.5473515625,9.72061328125,13.96097265625,22.5963046875,-3.17069140625,13.27913671875,8.42557421875,15.2318359375,9.86911328125,4.69721484375,1.9898515625,12.4584453125,10.92837109375
