"Fp1","Fpz","Fp2","F7","F3","Fz","F4","F8","FC5","FC1","FC2","FC6","T7","C3","Cz","C4","T8","CP5","CP1","CP2","CP6","P7","P3","Pz","P4","P8","POz","O1","Oz","O2"
-2.1665234375,-3.86409765625,-3.54780078125,0.80982421875,-1.94348828125,-4.99452734375,-8.172765625,-5.80424609375,-2.4342109375,-4.28062890625,-4.5466796875,-5.70557421875,-8.2944140625,-3.81799609375,-7.99956640625,-7.21989453125,1.40022265625,-0.52266796875,-6.73554296875,-7.77190234375,-8.12624609375,1.88061328125,-5.3135546875,-8.816265625,-11.83246484375,-1.04678515625,-11.1412578125,-4.11937890625,-7.00327734375,-9.40725390625
-3.1885234375,-7.24309765625,-7.27080078125,-0.354175781249999,-4.58448828125,-8.65352734375,-13.015765625,-9.96724609375,-4.6922109375,-6.66662890625,-8.7696796875,-11.16557421875,-4.2284140625,-5.85799609375,-10.71756640625,-12.21789453125,-5.62577734375,-1.10266796875,-7.67354296875,-10.65190234375,-14.39324609375,2.23661328125,-5.9625546875,-10.187265625,-15.39346484375,-7.88678515625,-12.5972578125,-6.71137890625,-9.38927734375,-12.58425390625
-4.3175234375,-9.81409765625,-10.13180078125,-1.48317578125,-6.61548828125,-11.57452734375,-16.663765625,-13.39124609375,-6.4382109375,-8.59362890625,-11.9366796875,-15.24457421875,-1.7684140625,-7.31599609375,-12.89056640625,-15.92189453125,-10.36877734375,-1.96566796875,-8.28754296875,-12.54690234375,-18.89124609375,1.62161328125,-6.6195546875,-10.897265625,-17.44946484375,-13.41578515625,-13.3302578125,-8.42337890625,-10.76827734375,-14.34825390625
-5.7055234375,-11.58609765625,-12.06980078125,-2.74617578125,-8.13348828125,-13.85552734375,-19.089765625,-15.97424609375,-7.8372109375,-10.28962890625,-14.0996796875,-17.83357421875,-1.0014140625,-8.39399609375,-14.66156640625,-18.29289453125,-12.83477734375,-3.20466796875,-8.82554296875,-13.56490234375,-21.58524609375,0.0916132812500008,-7.4545546875,-11.181265625,-18.13246484375,-17.49978515625,-13.5372578125,-9.31837890625,-11.21527734375,-14.79525390625
-7.4085234375,-12.74909765625,-13.18580078125,-4.30217578125,-9.38848828125,-15.74152734375,-20.555765625,-17.77424609375,-9.1572109375,-12.08962890625,-15.5766796875,-19.13157421875,-1.5254140625,-9.44099609375,-16.31156640625,-19.59889453125,-13.66177734375,-4.76066796875,-9.63754296875,-14.09190234375,-22.88824609375,-1.91738671875,-8.5955546875,-11.482265625,-18.01046484375,-20.27478515625,-13.6072578125,-9.69137890625,-11.06727734375,-14.40225390625
-9.2485234375,-13.48609765625,-13.58580078125,-6.12617578125,-10.58048828125,-17.36752734375,-21.367765625,-18.91324609375,-10.5232109375,-14.14462890625,-16.6916796875,-19.46357421875,-2.7144140625,-10.67199609375,-18.02356640625,-20.17089453125,-13.62577734375,-6.40266796875,-10.91954296875,-14.51790234375,-23.31124609375,-3.81638671875,-10.0065546875,-12.140265625,-17.68946484375,-21.92378515625,-13.8132578125,-9.84137890625,-10.66727734375,-13.65425390625
-10.8605234375,-13.88009765625,-13.34380078125,-7.96917578125,-11.75048828125,-18.67552734375,-21.716765625,-19.48324609375,-11.8332109375,-16.28962890625,-17.5976796875,-19.18557421875,-4.0504140625,-12.04299609375,-19.75556640625,-20.24789453125,-13.22177734375,-7.84966796875,-12.59454296875,-15.02690234375,-23.19824609375,-5.17938671875,-11.4955546875,-13.215265625,-17.50746484375,-22.52478515625,-14.1552578125,-9.95437890625,-10.20027734375,-12.77525390625
-11.8975234375,-13.95609765625,-12.57180078125,-9.47717578125,-12.81848828125,-19.50852734375,-21.678765625,-19.52824609375,-12.8692109375,-18.14762890625,-18.2756796875,-18.66157421875,-5.3294140625,-13.33499609375,-21.27756640625,-19.95889453125,-12.55777734375,-8.97166796875,-14.38254296875,-15.57290234375,-22.66724609375,-5.96538671875,-12.8575546875,-14.505265625,-17.47346484375,-22.05078515625,-14.4432578125,-10.13537890625,-9.71627734375,-11.73625390625
-12.2285234375,-13.76009765625,-11.50680078125,-10.39417578125,-13.68048828125,-19.76252734375,-21.308765625,-19.04424609375,-13.4852109375,-19.34062890625,-18.6256796875,-18.20157421875,-6.6434140625,-14.33899609375,-22.30556640625,-19.37189453125,-11.56377734375,-9.88466796875,-15.96954296875,-15.96190234375,-21.69924609375,-6.51338671875,-14.0135546875,-15.710265625,-17.37846484375,-20.49478515625,-14.4912578125,-10.48437890625,-9.24127734375,-10.43825390625
-11.9825234375,-13.39509765625,-10.47980078125,-10.69517578125,-14.27748828125,-19.46552734375,-20.689765625,-17.99224609375,-13.7142109375,-19.67462890625,-18.5496796875,-17.90957421875,-8.1594140625,-14.96299609375,-22.61556640625,-18.52889453125,-10.24677734375,-10.85066796875,-17.12654296875,-15.97090234375,-20.25524609375,-7.30338671875,-15.0125546875,-16.565265625,-16.96246484375,-18.02578515625,-14.2492578125,-11.10837890625,-8.85527734375,-8.89325390625
-11.4145234375,-12.96609765625,-9.76380078125,-10.55017578125,-14.57848828125,-18.73052734375,-19.889765625,-16.28824609375,-13.7162109375,-19.17562890625,-17.9726796875,-17.57857421875,-9.8934140625,-15.21399609375,-22.09356640625,-17.42689453125,-8.78277734375,-12.03366796875,-17.72654296875,-15.40990234375,-18.32224609375,-8.63938671875,-15.9205546875,-16.880265625,-16.02946484375,-15.01078515625,-13.7932578125,-12.05337890625,-8.67827734375,-7.26425390625
-10.7035234375,-12.48509765625,-9.39880078125,-10.18117578125,-14.52148828125,-17.64252734375,-18.877765625,-13.85724609375,-13.6212109375,-17.99562890625,-16.8146796875,-16.75357421875,-11.6044140625,-15.09599609375,-20.70456640625,-15.98289453125,-7.38977734375,-13.29766796875,-17.67654296875,-14.14690234375,-15.89924609375,-10.45338671875,-16.6875546875,-16.518265625,-14.47946484375,-11.88478515625,-13.2052578125,-13.21537890625,-8.78827734375,-5.77925390625
-9.8535234375,-11.83809765625,-9.13780078125,-9.69717578125,-13.97648828125,-16.18852734375,-17.514765625,-10.75924609375,-13.4132109375,-16.29562890625,-14.9986796875,-14.98857421875,-12.8774140625,-14.54499609375,-18.47356640625,-14.05689453125,-6.14277734375,-14.21766796875,-16.88654296875,-12.12790234375,-12.98024609375,-12.35538671875,-17.1075546875,-15.396265625,-12.32046484375,-8.94578515625,-12.5042578125,-14.32537890625,-9.16527734375,-4.62525390625
-8.7405234375,-10.85909765625,-8.58680078125,-9.04117578125,-12.79848828125,-14.31352734375,-15.655765625,-7.30424609375,-12.9472109375,-14.20462890625,-12.5316796875,-12.14057421875,-13.3274140625,-13.47499609375,-15.53056640625,-11.56389453125,-4.92377734375,-14.31366796875,-15.33154296875,-9.43090234375,-9.63224609375,-13.87038671875,-16.9395546875,-13.562265625,-9.71646484375,-6.27278515625,-11.6792578125,-15.04337890625,-9.70327734375,-3.89925390625
-7.2805234375,-9.47209765625,-7.45980078125,-8.06817578125,-10.93848828125,-12.07152734375,-13.329765625,-4.04624609375,-12.0852109375,-11.86462890625,-9.6086796875,-8.53157421875,-12.7894140625,-11.90099609375,-12.18556640625,-8.61189453125,-3.56377734375,-13.35866796875,-13.17054296875,-6.34590234375,-6.10124609375,-14.71438671875,-16.1015546875,-11.299265625,-7.03546484375,-3.84678515625,-10.8152578125,-15.13237890625,-10.29427734375,-3.64625390625
-5.5575234375,-7.79309765625,-5.78480078125,-6.69217578125,-8.57048828125,-9.73052734375,-10.846765625,-1.63124609375,-10.8322109375,-9.50062890625,-6.6616796875,-4.87257421875,-11.3724140625,-10.03099609375,-8.94056640625,-5.56789453125,-2.05177734375,-11.55466796875,-10.81554296875,-3.37690234375,-2.86424609375,-14.91038671875,-14.7925546875,-9.126265625,-4.83746484375,-1.73278515625,-10.1702578125,-14.57837890625,-10.88727734375,-3.90525390625
-3.8285234375,-6.10909765625,-3.91080078125,-4.99017578125,-6.09448828125,-7.71452734375,-8.729765625,-0.53624609375,-9.3722109375,-7.42762890625,-4.2526796875,-1.98257421875,-9.3984140625,-8.22799609375,-6.36656640625,-2.96889453125,-0.59877734375,-9.45466796875,-8.83354296875,-1.11790234375,-0.51024609375,-14.70138671875,-13.4325546875,-7.631265625,-3.69946484375,-0.13478515625,-10.0872578125,-13.58237890625,-11.48327734375,-4.69725390625
-2.4125234375,-4.73809765625,-2.32280078125,-3.21117578125,-4.01448828125,-6.41752734375,-7.483765625,-0.842246093750001,-7.9712109375,-5.95562890625,-2.8626796875,-0.453574218750001,-7.2784140625,-6.86499609375,-4.90456640625,-1.31289453125,0.50922265625,-7.66766796875,-7.72354296875,-0.0309023437500002,0.509753906249999,-14.32038671875,-12.4515546875,-7.216265625,-3.96646484375,0.71421484375,-10.7802578125,-12.42237890625,-12.05927734375,-5.97825390625
-1.5475234375,-3.88709765625,-1.39980078125,-1.68617578125,-2.72148828125,-6.02252734375,-7.346765625,-2.16624609375,-6.8342109375,-5.27362890625,-2.6956796875,-0.424574218750001,-5.4064140625,-6.15599609375,-4.69456640625,-0.863894531250001,1.11222265625,-6.54766796875,-7.70154296875,-0.25590234375,0.102753906249999,-13.79338671875,-12.0595546875,-7.902265625,-5.53846484375,0.718214843749999,-12.1372578125,-11.28237890625,-12.50927734375,-7.58525390625
-1.3095234375,-3.60009765625,-1.24980078125,-0.69217578125,-2.33648828125,-6.43852734375,-8.182765625,-3.83424609375,-6.0332109375,-5.37962890625,-3.6086796875,-1.59257421875,-4.0874140625,-6.08299609375,-5.53956640625,-1.56589453125,1.22422265625,-6.05966796875,-8.60354296875,-1.55290234375,-1.41624609375,-12.90338671875,-12.1455546875,-9.305265625,-7.86546484375,-0.0177851562499995,-13.6782578125,-10.18237890625,-12.63527734375,-9.23425390625
-1.6195234375,-3.78109765625,-1.71880078125,-0.348175781249999,-2.70748828125,-7.35452734375,-9.557765625,-5.17624609375,-5.5062109375,-6.07562890625,-5.1866796875,-3.40057421875,-3.4714140625,-6.41899609375,-6.99756640625,-3.09589453125,0.90922265625,-5.88766796875,-9.94554296875,-3.39790234375,-3.49124609375,-11.35838671875,-12.3505546875,-10.790265625,-10.13646484375,-1.23478515625,-14.7262578125,-9.03037890625,-12.23027734375,-10.59625390625
-2.3005234375,-4.26909765625,-2.50480078125,-0.576175781249999,-3.53248828125,-8.37552734375,-10.936765625,-5.77424609375,-5.1382109375,-7.03962890625,-6.9096796875,-5.31057421875,-3.5014140625,-6.84599609375,-8.54156640625,-5.00789453125,0.17222265625,-5.67866796875,-11.11954296875,-5.18490234375,-5.58524609375,-9.02838671875,-12.2555546875,-11.712265625,-11.60646484375,-2.63778515625,-14.6992578125,-7.74437890625,-11.18427734375,-11.41025390625
-3.1325234375,-4.89509765625,-3.31980078125,-1.14517578125,-4.49848828125,-9.17052734375,-11.875765625,-5.54424609375,-4.8432109375,-7.93662890625,-8.3206796875,-6.98057421875,-3.9194140625,-7.07899609375,-9.71756640625,-6.88989453125,-0.97977734375,-5.24466796875,-11.62454296875,-6.43090234375,-7.38424609375,-6.11438671875,-11.5965546875,-11.644265625,-11.86946484375,-4.01078515625,-13.3592578125,-6.37037890625,-9.56727734375,-11.57325390625
-3.9025234375,-5.50709765625,-3.98680078125,-1.75217578125,-5.36648828125,-9.56452734375,-12.154765625,-4.68924609375,-4.6072109375,-8.49762890625,-9.1246796875,-8.28657421875,-4.3324140625,-6.96199609375,-10.24656640625,-8.44589453125,-2.39077734375,-4.62066796875,-11.21454296875,-6.89590234375,-8.81824609375,-3.12638671875,-10.3585546875,-10.481265625,-10.95446484375,-5.28478515625,-10.8882578125,-5.08037890625,-7.60627734375,-11.12625390625
-4.4345234375,-5.96309765625,-4.44680078125,-2.10617578125,-5.97948828125,-9.53952734375,-11.796765625,-3.59924609375,-4.4612109375,-8.55362890625,-9.2146796875,-9.18657421875,-4.3464140625,-6.47299609375,-10.03956640625,-9.49989453125,-3.71277734375,-3.96866796875,-9.92854296875,-6.58090234375,-9.92124609375,-0.661386718749999,-8.7325546875,-8.402265625,-9.21046484375,-6.51678515625,-7.7532578125,-4.06437890625,-5.58727734375,-10.15525390625
-4.6225234375,-6.14609765625,-4.71180078125,-2.01917578125,-6.26148828125,-9.19152734375,-11.012765625,-2.72524609375,-4.4162109375,-8.03862890625,-8.6506796875,-9.61357421875,-3.7444140625,-5.68699609375,-9.17956640625,-9.96689453125,-4.53377734375,-3.44166796875,-8.02354296875,-5.65590234375,-10.68824609375,0.87161328125,-6.9785546875,-5.760265625,-7.08746484375,-7.79478515625,-4.4802578125,-3.40837890625,-3.74027734375,-8.71925390625
-4.4765234375,-6.02109765625,-4.82480078125,-1.47917578125,-6.22148828125,-8.70252734375,-10.114765625,-2.42124609375,-4.4312109375,-7.02762890625,-7.6646796875,-9.49557421875,-2.6264140625,-4.74999609375,-7.90756640625,-9.85889453125,-4.61277734375,-3.09466796875,-5.88354296875,-4.38390234375,-11.02624609375,1.43061328125,-5.3295546875,-2.983265625,-4.97946484375,-9.08678515625,-1.4932578125,-3.05737890625,-2.20227734375,-6.87825390625
-4.1425234375,-5.70409765625,-4.86780078125,-0.681175781249999,-5.97048828125,-8.33852734375,-9.424765625,-2.81524609375,-4.4582109375,-5.78462890625,-6.6466796875,-8.89457421875,-1.4214140625,-3.85699609375,-6.60856640625,-9.31189453125,-4.00577734375,-2.87366796875,-3.95054296875,-3.08290234375,-10.82524609375,1.31361328125,-3.9645546875,-0.513265624999999,-3.16446484375,-10.13078515625,0.9117421875,-2.88837890625,-1.05727734375,-4.80325390625
-3.8575234375,-5.45809765625,-4.96080078125,0.0428242187500008,-5.70148828125,-8.41052734375,-9.204765625,-3.77924609375,-4.4922109375,-4.74562890625,-6.0656796875,-8.09157421875,-0.7234140625,-3.21899609375,-5.74056640625,-8.57489453125,-3.02877734375,-2.67966796875,-2.63854296875,-2.07290234375,-10.06324609375,0.955613281250001,-3.0285546875,1.251734375,-1.82446484375,-10.48478515625,2.5347421875,-2.80437890625,-0.376277343749999,-2.80125390625
-3.8665234375,-5.57509765625,-5.23880078125,0.374824218750001,-5.61848828125,-9.15852734375,-9.586765625,-5.04824609375,-4.6042109375,-4.37562890625,-6.3006796875,-7.51957421875,-1.0074140625,-3.00099609375,-5.68856640625,-7.93889453125,-2.10677734375,-2.44666796875,-2.23654296875,-1.60090234375,-8.87324609375,0.665613281250001,-2.6305546875,2.035734375,-1.06446484375,-9.76378515625,3.2387421875,-2.79137890625,-0.207277343749999,-1.22825390625
-4.3235234375,-6.23609765625,-5.80180078125,0.154824218750001,-5.87248828125,-10.62352734375,-10.533765625,-6.38424609375,-4.9052109375,-4.97962890625,-7.4706796875,-7.57657421875,-2.4164140625,-3.25799609375,-6.61156640625,-7.63489453125,-1.62277734375,-2.21066796875,-2.82454296875,-1.78090234375,-7.55324609375,0.45461328125,-2.8255546875,1.749734375,-0.925464843750001,-7.95678515625,2.9747421875,-2.90937890625,-0.536277343749999,-0.32125390625
-5.2415234375,-7.39509765625,-6.66080078125,-0.54617578125,-6.50348828125,-12.58552734375,-11.836765625,-7.65624609375,-5.4652109375,-6.53562890625,-9.3476796875,-8.42157421875,-4.7054140625,-3.91399609375,-8.34156640625,-7.74089453125,-1.78977734375,-2.11466796875,-4.24654296875,-2.54090234375,-6.47424609375,0.0456132812500005,-3.5755546875,0.532734375,-1.34946484375,-5.57078515625,1.8347421875,-3.25937890625,-1.27927734375,-0.0792539062500008
-6.4565234375,-8.76609765625,-7.68580078125,-1.46017578125,-7.40448828125,-14.58452734375,-13.148765625,-8.79724609375,-6.2232109375,-8.63962890625,-11.4006796875,-9.86557421875,-7.3644140625,-4.76699609375,-10.38256640625,-8.12089453125,-2.55677734375,-2.32766796875,-6.12154296875,-3.60290234375,-5.90624609375,-0.916386718749999,-4.7135546875,-1.239265625,-2.13046484375,-3.42778515625,0.1067421875,-3.94037890625,-2.28427734375,-0.25025390625
-7.6295234375,-9.89509765625,-8.59380078125,-2.21917578125,-8.30548828125,-16.01752734375,-14.048765625,-9.70724609375,-6.9502109375,-10.59362890625,-12.9406796875,-11.39057421875,-9.8084140625,-5.51099609375,-12.00756640625,-8.42889453125,-3.56577734375,-2.89966796875,-7.89854296875,-4.49990234375,-5.84324609375,-2.57638671875,-5.9345546875,-2.997265625,-2.88646484375,-2.19178515625,-1.7272578125,-4.97537890625,-3.36127734375,-0.42725390625
-8.3075234375,-10.31109765625,-9.00980078125,-2.49117578125,-8.81348828125,-16.31452734375,-14.123765625,-10.18224609375,-7.2962109375,-11.62262890625,-13.3276796875,-12.30157421875,-11.5624140625,-5.80999609375,-12.47756640625,-8.21889453125,-4.24977734375,-3.66966796875,-8.97754296875,-4.69290234375,-5.96224609375,-4.70338671875,-6.8635546875,-4.102265625,-3.15446484375,-1.92378515625,-3.1122578125,-6.26237890625,-4.31227734375,-0.236253906250001
-8.0905234375,-9.71109765625,-8.60080078125,-2.11617578125,-8.54448828125,-15.14052734375,-13.100765625,-9.93324609375,-6.9602109375,-11.16762890625,-12.1856796875,-11.98657421875,-12.3804140625,-5.41799609375,-11.31856640625,-7.13189453125,-4.06477734375,-4.32666796875,-8.91554296875,-3.78290234375,-5.79024609375,-6.76238671875,-7.1965546875,-4.083265625,-2.61146484375,-2.01278515625,-3.6402578125,-7.58037890625,-4.99727734375,0.455746093749999
-6.8225234375,-8.08409765625,-7.21580078125,-1.17917578125,-7.30348828125,-12.56652734375,-10.971765625,-8.69924609375,-5.8612109375,-9.14062890625,-9.5606796875,-10.16657421875,-12.2624140625,-4.32199609375,-8.55556640625,-5.09189453125,-2.72077734375,-4.57666796875,-7.62354296875,-1.74390234375,-4.97024609375,-8.16238671875,-6.8515546875,-2.858265625,-1.31346484375,-1.58378515625,-3.2652578125,-8.66337890625,-5.38627734375,1.41374609375
-4.7045234375,-5.71609765625,-4.96880078125,0.0178242187500004,-5.21648828125,-9.08352734375,-8.067765625,-6.39124609375,-4.2202109375,-5.98562890625,-5.9426796875,-7.05257421875,-11.3714140625,-2.78099609375,-4.76156640625,-2.38389453125,-0.291777343750001,-4.30566796875,-5.44454296875,0.99409765625,-3.47724609375,-8.50938671875,-6.0115546875,-0.824265624999999,0.232535156249998,-0.10678515625,-2.3532578125,-9.28137890625,-5.57327734375,2.08474609375
-2.2385234375,-3.08709765625,-2.21080078125,1.08682421875,-2.74648828125,-5.46452734375,-5.003765625,-3.22824609375,-2.4802109375,-2.53262890625,-2.1256796875,-3.30157421875,-9.9184140625,-1.24799609375,-0.88756640625,0.43010546875,2.84122265625,-3.63366796875,-3.05354296875,3.67709765625,-1.65824609375,-7.75538671875,-5.0335546875,1.275734375,1.24053515625,2.22321484375,-1.5302578125,-9.30437890625,-5.73027734375,1.82774609375
-0.0465234375000003,-0.732097656249999,0.54019921875,1.71282421875,-0.546488281250001,-2.52152734375,-2.505765625,0.228753906249999,-1.1422109375,0.29937109375,1.0353203125,0.20842578125,-8.1094140625,-0.201996093749999,2.05243359375,2.69010546875,6.10722265625,-2.84366796875,-1.21654296875,5.49909765625,-0.0782460937499998,-6.19238671875,-4.3115546875,2.637734375,1.00253515625,4.58021484375,-1.3952578125,-8.74237890625,-6.04127734375,0.199746093749999
1.3664765625,0.890902343750001,2.74219921875,1.76082421875,0.77251171875,-0.866527343749999,-1.154765625,3.17375390625,-0.578210937500002,1.81437109375,2.8793203125,2.70742578125,-6.1674140625,0.0240039062499999,3.32543359375,3.87210546875,8.86522265625,-2.24866796875,-0.518542968750001,5.91609765625,0.746753906249999,-4.33038671875,-4.1235546875,2.710734375,-0.756464843750001,6.00921484375,-2.2522578125,-7.74337890625,-6.62327734375,-2.82625390625
1.7814765625,1.53090234375,3.99419921875,1.31782421875,0.89751171875,-0.693527343749999,-1.151765625,4.80475390625,-0.877210937500001,1.77537109375,3.1623203125,3.82342578125,-4.3394140625,-0.60799609375,2.74843359375,3.78510546875,10.50722265625,-2.03566796875,-1.12554296875,4.86909765625,0.61675390625,-2.65838671875,-4.5155546875,1.428734375,-3.67946484375,5.99521484375,-3.9592578125,-6.52937890625,-7.44527734375,-6.79325390625
1.3174765625,1.22690234375,4.19119921875,0.648824218750001,-0.0084882812500009,-1.70352734375,-2.207765625,4.64775390625,-1.7912109375,0.47337109375,2.1343203125,3.67242578125,-2.8304140625,-1.79799609375,0.764433593749999,2.65810546875,10.59922265625,-2.15566796875,-2.70354296875,2.83009765625,-0.23224609375,-1.42238671875,-5.2475546875,-0.744265624999999,-6.84946484375,4.77221484375,-5.9672578125,-5.28137890625,-8.27327734375,-10.84825390625
0.3454765625,0.293902343750002,3.55619921875,0.0838242187500002,-1.36348828125,-3.23352734375,-3.668765625,2.79075390625,-2.8212109375,-1.41462890625,0.429320312500002,2.69342578125,-1.7554140625,-3.01599609375,-1.74356640625,1.03710546875,9.04522265625,-2.35466796875,-4.54754296875,0.611097656249999,-1.23524609375,-0.55838671875,-5.8745546875,-2.987265625,-9.13246484375,3.17521484375,-7.5342578125,-4.07337890625,-8.71427734375,-13.96325390625
-0.6995234375,-0.838097656249999,2.48419921875,-0.154175781249999,-2.45648828125,-4.58052734375,-4.853765625,-0.139246093750002,-3.4512109375,-3.14062890625,-1.2426796875,1.34542578125,-1.1624140625,-3.75099609375,-3.85556640625,-0.48989453125,6.18722265625,-2.33366796875,-5.90154296875,-1.00190234375,-1.80624609375,0.147613281250001,-5.9655546875,-4.483265625,-9.66046484375,2.16421484375,-8.0312578125,-2.88937890625,-8.36927734375,-15.25225390625
-1.5115234375,-1.84209765625,1.31719921875,-0.0631757812499991,-2.84448828125,-5.34252734375,-5.405765625,-3.26624609375,-3.4162109375,-4.22862890625,-2.4296796875,-0.100574218750001,-1.1024140625,-3.77699609375,-5.03956640625,-1.56889453125,2.76022265625,-1.96266796875,-6.32454296875,-1.60990234375,-1.65924609375,0.801613281250001,-5.3495546875,-4.793265625,-8.22746484375,2.28421484375,-7.2262578125,-1.71237890625,-7.04027734375,-14.27825390625
-2.0105234375,-2.60809765625,0.20519921875,0.140824218750001,-2.58248828125,-5.56652734375,-5.449765625,-5.83324609375,-2.8352109375,-4.64762890625,-3.1156796875,-1.57557421875,-1.6204140625,-3.27299609375,-5.35656640625,-2.21689453125,-0.34177734375,-1.39866796875,-5.88454296875,-1.36190234375,-0.96924609375,1.24761328125,-4.2435546875,-4.049265625,-5.38646484375,3.36721484375,-5.3812578125,-0.599378906250001,-4.86527734375,-11.25025390625
-2.3015234375,-3.21809765625,-0.87380078125,0.180824218750001,-2.13948828125,-5.64052734375,-5.452765625,-7.43224609375,-2.1302109375,-4.73962890625,-3.6446796875,-3.07957421875,-2.6244140625,-2.71599609375,-5.34656640625,-2.74889453125,-2.41977734375,-1.00366796875,-5.09154296875,-0.84490234375,-0.303246093749999,1.15561328125,-3.1635546875,-2.866265625,-2.22346484375,4.57521484375,-3.1362578125,0.32762109375,-2.29227734375,-6.99025390625
-2.5695234375,-3.83109765625,-1.97680078125,-0.12017578125,-2.09648828125,-6.03052734375,-5.931765625,-8.02324609375,-1.7902109375,-4.97562890625,-4.4676796875,-4.57357421875,-3.7924140625,-2.62899609375,-5.68456640625,-3.57989453125,-3.26477734375,-1.13966796875,-4.61554296875,-0.77090234375,-0.35424609375,0.285613281250001,-2.6735546875,-2.033265625,0.101535156249998,4.78421484375,-1.2432578125,0.94762109375,0.0707226562500018,-2.68225390625
-2.9735234375,-4.57009765625,-3.09280078125,-0.746175781249999,-2.82548828125,-7.03952734375,-7.185765625,-7.85324609375,-2.1292109375,-5.70062890625,-5.8746796875,-5.96657421875,-4.6574140625,-3.31599609375,-6.81456640625,-5.01489453125,-3.23377734375,-1.95666796875,-4.94554296875,-1.62990234375,-1.61124609375,-1.28338671875,-3.0995546875,-2.140265625,0.801535156249999,3.13521484375,-0.270257812500001,1.21062109375,1.67372265625,0.523746093749999
-3.6025234375,-5.46209765625,-4.12480078125,-1.53917578125,-4.35148828125,-8.68152734375,-9.159765625,-7.35324609375,-3.1622109375,-6.98762890625,-7.8466796875,-7.16857421875,-4.8554140625,-4.72599609375,-8.73056640625,-7.07689453125,-3.00877734375,-3.30366796875,-6.15754296875,-3.45190234375,-4.10024609375,-3.12138671875,-4.3725546875,-3.307265625,-0.239464843750001,-0.492785156249999,-0.3892578125,1.17462109375,2.21372265625,1.91074609375
-4.4395234375,-6.42509765625,-4.96280078125,-2.29417578125,-6.38748828125,-10.67552734375,-11.474765625,-7.02324609375,-4.6212109375,-8.61962890625,-10.0536796875,-8.13857421875,-4.3514140625,-6.48999609375,-10.99256640625,-9.44889453125,-3.15477734375,-4.80266796875,-7.88954296875,-5.78290234375,-7.30024609375,-4.62938671875,-6.0605546875,-5.133265625,-2.46046484375,-5.33578515625,-1.3412578125,0.987621093750001,1.73572265625,1.45874609375
-5.3475234375,-7.28709765625,-5.54080078125,-2.84117578125,-8.45448828125,-12.54952734375,-13.538765625,-7.25124609375,-6.0812109375,-10.20062890625,-11.9786796875,-8.87057421875,-3.4634140625,-8.08499609375,-12.93856640625,-11.53889453125,-3.71477734375,-6.02066796875,-9.51354296875,-7.85690234375,-10.29224609375,-5.31538671875,-7.5665546875,-6.878265625,-4.86246484375,-9.99178515625,-2.5682578125,0.84662109375,0.611722656250002,-0.17125390625
-6.0685234375,-7.81609765625,-5.81580078125,-3.08017578125,-10.01048828125,-13.77952734375,-14.719765625,-8.10624609375,-7.1162109375,-11.30162890625,-13.0936796875,-9.31857421875,-2.6684140625,-9.04299609375,-13.95056640625,-12.66589453125,-4.14277734375,-6.64566796875,-10.39654296875,-8.89990234375,-12.06324609375,-4.99038671875,-8.3735546875,-7.769265625,-6.39546484375,-12.93678515625,-3.4512578125,0.913621093749999,-0.602277343749998,-1.92825390625
-6.2995234375,-7.78809765625,-5.70480078125,-2.98817578125,-10.56848828125,-13.93652734375,-14.529765625,-9.24824609375,-7.4342109375,-11.59562890625,-13.0136796875,-9.30657421875,-2.3504140625,-9.09999609375,-13.67656640625,-12.28889453125,-3.65077734375,-6.57166796875,-10.14854296875,-8.41090234375,-11.86224609375,-3.80538671875,-8.2145546875,-7.296265625,-6.32546484375,-13.07578515625,-3.5532578125,1.24962109375,-1.37327734375,-2.81725390625
-5.8235234375,-7.07009765625,-5.07980078125,-2.61217578125,-9.83148828125,-12.81052734375,-12.776765625,-10.04824609375,-6.9522109375,-10.94562890625,-11.6146796875,-8.54557421875,-2.6564140625,-8.24799609375,-12.12556640625,-10.22489453125,-1.75077734375,-5.88566796875,-8.74854296875,-6.34090234375,-9.48624609375,-2.15038671875,-7.1365546875,-5.389265625,-4.46546484375,-10.13978515625,-2.7552578125,1.77162109375,-1.39127734375,-2.30025390625
-4.6665234375,-5.71909765625,-3.87780078125,-2.08117578125,-7.82348828125,-10.51652734375,-9.670765625,-9.92624609375,-5.8182109375,-9.44862890625,-9.0936796875,-6.83757421875,-3.5074140625,-6.71199609375,-9.65756640625,-6.77089453125,1.35522265625,-4.82266796875,-6.54254296875,-3.13190234375,-5.39824609375,-0.53438671875,-5.4535546875,-2.436265625,-1.23546484375,-4.80478515625,-1.2902578125,2.27262109375,-0.685277343749998,-0.49725390625
-3.1635234375,-4.02809765625,-2.25380078125,-1.60017578125,-4.98648828125,-7.52652734375,-5.834765625,-8.69724609375,-4.3822109375,-7.43162890625,-5.9506796875,-4.31657421875,-4.6974140625,-4.88199609375,-6.87856640625,-2.66889453125,4.80722265625,-3.70466796875,-4.12354296875,0.412097656249999,-0.630246093749999,0.530613281250001,-3.6395546875,0.843734375,2.47453515625,1.51621484375,0.3607421875,2.48862109375,0.392722656250001,1.88374609375
-1.8575234375,-2.44609765625,-0.61180078125,-1.40117578125,-2.09948828125,-4.56152734375,-2.142765625,-6.69924609375,-3.0922109375,-5.37662890625,-2.8726796875,-1.51257421875,-5.9944140625,-3.21299609375,-4.45956640625,1.11210546875,7.50922265625,-2.87266796875,-2.11054296875,3.38609765625,3.55475390625,0.63261328125,-2.1705546875,3.636734375,5.60953515625,7.13521484375,1.6347421875,2.19762109375,1.31972265625,3.85474609375
-1.2355234375,-1.39009765625,0.56619921875,-1.63317578125,-0.00448828125000045,-2.32152734375,0.572234374999999,-4.58924609375,-2.3322109375,-3.77062890625,-0.504679687499999,0.88442578125,-7.1624140625,-2.08399609375,-2.90956640625,3.74010546875,8.71522265625,-2.58866796875,-0.93054296875,5.11309765625,6.12675390625,-0.41238671875,-1.3515546875,5.320734375,7.34253515625,10.67321484375,2.1177421875,1.31962109375,1.63172265625,4.58474609375
-1.4465234375,-1.02909765625,1.01219921875,-2.23617578125,0.79451171875,-1.18752734375,1.865234375,-2.92224609375,-2.2642109375,-2.91562890625,0.8033203125,2.40542578125,-7.9534140625,-1.66699609375,-2.39056640625,4.85410546875,8.44022265625,-2.92166796875,-0.656542968750001,5.39909765625,6.68675390625,-2.45238671875,-1.2035546875,5.686734375,7.39153515625,11.53921484375,1.7137421875,-0.0293789062500007,1.11872265625,3.75274609375
-2.1785234375,-1.20109765625,0.866199218749999,-2.90817578125,0.37151171875,-1.06952734375,1.852234375,-1.82824609375,-2.7502109375,-2.80862890625,1.1163203125,3.04842578125,-8.1194140625,-1.85599609375,-2.68056640625,4.67910546875,7.45722265625,-3.69266796875,-1.01154296875,4.58209765625,5.59775390625,-5.00438671875,-1.4725546875,4.988734375,6.08953515625,10.06921484375,0.685742187499999,-1.56737890625,-0.108277343749998,1.66374609375
-2.8005234375,-1.50509765625,0.61519921875,-3.21217578125,-0.672488281250001,-1.47752734375,1.124234375,-1.01924609375,-3.4122109375,-3.14562890625,0.849320312500002,3.24042578125,-7.5004140625,-2.30899609375,-3.30056640625,3.86010546875,6.84722265625,-4.52766796875,-1.51454296875,3.34309765625,3.77275390625,-7.41838671875,-1.7605546875,3.795734375,4.18053515625,7.26421484375,-0.471257812500001,-2.94737890625,-1.70527734375,-0.95825390625
-2.7205234375,-1.50809765625,0.81119921875,-2.79117578125,-1.54348828125,-1.78352734375,0.445234375,-0.0872460937500001,-3.7862109375,-3.46362890625,0.541320312500002,3.54642578125,-6.1314140625,-2.58599609375,-3.73456640625,3.11510546875,7.38722265625,-5.00866796875,-1.69554296875,2.39209765625,2.22175390625,-9.12338671875,-1.7065546875,2.732734375,2.45553515625,4.25721484375,-1.2492578125,-3.89237890625,-3.26227734375,-3.34425390625
-1.7365234375,-0.964097656249999,1.73119921875,-1.55317578125,-1.65348828125,-1.52252734375,0.393234374999999,1.15375390625,-3.5322109375,-3.34362890625,0.594320312500001,4.32942578125,-4.2804140625,-2.34199609375,-3.64856640625,2.89610546875,9.10922265625,-4.83166796875,-1.29354296875,2.15909765625,1.60875390625,-9.81438671875,-1.1265546875,2.228734375,1.42153515625,1.83121484375,-1.3402578125,-4.27037890625,-4.46027734375,-5.00925390625
-0.1755234375,0.0659023437500004,3.19119921875,0.24682421875,-0.860488281250001,-0.60852734375,1.125234375,2.51975390625,-2.5892109375,-2.61062890625,1.1043203125,5.51942578125,-2.3864140625,-1.49199609375,-3.00456640625,3.20410546875,11.29922265625,-3.93166796875,-0.357542968750002,2.64809765625,1.99075390625,-9.46438671875,-0.0755546875000004,2.370734375,1.15353515625,0.190214843750001,-0.7352578125,-4.10737890625,-5.14827734375,-5.85925390625
1.2744765625,1.24490234375,4.62619921875,2.07582421875,0.518511718749998,0.642472656250002,2.337234375,3.56875390625,-1.2152109375,-1.41262890625,1.8403203125,6.64542578125,-0.9074140625,-0.26199609375,-2.05156640625,3.65210546875,12.90222265625,-2.50066796875,0.785457031249999,3.47109765625,2.86175390625,-8.22338671875,1.1984453125,2.928734375,1.34753515625,-0.92078515625,0.313742187499999,-3.51837890625,-5.31327734375,-6.05525390625
1.9544765625,2.11890234375,5.37519921875,3.31782421875,1.90051171875,1.68947265625,3.448234375,3.87275390625,0.118789062499999,-0.146628906250001,2.3933203125,7.10842578125,-0.1704140625,0.90500390625,-1.17756640625,3.72910546875,13.09522265625,-0.92666796875,1.67645703125,4.07409765625,3.45375390625,-6.30238671875,2.3554453125,3.502734375,1.53453515625,-1.90078515625,1.4427421875,-2.63037890625,-5.01127734375,-5.78425390625
1.5984765625,2.33490234375,5.03519921875,3.51982421875,2.71151171875,2.05147265625,3.897234375,3.26775390625,0.940789062499999,0.731371093749999,2.4033203125,6.55342578125,-0.2794140625,1.55200390625,-0.728566406250001,3.10710546875,11.68822265625,0.35633203125,1.92945703125,4.00909765625,3.15675390625,-3.95138671875,3.0824453125,3.718734375,1.33353515625,-2.98278515625,2.3407421875,-1.55037890625,-4.30927734375,-5.10725390625
0.4704765625,1.79890234375,3.65619921875,2.58082421875,2.63751171875,1.53847265625,3.412234375,1.95775390625,1.0117890625,0.917371093749999,1.7443203125,5.10442578125,-1.1174140625,1.42000390625,-0.86256640625,1.82410546875,9.15422265625,1.02333203125,1.37545703125,3.13109765625,1.82975390625,-1.49738671875,3.1864453125,3.374734375,0.623535156249998,-4.09578515625,2.8487421875,-0.38037890625,-3.27727734375,-3.98425390625
-0.8115234375,0.714902343750001,1.69619921875,0.819824218750001,1.75151171875,0.31447265625,2.106234375,0.391753906249999,0.439789062499999,0.37437109375,0.5723203125,3.29442578125,-2.4084140625,0.55600390625,-1.51856640625,0.236105468750001,6.32322265625,0.967332031250001,0.12045703125,1.62509765625,-0.150246093750001,0.64361328125,2.6234453125,2.474734375,-0.431464843750001,-4.91278515625,2.9677421875,0.769621093750001,-2.00627734375,-2.40625390625
-1.6195234375,-0.514097656249999,-0.19880078125,-1.13617578125,0.47451171875,-1.18452734375,0.386234374999999,-0.99724609375,-0.369210937500002,-0.659628906250001,-0.766679687499998,1.73442578125,-3.7864140625,-0.711996093750001,-2.47556640625,-1.20489453125,3.98222265625,0.30233203125,-1.52654296875,-0.12390234375,-2.10824609375,2.05261328125,1.4994453125,1.180734375,-1.50646484375,-5.02778515625,2.7967421875,1.81862109375,-0.596277343749998,-0.49025390625
-1.6135234375,-1.44009765625,-1.47680078125,-2.59217578125,-0.602488281250001,-2.43052734375,-1.248765625,-1.98924609375,-0.923210937500001,-1.77562890625,-1.8916796875,0.754425781249999,-4.8704140625,-1.92899609375,-3.45656640625,-2.20189453125,2.58322265625,-0.71866796875,-3.17954296875,-1.72690234375,-3.43124609375,2.47661328125,0.0244453124999993,-0.281265625,-2.30646484375,-4.14878515625,2.4567421875,2.75362109375,0.869722656250001,1.52574609375
-0.8465234375,-1.74809765625,-1.86580078125,-3.05817578125,-0.973488281250001,-2.99352734375,-2.387765625,-2.61224609375,-0.892210937500002,-2.54562890625,-2.5346796875,0.255425781249999,-5.3394140625,-2.70699609375,-4.22756640625,-2.75489453125,2.17422265625,-1.81566796875,-4.52454296875,-2.95290234375,-3.86224609375,1.98661328125,-1.5435546875,-1.720265625,-2.72946484375,-2.27878515625,2.0217421875,3.62762109375,2.33372265625,3.36774609375
0.3324765625,-1.35409765625,-1.41180078125,-2.44517578125,-0.434488281250001,-2.68152734375,-2.793765625,-2.99224609375,-0.264210937500001,-2.67462890625,-2.5946796875,-0.13857421875,-5.0374140625,-2.85299609375,-4.63356640625,-3.09689453125,2.48222265625,-2.75666796875,-5.38854296875,-3.76390234375,-3.57624609375,0.99461328125,-2.9595546875,-3.012265625,-2.89246484375,0.21621484375,1.5057421875,4.48862109375,3.74772265625,4.81374609375
1.4854765625,-0.412097656249999,-0.38780078125,-1.07617578125,0.840511718749999,-1.56452734375,-2.405765625,-3.20924609375,0.679789062499999,-2.07062890625,-2.1096796875,-0.76557421875,-4.0454140625,-2.39299609375,-4.57556640625,-3.49489453125,3.08322265625,-3.38066796875,-5.73354296875,-4.23490234375,-3.03224609375,0.0796132812500003,-4.0105546875,-4.073265625,-3.03446484375,2.68821484375,0.8927421875,5.32162109375,5.04572265625,5.75574609375
2.2924765625,0.784902343750002,0.86819921875,0.46482421875,2.40451171875,0.0844726562500018,-1.316765625,-3.25424609375,1.5317890625,-0.83462890625,-1.1886796875,-1.66257421875,-2.6754140625,-1.47799609375,-3.97756640625,-4.03389453125,3.55722265625,-3.57266796875,-5.57154296875,-4.42090234375,-2.69624609375,-0.29038671875,-4.5145546875,-4.796265625,-3.34146484375,4.43121484375,0.205742187499999,6.05762109375,6.14172265625,6.21874609375
2.6764765625,1.92090234375,2.08019921875,1.60382421875,3.76351171875,1.91647265625,0.267234374999999,-3.11224609375,1.9887890625,0.811371093749999,0.0493203125000008,-2.52657421875,-1.3594140625,-0.27499609375,-2.78156640625,-4.53889453125,3.62122265625,-3.23666796875,-4.89354296875,-4.27590234375,-2.79224609375,0.0326132812500006,-4.3255546875,-5.039265625,-3.82246484375,4.96321484375,-0.452257812500001,6.63362109375,6.96372265625,6.35274609375
2.8094765625,2.78090234375,3.09019921875,2.02982421875,4.63451171875,3.62047265625,2.071234375,-2.83624609375,2.0187890625,2.63237109375,1.4973203125,-2.88457421875,-0.4764140625,1.12300390625,-0.99056640625,-4.65589453125,3.21522265625,-2.29766796875,-3.65854296875,-3.66490234375,-3.19424609375,0.87161328125,-3.3695546875,-4.660265625,-4.26546484375,4.24121484375,-0.881257812500001,7.07862109375,7.50472265625,6.38274609375
3.0224765625,3.31290234375,3.87219921875,1.82882421875,5.08551171875,5.02547265625,3.814234375,-2.53924609375,1.8977890625,4.47137109375,3.0683203125,-2.35257421875,-0.1834140625,2.73300390625,1.29643359375,-4.02289453125,2.49722265625,-0.73866796875,-1.81954296875,-2.43390234375,-3.48524609375,1.89861328125,-1.6625546875,-3.576265625,-4.31546484375,2.69921484375,-0.8222578125,7.55162109375,7.86972265625,6.54874609375
3.6394765625,3.62990234375,4.49719921875,1.41682421875,5.47951171875,6.13947265625,5.267234375,-2.31824609375,2.0927890625,6.28837109375,4.6803203125,-0.851574218750001,-0.3464140625,4.64200390625,3.87443359375,-2.45389453125,1.72822265625,1.37233203125,0.602457031249999,-0.52190234375,-3.18224609375,2.86961328125,0.678445312499999,-1.820265625,-3.62246484375,1.06921484375,-0.0422578125000008,8.29462109375,8.26272265625,7.02274609375
4.7974765625,3.91890234375,5.04219921875,1.30482421875,6.24451171875,7.09047265625,6.283234375,-2.18024609375,3.0277890625,8.10737109375,6.2313203125,1.29942578125,-0.5964140625,6.89700390625,6.46043359375,-0.0738945312499997,1.09122265625,3.84233203125,3.43645703125,1.95009765625,-2.02524609375,3.75261328125,3.4414453125,0.438734375000001,-2.02246484375,0.0332148437500006,1.5487421875,9.49762109375,8.88172265625,7.85074609375
6.3384765625,4.31490234375,5.50419921875,1.82182421875,7.59851171875,8.00647265625,6.798234375,-2.06824609375,4.8337890625,9.91837109375,7.5713203125,3.47042578125,-0.5294140625,9.37700390625,8.73343359375,2.66610546875,0.59722265625,6.35733203125,6.33445703125,4.65209765625,-0.159246093749999,4.67761328125,6.3384453125,2.906734375,0.346535156249999,-0.0717851562499998,3.8067421875,11.16462109375,9.78872265625,8.92974609375
7.8544765625,4.82190234375,5.77619921875,2.96182421875,9.40551171875,8.90347265625,6.820234375,-1.94124609375,7.2407890625,11.61437109375,8.5313203125,4.99042578125,0.0625859374999997,11.75200390625,10.41143359375,5.13210546875,0.17722265625,8.53233203125,8.84145703125,7.13109765625,1.92575390625,5.80361328125,9.0484453125,5.243734375,3.08153515625,0.674214843750001,6.3677421875,13.06662109375,10.85372265625,10.06774609375
8.8654765625,5.32990234375,5.73819921875,4.41082421875,11.24351171875,9.67747265625,6.438234375,-1.85324609375,9.6697890625,13.00437109375,8.9933203125,5.46742578125,1.0675859375,13.58600390625,11.33543359375,6.76310546875,-0.15277734375,10.03233203125,10.55545703125,8.97809765625,3.66975390625,7.19261328125,11.3084453125,7.184734375,5.69053515625,1.95221484375,8.7867421875,14.83062109375,11.81572265625,11.07874609375
9.0424765625,5.67490234375,5.35119921875,5.70182421875,12.60551171875,10.16147265625,5.794234375,-1.95824609375,11.4677890625,13.87937109375,8.9403203125,4.92842578125,2.1035859375,14.51000390625,11.50043359375,7.27510546875,-0.25077734375,10.69633203125,11.28045703125,9.97709765625,4.70375390625,8.75961328125,12.9704453125,8.613734375,7.79153515625,3.42521484375,10.7097421875,16.10262109375,12.42472265625,11.86074609375
8.3234765625,5.68490234375,4.66919921875,6.39382421875,13.10751171875,10.18447265625,5.027234375,-2.43424609375,12.1647890625,14.06437109375,8.4303203125,3.68842578125,2.7095859375,14.36700390625,11.01043359375,6.70710546875,0.000222656250000064,10.56933203125,11.07145703125,10.13109765625,4.94775390625,10.27061328125,14.0004453125,9.538734375,9.21153515625,4.82621484375,11.9747421875,16.68062109375,12.54972265625,12.40274609375
6.9084765625,5.20890234375,3.78419921875,6.19582421875,12.60051171875,9.62247265625,4.213234375,-3.36324609375,11.6087890625,13.45637109375,7.5483203125,2.11142578125,2.5665859375,13.23800390625,10.00043359375,5.33810546875,0.522222656249999,9.84333203125,10.17945703125,9.60309765625,4.52175390625,11.41161328125,14.4284453125,10.023734375,9.96553515625,5.94121484375,12.6207421875,16.56362109375,12.21272265625,12.74174609375
5.1734765625,4.20790234375,2.80219921875,5.05382421875,11.19851171875,8.48647265625,3.383234375,-4.62924609375,10.0127890625,12.09337109375,6.4093203125,0.46842578125,1.6475859375,11.42400390625,8.64143359375,3.59410546875,1.06522265625,8.77133203125,8.96045703125,8.66609765625,3.65675390625,11.94961328125,14.3454453125,10.146734375,10.20853515625,6.60121484375,12.8377421875,15.92762109375,11.56072265625,12.93074609375
3.5474765625,2.85790234375,1.90219921875,3.19282421875,9.25551171875,7.03347265625,2.638234375,-5.88224609375,7.8777890625,10.24437109375,5.2323203125,-1.02457421875,0.258585937499999,9.38300390625,7.20243359375,1.99010546875,1.42022265625,7.65133203125,7.82745703125,7.68809765625,2.65775390625,11.91261328125,13.9464453125,10.050734375,10.20053515625,6.74721484375,12.9157421875,15.05262109375,10.81872265625,13.05574609375
2.4024765625,1.57890234375,1.36719921875,1.08082421875,7.30951171875,5.75847265625,2.214234375,-6.62924609375,5.8477890625,8.41537109375,4.3603203125,-2.10857421875,-1.0474140625,7.63500390625,6.07543359375,1.04310546875,1.59622265625,6.80033203125,7.17345703125,7.09109765625,1.88075390625,11.60661328125,13.5284453125,9.970734375,10.27353515625,6.48421484375,13.1757421875,14.22562109375,10.22472265625,13.24474609375
1.9454765625,0.882902343750001,1.50219921875,-0.69617578125,5.93051171875,5.22047265625,2.411234375,-6.44124609375,4.4807890625,7.19137109375,4.1463203125,-2.48757421875,-1.6824140625,6.59400390625,5.66543359375,1.10610546875,1.80222265625,6.48133203125,7.25745703125,7.22809765625,1.65275390625,11.40361328125,13.3814453125,10.171734375,10.73053515625,6.04921484375,13.8487421875,13.63562109375,9.95072265625,13.61974609375
2.1904765625,1.13990234375,2.46419921875,-1.65117578125,5.55651171875,5.78947265625,3.425234375,-5.17824609375,4.0757890625,7.01137109375,4.7873203125,-1.91357421875,-1.2674140625,6.43300390625,6.21243359375,2.23810546875,2.24222265625,6.77633203125,8.09345703125,8.24009765625,2.17275390625,11.45461328125,13.6474453125,10.824734375,11.71453515625,5.72821484375,14.9697421875,13.31762109375,10.02872265625,14.21374609375
3.0314765625,2.40590234375,4.16719921875,-1.54417578125,6.36251171875,7.51047265625,5.228234375,-3.05524609375,4.6317890625,8.00637109375,6.2563203125,-0.26957421875,0.1935859375,7.06400390625,7.68543359375,4.19910546875,2.95422265625,7.55633203125,9.47245703125,9.99409765625,3.45175390625,11.58861328125,14.2594453125,11.922734375,13.13253515625,5.76021484375,16.3437421875,13.18162109375,10.35772265625,14.90074609375
4.3574765625,4.43390234375,6.31719921875,-0.430175781249999,8.25051171875,10.13547265625,7.608234375,-0.492246093750001,5.9507890625,10.00037109375,8.3613203125,2.38442578125,2.3075859375,8.24800390625,9.82043359375,6.59210546875,3.82022265625,8.56233203125,11.07445703125,12.16309765625,5.33975390625,11.49861328125,15.0114453125,13.301734375,14.69553515625,6.25421484375,17.6327421875,13.08962109375,10.75172265625,15.43274609375
6.0924765625,6.80290234375,8.54819921875,1.41582421875,10.89851171875,13.23647265625,10.290234375,2.12475390625,7.7537890625,12.61237109375,10.8523203125,5.79542578125,4.4485859375,9.71200390625,12.23943359375,9.01810546875,4.69722265625,9.55333203125,12.60145703125,14.34309765625,7.55775390625,11.00761328125,15.6614453125,14.699734375,16.02553515625,7.13021484375,18.4897421875,12.90962109375,11.01472265625,15.54974609375
8.1234765625,9.08090234375,10.55119921875,3.60582421875,13.84451171875,16.33547265625,13.009234375,4.54575390625,9.7487890625,15.38137109375,13.4633203125,9.49642578125,6.0265859375,11.21700390625,14.55843359375,11.15110546875,5.50022265625,10.38933203125,13.84645703125,16.14809765625,9.72775390625,10.21261328125,16.0174453125,15.834734375,16.77853515625,8.11321484375,18.6697421875,12.53862109375,10.98072265625,15.11474609375
10.2124765625,10.94690234375,12.13819921875,5.73982421875,16.57051171875,18.99547265625,15.523234375,6.60175390625,11.6387890625,17.86237109375,15.9133203125,12.85042578125,6.7515859375,12.55800390625,16.45743359375,12.72910546875,6.18622265625,11.04233203125,14.69945703125,17.26509765625,11.41475390625,9.41961328125,15.9774453125,16.452734375,16.71953515625,8.83521484375,18.0707421875,11.90562109375,10.55172265625,14.18874609375
12.0004765625,12.24090234375,13.23819921875,7.48682421875,18.60351171875,20.89047265625,17.584234375,8.12575390625,13.1507890625,19.69337109375,17.8893203125,15.19442578125,6.7455859375,13.57100390625,17.70543359375,13.51910546875,6.66722265625,11.54933203125,15.11445703125,17.47509765625,12.20175390625,8.98161328125,15.5394453125,16.355734375,15.74253515625,8.98421484375,16.7057421875,10.99062109375,9.71072265625,12.97974609375
13.1224765625,12.92590234375,13.85019921875,8.64582421875,19.58651171875,21.82547265625,18.934234375,8.96375390625,14.0657890625,20.61437109375,19.0663203125,16.04942578125,6.4455859375,14.13200390625,18.13543359375,13.32410546875,6.76622265625,11.96233203125,15.07145703125,16.65509765625,11.79375390625,9.11061328125,14.7724453125,15.404734375,13.83853515625,8.42521484375,14.6227421875,9.81862109375,8.50372265625,11.70374609375
13.3614765625,13.02190234375,13.99219921875,9.15682421875,19.34451171875,21.73047265625,19.345234375,9.04575390625,14.2597890625,20.47937109375,19.1703203125,15.29742578125,6.3115859375,14.16700390625,17.64343359375,12.04810546875,6.29122265625,12.30633203125,14.55445703125,14.80909765625,10.13175390625,9.75961328125,13.7814453125,13.543734375,11.09153515625,7.26421484375,11.8687421875,8.44662109375,6.99572265625,10.44074609375
12.7384765625,12.56690234375,13.68319921875,9.07882421875,17.93351171875,20.67447265625,18.699234375,8.43775390625,13.7367890625,19.29237109375,18.0703203125,13.23442578125,6.5425859375,13.68000390625,16.22543359375,9.80610546875,5.22622265625,12.55133203125,13.57445703125,12.11609765625,7.48975390625,10.62961328125,12.6784453125,10.849734375,7.72953515625,5.80121484375,8.5347421875,6.96562109375,5.25572265625,9.10474609375
11.4944765625,11.63690234375,12.97219921875,8.53982421875,15.65751171875,18.87747265625,17.083234375,7.33775390625,12.6537890625,17.25837109375,15.8843203125,10.47642578125,6.9695859375,12.78200390625,14.04243359375,6.99310546875,3.86522265625,12.62433203125,12.21245703125,8.97409765625,4.47075390625,11.29161328125,11.5864453125,7.607734375,4.18453515625,4.41521484375,4.8587421875,5.49962109375,3.36872265625,7.55774609375
9.9764765625,10.36490234375,11.95819921875,7.68682421875,13.01051171875,16.68247265625,14.804234375,6.01875390625,11.2777890625,14.76137109375,12.9953203125,7.73542578125,7.1725859375,11.65500390625,11.42943359375,4.22110546875,2.75522265625,12.40233203125,10.63645703125,5.94709765625,1.85475390625,11.37261328125,10.6084453125,4.299734375,1.06153515625,3.39521484375,1.2717421875,4.19562109375,1.46372265625,5.75874609375
8.4824765625,8.92590234375,10.77319921875,6.62182421875,10.50951171875,14.45347265625,12.306234375,4.71975390625,9.8847890625,12.24237109375,9.9623203125,5.57742578125,6.7235859375,10.46400390625,8.80843359375,2.12210546875,2.39522265625,11.71433203125,9.04145703125,3.61009765625,0.321753906250001,10.66961328125,9.7844453125,1.481734375,-1.02746484375,2.82321484375,-1.6912578125,3.17762109375,-0.295277343749998,3.85174609375
7.1604765625,7.47490234375,9.52419921875,5.37982421875,8.50651171875,12.46747265625,10.022234375,3.52575390625,8.6277890625,10.03837109375,7.3363203125,4.26042578125,5.3995859375,9.25600390625,6.55143359375,1.11310546875,2.92222265625,10.36233203125,7.56445703125,2.36209765625,0.18875390625,9.17261328125,9.0504453125,-0.405265625,-1.68946484375,2.57721484375,-3.5732578125,2.46562109375,-1.74627734375,2.12274609375
6.0084765625,6.09590234375,8.27119921875,3.95482421875,7.07951171875,10.84847265625,8.242234375,2.36575390625,7.4767890625,8.26237109375,5.4903203125,3.73942578125,3.2815859375,7.94600390625,4.87043359375,1.25810546875,4.01522265625,8.21733203125,6.24245703125,2.29609765625,1.32075390625,7.04561328125,8.2664453125,-1.187265625,-0.900464843750001,2.43921484375,-4.1652578125,1.95962109375,-2.77927734375,0.859746093749999
4.9524765625,4.80690234375,7.03019921875,2.35882421875,6.06851171875,9.57347265625,7.071234375,1.15875390625,6.2697890625,6.80937109375,4.5233203125,3.78742578125,0.7365859375,6.39400390625,3.78143359375,2.27310546875,5.09422265625,5.35433203125,5.03445703125,3.20109765625,3.21875390625,4.58561328125,7.3044453125,-0.987265624999999,0.995535156249998,2.21121484375,-3.5592578125,1.49362109375,-3.36227734375,0.20474609375
3.9384765625,3.59890234375,5.81519921875,0.70082421875,5.22551171875,8.52347265625,6.457234375,-0.0332460937499999,4.8647890625,5.47337109375,4.2853203125,4.15442578125,-1.7214140625,4.55700390625,3.15243359375,3.68010546875,5.64322265625,2.14533203125,3.90045703125,4.65709765625,5.23775390625,2.18961328125,6.1624453125,-0.135265624999999,3.42853515625,1.81121484375,-2.0732578125,0.95062109375,-3.51927734375,0.0897460937499996
2.9844765625,2.50790234375,4.69619921875,-0.78817578125,4.38551171875,7.58047265625,6.259234375,-0.98124609375,3.2897890625,4.11537109375,4.4943203125,4.68642578125,-3.6084140625,2.60100390625,2.81143359375,5.02110546875,5.45122265625,-0.78566796875,2.88945703125,6.20609765625,6.82675390625,0.290613281250001,5.0274453125,1.002734375,5.80653515625,1.30921484375,-0.1012578125,0.380621093749999,-3.27727734375,0.302746093749999
2.1874765625,1.64990234375,3.82819921875,-1.81517578125,3.56051171875,6.71347265625,6.327234375,-1.42324609375,1.7807890625,2.78037109375,4.8693203125,5.36942578125,-4.6084140625,0.885003906250001,2.64143359375,6.01810546875,4.66622265625,-2.76666796875,2.15845703125,7.48609765625,7.68775390625,-0.75238671875,4.2194453125,2.161734375,7.67253515625,0.88121484375,2.0267421875,0.00562109374999942,-2.62227734375,0.64674609375
1.6584765625,1.18490234375,3.40719921875,-2.16217578125,2.88951171875,5.98847265625,6.530234375,-1.20924609375,0.657789062499999,1.66137109375,5.1973203125,6.23942578125,-4.6274140625,-0.204996093749999,2.58643359375,6.59210546875,3.66022265625,-3.36266796875,1.88245703125,8.27609765625,7.78275390625,-0.78738671875,4.0244453125,3.194734375,8.76453515625,0.69221484375,4.0647421875,0.108621093749999,-1.52427734375,1.04874609375
1.4384765625,1.20490234375,3.55719921875,-1.82017578125,2.47851171875,5.47647265625,6.736234375,-0.367246093750001,0.133789062499998,0.949371093749999,5.3203203125,7.22442578125,-3.7754140625,-0.493996093750001,2.57943359375,6.75510546875,2.78422265625,-2.58466796875,2.10445703125,8.45409765625,7.23475390625,0.0276132812500007,4.4884453125,3.998734375,8.99753515625,0.805214843749999,5.8027421875,0.83762109375,-0.0342773437499986,1.56074609375
1.4424765625,1.63190234375,4.19819921875,-1.03617578125,2.27051171875,5.14347265625,6.780234375,0.90675390625,0.190789062499999,0.67837109375,5.1053203125,8.05242578125,-2.3164140625,-0.118996093750001,2.49643359375,6.51710546875,2.19722265625,-0.88966796875,2.65845703125,7.97909765625,6.21475390625,1.27861328125,5.3594453125,4.449734375,8.44453515625,1.20621484375,7.0267421875,2.09462109375,1.66372265625,2.27274609375
1.5154765625,2.24690234375,5.05519921875,-0.201175781249999,2.07651171875,4.85547265625,6.513234375,2.30675390625,0.623789062499998,0.708371093749999,4.4953203125,8.35142578125,-0.6064140625,0.56800390625,2.22643359375,5.90910546875,1.85422265625,1.05333203125,3.24645703125,6.95009765625,4.93875390625,2.51461328125,6.2224453125,4.445734375,7.34653515625,1.89221484375,7.5847421875,3.59662109375,3.31672265625,3.24274609375
1.5474765625,2.80890234375,5.79319921875,0.342824218750001,1.72951171875,4.49047265625,5.916234375,3.53175390625,1.1887890625,0.846371093749999,3.5863203125,7.91542578125,0.9815859375,1.22600390625,1.78943359375,5.08410546875,1.67022265625,2.66833203125,3.62245703125,5.67009765625,3.69975390625,3.49761328125,6.7454453125,4.013734375,6.11453515625,2.91421484375,7.5067421875,5.04262109375,4.74372265625,4.48874609375
1.5614765625,3.18990234375,6.20219921875,0.45682421875,1.24251171875,4.04647265625,5.195234375,4.42175390625,1.7067890625,0.981371093749999,2.6563203125,6.92442578125,2.1225859375,1.67300390625,1.38043359375,4.35010546875,1.67522265625,3.66433203125,3.71345703125,4.60309765625,2.86175390625,4.27761328125,6.8334453125,3.357734375,5.22353515625,4.30321484375,7.0337421875,6.24162109375,5.91572265625,5.99874609375
1.6654765625,3.40290234375,6.27419921875,0.215824218750001,0.81451171875,3.66347265625,4.722234375,5.02775390625,2.0787890625,1.12137109375,2.0573203125,5.90142578125,2.5785859375,1.89100390625,1.27343359375,4.05610546875,2.03622265625,4.00533203125,3.60145703125,4.18309765625,2.75075390625,5.02661328125,6.5924453125,2.774734375,5.02753515625,5.97621484375,6.5107421875,7.12662109375,6.89572265625,7.68974609375
1.9234765625,3.54990234375,6.14119921875,-0.183175781249999,0.72451171875,3.54247265625,4.831234375,5.52775390625,2.2577890625,1.35037109375,2.0513203125,5.41642578125,2.2345859375,1.92100390625,1.66043359375,4.40110546875,2.90722265625,3.78133203125,3.40945703125,4.59309765625,3.51175390625,5.79361328125,6.1844453125,2.497734375,5.60153515625,7.74421484375,6.1887421875,7.66662109375,7.69672265625,9.35174609375
2.2804765625,3.73990234375,5.97119921875,-0.52817578125,1.17751171875,3.84747265625,5.627234375,6.07375390625,2.2647890625,1.76137109375,2.7033203125,5.73942578125,1.1325859375,1.78900390625,2.55843359375,5.31410546875,4.26822265625,3.11433203125,3.22445703125,5.67209765625,5.02675390625,6.40261328125,5.7104453125,2.585734375,6.72653515625,9.40021484375,6.1037421875,7.82162109375,8.20172265625,10.65674609375
2.5914765625,4.04690234375,5.88519921875,-0.65117578125,2.21251171875,4.62847265625,6.921234375,6.67475390625,2.2107890625,2.39337109375,3.8853203125,6.69542578125,-0.4864140625,1.51800390625,3.82043359375,6.47010546875,5.85522265625,2.16633203125,3.07945703125,6.99109765625,6.93375390625,6.57761328125,5.2074453125,2.921734375,8.00553515625,10.79521484375,6.0967421875,7.55262109375,8.22472265625,11.28474609375
2.7314765625,4.47990234375,5.92919921875,-0.45317578125,3.66251171875,5.77247265625,8.333234375,7.21375390625,2.2667890625,3.21537109375,5.3423203125,7.77842578125,-2.1784140625,1.16300390625,5.22043359375,7.43610546875,7.22322265625,1.18333203125,2.99845703125,8.06309765625,8.72575390625,6.18561328125,4.7134453125,3.301734375,9.04753515625,11.83521484375,5.9617421875,6.89262109375,7.65672265625,11.08974609375
2.6844765625,4.97690234375,6.08019921875,0.0698242187500009,5.19251171875,7.02747265625,9.452234375,7.54675390625,2.5537890625,4.11237109375,6.7743203125,8.43842578125,-3.3784140625,0.836003906249999,6.53743359375,7.84310546875,7.91322265625,0.46233203125,3.02745703125,8.53909765625,9.91075390625,5.38861328125,4.3254453125,3.567734375,9.61553515625,12.42621484375,5.6037421875,5.98962109375,6.59472265625,10.21674609375
2.5314765625,5.40090234375,6.24519921875,0.795824218750001,6.39051171875,8.06247265625,9.977234375,7.58075390625,3.0167890625,4.91837109375,7.8963203125,8.33742578125,-3.6094140625,0.65800390625,7.60543359375,7.51210546875,7.64022265625,0.24233203125,3.22145703125,8.32909765625,10.17375390625,4.55261328125,4.1774453125,3.687734375,9.67453515625,12.46821484375,5.1067421875,5.09362109375,5.35872265625,9.06174609375
2.3584765625,5.55090234375,6.24819921875,1.46182421875,6.89751171875,8.54547265625,9.767234375,7.28375390625,3.3877890625,5.44437109375,8.4573203125,7.45742578125,-2.7434140625,0.686003906250001,8.30343359375,6.47410546875,6.44222265625,0.56033203125,3.59445703125,7.56809765625,9.47275390625,3.99861328125,4.3624453125,3.749734375,9.34853515625,11.92221484375,4.6807421875,4.46362109375,4.35972265625,8.09074609375
2.1404765625,5.20490234375,5.85819921875,1.72082421875,6.52251171875,8.21747265625,8.816234375,6.65275390625,3.2987890625,5.52637109375,8.2613203125,6.03242578125,-1.1634140625,0.87400390625,8.52943359375,4.90510546875,4.67322265625,1.23233203125,4.07145703125,6.48909765625,8.01475390625,3.81261328125,4.8454453125,3.872734375,8.80153515625,10.88421484375,4.5227421875,4.25262109375,3.90772265625,7.60574609375
1.7244765625,4.22990234375,4.88019921875,1.26182421875,5.29951171875,6.97247265625,7.225234375,5.69975390625,2.5047890625,5.08637109375,7.2133203125,4.41342578125,0.3785859375,1.10800390625,8.20043359375,3.03410546875,2.83322265625,1.98233203125,4.50245703125,5.28609765625,6.15075390625,3.86661328125,5.4804453125,4.117734375,8.13553515625,9.59421484375,4.7137421875,4.45362109375,4.07572265625,7.59774609375
0.9414765625,2.68790234375,3.29619921875,-0.0191757812499995,3.48351171875,4.94047265625,5.195234375,4.50775390625,1.0757890625,4.19237109375,5.3903203125,2.96042578125,1.1605859375,1.31800390625,7.31643359375,1.10410546875,1.33022265625,2.62933203125,4.74645703125,4.08209765625,4.24675390625,4.02861328125,6.1064453125,4.469734375,7.36553515625,8.34521484375,5.2007421875,4.92162109375,4.69072265625,7.78074609375
-0.2215234375,0.89590234375,1.35819921875,-1.93017578125,1.47651171875,2.51347265625,3.041234375,3.29975390625,-0.582210937500001,3.08137109375,3.0973203125,1.97242578125,0.9135859375,1.53200390625,6.02643359375,-0.629894531250001,0.349222656249999,3.19533203125,4.75945703125,2.97909765625,2.62475390625,4.33161328125,6.6364453125,4.878734375,6.48053515625,7.36121484375,5.8687421875,5.46162109375,5.45072265625,7.78274609375
-1.5305234375,-0.681097656249999,-0.45880078125,-4.03017578125,-0.285488281250001,0.243472656250001,1.163234375,2.43975390625,-1.9042109375,2.08637109375,0.818320312500001,1.62242578125,-0.0594140625000001,1.84900390625,4.62843359375,-1.90889453125,-0.0947773437500006,3.82133203125,4.62445703125,2.11709765625,1.53975390625,4.93761328125,7.0704453125,5.315734375,5.52653515625,6.71621484375,6.6067421875,5.89962109375,6.05572265625,7.37474609375
-2.5905234375,-1.63009765625,-1.64580078125,-5.81317578125,-1.48048828125,-1.37552734375,-0.0837656249999998,2.30175390625,-2.4532109375,1.47837109375,-0.950679687499999,1.87842578125,-1.1384140625,2.31300390625,3.47243359375,-2.51489453125,-0.0347773437500001,4.58033203125,4.47445703125,1.66709765625,1.15175390625,5.92561328125,7.4274453125,5.790734375,4.63853515625,6.34821484375,7.3307421875,6.10662109375,6.28972265625,6.57074609375
-3.0725234375,-1.79409765625,-1.90580078125,-6.94217578125,-2.01648828125,-2.11452734375,-0.549765625000001,3.03475390625,-2.1552109375,1.32637109375,-1.8946796875,2.48842578125,-1.8104140625,2.79700390625,2.80343359375,-2.34989453125,0.50022265625,5.32733203125,4.39145703125,1.75309765625,1.47775390625,7.10661328125,7.6574453125,6.321734375,3.99753515625,6.13221484375,7.9647421875,6.00162109375,6.06472265625,5.57374609375
-2.9335234375,-1.34709765625,-1.30880078125,-7.38317578125,-2.07048828125,-2.09252734375,-0.385765625000001,4.41375390625,-1.3472109375,1.45337109375,-2.0076796875,3.06342578125,-1.9824140625,3.01500390625,2.65143359375,-1.49089453125,1.42722265625,5.72733203125,4.33645703125,2.37009765625,2.34975390625,8.03161328125,7.6394453125,6.887734375,3.73653515625,5.91821484375,8.4297421875,5.58162109375,5.43572265625,4.64274609375
-2.4605234375,-0.697097656249999,-0.26480078125,-7.36617578125,-1.99048828125,-1.69352734375,0.00823437499999891,5.92175390625,-0.614210937500001,1.53137109375,-1.5536796875,3.25042578125,-1.9754140625,2.65400390625,2.83143359375,-0.177894531250001,2.51822265625,5.43033203125,4.16745703125,3.35909765625,3.43375390625,8.20161328125,7.2444453125,7.402734375,3.87653515625,5.54821484375,8.6667421875,4.97262109375,4.62272265625,4.00874609375
-2.0925234375,-0.276097656249998,0.680199218749999,-7.22917578125,-2.12548828125,-1.36852734375,0.186234375,7.01175390625,-0.499210937500002,1.26437109375,-0.919679687499999,2.89242578125,-2.2464140625,1.58300390625,3.05343359375,1.28110546875,3.42722265625,4.29833203125,3.74945703125,4.46909765625,4.36575390625,7.36961328125,6.4384453125,7.735734375,4.33753515625,4.90521484375,8.6747421875,4.43662109375,3.99172265625,3.85574609375
-2.1475234375,-0.33809765625,1.11019921875,-7.24017578125,-2.66448828125,-1.42852734375,-0.135765625000001,7.35275390625,-1.2402109375,0.54337109375,-0.4336796875,2.07142578125,-3.0314140625,-0.0169960937500004,3.06843359375,2.61810546875,3.83722265625,2.51833203125,3.05545703125,5.45109765625,4.93975390625,5.73561328125,5.3454453125,7.764734375,4.99553515625,4.03821484375,8.5257421875,4.31162109375,3.94972265625,4.31974609375
-2.6515234375,-0.868097656249999,0.89319921875,-7.51517578125,-3.57948828125,-1.93652734375,-0.967765625,6.91775390625,-2.6702109375,-0.51062890625,-0.269679687499998,1.03342578125,-4.1714140625,-1.71099609375,2.75043359375,3.68710546875,3.62522265625,0.55233203125,2.20345703125,6.13509765625,5.20975390625,3.91461328125,4.2114453125,7.412734375,5.73853515625,3.24321484375,8.3157421875,4.87762109375,4.79172265625,5.46174609375
-3.3575234375,-1.65009765625,0.17519921875,-8.03517578125,-4.69348828125,-2.75552734375,-2.079765625,5.92475390625,-4.3472109375,-1.65862890625,-0.4656796875,0.05442578125,-5.2184140625,-3.02699609375,2.07743359375,4.42710546875,2.93022265625,-1.06966796875,1.36145703125,6.41909765625,5.40675390625,2.65961328125,3.2894453125,6.659734375,6.46853515625,2.98721484375,8.1017421875,6.21262109375,6.54872265625,7.23974609375
-3.9375234375,-2.43409765625,-0.763800781250001,-8.72217578125,-5.83148828125,-3.69552734375,-3.164765625,4.72475390625,-5.8092109375,-2.72062890625,-1.0206796875,-0.67257421875,-5.7314140625,-3.72099609375,1.04643359375,4.78010546875,2.07722265625,-1.97366796875,0.621457031249999,6.22009765625,5.71675390625,2.50861328125,2.7104453125,5.511734375,7.07053515625,3.66321484375,7.8557421875,8.13262109375,8.92872265625,9.47474609375
-4.2015234375,-3.07109765625,-1.66380078125,-9.50017578125,-6.93048828125,-4.62852734375,-4.021765625,3.67175390625,-6.8202109375,-3.69262890625,-1.9686796875,-1.11157421875,-5.5404140625,-3.89699609375,-0.37256640625,4.61310546875,1.42622265625,-2.09166796875,-0.0875429687500002,5.44209765625,6.10275390625,3.53061328125,2.4294453125,3.994734375,7.38853515625,5.36421484375,7.4747421875,10.23162109375,11.39572265625,11.83974609375
-4.1965234375,-3.55809765625,-2.37980078125,-10.29917578125,-8.03648828125,-5.51352734375,-4.655765625,2.97675390625,-7.4302109375,-4.71362890625,-3.3666796875,-1.37857421875,-4.8114140625,-3.91899609375,-2.18656640625,3.74010546875,1.21922265625,-1.64766796875,-0.94654296875,4.01609765625,6.29975390625,5.32461328125,2.2804453125,2.168734375,7.25353515625,7.80521484375,6.8357421875,12.00162109375,13.32972265625,13.87774609375
-4.1335234375,-3.97009765625,-2.88480078125,-11.01517578125,-9.18448828125,-6.32452734375,-5.236765625,2.61275390625,-7.8452109375,-5.90262890625,-5.1856796875,-1.68557421875,-3.8974140625,-4.17599609375,-4.27956640625,2.03210546875,1.47122265625,-1.02966796875,-2.08854296875,1.98709765625,5.97475390625,7.21461328125,2.0924453125,0.171734375,6.55353515625,10.42621484375,5.8707421875,12.98962109375,14.22672265625,15.08074609375
-4.2095234375,-4.37309765625,-3.23680078125,-11.48017578125,-10.25048828125,-6.97152734375,-5.941765625,2.33075390625,-8.2172109375,-7.19562890625,-7.2076796875,-2.23257421875,-3.1324140625,-4.84299609375,-6.34556640625,-0.45089453125,1.94222265625,-0.59966796875,-3.46054296875,-0.42490234375,4.92375390625,8.54461328125,1.7954453125,-1.760265625,5.28953515625,12.59021484375,4.6087421875,12.92862109375,13.84572265625,15.02174609375
-4.4515234375,-4.76609765625,-3.51880078125,-11.49517578125,-10.91848828125,-7.27352734375,-6.804765625,1.78475390625,-8.5012109375,-8.30162890625,-9.0136796875,-3.10657421875,-2.6674140625,-5.77399609375,-7.92756640625,-3.39189453125,2.18522265625,-0.53866796875,-4.76754296875,-2.83790234375,3.18975390625,8.92061328125,1.4554453125,-3.333265625,3.60153515625,13.76421484375,3.1757421875,11.80762109375,12.26572265625,13.51074609375
-4.7105234375,-5.07109765625,-3.81880078125,-10.89817578125,-10.79648828125,-7.03152734375,-7.674765625,0.712753906249999,-8.4622109375,-8.82262890625,-10.1246796875,-4.22757421875,-2.4224140625,-6.57399609375,-8.56956640625,-6.27989453125,1.67122265625,-0.77666796875,-5.58054296875,-4.82190234375,1.04675390625,8.32661328125,1.2384453125,-4.286265625,1.71653515625,13.61321484375,1.7607421875,9.85262109375,9.83272265625,10.69474609375
-4.7635234375,-5.18009765625,-4.19880078125,-9.64517578125,-9.61648828125,-6.14452734375,-8.297765625,-0.89124609375,-7.8052109375,-8.45362890625,-10.2146796875,-5.39357421875,-2.1414140625,-6.78599609375,-8.01356640625,-8.57789453125,-0.0187773437500001,-1.01266796875,-5.52254296875,-6.04890234375,-1.12124609375,7.10561328125,1.3284453125,-4.491265625,-0.116464843750002,12.02621484375,0.551742187499999,7.44062109375,7.02972265625,7.04374609375
-4.4485234375,-5.00009765625,-4.65480078125,-7.83417578125,-7.39948828125,-4.70352734375,-8.449765625,-2.69424609375,-6.3542109375,-7.15162890625,-9.2756796875,-6.36657421875,-1.5064140625,-6.08299609375,-6.32656640625,-9.90889453125,-2.93577734375,-0.83466796875,-4.44354296875,-6.40390234375,-2.96524609375,5.81161328125,1.8454453125,-3.988265625,-1.70146484375,9.09021484375,-0.3032578125,4.98062109375,4.34272265625,3.22174609375
-3.7335234375,-4.48709765625,-5.07580078125,-5.68617578125,-4.50248828125,-2.99552734375,-8.027765625,-4.13424609375,-4.1792109375,-5.17462890625,-7.6296796875,-6.94457421875,-0.2784140625,-4.39999609375,-3.89756640625,-10.15289453125,-6.57277734375,0.0883320312500002,-2.48754296875,-5.98590234375,-4.25024609375,4.96861328125,2.8004453125,-2.947265625,-2.90146484375,5.12021484375,-0.7202578125,2.80462109375,2.14072265625,-0.108253906250001
-2.7055234375,-3.65909765625,-5.26080078125,-3.49117578125,-1.51548828125,-1.39352734375,-7.081765625,-4.72024609375,-1.6162109375,-2.97762890625,-5.7826796875,-6.98157421875,1.5965859375,-1.95899609375,-1.29556640625,-9.41889453125,-9.90877734375,1.80833203125,-0.0345429687500012,-5.00990234375,-4.85924609375,4.81161328125,4.0754453125,-1.574265625,-3.61546484375,0.712214843749999,-0.6752578125,1.11162109375,0.623722656250001,-2.48925390625
-1.5345234375,-2.60509765625,-5.00980078125,-1.54417578125,0.943511718749999,-0.203527343749998,-5.782765625,-4.31624609375,0.809789062499998,-1.05362890625,-4.1986796875,-6.39557421875,3.9215859375,0.78600390625,0.92643359375,-7.94089453125,-11.78277734375,4.01033203125,2.43645703125,-3.68290234375,-4.75224609375,5.15261328125,5.4414453125,-0.029265624999999,-3.74246484375,-3.29078515625,-0.179257812500001,-0.0383789062500011,-0.188277343749998,-3.77025390625
-0.4345234375,-1.49109765625,-4.25980078125,-0.0711757812499991,2.46451171875,0.444472656250001,-4.357765625,-3.20024609375,2.5627890625,0.23937109375,-3.1176796875,-5.20857421875,6.2605859375,3.27600390625,2.40843359375,-5.96289453125,-11.47277734375,6.10233203125,4.49545703125,-2.13490234375,-3.95524609375,5.47461328125,6.6174453125,1.598734375,-3.18846484375,-6.02978515625,0.733742187499999,-0.680378906250001,-0.395277343749999,-4.08525390625
0.396476562499999,-0.519097656249999,-3.14980078125,0.82282421875,3.00151171875,0.63847265625,-3.010765625,-1.85424609375,3.2937890625,0.78737109375,-2.4816796875,-3.57557421875,8.0425859375,5.02500390625,3.07943359375,-3.68589453125,-9.08877734375,7.48133203125,5.88545703125,-0.42590234375,-2.56724609375,5.23161328125,7.3694453125,3.265734375,-1.92646484375,-6.96478515625,2.0187421875,-0.89237890625,-0.145277343749999,-3.71325390625
0.8574765625,0.165902343750002,-1.95880078125,1.18582421875,2.85451171875,0.652472656250001,-1.842765625,-0.65824609375,3.0067890625,0.75837109375,-2.0026796875,-1.74757421875,8.7735859375,5.79300390625,3.16743359375,-1.25789453125,-5.50477734375,7.81233203125,6.56845703125,1.39809765625,-0.75824609375,4.18861328125,7.6074453125,4.921734375,-0.0584648437500004,-6.10978515625,3.6047421875,-0.747378906250001,0.437722656250001,-2.93725390625
0.9984765625,0.570902343750001,-0.95680078125,1.19682421875,2.50851171875,0.834472656250002,-0.828765625000001,0.31075390625,2.0767890625,0.526371093749999,-1.3336796875,0.0164257812499997,8.2705859375,5.66000390625,3.07943359375,1.18510546875,-1.83577734375,7.17233203125,6.70145703125,3.24409765625,1.25175390625,2.58061328125,7.4174453125,6.462734375,2.14253515625,-3.99478515625,5.3537421875,-0.305378906250001,1.25872265625,-1.97125390625
0.989476562499999,0.84490234375,-0.29380078125,1.08382421875,2.39451171875,1.43647265625,0.125234375,1.25975390625,1.0847890625,0.488371093750001,-0.285679687499998,1.51242578125,6.7675859375,4.93800390625,3.19443359375,3.43810546875,1.09322265625,5.96633203125,6.50045703125,4.90909765625,3.21475390625,0.990613281250001,6.9794453125,7.694734375,4.25553515625,-1.41678515625,7.0257421875,0.336621093749999,2.18472265625,-0.986253906250001
0.997476562499999,1.15490234375,0.0111992187499999,1.00282421875,2.66851171875,2.43847265625,1.046234375,2.46275390625,0.524789062499998,0.83637109375,1.0173203125,2.59442578125,4.8105859375,3.97600390625,3.63943359375,5.19610546875,2.98222265625,4.68233203125,6.10045703125,6.07709765625,4.84475390625,0.0146132812500008,6.4424453125,8.329734375,5.78153515625,0.856214843749999,8.2677421875,1.00262109375,2.99272265625,-0.18625390625
1.0734765625,1.53890234375,0.00819921874999974,0.949824218750001,3.15251171875,3.52447265625,1.812234375,3.97675390625,0.566789062499998,1.44537109375,2.1573203125,3.16442578125,3.0205859375,2.99000390625,4.22143359375,6.10710546875,3.92522265625,3.64333203125,5.48245703125,6.39609765625,5.84075390625,-0.0653867187499992,5.8294453125,8.059734375,6.28653515625,2.30621484375,8.6927421875,1.44762109375,3.40072265625,0.17874609375
1.1384765625,1.87490234375,-0.24080078125,0.779824218750001,3.45151171875,4.23447265625,2.193234375,5.48675390625,1.0097890625,1.95637109375,2.6443203125,3.19942578125,1.8325859375,2.03900390625,4.54443359375,5.94210546875,4.16722265625,2.91833203125,4.55045703125,5.63809765625,5.96975390625,0.60561328125,5.0794453125,6.704734375,5.56453515625,2.77921484375,8.0327421875,1.46262109375,3.19872265625,-0.104253906249999
1.0644765625,1.96190234375,-0.69280078125,0.335824218750001,3.21951171875,4.21447265625,2.024234375,6.41075390625,1.4447890625,1.99537109375,2.2033203125,2.78942578125,1.3625859375,1.11600390625,4.26543359375,4.75010546875,3.92122265625,2.40733203125,3.27145703125,3.84809765625,5.17775390625,1.58061328125,4.1454453125,4.353734375,3.74653515625,2.47421484375,6.2947421875,0.99162109375,2.39472265625,-1.07925390625
0.7694765625,1.65890234375,-1.31380078125,-0.407175781249999,2.38551171875,3.39747265625,1.340234375,6.23875390625,1.4927890625,1.39437109375,0.9543203125,2.14442578125,1.4285859375,0.247003906250001,3.30043359375,2.89910546875,3.33422265625,1.99533203125,1.76945703125,1.37809765625,3.65775390625,2.36261328125,3.0794453125,1.398734375,1.28453515625,1.81021484375,3.7987421875,0.19362109375,1.25072265625,-2.54125390625
0.2604765625,0.979902343750002,-2.05180078125,-1.28117578125,1.19151171875,2.00547265625,0.401234375,4.89375390625,0.991789062499999,0.25937109375,-0.639679687499999,1.51442578125,1.7205859375,-0.471996093750001,1.86443359375,0.95510546875,2.50722265625,1.64733203125,0.299457031249998,-1.22990234375,1.80875390625,2.62861328125,2.0284453125,-1.579265625,-1.20446484375,1.21721484375,1.0827421875,-0.60737890625,0.172722656250002,-4.06725390625
-0.3995234375,0.0979023437500004,-2.81480078125,-2.01717578125,0.00451171874999901,0.413472656250001,-0.452765625000001,2.85275390625,0.029789062499999,-1.11962890625,-2.0156796875,1.07742578125,1.9885859375,-0.95299609375,0.334433593749999,-0.54489453125,1.53522265625,1.38533203125,-0.87954296875,-3.45190234375,0.103753906250001,2.32561328125,1.1484453125,-4.028265625,-3.17246484375,0.930214843749999,-1.3152578125,-1.07137890625,-0.483277343749998,-5.17325390625
-1.1645234375,-0.767097656249999,-3.49380078125,-2.42417578125,-0.946488281250001,-1.06652734375,-1.005765625,0.913753906249999,-1.1762109375,-2.46362890625,-2.8246796875,0.84342578125,2.1305859375,-1.21999609375,-0.986566406250001,-1.32189453125,0.48322265625,1.17333203125,-1.67254296875,-5.00090234375,-1.11224609375,1.59461328125,0.4854453125,-5.639265625,-4.34946484375,0.87121484375,-3.0672578125,-1.01837890625,-0.593277343749998,-5.53125390625
-2.0455234375,-1.48809765625,-4.02180078125,-2.54317578125,-1.71648828125,-2.34552734375,-1.293765625,-0.24124609375,-2.4462109375,-3.67762890625,-3.1046796875,0.652425781249999,2.1325859375,-1.48099609375,-2.03956640625,-1.46089453125,-0.62777734375,0.85133203125,-2.21954296875,-5.92590234375,-1.76824609375,0.62161328125,-0.0795546874999999,-6.456265625,-4.83446484375,0.71621484375,-4.1722578125,-0.525378906250001,-0.316277343749999,-5.12725390625
-3.0725234375,-2.10009765625,-4.40780078125,-2.65317578125,-2.57048828125,-3.54152734375,-1.552765625,-0.39824609375,-3.7232109375,-4.85162890625,-3.2106796875,0.29442578125,1.9525859375,-2.04799609375,-2.98656640625,-1.32089453125,-1.78177734375,0.18133203125,-2.82154296875,-6.53290234375,-2.03524609375,-0.475386718749999,-0.7745546875,-6.795265625,-4.98446484375,0.13921484375,-4.8732578125,0.11762109375,0.0117226562500008,-4.26025390625
-4.1895234375,-2.72109765625,-4.68580078125,-3.11617578125,-3.76748828125,-4.80352734375,-2.004765625,0.164753906249999,-5.0092109375,-6.10862890625,-3.5316796875,-0.32357421875,1.4875859375,-3.13899609375,-4.00356640625,-1.28289453125,-2.86277734375,-0.98666796875,-3.72254296875,-7.14190234375,-2.14224609375,-1.62838671875,-1.7605546875,-7.018265625,-5.16946484375,-0.91978515625,-5.4542578125,0.585621093749999,0.0867226562500019,-3.37625390625
-5.1955234375,-3.38109765625,-4.82280078125,-4.14817578125,-5.34648828125,-6.08752734375,-2.634765625,0.952753906249999,-6.2532109375,-7.40262890625,-4.1846796875,-1.07357421875,0.6755859375,-4.69699609375,-5.05856640625,-1.51489453125,-3.60477734375,-2.55866796875,-4.91754296875,-7.86790234375,-2.18524609375,-2.72338671875,-2.9995546875,-7.315265625,-5.55246484375,-2.18078515625,-6.0482578125,0.682621093749999,-0.200277343749999,-2.83925390625
-5.8005234375,-3.93409765625,-4.67880078125,-5.64717578125,-7.05348828125,-7.09052734375,-3.146765625,1.60075390625,-7.2792109375,-8.44462890625,-4.9176796875,-1.65457421875,-0.3834140625,-6.37199609375,-5.85956640625,-1.91689453125,-3.68477734375,-4.19166796875,-6.12254296875,-8.56690234375,-2.11624609375,-3.55438671875,-4.2545546875,-7.634265625,-6.04846484375,-3.20578515625,-6.6042578125,0.39862109375,-0.756277343749998,-2.78925390625
-5.7815234375,-4.10809765625,-4.10280078125,-7.19317578125,-8.43548828125,-7.39152734375,-3.146765625,2.04475390625,-7.8442109375,-8.82262890625,-5.2676796875,-1.74557421875,-1.3974140625,-7.68699609375,-6.00356640625,-2.27489453125,-2.94177734375,-5.45866796875,-6.94954296875,-8.98990234375,-1.89624609375,-3.88338671875,-5.2465546875,-7.800265625,-6.45546484375,-3.69478515625,-6.9982578125,-0.16937890625,-1.40927734375,-3.15425390625
-5.1085234375,-3.67909765625,-3.06980078125,-8.20517578125,-9.03748828125,-6.69952734375,-2.420765625,2.43075390625,-7.7592109375,-8.22862890625,-4.8706796875,-1.19557421875,-1.9874140625,-8.27499609375,-5.23656640625,-2.47089453125,-1.57477734375,-6.07766796875,-7.13754296875,-8.99890234375,-1.64924609375,-3.58938671875,-5.8275546875,-7.697265625,-6.65546484375,-3.66578515625,-7.1892578125,-0.920378906250001,-2.05027734375,-3.76525390625
-3.9655234375,-2.63809765625,-1.77280078125,-8.20717578125,-8.58248828125,-5.04252734375,-1.102765625,2.87975390625,-6.9902109375,-6.64462890625,-3.6946796875,-0.16057421875,-1.8584140625,-8.02599609375,-3.63256640625,-2.58389453125,-0.150777343750001,-6.05966796875,-6.69754296875,-8.69690234375,-1.67024609375,-2.79038671875,-6.0555546875,-7.376265625,-6.71046484375,-3.41878515625,-7.2832578125,-1.81537890625,-2.69027734375,-4.46525390625
-2.6445234375,-1.24309765625,-0.56280078125,-7.03817578125,-7.06948828125,-2.77652734375,0.385234375,3.33675390625,-5.6942109375,-4.36762890625,-2.0606796875,0.92042578125,-0.9424140625,-7.08199609375,-1.59156640625,-2.81989453125,0.64022265625,-5.68566796875,-5.86754296875,-8.35590234375,-2.25824609375,-1.86038671875,-6.1245546875,-7.012265625,-6.81346484375,-3.33178515625,-7.4572578125,-2.84937890625,-3.41227734375,-5.15825390625
-1.4005234375,0.0919023437500019,0.22719921875,-4.94217578125,-4.75248828125,-0.427527343749999,1.582234375,3.60275390625,-4.1492109375,-1.86762890625,-0.456679687499999,1.51842578125,0.5485859375,-5.70099609375,0.367433593749999,-3.30889453125,0.34522265625,-5.31666796875,-4.92954296875,-8.20390234375,-3.49024609375,-1.28938671875,-6.1975546875,-6.746265625,-7.12246484375,-3.63978515625,-7.8122578125,-3.99637890625,-4.26927734375,-5.80625390625
-0.350523437500001,1.01290234375,0.46119921875,-2.44917578125,-2.04248828125,1.55947265625,2.248234375,3.47975390625,-2.6172109375,0.44037109375,0.748320312500001,1.33042578125,2.1985859375,-4.08999609375,1.88543359375,-3.92389453125,-0.98077734375,-5.14566796875,-3.99854296875,-8.21890234375,-5.08324609375,-1.43938671875,-6.2525546875,-6.539265625,-7.59346484375,-4.28678515625,-8.2522578125,-5.14937890625,-5.19527734375,-6.38525390625
0.5304765625,1.42690234375,0.28819921875,-0.138175781249999,0.643511718749998,3.02747265625,2.485234375,2.92075390625,-1.2132109375,2.37837109375,1.5033203125,0.52842578125,3.5555859375,-2.31699609375,2.94543359375,-4.24089453125,-2.78177734375,-5.03466796875,-2.94254296875,-8.05590234375,-6.43724609375,-2.31938671875,-6.0535546875,-6.137265625,-7.92446484375,-4.93478515625,-8.4882578125,-6.12937890625,-6.01727734375,-6.87025390625
1.3294765625,1.54790234375,0.0561992187499998,1.59582421875,3.01951171875,4.14147265625,2.674234375,2.09975390625,0.109789062499999,4.02737109375,2.0813203125,-0.24357421875,4.3225859375,-0.352996093750001,3.84443359375,-3.70289453125,-4.28077734375,-4.59166796875,-1.49454296875,-7.22090234375,-6.85924609375,-3.56238671875,-5.2865546875,-5.209265625,-7.67946484375,-5.10878515625,-8.1912578125,-6.74137890625,-6.54627734375,-7.23825390625
2.0774765625,1.74490234375,0.113199218749999,2.63982421875,4.97451171875,5.23747265625,3.263234375,1.37675390625,1.4357890625,5.57637109375,2.8963203125,-0.18957421875,4.4495859375,1.77100390625,4.96043359375,-1.92889453125,-4.89277734375,-3.45966796875,0.50845703125,-5.36890234375,-5.88524609375,-4.63538671875,-3.8075546875,-3.586265625,-6.53146484375,-4.43278515625,-7.2042578125,-6.87737890625,-6.69927734375,-7.48625390625
2.6734765625,2.29790234375,0.61419921875,3.08682421875,6.50051171875,6.58347265625,4.537234375,1.13175390625,2.7237890625,7.13337109375,4.2393203125,1.16642578125,4.0935859375,3.84400390625,6.48543359375,1.03310546875,-4.53577734375,-1.62766796875,2.92445703125,-2.55790234375,-3.51324609375,-5.14238671875,-1.8065546875,-1.417265625,-4.46746484375,-2.84878515625,-5.6752578125,-6.57737890625,-6.55327734375,-7.63425390625
2.9284765625,3.23690234375,1.45419921875,3.11182421875,7.58651171875,8.22047265625,6.449234375,1.54575390625,3.7777890625,8.60537109375,6.0933203125,3.64242578125,3.5005859375,5.49900390625,8.28543359375,4.65110546875,-3.61777734375,0.49433203125,5.29945703125,0.71509765625,-0.240246093750001,-4.98038671875,0.226445312499999,0.857734375,-1.82246484375,-0.69378515625,-3.9982578125,-6.01437890625,-6.29327734375,-7.70325390625
2.7104765625,4.33690234375,2.36419921875,2.86882421875,8.17151171875,9.94247265625,8.615234375,2.44975390625,4.3647890625,9.74837109375,8.1313203125,6.41742578125,2.8915859375,6.37900390625,9.96143359375,8.09610546875,-2.73177734375,2.29233203125,7.07345703125,3.71609765625,3.12475390625,-4.28638671875,1.7524453125,2.726734375,0.865535156249999,1.38321484375,-2.6062578125,-5.42337890625,-6.10027734375,-7.69325390625
2.0794765625,5.26590234375,3.07619921875,2.46582421875,8.19351171875,11.41147265625,10.476234375,3.40475390625,4.3967890625,10.30437109375,9.8603203125,8.42742578125,2.4085859375,6.33400390625,11.04743359375,10.56210546875,-2.27077734375,3.29633203125,7.84945703125,5.79009765625,5.76575390625,-3.28038671875,2.4494453125,3.842734375,3.07153515625,2.66621484375,-1.7502578125,-5.01237890625,-6.06327734375,-7.57125390625
1.2904765625,5.76690234375,3.45419921875,1.98682421875,7.67051171875,12.32247265625,11.548234375,3.96475390625,4.0037890625,10.16337109375,10.8523203125,8.91542578125,2.1215859375,5.51400390625,11.23843359375,11.58410546875,-2.24477734375,3.41233203125,7.58045703125,6.61709765625,7.14975390625,-2.16638671875,2.3574453125,4.169734375,4.47253515625,2.67321484375,-1.4022578125,-4.90237890625,-6.15827734375,-7.27325390625
0.6904765625,5.78090234375,3.52819921875,1.52582421875,6.76951171875,12.56447265625,11.666234375,3.95475390625,3.4807890625,9.44237109375,10.9523203125,7.84442578125,2.0505859375,4.32500390625,10.55343359375,11.21610546875,-2.38777734375,2.92533203125,6.58945703125,6.31609765625,7.21075390625,-1.10538671875,1.8244453125,3.962734375,5.03253515625,1.39821484375,-1.2972578125,-5.07637890625,-6.26627734375,-6.73625390625
0.5584765625,5.46890234375,3.43619921875,1.20182421875,5.79651171875,12.27847265625,11.068234375,3.56175390625,3.1477890625,8.47037109375,10.3513203125,5.91042578125,2.2125859375,3.28300390625,9.34943359375,9.99710546875,-2.42177734375,2.32233203125,5.43245703125,5.36909765625,6.36075390625,-0.249386718749999,1.3234453125,3.631734375,4.97553515625,-0.62278515625,-1.0942578125,-5.37637890625,-6.23427734375,-5.92325390625
0.979476562499999,5.10990234375,3.31919921875,1.12982421875,5.13051171875,11.78947265625,10.265234375,3.17475390625,3.2117890625,7.65837109375,9.5003203125,4.13942578125,2.6425859375,2.81600390625,8.17943359375,8.70410546875,-2.24677734375,2.03633203125,4.66545703125,4.40209765625,5.29475390625,0.24961328125,1.2304453125,3.541734375,4.66953515625,-2.52278515625,-0.5502578125,-5.55137890625,-5.92327734375,-4.86725390625
1.8234765625,4.95690234375,3.25419921875,1.36782421875,5.09551171875,11.43547265625,9.775234375,3.11175390625,3.6887890625,7.33137109375,8.9013203125,3.34142578125,3.3495859375,3.11000390625,7.57643359375,8.01810546875,-1.94277734375,2.26833203125,4.63045703125,3.93909765625,4.68075390625,0.27861328125,1.6714453125,3.862734375,4.47253515625,-3.49778515625,0.3637421875,-5.36337890625,-5.27727734375,-3.67125390625
2.8124765625,5.13490234375,3.26219921875,1.87082421875,5.82551171875,11.43547265625,9.870234375,3.42975390625,4.4167890625,7.62337109375,8.9093203125,3.75042578125,4.2525859375,4.06500390625,7.84943359375,8.26410546875,-1.62677734375,2.94433203125,5.36845703125,4.24009765625,4.87175390625,-0.15938671875,2.5134453125,4.539734375,4.61553515625,-3.19878515625,1.4797421875,-4.69037890625,-4.33427734375,-2.47525390625
3.6524765625,5.62690234375,3.37019921875,2.49582421875,7.19551171875,11.83847265625,10.487234375,3.94375390625,5.1567890625,8.45737109375,9.6123203125,5.01242578125,5.1605859375,5.38300390625,8.98843359375,9.34310546875,-1.31977734375,3.81333203125,6.65845703125,5.26009765625,5.78775390625,-0.89438671875,3.4754453125,5.372734375,5.15053515625,-1.90878515625,2.5437421875,-3.56837890625,-3.21627734375,-1.39425390625
4.1594765625,6.30890234375,3.62719921875,3.06082421875,8.84051171875,12.53547265625,11.316234375,4.39575390625,5.7137890625,9.58637109375,10.8173203125,6.45442578125,5.8555859375,6.69900390625,10.67843359375,10.82810546875,-0.94177734375,4.60633203125,8.14145703125,6.70509765625,6.99975390625,-1.62738671875,4.2764453125,6.129734375,5.94953515625,-0.402785156249999,3.3317421875,-2.18837890625,-2.09427734375,-0.50725390625
4.3064765625,6.98390234375,4.03419921875,3.41982421875,10.27151171875,13.27547265625,11.960234375,4.58875390625,5.9997890625,10.65237109375,12.1153203125,7.43242578125,6.2115859375,7.68200390625,12.38443359375,12.14010546875,-0.437777343750001,5.13933203125,9.41645703125,8.13209765625,7.94175390625,-2.06838671875,4.7174453125,6.610734375,6.74453515625,0.433214843749999,3.7117421875,-0.86037890625,-1.16827734375,0.0957460937499999
4.1864765625,7.42190234375,4.44519921875,3.53482421875,11.02051171875,13.71047265625,12.069234375,4.38875390625,6.0287890625,11.26637109375,12.9963203125,7.57142578125,6.2615859375,8.09300390625,13.51143359375,12.75310546875,0.0622226562499995,5.34033203125,10.11845703125,9.07109765625,8.15375390625,-2.07538671875,4.7054453125,6.675734375,7.20753515625,0.00721484375000081,3.6387421875,0.0546210937499989,-0.646277343749999,0.289746093749999
3.9314765625,7.40690234375,4.56519921875,3.47882421875,10.76651171875,13.48447265625,11.428234375,3.66275390625,5.8677890625,11.11537109375,13.0183203125,6.85642578125,6.1485859375,7.81200390625,13.58743359375,12.35410546875,0.22622265625,5.20933203125,9.98945703125,9.15509765625,7.44675390625,-1.71838671875,4.2214453125,6.247734375,7.06653515625,-1.72578515625,3.1257421875,0.24562109375,-0.687277343749999,-0.04225390625
3.6354765625,6.82390234375,4.08619921875,3.37482421875,9.42751171875,12.37847265625,10.025234375,2.33075390625,5.5987890625,10.06837109375,11.9743203125,5.56842578125,6.0015859375,6.85400390625,12.42643359375,10.93710546875,-0.323777343750001,4.77533203125,8.94545703125,8.22109765625,5.96775390625,-1.23538671875,3.2974453125,5.322734375,6.21353515625,-4.25078515625,2.2287421875,-0.42837890625,-1.32227734375,-0.89125390625
3.3284765625,5.72690234375,2.89019921875,3.30682421875,7.19651171875,10.42647265625,8.087234375,0.51575390625,5.2777890625,8.24537109375,9.9793203125,4.12742578125,5.8425859375,5.37000390625,10.19343359375,8.77610546875,-1.71377734375,4.08433203125,7.12245703125,6.36709765625,4.13175390625,-0.89638671875,2.0104453125,3.984734375,4.74553515625,-6.70878515625,1.0477421875,-1.84837890625,-2.40227734375,-2.05825390625
2.9884765625,4.34390234375,1.16919921875,3.26182421875,4.48551171875,7.93647265625,6.025234375,-1.36624609375,4.9167890625,5.98337109375,7.4293203125,2.90542578125,5.5745859375,3.62600390625,7.34243359375,6.31810546875,-3.61277734375,3.20733203125,4.86545703125,3.91609765625,2.46675390625,-0.86538671875,0.4944453125,2.393734375,2.92453515625,-8.24078515625,-0.272257812500001,-3.64637890625,-3.62227734375,-3.20625390625
2.5714765625,2.99590234375,-0.63280078125,3.14582421875,1.80451171875,5.39347265625,4.278234375,-2.72024609375,4.4847890625,3.73037109375,4.8433203125,2.07642578125,5.0715859375,1.95100390625,4.46343359375,4.01610546875,-5.29077734375,2.24233203125,2.65045703125,1.32109765625,1.40275390625,-1.13938671875,-1.0495546875,0.757734375,1.06353515625,-8.30778515625,-1.5652578125,-5.30637890625,-4.61727734375,-4.02825390625
2.0354765625,1.96290234375,-2.02880078125,2.85382421875,-0.386488281250001,3.27347265625,3.130234375,-3.06424609375,3.9387890625,1.87937109375,2.6643203125,1.56742578125,4.2765859375,0.66200390625,2.07143359375,2.17510546875,-5.98477734375,1.29033203125,0.948457031249999,-0.97790234375,1.08475390625,-1.60238671875,-2.3825546875,-0.715265624999999,-0.589464843750001,-6.85578515625,-2.6852578125,-6.34837890625,-5.09927734375,-4.40325390625
1.3454765625,1.34890234375,-2.74480078125,2.32982421875,-1.80448828125,1.85547265625,2.600234375,-2.30324609375,3.2507890625,0.635371093749999,1.1043203125,1.14742578125,3.2435859375,-0.0489960937500005,0.449433593749999,0.867105468749999,-5.37177734375,0.41733203125,0.0654570312499985,-2.69190234375,1.29575390625,-2.15538671875,-3.3045546875,-1.875265625,-1.92946484375,-4.31578515625,-3.5472578125,-6.50037890625,-4.97127734375,-4.45225390625
0.468476562499999,1.03290234375,-2.84380078125,1.59482421875,-2.41548828125,1.11247265625,2.450234375,-0.817246093750001,2.4247890625,-0.0566289062499994,0.0903203125000012,0.57042578125,2.0885859375,-0.19399609375,-0.424566406250001,-0.0558945312500008,-3.83677734375,-0.36966796875,0.0404570312499999,-3.75790234375,1.55575390625,-2.82538671875,-3.7305546875,-2.665265625,-2.98946484375,-1.47178515625,-4.1582578125,-5.81837890625,-4.36827734375,-4.46625390625
-0.608523437500001,0.758902343750002,-2.66380078125,0.725824218750001,-2.42648828125,0.76947265625,2.316234375,0.706753906249999,1.5177890625,-0.447628906249999,-0.6486796875,-0.293574218750001,0.9385859375,0.0330039062500003,-0.79856640625,-0.831894531250001,-2.29177734375,-1.08666796875,0.651457031249999,-4.29890234375,1.36275390625,-3.74838671875,-3.7055546875,-3.104265625,-3.87146484375,0.75221484375,-4.5712578125,-4.66537890625,-3.59827734375,-4.72425390625
-1.8215234375,0.311902343750001,-2.58780078125,-0.15217578125,-2.15948828125,0.479472656250001,1.913234375,1.60375390625,0.659789062499998,-0.81862890625,-1.3916796875,-1.39657421875,-0.0814140625000004,0.37900390625,-0.973566406250001,-1.61289453125,-1.61077734375,-1.69266796875,1.55745703125,-4.48490234375,0.49275390625,-5.02938671875,-3.3485546875,-3.221265625,-4.61946484375,1.60021484375,-4.8172578125,-3.55937890625,-2.99427734375,-5.31125390625
-2.9815234375,-0.330097656249999,-2.80880078125,-0.87817578125,-1.87248828125,0.0164726562500004,1.183234375,1.58075390625,0.045789062499999,-1.30662890625,-2.2326796875,-2.52457421875,-0.8324140625,0.689003906250001,-1.12956640625,-2.32989453125,-2.06177734375,-2.04766796875,2.46445703125,-4.38790234375,-0.82124609375,-6.56138671875,-2.7645546875,-3.009265625,-5.12546484375,0.80321484375,-4.8502578125,-2.95637890625,-2.75227734375,-6.04125390625
-3.7945234375,-0.975097656249999,-3.23980078125,-1.27317578125,-1.63548828125,-0.631527343749999,0.333234375,0.85775390625,-0.131210937500001,-1.83462890625,-3.0006796875,-3.36057421875,-1.1664140625,0.96900390625,-1.24456640625,-2.68489453125,-3.14277734375,-1.96066796875,3.23345703125,-3.92690234375,-1.95024609375,-7.96738671875,-1.9995546875,-2.421265625,-5.13546484375,-1.24078515625,-4.5682578125,-3.06437890625,-2.85127734375,-6.54625390625
-3.9855234375,-1.33509765625,-3.60580078125,-1.19517578125,-1.36148828125,-1.28752734375,-0.285765625,0.00675390624999928,0.219789062499999,-2.17962890625,-3.3516796875,-3.58657421875,-0.9804140625,1.32500390625,-1.14756640625,-2.29689453125,-3.93677734375,-1.31966796875,3.85945703125,-2.94590234375,-2.16324609375,-8.73338671875,-1.0715546875,-1.432265625,-4.36846484375,-3.56878515625,-3.8822578125,-3.78837890625,-3.07927734375,-6.47925390625
-3.4605234375,-1.19609765625,-3.63380078125,-0.617175781249999,-0.968488281250001,-1.70052734375,-0.366765625000001,-0.43024609375,1.0087890625,-2.13062890625,-2.9776796875,-3.00357421875,-0.2914140625,1.81500390625,-0.66656640625,-0.93289453125,-3.73077734375,-0.22266796875,4.36345703125,-1.37890234375,-1.01624609375,-8.47538671875,-0.0535546875000001,-0.116265624999999,-2.69546484375,-5.05378515625,-2.8012578125,-4.81537890625,-3.17427734375,-5.71725390625
-2.3995234375,-0.548097656249999,-3.22280078125,0.318824218750001,-0.521488281250001,-1.68852734375,0.188234374999999,-0.272246093750001,1.9507890625,-1.63462890625,-1.8176796875,-1.64457421875,0.7215859375,2.32500390625,0.209433593749999,1.28310546875,-2.46377734375,0.99033203125,4.66645703125,0.59309765625,1.36775390625,-7.19438671875,0.8504453125,1.295734375,-0.296464843750002,-4.93778515625,-1.4822578125,-5.80837890625,-2.99227734375,-4.44125390625
-1.2015234375,0.397902343750001,-2.48180078125,1.31282421875,-0.226488281250001,-1.23252734375,1.241234375,0.27775390625,2.6557890625,-0.85062890625,-0.130679687499999,0.22742578125,1.7545859375,2.56600390625,1.26643359375,3.83410546875,-0.73677734375,1.82533203125,4.56145703125,2.51509765625,4.30075390625,-5.35738671875,1.3224453125,2.449734375,2.33553515625,-3.19978515625,-0.205257812500001,-6.57537890625,-2.59627734375,-3.04925390625
-0.2875234375,1.33790234375,-1.60380078125,2.03382421875,-0.27048828125,-0.449527343749999,2.543234375,0.92175390625,2.8087890625,-0.0366289062499998,1.6213203125,2.23942578125,2.5005859375,2.23300390625,2.17543359375,6.01310546875,0.60822265625,1.84833203125,3.84445703125,3.83009765625,6.86375390625,-3.71638671875,1.0704453125,3.011734375,4.58453515625,-0.54178515625,0.7487421875,-7.09737890625,-2.19927734375,-1.95825390625
0.138476562499999,2.06390234375,-0.69980078125,2.29582421875,-0.628488281250001,0.538472656250001,3.908234375,1.57775390625,2.3617890625,0.62137109375,3.0323203125,4.09842578125,2.8095859375,1.25200390625,2.70043359375,7.27610546875,1.01822265625,0.931332031249999,2.53445703125,4.18609765625,8.37775390625,-2.92638671875,0.0584453125,2.879734375,5.99853515625,1.97821484375,1.2497421875,-7.40937890625,-1.98427734375,-1.38125390625
0.1964765625,2.56890234375,0.25819921875,2.15682421875,-0.985488281250001,1.68947265625,5.292234375,2.44675390625,1.5957890625,1.13737109375,3.9553203125,5.65542578125,2.7705859375,-0.0799960937499993,2.87643359375,7.49910546875,0.51722265625,-0.60966796875,1.01445703125,3.65609765625,8.70375390625,-3.18138671875,-1.3585546875,2.294734375,6.49653515625,3.44021484375,1.4047421875,-7.46737890625,-1.95427734375,-1.22925390625
0.2324765625,2.99390234375,1.34919921875,1.87882421875,-0.873488281250001,3.01647265625,6.721234375,3.77875390625,0.998789062499998,1.69537109375,4.5223203125,6.81942578125,2.6645859375,-1.17999609375,2.99143359375,6.98910546875,-0.400777343750001,-2.09666796875,-0.0665429687500012,2.70609765625,8.20075390625,-4.08738671875,-2.5335546875,1.750734375,6.34053515625,3.43021484375,1.4907421875,-7.13237890625,-1.93527734375,-1.19125390625
0.5954765625,3.48090234375,2.56019921875,1.77082421875,0.0665117187499993,4.47547265625,8.144234375,5.56175390625,1.0077890625,2.51037109375,5.0043203125,7.45142578125,2.8145859375,-1.46599609375,3.40943359375,6.27010546875,-1.12277734375,-2.78266796875,-0.092542968750001,1.94109765625,7.43575390625,-4.89138671875,-2.8235546875,1.737734375,5.93553515625,2.17621484375,1.7907421875,-6.27437890625,-1.70527734375,-0.94625390625
1.4484765625,4.07190234375,3.74419921875,2.04482421875,1.87451171875,5.92147265625,9.376234375,7.38675390625,1.7957890625,3.69237109375,5.6363203125,7.40242578125,3.4275859375,-0.63899609375,4.37043359375,5.80910546875,-1.26377734375,-2.19066796875,1.21945703125,1.81209765625,6.87375390625,-4.89338671875,-1.8945546875,2.500734375,5.61753515625,0.40321484375,2.4457421875,-4.87637890625,-1.12927734375,-0.329253906250001
2.7054765625,4.70990234375,4.69219921875,2.75382421875,4.23251171875,7.16147265625,10.185234375,8.63675390625,3.2317890625,5.20637109375,6.5113203125,6.64442578125,4.4885859375,1.19500390625,5.89143359375,5.84010546875,-0.83777734375,-0.32266796875,3.68545703125,2.43709765625,6.70675390625,-3.80638671875,0.127445312500001,3.939734375,5.53853515625,-1.01278515625,3.4267421875,-3.05137890625,-0.182277343749998,0.644746093749999
4.0974765625,5.30090234375,5.24119921875,3.81282421875,6.62551171875,8.05847265625,10.440234375,8.87775390625,4.9757890625,6.90037109375,7.5653203125,5.34742578125,5.7465859375,3.60800390625,7.77043359375,6.30410546875,-0.18877734375,2.35433203125,6.73045703125,3.61909765625,6.85075390625,-1.86338671875,2.7394453125,5.684734375,5.67253515625,-1.44478515625,4.5807421875,-0.993378906250001,1.08872265625,1.86374609375
5.3264765625,5.77490234375,5.35119921875,5.05482421875,8.57751171875,8.59547265625,10.177234375,8.13975390625,6.6567890625,8.56537109375,8.6343203125,3.82442578125,6.8365859375,6.05100390625,9.68043359375,6.93010546875,0.26322265625,5.11233203125,9.62845703125,4.97809765625,7.08075390625,0.36161328125,5.2864453125,7.271734375,5.89053515625,-0.74378515625,5.7067421875,1.07662109375,2.61672265625,3.22374609375
6.2184765625,6.12690234375,5.12819921875,6.30282421875,9.82451171875,8.87247265625,9.566234375,6.88675390625,8.0027890625,9.98737109375,9.5283203125,2.42742578125,7.4775859375,8.06000390625,11.27543359375,7.40510546875,0.31122265625,7.28133203125,11.76045703125,6.14109765625,7.21175390625,2.29861328125,7.2174453125,8.325734375,6.06253515625,0.81321484375,6.6147421875,2.95062109375,4.31172265625,4.66574609375
6.7904765625,6.41590234375,4.78919921875,7.41482421875,10.34351171875,9.03347265625,8.815234375,5.70675390625,8.9037890625,10.99737109375,10.1133203125,1.44742578125,7.6545859375,9.38600390625,12.29543359375,7.55510546875,0.0662226562499999,8.50133203125,12.79845703125,6.86809765625,7.21375390625,3.66761328125,8.2564453125,8.680734375,6.13453515625,2.75221484375,7.1797421875,4.45562109375,6.02772265625,6.14174609375
7.1744765625,6.70290234375,4.55719921875,8.29082421875,10.24051171875,9.15447265625,8.080234375,4.97775390625,9.3677890625,11.47537109375,10.3193203125,1.04142578125,7.6225859375,9.99300390625,12.60443359375,7.41010546875,-0.15777734375,8.79733203125,12.73445703125,7.07709765625,7.17675390625,4.51661328125,8.4054453125,8.384734375,6.11353515625,4.59021484375,7.3587421875,5.47762109375,7.55172265625,7.53374609375
7.4764765625,6.96190234375,4.52419921875,8.83382421875,9.57051171875,9.13147265625,7.397234375,4.69775390625,9.4187890625,11.31537109375,10.0933203125,1.17742578125,7.7165859375,9.94400390625,12.16143359375,7.10810546875,-0.0967773437500004,8.42133203125,11.77845703125,6.76409765625,7.15375390625,5.01961328125,7.8314453125,7.602734375,5.99353515625,5.89021484375,7.1727421875,5.97662109375,8.62872265625,8.61674609375
7.6574765625,7.03390234375,4.57519921875,8.91482421875,8.26051171875,8.69147265625,6.669234375,4.56175390625,9.0147890625,10.40637109375,9.3483203125,1.62742578125,8.1065859375,9.28300390625,10.98543359375,6.73610546875,0.24922265625,7.62233203125,10.20545703125,5.92609765625,7.01875390625,5.23661328125,6.7134453125,6.504734375,5.68453515625,6.27921484375,6.6747421875,5.99062109375,9.05972265625,9.10674609375
7.5634765625,6.69490234375,4.45119921875,8.42482421875,6.20051171875,7.54447265625,5.739234375,4.19175390625,8.0857890625,8.69237109375,8.0033203125,2.06642578125,8.6615859375,8.01500390625,9.16943359375,6.26510546875,0.62122265625,6.51033203125,8.27745703125,4.57309765625,6.51175390625,5.06761328125,5.2014453125,5.240734375,5.05053515625,5.55921484375,5.9477421875,5.64462109375,8.81572265625,8.81174609375
7.0754765625,5.81890234375,3.93319921875,7.39182421875,3.48551171875,5.62947265625,4.534234375,3.42875390625,6.6637890625,6.30037109375,6.1083203125,2.24342578125,9.0235859375,6.21100390625,6.95043359375,5.62010546875,0.716222656249999,5.12033203125,6.26545703125,2.83409765625,5.46175390625,4.40061328125,3.4844453125,3.990734375,4.05853515625,3.87621484375,5.1447421875,5.14062109375,8.10172265625,7.77974609375
6.2454765625,4.51390234375,3.01319921875,6.07482421875,0.56751171875,3.23047265625,3.162234375,2.47775390625,5.0017890625,3.61237109375,3.9313203125,2.10542578125,8.8355859375,4.11800390625,4.73943359375,4.80610546875,0.437222656249999,3.54633203125,4.48045703125,1.02409765625,4.00175390625,3.28761328125,1.8484453125,3.008734375,2.89453515625,1.77021484375,4.4907421875,4.70262109375,7.28472265625,6.33774609375
5.3034765625,3.09190234375,1.90219921875,4.89682421875,-1.83548828125,0.884472656250001,1.866234375,1.78275390625,3.5177890625,1.18337109375,1.9063203125,1.76542578125,7.9835859375,2.15100390625,3.01043359375,3.94710546875,-0.0347773437500001,1.99633203125,3.23145703125,-0.43490234375,2.57475390625,1.95261328125,0.627445312500001,2.553734375,1.90153515625,-0.0467851562499995,4.1957421875,4.46762109375,6.69472265625,4.92474609375
4.5234765625,1.91090234375,0.88319921875,4.24882421875,-3.08448828125,-0.886527343749998,0.869234375,1.66875390625,2.6127890625,-0.486628906250001,0.426320312500001,1.36642578125,6.6935859375,0.73200390625,2.09243359375,3.19510546875,-0.42877734375,0.71633203125,2.69745703125,-1.21790234375,1.67375390625,0.665613281250001,0.0444453125000006,2.735734375,1.37653515625,-1.06778515625,4.3077421875,4.39562109375,6.42472265625,3.84174609375
4.0564765625,1.19190234375,0.12619921875,4.30782421875,-2.96748828125,-1.82852734375,0.230234375,2.03375390625,2.4697890625,-1.18562890625,-0.3406796875,0.946425781249999,5.4195859375,0.0900039062500007,2.00343359375,2.62110546875,-0.621777343750001,-0.11966796875,2.81845703125,-1.27790234375,1.52375390625,-0.40438671875,0.0774453125000001,3.393734375,1.36653515625,-1.25078515625,4.6377421875,4.26362109375,6.28172265625,3.09274609375
3.8694765625,0.941902343750002,-0.36480078125,4.97582421875,-1.81448828125,-2.03552734375,-0.155765625000001,2.37975390625,2.9827890625,-1.05962890625,-0.498679687499999,0.434425781249999,4.5855859375,0.166003906249999,2.44843359375,2.18310546875,-0.71277734375,-0.46866796875,3.31045703125,-0.85790234375,1.96075390625,-1.21438671875,0.4614453125,4.137734375,1.64953515625,-0.96378515625,4.8317421875,3.78662109375,5.93672265625,2.44474609375
3.7994765625,1.01790234375,-0.68380078125,5.97082421875,-0.317488281250001,-1.83052734375,-0.443765625000001,2.16875390625,3.8467890625,-0.50362890625,-0.316679687499999,-0.23757421875,4.3615859375,0.67700390625,2.99843359375,1.82210546875,-0.87877734375,-0.41366796875,3.79745703125,-0.32590234375,2.56875390625,-1.79538671875,0.8364453125,4.531734375,1.89953515625,-0.68778515625,4.5657421875,2.79862109375,5.15272265625,1.66174609375
3.6744765625,1.24090234375,-0.90880078125,6.94782421875,0.808511718749999,-1.55652734375,-0.709765625000001,1.22175390625,4.7087890625,0.0523710937500006,-0.0676796874999983,-1.01557421875,4.5985859375,1.25900390625,3.30443359375,1.55510546875,-1.18177734375,-0.13866796875,3.96245703125,0.0330976562499998,2.97175390625,-2.20038671875,0.915445312499999,4.293734375,1.89753515625,-0.73678515625,3.7187421875,1.36362109375,3.93872265625,0.68774609375
3.3874765625,1.47290234375,-1.04980078125,7.59082421875,1.09851171875,-1.42852734375,-0.923765625,-0.13824609375,5.2527890625,0.301371093749999,0.0603203125000018,-1.70857421875,4.9595859375,1.57100390625,3.20243359375,1.46910546875,-1.52577734375,0.0833320312500003,3.62045703125,0.0960976562500004,3.00675390625,-2.49938671875,0.557445312500001,3.373734375,1.61853515625,-1.16778515625,2.3977421875,-0.25737890625,2.51772265625,-0.329253906250001
2.8874765625,1.59890234375,-1.08580078125,7.64482421875,0.428511718749998,-1.53452734375,-1.036765625,-1.28924609375,5.2157890625,0.0833710937499994,-0.0656796874999994,-2.09457421875,5.1175859375,1.34500390625,2.64843359375,1.59410546875,-1.76877734375,-0.0716679687499999,2.67945703125,-0.16890234375,2.71375390625,-2.80738671875,-0.282554687499999,1.872734375,1.15853515625,-1.89878515625,0.813742187499999,-1.76837890625,1.15572265625,-1.19925390625
2.1354765625,1.48990234375,-1.03380078125,6.94782421875,-1.07748828125,-1.92652734375,-1.080765625,-1.70324609375,4.3827890625,-0.66462890625,-0.566679687499999,-2.07957421875,4.8935859375,0.403003906249999,1.61543359375,1.78610546875,-1.84877734375,-0.876667968750001,1.08345703125,-0.81790234375,2.18375390625,-3.25938671875,-1.6105546875,-0.0782656250000002,0.576535156249999,-2.83378515625,-0.874257812500002,-3.00337890625,-0.0232773437499993,-1.84425390625
1.1194765625,1.03790234375,-0.96980078125,5.49782421875,-3.16848828125,-2.65152734375,-1.168765625,-1.23724609375,2.6737890625,-1.92162890625,-1.5246796875,-1.74057421875,4.2805859375,-1.26199609375,0.0734335937499999,1.76610546875,-1.78577734375,-2.40966796875,-1.14954296875,-1.94290234375,1.45475390625,-3.92038671875,-3.3865546875,-2.370265625,-0.17046484375,-3.86478515625,-2.6112578125,-3.97537890625,-1.06527734375,-2.33425390625
-0.0925234375000006,0.246902343750001,-0.98580078125,3.52982421875,-5.52548828125,-3.67752734375,-1.376765625,-0.171246093750002,0.272789062499999,-3.53762890625,-2.8676796875,-1.24157421875,3.3825859375,-3.40699609375,-1.91256640625,1.29910546875,-1.59877734375,-4.45166796875,-3.83054296875,-3.55990234375,0.557753906249999,-4.68338671875,-5.4415546875,-4.847265625,-1.15546484375,-4.77478515625,-4.3622578125,-4.76437890625,-2.06427734375,-2.76825390625
-1.3065234375,-0.710097656249999,-1.14780078125,1.51682421875,-7.75848828125,-4.82552734375,-1.652765625,0.962753906249999,-2.3242109375,-5.19462890625,-4.2996796875,-0.710574218750001,2.3465859375,-5.53799609375,-4.07656640625,0.36910546875,-1.25677734375,-6.51666796875,-6.53454296875,-5.48190234375,-0.41424609375,-5.27438671875,-7.4295546875,-7.241265625,-2.36846484375,-5.20278515625,-6.0072578125,-5.36237890625,-3.00927734375,-3.15025390625
-2.2555234375,-1.56309765625,-1.49380078125,0.0238242187500006,-9.42748828125,-5.79952734375,-1.843765625,1.62675390625,-4.4522109375,-6.48262890625,-5.3946796875,-0.22057421875,1.3195859375,-7.06399609375,-5.98556640625,-0.81689453125,-0.780777343750001,-8.02266796875,-8.69554296875,-7.33690234375,-1.29324609375,-5.36438671875,-8.8945546875,-9.175265625,-3.66846484375,-4.76578515625,-7.3102578125,-5.61837890625,-3.72227734375,-3.35925390625
-2.7245234375,-2.09309765625,-2.05280078125,-0.52517578125,-10.15448828125,-6.33452734375,-1.836765625,1.48175390625,-5.5442109375,-7.06062890625,-5.8066796875,0.15642578125,0.4545859375,-7.53099609375,-7.20256640625,-1.96889453125,-0.36177734375,-8.52166796875,-9.80654296875,-8.71890234375,-1.93024609375,-4.73438671875,-9.4265546875,-10.283265625,-4.84146484375,-3.28778515625,-8.0032578125,-5.33037890625,-3.96027734375,-3.25425390625
-2.6565234375,-2.24109765625,-2.81780078125,-0.0331757812499998,-9.78148828125,-6.33052734375,-1.661765625,0.525753906249999,-5.3772109375,-6.81462890625,-5.4616796875,0.32942578125,-0.0994140625000002,-6.81999609375,-7.48456640625,-2.88689453125,-0.34877734375,-7.85566796875,-9.62354296875,-9.37390234375,-2.29524609375,-3.37738671875,-8.8305546875,-10.348265625,-5.71446484375,-0.98778515625,-7.9282578125,-4.42837890625,-3.58227734375,-2.81825390625
-2.1885234375,-2.11409765625,-3.68680078125,1.22582421875,-8.48148828125,-5.90952734375,-1.459765625,-0.842246093750001,-4.1582109375,-5.91062890625,-4.6046796875,0.24042578125,-0.2294140625,-5.20699609375,-6.90256640625,-3.54089453125,-1.06077734375,-6.20266796875,-8.27354296875,-9.32790234375,-2.50624609375,-1.52338671875,-7.2355546875,-9.418265625,-6.24346484375,1.47821484375,-7.1542578125,-3.10637890625,-2.69127734375,-2.24525390625
-1.6015234375,-1.90009765625,-4.45080078125,2.72582421875,-6.71848828125,-5.34852734375,-1.383765625,-1.94124609375,-2.4342109375,-4.72662890625,-3.6746796875,-0.0825742187500005,0.0805859374999995,-3.26799609375,-5.82256640625,-4.06289453125,-2.55877734375,-4.01666796875,-6.22954296875,-8.87890234375,-2.79424609375,0.410613281250001,-5.0895546875,-7.831265625,-6.54146484375,3.17921484375,-6.0012578125,-1.80037890625,-1.64427734375,-1.87825390625
-1.1995234375,-1.76309765625,-4.86480078125,3.90782421875,-5.05248828125,-4.93652734375,-1.489765625,-2.14424609375,-0.853210937500001,-3.68662890625,-3.0976796875,-0.54557421875,0.7355859375,-1.64999609375,-4.75556640625,-4.63789453125,-4.50577734375,-1.88966796875,-4.14354296875,-8.45190234375,-3.39824609375,1.94361328125,-3.0235546875,-6.115265625,-6.81446484375,3.28621484375,-4.9362578125,-0.98637890625,-0.903277343749998,-2.03725390625
-1.1665234375,-1.74509765625,-4.77780078125,4.39882421875,-3.88848828125,-4.79752734375,-1.707765625,-1.22724609375,0.120789062499998,-3.06562890625,-3.0786796875,-1.05857421875,1.5715859375,-0.78699609375,-4.11956640625,-5.35389453125,-6.26777734375,-0.35766796875,-2.60054296875,-8.36390234375,-4.40124609375,2.69861328125,-1.6095546875,-4.784265625,-7.20946484375,1.52121484375,-4.3642578125,-0.91137890625,-0.787277343749999,-2.79625390625
-1.4755234375,-1.74409765625,-4.21380078125,4.15882421875,-3.29948828125,-4.81552734375,-1.863765625,0.520753906249999,0.401789062499999,-2.86162890625,-3.5076796875,-1.56057421875,2.4535859375,-0.70699609375,-4.05556640625,-6.09089453125,-7.20577734375,0.28433203125,-1.90154296875,-8.65790234375,-5.62824609375,2.54761328125,-1.1445546875,-4.117265625,-7.70246484375,-1.61178515625,-4.4242578125,-1.44137890625,-1.29527734375,-3.89225390625
-1.8985234375,-1.59109765625,-3.35580078125,3.45482421875,-3.05048828125,-4.72252734375,-1.758765625,2.49975390625,0.258789062499998,-2.84262890625,-4.0246796875,-1.98157421875,3.3235859375,-1.07899609375,-4.40756640625,-6.55089453125,-7.02977734375,0.0543320312499995,-2.02354296875,-9.11790234375,-6.68924609375,1.64661328125,-1.5825546875,-4.084265625,-8.11246484375,-5.03578515625,-4.9532578125,-2.16237890625,-2.13827734375,-4.85425390625
-2.1415234375,-1.18309765625,-2.46180078125,2.67882421875,-2.80548828125,-4.30252734375,-1.281765625,4.12975390625,0.0927890624999979,-2.72362890625,-4.2276796875,-2.22357421875,4.1555859375,-1.44999609375,-4.86156640625,-6.44189453125,-5.97677734375,-0.77266796875,-2.73554296875,-9.46090234375,-7.19624609375,0.319613281250001,-2.6445546875,-4.443265625,-8.24946484375,-7.65378515625,-5.6302578125,-2.67437890625,-2.94927734375,-5.30125390625
-2.0095234375,-0.569097656249999,-1.74480078125,2.12382421875,-2.35248828125,-3.55352734375,-0.477765625,5.07375390625,0.191789062499998,-2.34262890625,-3.8776796875,-2.19057421875,4.8675859375,-1.49999609375,-5.13756640625,-5.68589453125,-4.66377734375,-1.81266796875,-3.76054296875,-9.54890234375,-6.98024609375,-1.07538671875,-3.9875546875,-4.922265625,-8.08046484375,-8.88378515625,-6.1832578125,-2.86437890625,-3.52227734375,-5.19925390625
-1.5015234375,0.0789023437500003,-1.28880078125,1.87982421875,-1.70548828125,-2.66952734375,0.474234375,5.31675390625,0.616789062499999,-1.71362890625,-2.9926796875,-1.85357421875,5.2915859375,-1.15299609375,-5.10056640625,-4.48789453125,-3.70177734375,-2.70066796875,-4.86354296875,-9.44990234375,-6.16924609375,-2.24738671875,-5.3155546875,-5.338265625,-7.74946484375,-8.80878515625,-6.5142578125,-2.93937890625,-3.87927734375,-4.87825390625
-0.770523437500001,0.596902343750001,-1.02880078125,1.88682421875,-1.02548828125,-1.89652734375,1.380234375,5.13875390625,1.2457890625,-0.95862890625,-1.7916796875,-1.23957421875,5.2755859375,-0.528996093749999,-4.74556640625,-3.21589453125,-3.34277734375,-3.18066796875,-5.83954296875,-9.31590234375,-5.05824609375,-3.01038671875,-6.3975546875,-5.600265625,-7.44446484375,-7.91778515625,-6.6592578125,-3.20937890625,-4.16027734375,-4.76925390625
0.0114765624999995,0.945902343750001,-0.80880078125,2.06982421875,-0.478488281250001,-1.35652734375,2.152234375,5.02775390625,1.8987890625,-0.21262890625,-0.575679687499999,-0.37157421875,4.8595859375,0.180003906250001,-4.12556640625,-2.18289453125,-3.36077734375,-3.15266796875,-6.47554296875,-9.19890234375,-3.89724609375,-3.31138671875,-7.0455546875,-5.650265625,-7.21046484375,-6.66678515625,-6.6632578125,-3.76337890625,-4.41527734375,-5.04925390625
0.7784765625,1.24290234375,-0.46480078125,2.43182421875,-0.141488281250001,-0.965527343749999,2.838234375,5.52175390625,2.4307890625,0.430371093749999,0.398320312500001,0.80442578125,4.3655859375,0.81000390625,-3.27856640625,-1.48389453125,-3.22277734375,-2.69566796875,-6.56354296875,-8.94790234375,-2.74824609375,-3.23738671875,-7.1155546875,-5.401265625,-6.87246484375,-5.16978515625,-6.4792578125,-4.29837890625,-4.48327734375,-5.44825390625
1.6044765625,1.69090234375,0.0891992187499993,3.03282421875,-0.0124882812500005,-0.48652734375,3.561234375,7.02575390625,2.7707890625,0.927371093750001,0.974320312500002,2.40542578125,4.2845859375,1.27100390625,-2.21656640625,-0.99289453125,-2.40977734375,-2.04966796875,-5.95954296875,-8.28090234375,-1.52224609375,-2.97438671875,-6.5425546875,-4.753265625,-6.12646484375,-3.20678515625,-5.9812578125,-4.22037890625,-4.03227734375,-5.36825390625
2.6124765625,2.45390234375,0.842199218749999,3.92582421875,-0.0534882812500008,0.32747265625,4.427234375,9.65775390625,2.9207890625,1.27337109375,1.1183203125,4.52342578125,5.0095859375,1.55000390625,-0.946566406250001,-0.49989453125,-0.68177734375,-1.50566796875,-4.64954296875,-6.95590234375,-0.101246093749999,-2.72638671875,-5.3685546875,-3.654265625,-4.73746484375,-0.47778515625,-5.0552578125,-2.98337890625,-2.76027734375,-4.23825390625
3.8694765625,3.56390234375,1.71819921875,5.09082421875,-0.220488281250001,1.57347265625,5.462234375,13.21575390625,2.9327890625,1.49737109375,0.9063203125,7.12742578125,6.6035859375,1.68900390625,0.495433593749999,0.136105468749999,1.86122265625,-1.24766796875,-2.77154296875,-4.94890234375,1.54975390625,-2.61338671875,-3.7405546875,-2.153265625,-2.69146484375,3.11421484375,-3.7022578125,-0.44737890625,-0.613277343749999,-1.89125390625
5.3104765625,4.90790234375,2.63719921875,6.42482421875,-0.453488281250001,3.13147265625,6.617234375,17.26575390625,2.8857890625,1.65937109375,0.5083203125,10.02842578125,8.7505859375,1.76400390625,2.04243359375,0.91710546875,4.88722265625,-1.23066796875,-0.582542968750001,-2.49890234375,3.36775390625,-2.61738671875,-1.8765546875,-0.418265625,-0.226464843750001,7.31721484375,-2.0772578125,2.95962109375,2.10972265625,1.28774609375
5.3104765625,4.90790234375,2.63719921875,6.42482421875,-0.453488281250001,3.13147265625,6.617234375,17.26575390625,2.8857890625,1.65937109375,0.5083203125,10.02842578125,8.7505859375,1.76400390625,2.04243359375,0.91710546875,4.88722265625,-1.23066796875,-0.582542968750001,-2.49890234375,3.36775390625,-2.61738671875,-1.8765546875,-0.418265625,-0.226464843750001,7.31721484375,-2.0772578125,2.95962109375,2.10972265625,1.28774609375
