"Fp1","Fpz","Fp2","F7","F3","Fz","F4","F8","FC5","FC1","FC2","FC6","T7","C3","Cz","C4","T8","CP5","CP1","CP2","CP6","P7","P3","Pz","P4","P8","POz","O1","Oz","O2"
-52.61708203125,-48.1679296875,-50.4590078125,-32.8949921875,-36.27905859375,-57.415328125,-54.55773828125,-45.65582421875,-50.27798828125,-51.83359765625,-59.3091640625,-56.85628125,-41.6824140625,-53.98619140625,-52.42323046875,-42.35450390625,-39.1473203125,-49.30429296875,-51.88428125,-52.69008203125,-51.95978125,-60.405828125,-48.57030078125,-49.468625,-47.9519375,-46.994875,-54.050515625,-37.047078125,-34.2840234375,-42.32276171875
-35.56508203125,-35.0339296875,-33.7200078125,-19.3989921875,-27.20405859375,-44.914328125,-46.91473828125,-34.92582421875,-37.51698828125,-36.92659765625,-49.2221640625,-46.18228125,-28.6794140625,-38.60919140625,-37.08723046875,-30.65850390625,-24.1843203125,-33.06529296875,-36.32528125,-35.60908203125,-37.59078125,-45.582828125,-34.16830078125,-33.191625,-28.7139375,-34.123875,-38.150515625,-21.146078125,-18.7190234375,-27.69476171875
-25.10108203125,-27.1989296875,-23.0110078125,-11.0809921875,-22.17205859375,-37.663328125,-42.73573828125,-28.00282421875,-30.18898828125,-29.24259765625,-43.7611640625,-40.15428125,-22.5384140625,-30.92019140625,-29.05923046875,-23.25350390625,-14.5783203125,-24.60029296875,-27.99828125,-25.47708203125,-28.50578125,-34.806828125,-25.93530078125,-24.106625,-17.5139375,-25.734875,-29.085515625,-11.663078125,-9.9570234375,-19.17076171875
-20.75808203125,-24.4259296875,-18.1550078125,-7.8589921875,-20.78105859375,-35.070328125,-41.29073828125,-24.42282421875,-28.07798828125,-28.36959765625,-42.3621640625,-38.04228125,-22.9024140625,-30.44919140625,-28.04723046875,-19.91950390625,-9.8713203125,-23.61229296875,-26.66028125,-22.38608203125,-24.29678125,-28.171828125,-23.75930078125,-22.009625,-14.1349375,-21.615875,-26.534515625,-8.220078125,-7.5030234375,-16.29876171875
-20.21508203125,-24.9069296875,-17.2980078125,-8.2409921875,-21.43505859375,-34.984328125,-40.74873828125,-22.68882421875,-29.42498828125,-31.69359765625,-43.0791640625,-37.79728125,-27.3264140625,-34.40219140625,-31.54523046875,-19.32550390625,-8.0673203125,-27.55229296875,-29.95328125,-24.52408203125,-23.17578125,-24.860828125,-25.83530078125,-24.680625,-16.1209375,-20.297875,-28.275515625,-8.651078125,-8.8830234375,-16.85776171875
-20.86108203125,-26.3999296875,-18.1290078125,-10.3309921875,-22.35205859375,-35.077328125,-39.31473828125,-21.33182421875,-32.05898828125,-35.95359765625,-43.8101640625,-37.41328125,-32.6834140625,-39.35319140625,-36.32023046875,-19.96150390625,-6.9053203125,-33.21229296875,-34.85028125,-29.35008203125,-23.29778125,-23.878828125,-29.85730078125,-29.325625,-20.4409375,-20.049875,-31.684515625,-10.471078125,-11.2540234375,-18.30076171875
-20.93508203125,-27.1699296875,-18.7970078125,-12.5619921875,-22.27105859375,-33.807328125,-36.00073828125,-19.52082421875,-34.22898828125,-38.50559765625,-43.1341640625,-35.68228125,-36.3234140625,-42.55719140625,-39.65323046875,-20.62850390625,-4.7333203125,-37.92929296875,-38.78728125,-34.46408203125,-23.50278125,-24.357828125,-33.83030078125,-33.622625,-24.6999375,-19.633875,-34.793515625,-11.904078125,-12.6270234375,-18.87876171875
-19.82808203125,-26.3729296875,-18.2190078125,-13.9439921875,-20.64205859375,-30.642328125,-30.76473828125,-17.05282421875,-34.86098828125,-37.89959765625,-40.4901640625,-32.19028125,-36.6744140625,-42.47019140625,-39.93623046875,-20.43650390625,-0.797320312499999,-40.03929296875,-40.12328125,-37.96908203125,-23.27478125,-25.474828125,-36.30830078125,-36.064625,-27.4839375,-18.568875,-36.551515625,-12.153078125,-12.2760234375,-18.04076171875
-17.89508203125,-24.0559296875,-16.1190078125,-14.1149921875,-17.56905859375,-25.918328125,-24.31773828125,-14.12082421875,-33.55598828125,-34.01459765625,-36.0751640625,-27.09828125,-33.4994140625,-38.82019140625,-36.85623046875,-18.79850390625,4.6846796875,-38.94129296875,-38.27128125,-38.68408203125,-22.43678125,-26.452828125,-36.46230078125,-36.003625,-28.2559375,-17.100875,-36.689515625,-11.248078125,-10.5830234375,-16.30276171875
-16.07908203125,-20.9509296875,-12.9660078125,-13.3419921875,-13.70705859375,-20.616328125,-17.85373828125,-11.19782421875,-30.59498828125,-27.92959765625,-30.7011640625,-21.10628125,-27.8414140625,-32.50119140625,-31.32223046875,-15.61350390625,10.5256796875,-35.05829296875,-33.69128125,-36.36708203125,-21.01078125,-26.823828125,-34.20330078125,-33.631625,-27.1619375,-16.027875,-35.512515625,-9.765078125,-8.6220234375,-14.80576171875
-15.34008203125,-18.0649296875,-9.6850078125,-12.3009921875,-10.01905859375,-15.964328125,-12.64873828125,-8.90682421875,-26.79898828125,-21.43259765625,-25.5021640625,-15.33328125,-21.5044140625,-25.18619140625,-25.01023046875,-11.34150390625,14.9226796875,-29.57429296875,-27.62328125,-31.68408203125,-19.13878125,-26.599828125,-30.15130078125,-29.773625,-24.7749375,-16.276875,-33.607515625,-8.407078125,-7.5040234375,-14.61276171875
-16.01508203125,-16.1249296875,-7.1060078125,-11.5979921875,-7.34005859375,-12.886328125,-9.53273828125,-7.74982421875,-23.14098828125,-16.21459765625,-21.4391640625,-10.92628125,-16.1844140625,-18.65519140625,-19.59823046875,-6.75250390625,16.2146796875,-23.90029296875,-21.51728125,-25.80008203125,-16.93578125,-26.122828125,-25.34730078125,-25.433625,-21.7329375,-18.313875,-31.462515625,-7.552078125,-7.7110234375,-15.96576171875
-17.56808203125,-15.2349296875,-5.5570078125,-11.3669921875,-5.99705859375,-11.605328125,-8.54473828125,-7.86182421875,-20.32198828125,-13.22259765625,-18.9131640625,-8.60228125,-12.8454140625,-14.21219140625,-16.13623046875,-2.57450390625,13.6436796875,-19.19429296875,-16.53528125,-19.91008203125,-14.44878125,-25.809828125,-20.89230078125,-21.422625,-18.5249375,-21.824875,-29.307515625,-7.115078125,-8.8620234375,-18.07076171875
-18.92908203125,-14.9859296875,-4.8690078125,-11.2429921875,-5.74405859375,-11.688328125,-9.02273828125,-8.97382421875,-18.59798828125,-12.51059765625,-17.7441640625,-8.40428125,-11.6724140625,-12.46719140625,-14.86823046875,0.68349609375,7.7276796875,-16.21629296875,-13.38728125,-15.00308203125,-11.78978125,-25.999828125,-17.75730078125,-18.291625,-15.5279375,-25.942875,-27.269515625,-6.824078125,-10.1150234375,-19.60476171875
-19.10708203125,-14.8269296875,-4.6530078125,-10.6049921875,-5.95805859375,-12.333328125,-9.98673828125,-10.51182421875,-17.83698828125,-13.45759765625,-17.3881640625,-9.68328125,-12.3274140625,-13.36319140625,-15.38423046875,2.79649609375,0.172679687500001,-15.36729296875,-12.35128125,-11.76008203125,-9.24178125,-26.813828125,-16.61930078125,-16.370625,-13.0809375,-29.674875,-25.544515625,-6.542078125,-10.7730234375,-19.51876171875
-17.62208203125,-14.3749296875,-4.5470078125,-8.8539921875,-5.91905859375,-12.676328125,-10.51073828125,-11.72082421875,-17.63998828125,-15.06159765625,-17.1801640625,-11.24728125,-14.1814140625,-16.23719140625,-16.85523046875,3.86949609375,-6.6113203125,-16.65729296875,-13.26428125,-10.44608203125,-7.15378125,-27.989828125,-17.61330078125,-15.711625,-11.3989375,-32.153875,-24.304515625,-6.278078125,-10.5850234375,-17.49776171875
-14.68808203125,-13.5529296875,-4.3680078125,-5.6909921875,-5.11905859375,-12.100328125,-10.02073828125,-11.91982421875,-17.52898828125,-16.29259765625,-16.5981640625,-11.81328125,-16.5134140625,-19.99219140625,-18.34323046875,4.26349609375,-10.4083203125,-19.63629296875,-15.54828125,-10.88308203125,-5.80978125,-28.909828125,-20.20130078125,-16.044625,-10.5069375,-32.746875,-23.548515625,-6.010078125,-9.6940234375,-13.96476171875
-11.18008203125,-12.5959296875,-4.2130078125,-1.3729921875,-3.56305859375,-10.570328125,-8.53973828125,-10.87882421875,-17.20498828125,-16.53559765625,-15.5331640625,-10.70428125,-18.7884140625,-23.47619140625,-19.20423046875,4.30149609375,-10.2183203125,-23.47329296875,-18.40428125,-12.64008203125,-5.41978125,-28.928828125,-23.36230078125,-16.950625,-10.3429375,-31.299875,-23.138515625,-5.634078125,-8.4730234375,-9.86276171875
-8.28208203125,-11.8909296875,-4.3540078125,3.2650078125,-1.83405859375,-8.710328125,-6.66773828125,-9.00282421875,-16.66698828125,-15.81659765625,-14.3541640625,-8.29928125,-20.8144140625,-25.82419140625,-19.31123046875,4.02849609375,-6.7403203125,-27.11229296875,-21.02828125,-15.23208203125,-6.13978125,-27.680828125,-25.95430078125,-18.062625,-10.8829375,-28.330875,-22.949515625,-5.021078125,-7.3390234375,-6.31576171875
-6.83908203125,-11.6409296875,-4.8700078125,7.1900078125,-0.766058593749998,-7.403328125,-5.21273828125,-7.08382421875,-16.03998828125,-14.60159765625,-13.5791640625,-5.79428125,-22.5594140625,-26.49819140625,-18.84823046875,3.31749609375,-1.9113203125,-29.40929296875,-22.65328125,-18.09008203125,-7.91878125,-25.069828125,-26.98630078125,-19.055625,-12.0309375,-24.817875,-22.859515625,-4.012078125,-6.5050234375,-4.19576171875
-6.87608203125,-11.6229296875,-5.3710078125,9.6580078125,-0.943058593749999,-7.212328125,-4.67473828125,-5.80582421875,-15.33298828125,-13.35859765625,-13.4211640625,-4.47628125,-23.8294140625,-25.18719140625,-17.91723046875,2.17249609375,2.1276796875,-29.32529296875,-22.56328125,-20.46608203125,-10.35978125,-21.148828125,-25.78530078125,-19.544625,-13.4529375,-21.683875,-22.661515625,-2.414078125,-5.8350234375,-3.76276171875
-7.71508203125,-11.3109296875,-5.1420078125,10.4260078125,-2.40605859375,-8.112328125,-5.02573828125,-5.45182421875,-14.44898828125,-12.31759765625,-13.6151640625,-5.10328125,-24.2274140625,-21.88619140625,-16.40623046875,0.844496093749999,3.9086796875,-26.30529296875,-20.32228125,-21.57008203125,-12.82978125,-16.278828125,-22.22330078125,-19.165625,-14.6529375,-19.438875,-22.124515625,-0.172078125000001,-5.0280234375,-4.69376171875
-8.51608203125,-10.2529296875,-3.6030078125,9.6630078125,-4.68405859375,-9.630328125,-5.83573828125,-5.90882421875,-13.40998828125,-11.48159765625,-13.6431640625,-7.65728125,-23.3744140625,-17.05919140625,-14.17323046875,-0.290503906250001,3.0286796875,-20.60429296875,-16.08928125,-20.90208203125,-14.74278125,-11.359828125,-16.86330078125,-17.789625,-15.2299375,-18.198875,-21.163515625,2.429921875,-3.9520234375,-6.40276171875
-8.69008203125,-8.3249296875,-0.605007812500002,7.8450078125,-6.97505859375,-11.084328125,-6.51673828125,-6.76082421875,-12.41298828125,-10.68659765625,-13.0321640625,-11.37028125,-21.1014140625,-11.57319140625,-11.25523046875,-0.882503906249999,0.2086796875,-13.21129296875,-10.63428125,-18.43608203125,-15.68478125,-7.662828125,-10.77030078125,-15.584625,-14.9969375,-17.796875,-19.843515625,4.855921875,-2.7280234375,-8.26976171875
-8.01608203125,-5.7409296875,3.5339921875,5.6910078125,-8.39605859375,-11.827328125,-6.55973828125,-7.40682421875,-11.68598828125,-9.67759765625,-11.6111640625,-14.97128125,-17.5094140625,-6.41719140625,-7.95023046875,-0.699503906249999,-2.9983203125,-5.47529296875,-5.06428125,-14.56008203125,-15.36578125,-6.186828125,-5.09430078125,-12.878625,-13.8999375,-17.833875,-18.233515625,6.679921875,-1.5300234375,-9.70476171875
-6.71208203125,-3.0359296875,8.0099921875,3.8970078125,-8.39405859375,-11.585328125,-5.86573828125,-7.37282421875,-11.40898828125,-8.37959765625,-9.7361640625,-17.25828125,-13.1064140625,-2.55119140625,-4.90123046875,0.213496093750001,-4.9433203125,1.17270703125,-0.555281249999997,-10.01108203125,-13.69378125,-7.102828125,-0.803300781249998,-10.121625,-12.0189375,-17.799875,-16.408515625,7.764921875,-0.446023437499999,-10.25976171875
-5.50308203125,-1.0869296875,11.5089921875,2.7370078125,-7.16405859375,-10.787328125,-5.00273828125,-6.68382421875,-11.83398828125,-7.24059765625,-8.3931640625,-17.74228125,-8.9374140625,-0.940191406250001,-3.10823046875,1.36649609375,-4.7433203125,5.31170703125,1.77271875000001,-5.86108203125,-10.98378125,-9.704828125,1.34169921875,-7.940625,-9.7079375,-17.315875,-14.619515625,8.135921875,0.4299765625,-9.85676171875
-5.37408203125,-0.9099296875,12.5129921875,1.9070078125,-5.65905859375,-10.444328125,-5.02073828125,-5.91482421875,-13.30098828125,-7.16259765625,-8.8261640625,-16.83828125,-6.3504140625,-2.38219140625,-3.60723046875,2.00149609375,-2.6373203125,5.78470703125,1.12871875,-3.28108203125,-7.96078125,-12.806828125,0.879699218750002,-7.010625,-7.5889375,-16.338875,-13.297515625,7.824921875,0.922976562500001,-8.86776171875
-6.93008203125,-3.1119296875,10.0449921875,0.8760078125,-5.02505859375,-11.452328125,-6.74973828125,-5.76382421875,-15.94898828125,-8.85659765625,-11.7271640625,-15.41328125,-6.3034140625,-6.99319140625,-6.76623046875,1.61049609375,0.414679687500001,2.26570703125,-2.46428125,-3.00308203125,-5.38478125,-15.269828125,-2.02730078125,-7.624625,-6.2549375,-15.136875,-12.737515625,6.910921875,0.931976562499999,-7.85876171875
-9.84608203125,-7.3479296875,4.3739921875,-0.6079921875,-5.83405859375,-13.858328125,-10.11773828125,-6.51182421875,-19.36698828125,-12.13959765625,-16.5601640625,-14.18528125,-8.7674140625,-13.76919140625,-11.76923046875,0.364496093750001,3.3946796875,-4.30929296875,-7.85528124999999,-4.88908203125,-3.67178125,-16.510828125,-6.39930078125,-9.377625,-5.9539375,-14.144875,-12.818515625,5.592921875,0.5839765625,-7.26376171875
-12.90408203125,-12.2769296875,-2.8860078125,-2.2959921875,-7.69905859375,-16.688328125,-14.05773828125,-7.84782421875,-22.60598828125,-15.77559765625,-21.5951640625,-13.45928125,-12.7184140625,-20.72519140625,-16.74223046875,-0.97750390625,5.6196796875,-11.93429296875,-13.04928125,-7.97808203125,-2.90478125,-16.748828125,-10.70130078125,-11.319625,-6.5689375,-13.792875,-13.085515625,4.096921875,0.152976562499999,-7.25076171875
-14.54608203125,-16.0449296875,-9.3510078125,-3.5859921875,-9.44805859375,-18.391328125,-16.99773828125,-9.07182421875,-24.54098828125,-17.96259765625,-24.6421640625,-13.19428125,-16.6484140625,-25.56219140625,-19.49923046875,-1.52850390625,6.8016796875,-18.28029296875,-15.94828125,-10.92408203125,-3.06178125,-16.726828125,-13.43930078125,-12.421625,-7.7659375,-14.298875,-13.063515625,2.576921875,-0.1140234375,-7.74176171875
-13.55608203125,-17.0329296875,-12.7700078125,-3.8139921875,-9.70605859375,-17.563328125,-17.55273828125,-9.42382421875,-24.31398828125,-17.12759765625,-23.9981640625,-13.11128125,-19.1824140625,-26.46819140625,-18.43823046875,-0.677503906249999,6.9786796875,-21.52929296875,-15.14428125,-12.47808203125,-4.07678125,-17.042828125,-13.69130078125,-12.004625,-9.0749375,-15.484875,-12.484515625,1.179921875,-0.0660234375000002,-8.42776171875
-9.63708203125,-14.5399296875,-11.9400078125,-2.5799921875,-7.61305859375,-13.649328125,-15.13673828125,-8.42882421875,-21.68398828125,-12.72859765625,-19.2311640625,-12.83328125,-19.5414140625,-22.81719140625,-13.27623046875,1.68649609375,6.3456796875,-20.98829296875,-10.48928125,-11.91708203125,-5.72878125,-17.653828125,-11.42530078125,-9.996625,-9.9789375,-16.845875,-11.392515625,0.110921874999999,0.3479765625,-8.88676171875
-3.72908203125,-9.2109296875,-7.3030078125,-0.0469921874999999,-3.39305859375,-7.407328125,-10.31873828125,-6.20382421875,-17.25698828125,-5.75159765625,-11.5291640625,-12.13528125,-17.8214140625,-15.59419140625,-5.36923046875,5.06949609375,5.0376796875,-17.35129296875,-3.31528124999999,-9.38108203125,-7.64778125,-18.018828125,-7.57730078125,-7.071625,-10.1749375,-17.877875,-10.209515625,-0.492078125000001,0.973976562500001,-8.86476171875
2.21491796875,-2.8879296875,-0.840007812500001,3.0060078125,1.60094140625,-0.755328124999998,-4.68673828125,-3.47982421875,-12.37198828125,1.48340234375,-3.3541640625,-11.11828125,-14.8734140625,-7.18719140625,2.64476953125,8.48349609375,3.0926796875,-12.40629296875,3.94071875000001,-5.92008203125,-9.46478125,-17.596828125,-3.75730078125,-4.479625,-9.7949375,-18.360875,-9.633515625,-0.709078125000001,1.4339765625,-8.48476171875
6.12891796875,2.2010703125,4.9039921875,5.5760078125,5.55394140625,4.114671875,-0.107738281249997,-1.17782421875,-8.52398828125001,6.34740234375,2.6058359375,-10.05128125,-11.7144140625,-0.422191406250001,7.94676953125,10.86449609375,0.744679687500001,-8.15729296875,8.74571875,-3.00808203125,-10.87578125,-16.174828125,-1.52630078125,-3.448625,-9.2749375,-18.319875,-10.231515625,-0.749078125,1.3469765625,-8.12776171875
6.90391796875,4.5280703125,8.1189921875,7.0440078125,7.18894140625,5.874671875,2.22026171875,0.211175781250001,-6.60098828125,7.22340234375,4.6598359375,-9.03528125,-8.9214140625,2.69880859375,8.84576953125,11.59249609375,-1.3373203125,-5.84329296875,9.61871875000001,-1.77808203125,-11.57778125,-13.876828125,-1.61630078125,-4.480625,-8.9559375,-17.848875,-11.984515625,-0.714078125,0.655976562499999,-8.10076171875
4.89491796875,3.9280703125,8.4909921875,7.4780078125,6.42594140625,4.650671875,2.27726171875,0.884175781249999,-6.50898828125001,4.25240234375,2.7818359375,-7.91228125,-6.5634140625,1.76680859375,5.47176953125,10.71449609375,-2.2833203125,-5.51429296875,6.69471875000001,-2.53108203125,-11.30178125,-11.071828125,-3.64230078125,-7.111625,-8.8379375,-17.079875,-14.240515625,-0.522078125,-0.321023437499999,-8.47376171875
1.59891796875,1.4840703125,7.0709921875,7.4680078125,4.31294140625,1.770671875,0.99726171875,1.46017578125,-7.36698828125001,-0.865597656250003,-1.5891640625,-6.46628125,-4.6234140625,-2.08719140625,-0.44423046875,8.80749609375,-1.5963203125,-6.32029296875,1.47371875,-4.73508203125,-9.96778125,-8.273828125,-6.42730078125,-10.225625,-8.6699375,-16.248875,-16.074515625,-0.032078125,-1.1250234375,-9.13376171875
-1.09208203125,-1.1109296875,5.5289921875,7.7720078125,2.41394140625,-0.972328125000001,-0.344738281249999,2.51117578125,-8.01198828125001,-5.70659765625,-6.2961640625,-4.62228125,-3.2884140625,-6.78419140625,-6.39523046875,6.70249609375,0.518679687500001,-7.08629296875,-3.86028125,-7.31308203125,-7.75578125,-5.913828125,-8.55330078125,-12.567625,-8.1399375,-15.592875,-16.692515625,0.877921874999998,-1.3660234375,-9.82076171875
-1.65308203125,-2.3129296875,5.2949921875,9.0090078125,2.06694140625,-2.069328125,-0.74073828125,4.21917578125,-7.48998828125,-8.10459765625,-9.3451640625,-2.49028125,-2.7384140625,-10.09719140625,-10.06623046875,5.23849609375,3.3276796875,-6.79329296875,-7.20728124999999,-9.06308203125,-5.03678125,-4.063828125,-8.84730078125,-13.166625,-7.0269375,-15.135875,-15.654515625,2.334921875,-0.7910234375,-10.13176171875
0.481917968750004,-1.3439296875,6.8709921875,11.3910078125,3.78294140625,-0.869328124999999,0.161261718750001,6.23117578125,-5.45298828125,-7.00959765625,-9.6541640625,-0.413281250000001,-2.8214140625,-10.49819140625,-10.20323046875,4.95649609375,5.9386796875,-4.94629296875,-7.26528124999999,-9.13908203125,-2.30678125,-2.426828125,-6.77930078125,-11.657625,-5.3689375,-14.725875,-13.021515625,4.382921875,0.624976562500001,-9.71076171875
4.65791796875,1.5000703125,9.5819921875,14.5280078125,6.99694140625,2.174671875,1.97726171875,7.75817578125,-2.36298828125,-2.91059765625,-7.4341640625,1.00271875,-3.0264140625,-7.78119140625,-7.07923046875,5.82349609375,7.5826796875,-1.79029296875,-4.01828124999999,-7.46408203125,-0.185781249999998,-0.670828125,-2.72730078125,-8.459625,-3.5749375,-14.374875,-9.436515625,6.762921875,2.5159765625,-8.60376171875
9.29091796875,5.0530703125,11.9959921875,17.4930078125,10.35494140625,5.795671875,3.88826171875,7.97517578125,0.717011718749998,2.44740234375,-3.9391640625,1.11071875,-2.7324140625,-3.04319140625,-2.26423046875,7.28449609375,7.8326796875,1.81170703125,1.30471875000001,-4.71208203125,0.759218750000002,1.274171875,2.15969921875,-4.581625,-2.2629375,-14.484875,-5.920515625,8.879921875,4.1699765625,-7.38976171875
12.63391796875,7.8850703125,12.7859921875,19.2190078125,12.39694140625,8.605671875,5.17526171875,6.56517578125,2.69301171875,6.93940234375,-0.722164062500003,-0.31128125,-1.5244140625,1.98180859375,2.20576953125,8.66449609375,6.8116796875,4.86270703125,6.83771875000001,-1.86108203125,0.33021875,3.193171875,6.47569921875,-1.124625,-1.8489375,-15.670875,-3.399515625,10.070921875,4.8719765625,-6.85276171875
13.48891796875,8.9110703125,11.4039921875,18.9310078125,12.18094140625,9.680671875,5.53526171875,3.93417578125,2.94701171874999,8.95040234375,1.0748359375,-2.81428125,0.514585937500001,5.68380859375,4.67876953125,9.51249609375,5.1416796875,6.63370703125,10.78771875,0.259917968750003,-1.15378125,4.672171875,9.06769921875,1.123375,-2.3159375,-18.358875,-2.351515625,9.891921875,4.2259765625,-7.51376171875
11.47191796875,7.6700703125,8.1299921875,16.3290078125,9.50694140625,8.680671875,4.98026171875,0.898175781249998,1.40901171875,7.77240234375,0.9628359375,-5.57628125,2.6395859375,6.96580859375,4.28876953125,9.60249609375,3.5366796875,6.72570703125,11.86771875,1.07691796875,-3.12478125,5.090171875,9.20469921875,1.684375,-3.3769375,-22.467875,-2.859515625,8.156921875,2.1799765625,-9.43176171875
6.97391796875,4.3130703125,3.7189921875,11.6080078125,4.81694140625,5.714671875,3.56226171875,-1.82482421875,-1.65298828125,3.59540234375,-1.0021640625,-7.91728125,3.6805859375,5.34180859375,0.977769531250001,8.78649609375,2.3206796875,4.97670703125,9.49571875,0.213917968750003,-5.13978125,3.737171875,6.59969921875,0.278375,-4.7789375,-27.236875,-4.811515625,4.897921875,-1.0780234375,-12.25776171875
1.02991796875,-0.475929687499999,-0.959007812500001,5.4690078125,-0.991058593749999,1.254671875,1.29226171875,-3.88982421875,-5.79798828125,-2.64859765625,-4.3691640625,-9.55428125,2.7125859375,1.00980859375,-4.58323046875,7.02049609375,1.2996796875,1.50570703125,3.95571875000001,-2.43508203125,-6.98778125,0.238171874999999,1.49969921875,-3.109625,-6.3939375,-31.242875,-7.938515625,0.463921874999999,-5.1070234375,-15.32776171875
-4.97708203125,-5.6969296875,-5.1870078125,-0.9789921875,-6.83305859375,-3.954328125,-1.78773828125,-5.33882421875,-10.48498828125,-9.59859765625,-8.4901640625,-10.58628125,-0.3674140625,-5.20519140625,-11.21223046875,4.45949609375,-0.0133203124999994,-3.21929296875,-3.64328124999999,-6.58308203125,-8.61178125,-5.009828125,-5.25530078125,-8.091625,-8.1709375,-32.842875,-11.774515625,-4.409078125,-9.2070234375,-17.83976171875
-9.86208203125,-10.4279296875,-8.6610078125,-6.6019921875,-11.83805859375,-9.194328125,-5.59973828125,-6.51682421875,-15.22198828125,-15.98759765625,-12.8231640625,-11.41828125,-4.8554140625,-12.18819140625,-17.64323046875,1.39649609375,-2.0373203125,-8.53529296875,-11.77128125,-11.64208203125,-10.07478125,-10.895828125,-12.46730078125,-13.952625,-10.1699375,-31.016875,-15.784515625,-8.825078125,-12.6380234375,-19.21776171875
-13.09808203125,-14.1779296875,-11.5530078125,-10.6579921875,-15.64605859375,-14.051328125,-10.03473828125,-7.89282421875,-19.69698828125,-21.06859765625,-17.1531640625,-12.60528125,-9.6974140625,-18.92519140625,-22.94423046875,-1.88450390625,-4.7713203125,-13.77929296875,-19.00028125,-16.91308203125,-11.53578125,-16.125828125,-18.95630078125,-19.849625,-12.5439375,-26.031875,-19.548515625,-12.087078125,-14.9120234375,-19.39976171875
-14.77008203125,-16.8479296875,-14.1460078125,-12.8829921875,-18.31205859375,-18.329328125,-14.77973828125,-9.67082421875,-23.63998828125,-24.56859765625,-21.4131640625,-14.44828125,-13.8684140625,-24.57819140625,-26.56323046875,-5.06050390625,-7.5363203125,-18.28129296875,-24.25628125,-21.63508203125,-13.04778125,-19.766828125,-23.73830078125,-24.889625,-15.2769375,-19.354875,-22.732515625,-13.827078125,-15.8600234375,-18.77376171875
-15.18908203125,-18.4199296875,-16.3240078125,-13.2589921875,-19.91705859375,-21.716328125,-19.12573828125,-11.45382421875,-26.56398828125,-26.32659765625,-25.2891640625,-16.61028125,-16.5114140625,-28.36119140625,-28.13923046875,-7.63950390625,-9.1283203125,-21.25629296875,-26.81528125,-24.94508203125,-14.31678125,-21.526828125,-26.06130078125,-28.148625,-17.8899375,-12.909875,-24.948515625,-13.943078125,-15.5190234375,-17.83676171875
-14.62708203125,-18.7659296875,-17.4600078125,-11.8499921875,-20.31405859375,-23.678328125,-22.11373828125,-12.37882421875,-27.75498828125,-26.14059765625,-28.0981640625,-18.21828125,-17.0854140625,-29.61619140625,-27.46923046875,-9.07550390625,-8.5183203125,-22.00529296875,-26.37528125,-26.08008203125,-14.81778125,-21.783828125,-25.57230078125,-28.924625,-19.5589375,-8.284875,-25.837515625,-12.638078125,-14.1290234375,-17.00376171875
-13.34108203125,-17.7609296875,-16.8340078125,-8.8599921875,-19.21705859375,-23.743328125,-23.01273828125,-11.69182421875,-26.61298828125,-23.95359765625,-29.0961640625,-18.44428125,-15.5864140625,-28.11319140625,-24.71223046875,-9.13650390625,-5.6393203125,-20.33529296875,-23.22728125,-24.77608203125,-14.20078125,-21.358828125,-22.56830078125,-27.135625,-19.6059375,-6.285875,-25.319515625,-10.531078125,-12.2280234375,-16.60176171875
-11.56508203125,-15.4319296875,-14.1190078125,-4.6999921875,-16.43805859375,-21.790328125,-21.68573828125,-9.25782421875,-22.97598828125,-20.02659765625,-27.8701640625,-17.01828125,-12.5734140625,-24.15819140625,-20.45923046875,-8.09750390625,-1.5463203125,-16.72229296875,-18.18228125,-21.43808203125,-12.57078125,-20.967828125,-17.93230078125,-23.387625,-17.8889375,-6.782875,-23.648515625,-8.493078125,-10.4710234375,-16.76676171875
-9.36808203125,-11.9609296875,-9.5590078125,0.0790078125000004,-12.02705859375,-18.089328125,-18.56273828125,-5.63182421875,-17.20098828125,-14.87959765625,-24.4971640625,-14.31628125,-8.9054140625,-18.37619140625,-15.51823046875,-6.53450390625,2.2046796875,-12.01529296875,-12.21028125,-16.91208203125,-10.37378125,-20.625828125,-12.70130078125,-18.626625,-14.7799375,-8.833875,-21.173515625,-7.168078125,-9.1810234375,-17.19776171875
-6.62408203125,-7.6339296875,-3.8860078125,4.8490078125,-6.35705859375,-13.197328125,-14.36673828125,-1.78882421875,-10.09198828125,-9.17259765625,-19.5311640625,-11.14828125,-5.4514140625,-11.50319140625,-10.66023046875,-4.99450390625,4.3416796875,-7.05529296875,-6.12928124999999,-12.13808203125,-8.12178125,-19.596828125,-7.66830078125,-13.762625,-10.9599375,-11.168875,-18.165515625,-6.660078125,-8.1110234375,-17.15776171875
-3.24108203125,-2.8739296875,1.8899921875,8.8960078125,-0.171058593749999,-7.873328125,-9.88273828125,1.25217578125,-2.81598828125,-3.66659765625,-13.9031640625,-8.46128125,-2.9514140625,-4.40519140625,-6.54823046875,-3.81150390625,4.3366796875,-2.55929296875,-0.628281249999993,-7.97708203125,-6.21578125,-17.007828125,-3.37430078125,-9.564625,-7.2609375,-12.886875,-14.937515625,-6.701078125,-6.7410234375,-15.94576171875
0.620917968750003,1.7490703125,6.7929921875,11.5090078125,5.53494140625,-2.913328125,-5.74973828125,2.84017578125,3.28101171875,0.879402343749998,-8.6631640625,-6.93428125,-1.8914140625,1.88580859375,-3.70123046875,-3.04750390625,2.5196796875,0.846707031250002,3.61871875000001,-5.10808203125,-4.82978125,-12.611828125,-0.281300781249996,-6.678625,-4.5079375,-13.877875,-12.029515625,-7.073078125,-4.8080234375,-13.47476171875
4.54191796875,5.6260703125,10.2189921875,12.2340078125,9.79894140625,1.101671875,-2.29273828125,3.01317578125,7.01701171875,3.92740234375,-4.6031640625,-6.59828125,-2.3224140625,6.31880859375,-2.38223046875,-2.51750390625,-0.0753203124999997,2.65570703125,5.99871875000001,-3.91008203125,-3.86478125,-7.089828125,1.16369921875,-5.555625,-3.2979375,-14.646875,-10.171515625,-7.842078125,-2.6070234375,-10.46276171875
7.90291796875,8.2010703125,11.9999921875,11.0430078125,11.91894140625,3.876671875,0.44526171875,2.44917578125,7.66301171875,5.25440234375,-2.0641640625,-6.85728125,-3.8354140625,8.03080859375,-2.55823046875,-1.99350390625,-2.2073203125,2.51270703125,6.07971875,-4.44808203125,-3.14378125,-1.855828125,0.579699218750001,-6.381625,-3.8919375,-15.792875,-10.073515625,-9.335078125,-0.9090234375,-8.16576171875
9.91991796875,8.9650703125,12.1419921875,8.2540078125,11.49494140625,5.203671875,2.40626171875,1.96917578125,5.02501171875,4.81040234375,-1.0881640625,-7.01328125,-5.8164140625,6.46280859375,-4.03923046875,-1.55550390625,-3.1233203125,0.21170703125,3.69771875,-6.62008203125,-2.77978125,1.445171875,-2.24930078125,-9.108625,-6.3039375,-17.562875,-12.176515625,-11.937078125,-0.597023437500001,-7.82876171875
9.83491796875,7.5240703125,10.5999921875,4.4020078125,8.44794140625,4.807671875,3.28526171875,2.02217578125,-0.516988281250004,2.61840234375,-1.6201640625,-6.77428125,-7.6884140625,1.55580859375,-6.57623046875,-1.68150390625,-2.9223203125,-4.17929296875,-0.927281249999997,-10.20308203125,-3.26478125,1.638171875,-7.16430078125,-13.391625,-10.3039375,-19.663875,-16.353515625,-15.706078125,-2.1000234375,-10.02376171875
7.36591796875,3.8790703125,7.4049921875,0.2450078125,3.19294140625,2.550671875,2.69526171875,2.55917578125,-7.88698828125001,-1.04659765625,-3.4661640625,-6.26128125,-8.9114140625,-5.91819140625,-9.72723046875,-2.84350390625,-2.2573203125,-10.02829296875,-6.97428124999999,-14.64108203125,-5.02778125,-1.311828125,-13.34830078125,-18.391625,-15.2169375,-21.318875,-21.606515625,-19.981078125,-4.8670234375,-14.11476171875
3.03591796875,-1.3259296875,2.9389921875,-3.2459921875,-3.25405859375,-1.246328125,0.548261718750002,3.24417578125,-15.35598828125,-5.46959765625,-6.1301640625,-5.68628125,-8.9584140625,-14.27519140625,-12.74123046875,-4.96750390625,-1.7593203125,-16.03729296875,-13.03428125,-18.88708203125,-7.86778125,-6.148828125,-19.33130078125,-22.752625,-19.8219375,-21.648875,-26.165515625,-23.391078125,-7.3780234375,-18.29376171875
-1.99508203125,-6.9059296875,-2.0170078125,-5.1679921875,-9.50105859375,-5.786328125,-2.74373828125,3.67017578125,-21.01898828125,-9.65859765625,-8.8691640625,-5.16428125,-7.5684140625,-21.41819140625,-14.78523046875,-7.31650390625,-1.7523203125,-20.66229296875,-17.58228125,-21.66708203125,-10.86578125,-11.008828125,-23.53230078125,-25.079625,-22.7149375,-20.282875,-28.211515625,-24.529078125,-7.9240234375,-20.40976171875
-6.40708203125,-11.5229296875,-6.4590078125,-5.0479921875,-14.22105859375,-10.048328125,-6.34173828125,3.53317578125,-23.48398828125,-12.73359765625,-10.9461640625,-4.72228125,-5.0254140625,-25.64819140625,-15.34723046875,-8.80750390625,-2.3343203125,-22.78029296875,-19.62028125,-22.01108203125,-12.78678125,-14.420828125,-24.98430078125,-24.595625,-22.9139375,-17.734875,-26.788515625,-22.808078125,-5.6360234375,-19.11976171875
-9.04608203125,-14.0189296875,-9.2730078125,-2.8949921875,-16.42605859375,-12.969328125,-9.12273828125,2.91217578125,-22.25298828125,-14.08159765625,-11.7471640625,-4.23428125,-2.0394140625,-26.13119140625,-14.34023046875,-8.41050390625,-3.4103203125,-22.03429296875,-18.92528125,-19.57208203125,-12.55078125,-15.825828125,-23.62530078125,-21.411625,-20.1749375,-15.108875,-22.184515625,-18.755078125,-0.9290234375,-14.51676171875
-9.03008203125,-13.5779296875,-9.3580078125,1.0370078125,-15.50605859375,-13.537328125,-9.89173828125,2.49817578125,-17.63298828125,-13.23859765625,-10.7621640625,-3.30228125,0.7165859375,-22.85719140625,-11.88523046875,-5.42950390625,-4.5773203125,-18.73729296875,-15.83928125,-14.61008203125,-9.56078125,-15.368828125,-20.05130078125,-16.268625,-14.9179375,-13.360875,-15.596515625,-13.592078125,4.8639765625,-7.94776171875
-5.97508203125,-9.9529296875,-6.0120078125,6.3590078125,-11.33005859375,-11.100328125,-7.83573828125,3.35917578125,-10.52698828125,-9.92459765625,-7.7071640625,-1.44728125,2.8745859375,-16.48219140625,-8.15823046875,0.16349609375,-5.1853203125,-13.64729296875,-11.02128125,-7.90008203125,-4.03478125,-13.465828125,-15.15130078125,-10.197625,-8.0819375,-12.763875,-8.561515625,-8.627078125,10.1689765625,-1.34076171875
-0.364082031249996,-3.7599296875,0.479992187499999,12.3820078125,-4.53205859375,-5.888328125,-3.09973828125,6.25417578125,-2.31198828125,-4.36359765625,-2.8681640625,1.42171875,4.2765859375,-8.24219140625,-3.52323046875,7.41549609375,-4.7133203125,-7.81429296875,-5.37528125,-0.712082031249999,2.76221875,-10.579828125,-9.90130078125,-4.334625,-1.0519375,-12.906875,-2.48551562500001,-4.861078125,13.7209765625,3.53323828125
6.34791796875,3.4580703125,8.5829921875,17.9950078125,3.32594140625,0.737671875,2.99426171875,11.01617578125,5.33601171875,2.44840234375,2.7198359375,4.74271875,4.8615859375,0.235808593750001,1.31376953125,14.48049609375,-3.1133203125,-2.31329296875,0.0387187500000046,5.40491796875,8.75721875,-7.167828125,-5.18130078125,0.265375000000002,4.5920625,-12.967875,1.713484375,-2.781078125,14.9459765625,5.70323828125
12.13191796875,9.6400703125,15.9119921875,21.8520078125,10.01694140625,6.660671875,8.38926171875,16.50117578125,10.81201171875,8.88040234375,7.5178359375,7.51671875,4.7585859375,7.34580859375,5.38176953125,19.24449609375,-0.821320312499999,2.13470703125,4.26671875000001,9.09891796875,11.88421875,-3.666828125,-1.54030078125,2.941375,7.6170625,-12.062875,3.876484375,-2.247078125,14.1669765625,5.37623828125
15.03991796875,12.8720703125,20.0529921875,22.7640078125,13.29794140625,9.757671875,11.08926171875,21.00517578125,12.96501171875,13.11240234375,9.9878359375,8.74671875,4.3275859375,11.83980859375,7.66476953125,20.10849609375,1.4686796875,5.31070703125,6.69071875,9.63891796875,10.97621875,-0.558828125000002,0.869699218750004,3.579375,7.5680625,-9.666875,4.537484375,-2.636078125,12.4109765625,3.71123828125
13.80891796875,11.9860703125,19.3789921875,20.0630078125,11.68294140625,8.641671875,9.86726171875,22.85917578125,11.30601171875,13.67940234375,9.0738359375,7.77571875,3.9465859375,12.95180859375,7.33976953125,16.50849609375,3.0266796875,7.24770703125,7.04171875000001,7.01991796875,6.20821875,1.531171875,2.09369921875,2.488375,4.8170625,-6.020875,4.46648437499999,-3.261078125,10.7979765625,2.04923828125
8.34291796875,6.9540703125,13.6629921875,13.9300078125,5.11294140625,3.211671875,4.69526171875,21.04417578125,6.13401171875,10.04840234375,4.5978359375,4.52171875,3.7855859375,10.47780859375,4.09776953125,9.10249609375,3.3186796875,7.88770703125,5.36571875000001,1.88191796875,-0.997781249999999,1.976171875,2.17269921875,0.187375000000003,0.3470625,-2.108875,4.21648437499999,-3.731078125,9.9809765625,1.19023828125
-0.0170820312499984,-0.962929687500001,4.3159921875,5.6080078125,-4.69005859375,-5.109328125,-3.12773828125,15.69617578125,-1.33998828125,3.08640234375,-2.4781640625,-0.33728125,3.8415859375,4.99180859375,-1.49723046875,-0.31750390625,2.2776796875,7.02970703125,2.09671875,-4.57408203125,-8.42178125,0.587171874999999,1.18469921875,-2.647625,-4.4899375,0.866125,4.040484375,-3.931078125,10.0339765625,1.24123828125
-8.77308203125,-9.5039296875,-5.9930078125,-2.7629921875,-14.56505859375,-13.723328125,-11.33673828125,8.17617578125,-9.08598828125,-5.01559765625,-10.2161640625,-5.49428125,4.0935859375,-2.10119140625,-7.98623046875,-9.29150390625,0.4166796875,4.50570703125,-1.93728124999999,-10.79908203125,-13.75778125,-2.094828125,-0.630300781249996,-5.237625,-8.2759375,2.020125,4.047484375,-3.837078125,10.7129765625,1.90123828125
-15.19808203125,-16.1969296875,-14.3700078125,-8.8569921875,-21.01305859375,-19.849328125,-17.55873828125,0.550175781249999,-14.80898828125,-11.53459765625,-16.3971640625,-9.56128125,4.4995859375,-8.93219140625,-13.52523046875,-15.54450390625,-1.4173203125,0.349707031250002,-5.76828124999999,-15.34408203125,-15.47778125,-5.066828125,-2.92030078125,-6.932625,-10.0109375,0.932124999999999,4.285484375,-3.475078125,11.6699765625,2.74323828125
-17.41008203125,-19.2439296875,-18.7800078125,-11.0339921875,-21.58105859375,-21.624328125,-20.22673828125,-5.21482421875,-16.73398828125,-14.29359765625,-19.3791640625,-11.66828125,4.9065859375,-13.75919140625,-16.61823046875,-17.78550390625,-2.4383203125,-5.03129296875,-8.60528124999999,-17.33308203125,-13.41578125,-7.509828125,-5.31330078125,-7.462625,-9.4769375,-2.391875,4.723484375,-2.991078125,12.5589765625,3.36723828125
-14.90508203125,-17.9899296875,-18.5440078125,-8.8389921875,-15.76805859375,-18.620328125,-18.96773828125,-7.79882421875,-14.15998828125,-12.34859765625,-18.5541640625,-11.63728125,5.1245859375,-15.37119140625,-16.54723046875,-15.98050390625,-2.1483203125,-10.64429296875,-9.90728125,-16.59608203125,-8.69578125,-9.192828125,-7.35830078125,-6.893625,-7.1849375,-7.356875,5.306484375,-2.602078125,13.1499765625,3.56723828125
-8.46408203125,-12.8609296875,-14.1550078125,-2.9989921875,-5.09905859375,-11.677328125,-14.39073828125,-6.70782421875,-7.60398828125,-6.09859765625,-14.2771640625,-9.74528125,5.0745859375,-13.24719140625,-13.37823046875,-11.06650390625,-0.361320312499999,-14.88829296875,-9.30128125,-13.49508203125,-3.11078125,-10.376828125,-8.41230078125,-5.403625,-3.9639375,-12.627875,6.04248437499999,-2.422078125,13.4149765625,3.44023828125
0.204917968750003,-5.0979296875,-6.8950078125,4.8410078125,7.46494140625,-2.459328125,-7.62873828125,-2.29782421875,1.33201171875,2.95540234375,-7.5571640625,-6.46428125,4.8245859375,-7.69019140625,-7.82623046875,-4.45950390625,2.7356796875,-16.08229296875,-6.61328125,-8.72908203125,1.64121875,-11.368828125,-7.77130078125,-3.171625,-0.587937499999999,-16.478875,6.945484375,-2.401078125,13.4499765625,3.25223828125
8.89891796875,3.5340703125,1.4879921875,12.5250078125,18.50694140625,6.993671875,0.00626171875000026,4.26817578125,10.33601171875,12.61840234375,0.258835937499999,-2.33628125,4.5185859375,0.126808593749999,-1.08223046875,2.41949609375,6.5076796875,-13.28129296875,-2.04628125,-3.18708203125,4.54421875,-12.033828125,-5.01230078125,-0.415624999999999,2.4330625,-17.594875,7.945484375,-2.359078125,13.3279765625,3.18323828125
15.48291796875,11.0850703125,9.1029921875,18.0040078125,25.24794140625,14.708671875,7.22926171875,11.27817578125,17.05101171875,20.61540234375,7.7808359375,2.13371875,4.4115859375,8.44180859375,5.48376953125,8.53249609375,10.0026796875,-6.79729296875,3.77571875000001,2.26291796875,5.56121875,-11.535828125,-0.217300781249996,2.626375,4.9570625,-15.685875,8.989484375,-1.970078125,13.1439765625,3.28823828125
18.47491796875,15.8480703125,14.2829921875,19.9820078125,26.39194140625,19.187671875,12.85326171875,16.91817578125,19.89101171875,25.23140234375,13.7978359375,6.51071875,4.8805859375,15.46480859375,10.65676953125,13.35549609375,12.2286796875,1.91570703125,9.93371875,6.96791796875,5.47321875,-8.635828125,6.02869921875,5.773375,7.1680625,-11.486875,10.195484375,-0.801078125,13.1499765625,3.64123828125
17.31691796875,16.7020703125,15.8529921875,18.2290078125,22.31694140625,19.574671875,15.74926171875,19.66617578125,18.51201171875,25.63440234375,17.2808359375,10.24971875,6.1505859375,19.83780859375,13.51876953125,16.61549609375,12.3446796875,10.76770703125,15.33371875,10.43191796875,5.19921875,-2.651828125,12.69669921875,8.792375,9.2320625,-6.368875,11.725484375,1.387921875,13.6239765625,4.32423828125
12.32891796875,13.3420703125,13.3169921875,13.4240078125,14.65194140625,15.678671875,14.92326171875,18.57717578125,13.74901171875,21.88740234375,17.3608359375,12.46171875,7.9285859375,20.84780859375,13.45776953125,17.87949609375,9.7816796875,17.69170703125,18.81771875,12.10491796875,5.06221875,5.559171875,18.42069921875,11.194375,10.8800625,-1.919875,13.429484375,4.239921875,14.4989765625,5.17323828125
4.64791796875,6.4890703125,7.1299921875,6.8480078125,5.65794140625,8.131671875,9.98126171875,13.61117578125,7.24401171875,14.92840234375,13.6218359375,12.12571875,9.4815859375,18.59180859375,10.32976953125,16.56149609375,4.5456796875,21.30570703125,19.49171875,11.42791796875,4.65421875,13.602171875,21.86269921875,12.306375,11.4000625,0.492124999999998,14.711484375,6.807921875,15.2209765625,5.67323828125
-3.81808203125,-2.0189296875,-1.0840078125,0.1600078125,-2.25805859375,-1.358328125,1.78726171875,5.93017578125,1.02101171875,6.57740234375,6.6348359375,8.76471875,10.1975859375,14.07780859375,4.77776953125,12.39749609375,-2.4313203125,21.34870703125,17.20371875,8.21891796875,3.37121875,18.760171875,22.24469921875,11.668375,10.1160625,0.213124999999998,14.856484375,8.092921875,15.0669765625,5.23723828125
-10.77108203125,-9.6309296875,-8.8370078125,-4.9399921875,-7.02005859375,-10.199328125,-7.36973828125,-2.25382421875,-3.05198828125,-0.823597656250001,-1.8581640625,2.96371875,10.0035859375,8.92580859375,-1.77423046875,5.88249609375,-9.4553203125,18.51970703125,12.67571875,2.94991796875,0.959218750000002,19.446171875,19.60069921875,9.319375,6.8550625,-2.398875,13.429484375,7.587921875,13.6049765625,3.59423828125
-14.37408203125,-14.0509296875,-13.7320078125,-7.2279921875,-7.47105859375,-15.797328125,-14.53373828125,-8.46482421875,-3.92298828125,-5.28359765625,-9.4991640625,-3.76628125,9.1945859375,4.58280859375,-7.68323046875,-1.80850390625,-14.8743203125,13.77270703125,7.05671875,-3.43308203125,-2.41278125,15.822171875,14.51069921875,5.650375,2.0030625,-6.150875,10.388484375,5.386921875,10.8699765625,0.94023828125
-14.01008203125,-14.2149296875,-14.4850078125,-6.3959921875,-3.79405859375,-16.624328125,-17.33773828125,-10.94482421875,-1.78398828125,-6.03059765625,-14.2901640625,-9.61628125,8.0425859375,1.63280859375,-11.80723046875,-9.26050390625,-17.8363203125,7.73370703125,1.31871875000001,-9.89608203125,-6.36378125,9.373171875,7.71669921875,1.112375,-3.7039375,-9.556875,6.023484375,1.951921875,7.3029765625,-2.14276171875
-10.41308203125,-10.6279296875,-11.3420078125,-3.0309921875,2.57694140625,-12.774328125,-14.96173828125,-9.22482421875,2.09501171875,-3.74859765625,-15.3131640625,-13.13228125,6.6615859375,-0.278191406250002,-13.82823046875,-15.20850390625,-18.3493203125,0.709707031250002,-3.97728124999999,-15.51908203125,-10.39078125,2.036171875,0.00269921875000279,-3.859625,-9.3289375,-11.454875,0.935484374999998,-2.094078125,3.6159765625,-4.84776171875
-5.23008203125,-5.0099296875,-5.8220078125,1.7110078125,9.45594140625,-5.843328125,-8.40373828125,-4.12882421875,5.95001171874999,-0.164597656250002,-12.9661640625,-13.69228125,5.1255859375,-1.99619140625,-14.13123046875,-18.81650390625,-16.8663203125,-6.95429296875,-8.58028125,-19.55408203125,-13.88278125,-4.598828125,-7.74130078125,-8.771625,-13.8799375,-11.495875,-4.042515625,-6.125078125,0.5679765625,-6.43676171875
-0.451082031249996,0.389070312499999,-0.155007812500001,6.4310078125,14.51494140625,1.596671875,-0.131738281249998,2.56017578125,8.10101171874999,2.61040234375,-8.7601640625,-11.76528125,3.4935859375,-4.39419140625,-13.52023046875,-19.89550390625,-14.0053203125,-14.69829296875,-12.41128125,-21.53708203125,-16.27578125,-9.751828125,-14.61730078125,-13.111625,-16.5949375,-10.320875,-8.149515625,-9.731078125,-1.4010234375,-6.64076171875
2.16591796875,3.5120703125,3.4199921875,9.7650078125,15.84494140625,6.798671875,6.77326171875,8.68917578125,7.38101171875,2.79440234375,-4.7381640625,-8.71528125,1.7895859375,-7.99219140625,-12.87523046875,-18.92650390625,-10.5063203125,-21.77429296875,-15.46228125,-21.41308203125,-17.26178125,-13.421828125,-19.89130078125,-16.455625,-17.1929375,-9.216875,-10.993515625,-12.800078125,-2.3620234375,-5.82576171875
1.68591796875,3.1690703125,3.4589921875,10.7460078125,12.51394140625,7.816671875,9.80726171875,12.50317578125,3.48301171875,-0.381597656250001,-2.6131640625,-6.06328125,0.130585937500001,-12.62919140625,-12.73123046875,-16.73750390625,-7.1093203125,-27.22129296875,-17.59728125,-19.47308203125,-16.78278125,-15.894828125,-22.99730078125,-18.423625,-15.8349375,-9.290875,-12.533515625,-15.292078125,-2.6730234375,-4.66576171875
-1.64408203125,-0.550929687500002,-0.125007812500002,9.1600078125,4.92794140625,4.256671875,8.03826171875,13.27017578125,-2.84298828125,-6.32159765625,-3.0591640625,-4.67428125,-1.1124140625,-17.34519140625,-13.03523046875,-14.11650390625,-4.2673203125,-29.90429296875,-18.44028125,-16.21508203125,-14.90678125,-17.225828125,-23.45930078125,-18.640625,-12.9209375,-10.752875,-12.857515625,-16.934078125,-2.5890234375,-3.64676171875
-6.61608203125,-6.4279296875,-6.1400078125,5.5760078125,-5.24805859375,-2.677328125,2.32226171875,11.37417578125,-10.01598828125,-13.36359765625,-5.6321640625,-4.50428125,-1.4604140625,-20.79019140625,-13.34923046875,-11.72750390625,-2.0243203125,-28.91429296875,-17.61528125,-12.38508203125,-11.89978125,-17.176828125,-21.07630078125,-16.962625,-9.0679375,-12.901875,-12.124515625,-17.273078125,-2.1690234375,-2.93476171875
-11.75008203125,-12.7319296875,-12.7840078125,1.0300078125,-15.66505859375,-10.853328125,-5.29373828125,7.89217578125,-16.23298828125,-19.60559765625,-9.3011640625,-4.99228125,-0.714414062500001,-21.96919140625,-13.35923046875,-10.26950390625,-0.1893203125,-24.23729296875,-15.20028125,-9.07508203125,-8.43178125,-15.564828125,-16.29730078125,-13.825625,-5.2179375,-14.709875,-10.699515625,-16.086078125,-1.5110234375,-2.61176171875
-15.90608203125,-17.9119296875,-18.3810078125,-3.3569921875,-23.99505859375,-18.064328125,-12.50973828125,4.08717578125,-20.10598828125,-23.65859765625,-13.0511640625,-5.54828125,0.8305859375,-20.77719140625,-13.17123046875,-10.46450390625,1.4366796875,-17.11729296875,-11.95928125,-7.54308203125,-5.56678125,-12.542828125,-10.39230078125,-10.301625,-2.5369375,-15.402875,-9.187515625,-13.689078125,-0.9130234375,-2.86976171875
-18.54408203125,-21.0259296875,-21.8160078125,-6.6489921875,-28.53805859375,-22.667328125,-17.55473828125,1.04417578125,-21.03398828125,-24.99059765625,-16.1961640625,-5.80728125,2.5205859375,-18.00219140625,-13.21423046875,-12.74750390625,2.9256796875,-9.75829296875,-9.11128124999999,-8.69908203125,-4.42078125,-8.602828125,-5.16330078125,-7.721625,-2.0309375,-14.706875,-8.270515625,-10.908078125,-0.7880234375,-3.91576171875
-19.74208203125,-21.9039296875,-22.7380078125,-8.3379921875,-28.64405859375,-23.986328125,-19.65373828125,-0.584824218750001,-19.32098828125,-23.93659765625,-18.4641640625,-5.68928125,3.6295859375,-14.98119140625,-13.96223046875,-16.93750390625,4.1136796875,-4.56229296875,-7.88428124999999,-12.65208203125,-5.72878125,-4.539828125,-2.39730078125,-7.179625,-4.1699375,-12.870875,-8.540515625,-8.834078125,-1.4980234375,-5.79976171875
-20.09308203125,-21.1039296875,-21.5580078125,-8.5109921875,-24.89705859375,-22.445328125,-19.14573828125,-0.747824218750001,-16.05798828125,-21.49559765625,-19.9341640625,-5.35128125,3.6325859375,-13.10019140625,-15.69223046875,-22.16050390625,4.5756796875,-3.23429296875,-9.06728124999999,-18.59108203125,-9.52678125,-1.421828125,-3.26830078125,-9.169625,-8.7439375,-10.570875,-10.408515625,-8.486078125,-3.2490234375,-8.32976171875
-20.36608203125,-19.5999296875,-19.1820078125,-7.7699921875,-18.90705859375,-19.294328125,-17.13473828125,0.0971757812499998,-12.67098828125,-18.89059765625,-20.8161640625,-4.97928125,2.4835859375,-13.21319140625,-18.26023046875,-26.96250390625,3.8976796875,-6.06229296875,-12.61528125,-24.94208203125,-14.97378125,-0.283828124999999,-7.81330078125,-13.329625,-14.8379375,-8.557875,-13.887515625,-10.351078125,-5.9240234375,-11.01976171875
-21.04808203125,-18.3019296875,-16.5580078125,-6.8859921875,-12.73905859375,-15.999328125,-14.86073828125,1.30017578125,-10.30598828125,-17.04559765625,-21.1831640625,-4.53228125,0.729585937500001,-15.18519140625,-20.99623046875,-29.64650390625,2.1206796875,-11.71929296875,-17.46628125,-29.74808203125,-20.44578125,-1.532828125,-14.72530078125,-18.384625,-20.9479375,-7.182875,-18.335515625,-13.981078125,-8.9280234375,-13.10876171875
-22.13908203125,-17.7219296875,-14.3920078125,-6.4699921875,-8.29105859375,-13.734328125,-13.21273828125,2.27117578125,-9.42798828125,-16.33759765625,-20.9481640625,-3.81128125,-0.811414062499999,-17.97819140625,-22.94123046875,-28.91350390625,-0.1413203125,-17.84429296875,-21.89128125,-31.32708203125,-24.08578125,-4.571828125,-21.77230078125,-22.557625,-25.3969375,-6.244875,-22.536515625,-18.098078125,-11.3370234375,-13.84376171875
-23.31608203125,-17.9379296875,-13.1590078125,-6.8429921875,-6.83205859375,-13.185328125,-12.63373828125,2.49117578125,-9.87398828125,-16.75259765625,-20.1231640625,-2.85828125,-1.6644140625,-20.28519140625,-23.40923046875,-24.61050390625,-2.1503203125,-22.18229296875,-24.31628125,-29.06408203125,-24.68978125,-8.072828125,-26.75530078125,-24.386625,-27.0179375,-5.378875,-25.229515625,-21.272078125,-12.4100234375,-12.95976171875
-24.12108203125,-18.6689296875,-13.1280078125,-7.9379921875,-8.62105859375,-14.441328125,-13.15973828125,1.53817578125,-11.07298828125,-18.04059765625,-18.9871640625,-2.19028125,-1.9864140625,-21.16419140625,-22.36423046875,-18.00050390625,-3.6173203125,-23.48129296875,-24.02728125,-23.75008203125,-22.27278125,-10.651828125,-28.35930078125,-23.380625,-25.6319375,-4.552875,-25.669515625,-22.631078125,-12.0010234375,-10.89176171875
-23.95208203125,-19.2829296875,-14.1720078125,-9.1369921875,-12.65005859375,-16.804328125,-14.35973828125,-0.67482421875,-12.17998828125,-19.62259765625,-17.8501640625,-2.46828125,-2.1834140625,-20.20619140625,-20.26423046875,-11.21450390625,-4.8433203125,-21.64629296875,-21.25328125,-17.16108203125,-17.92178125,-11.401828125,-26.37530078125,-20.015625,-21.9619375,-4.168875,-23.757515625,-22.055078125,-10.4790234375,-8.45476171875
-22.08208203125,-18.8869296875,-15.6260078125,-9.3359921875,-16.80605859375,-18.797328125,-15.30473828125,-3.68982421875,-12.20098828125,-20.49659765625,-16.6891640625,-3.94328125,-2.3544140625,-17.40119140625,-17.63023046875,-6.26950390625,-6.4433203125,-17.37029296875,-16.78728125,-11.19608203125,-13.16878125,-10.142828125,-21.44830078125,-15.293625,-17.1899375,-4.767875,-19.866515625,-19.924078125,-8.3390234375,-6.32776171875
-18.03108203125,-16.7149296875,-16.5520078125,-7.4939921875,-18.68705859375,-18.705328125,-14.88373828125,-6.66482421875,-10.38498828125,-19.52959765625,-15.1051640625,-6.23228125,-2.2114140625,-13.08719140625,-14.81123046875,-4.30950390625,-8.9683203125,-11.77929296875,-11.61428125,-7.22308203125,-9.43878125,-7.492828125,-14.79030078125,-10.303625,-12.5639375,-6.639875,-14.695515625,-16.855078125,-5.9550234375,-4.81176171875
-12.02208203125,-12.6059296875,-16.2490078125,-3.3539921875,-16.70705859375,-15.415328125,-12.33373828125,-8.82082421875,-6.70998828125001,-16.02259765625,-12.6291640625,-8.52028125,-1.4684140625,-7.98619140625,-12.01023046875,-5.33950390625,-12.5893203125,-6.20129296875,-6.70828125,-5.80008203125,-7.69478125,-4.689828125,-7.92530078125,-5.961625,-9.1019375,-9.520875,-9.165515625,-13.530078125,-3.5580234375,-3.87776171875
-5.06608203125,-7.1749296875,-14.5500078125,2.2500078125,-10.82005859375,-8.951328125,-7.61173828125,-9.74282421875,-2.02598828125,-10.07759765625,-9.0351640625,-9.86828125,-0.197414062500002,-3.04619140625,-9.33623046875,-8.30450390625,-16.8463203125,-1.86229296875,-2.81828124999999,-6.62008203125,-8.14278125,-3.000828125,-2.30930078125,-2.771625,-7.2709375,-12.448875,-4.173515625,-10.511078125,-1.2570234375,-3.24576171875
1.37891796875,-1.5639296875,-11.7620078125,7.6990078125,-2.48805859375,-0.461328124999998,-1.42173828125,-9.41682421875,2.26401171874999,-2.59559765625,-4.4891640625,-9.50428125,1.1335859375,0.87180859375,-6.80423046875,-11.46650390625,-20.6073203125,0.456707031250001,-0.271281249999994,-8.64308203125,-10.07678125,-3.034828125,1.11569921875,-0.693624999999997,-6.7949375,-14.023875,-0.302515625000002,-8.101078125,0.928976562500001,-2.47676171875
5.83391796875,2.9460703125,-8.4940078125,11.1880078125,5.89894140625,8.135671875,4.93826171875,-8.15482421875,4.73401171875,4.91640234375,0.4078359375,-7.16728125,1.8345859375,3.15480859375,-4.45523046875,-13.11850390625,-22.4763203125,0.53970703125,0.964718750000007,-10.53108203125,-12.17278125,-4.514828125,2.08769921875,0.646375000000003,-6.8669375,-13.204875,2.212484375,-6.445078125,2.9059765625,-1.26676171875
7.13591796875,5.2830703125,-5.4970078125,11.3360078125,11.83094140625,14.673671875,9.87326171875,-6.51682421875,4.41201171874999,10.66440234375,4.6788359375,-3.36228125,1.2285859375,3.41280859375,-2.53123046875,-12.33650390625,-21.4743203125,-1.38429296875,1.04571875000001,-11.25108203125,-13.15278125,-6.602828125,0.882699218750002,1.525375,-6.7119375,-10.155875,3.276484375,-5.738078125,4.3239765625,0.236238281249999
4.80291796875,4.8970703125,-3.4280078125,7.7000078125,13.50294140625,17.427671875,11.99326171875,-5.07482421875,1.16301171875,13.10740234375,7.2918359375,0.794718749999998,-0.971414062499999,1.55280859375,-1.43023046875,-9.29750390625,-17.5423203125,-4.75029296875,0.113718750000004,-10.44708203125,-12.35378125,-8.378828125,-1.90830078125,1.888375,-5.9899375,-6.353875,2.837484375,-6.202078125,4.6719765625,1.44623828125
-0.683082031249999,1.9880703125,-2.5750078125,1.0370078125,10.42794140625,15.752671875,10.69526171875,-4.11082421875,-4.15398828125,11.57040234375,7.6278359375,4.12671875,-4.3504140625,-2.05119140625,-1.44423046875,-5.02450390625,-11.5993203125,-8.70429296875,-1.63128124999999,-8.41008203125,-9.90878125,-9.135828125,-5.51830078125,1.477375,-4.8529375,-3.807875,0.969484374999997,-7.823078125,3.6099765625,1.70723828125
-8.02608203125,-2.5889296875,-2.8180078125,-6.9769921875,3.50994140625,10.265671875,6.42026171875,-3.51382421875,-9.99498828125,6.49240234375,5.7198359375,5.85871875,-7.8854140625,-6.58119140625,-2.59923046875,-0.89150390625,-5.2703203125,-12.33429296875,-3.92828124999999,-5.89608203125,-6.63578125,-8.569828125,-9.21730078125,0.016375,-3.8149375,-4.054875,-2.100515625,-10.266078125,1.1289765625,0.59123828125
-15.68808203125,-7.7379296875,-3.8680078125,-14.5049921875,-5.42705859375,2.449671875,0.402261718750001,-2.97882421875,-14.84298828125,-0.842597656250003,2.1068359375,5.74471875,-10.5034140625,-11.11019140625,-4.73923046875,1.80749609375,-0.4083203125,-15.08129296875,-6.59428124999999,-3.92408203125,-3.77778125,-6.956828125,-12.59830078125,-2.700625,-3.6269375,-7.567875,-6.151515625,-13.136078125,-2.6000234375,-2.05376171875
-22.41908203125,-12.5389296875,-5.4900078125,-20.2739921875,-14.30205859375,-5.906328125,-5.82073828125,-2.21782421875,-17.83098828125,-8.76059765625,-2.4331640625,4.03271875,-11.6104140625,-14.89119140625,-7.61923046875,2.23349609375,1.5726796875,-16.94129296875,-9.56628125,-3.45108203125,-2.56478125,-5.063828125,-15.63430078125,-6.707625,-5.0049375,-13.632875,-11.035515625,-16.225078125,-7.3590234375,-6.06176171875
-27.40608203125,-16.3839296875,-7.5060078125,-23.8089921875,-21.28805859375,-13.108328125,-10.84873828125,-1.00682421875,-18.84398828125,-15.55659765625,-7.0201640625,1.41371875,-11.2024140625,-17.38819140625,-10.84223046875,0.258496093750001,0.380679687500001,-18.24729296875,-12.70628125,-4.94708203125,-3.71078125,-3.714828125,-18.39730078125,-11.652625,-8.2519375,-20.511875,-16.508515625,-19.426078125,-12.7360234375,-10.78476171875
-30.23808203125,-18.9649296875,-9.7940078125,-25.2599921875,-25.16805859375,-17.881328125,-13.79573828125,0.750175781249999,-18.25998828125,-19.85659765625,-10.8341640625,-1.22728125,-9.6724140625,-18.27419140625,-13.87223046875,-3.59750390625,-2.9903203125,-19.34529296875,-15.68628125,-8.21508203125,-7.21678125,-3.367828125,-20.79630078125,-16.775625,-13.0619375,-25.989875,-22.067515625,-22.535078125,-18.0040234375,-15.14476171875
-30.95608203125,-20.3179296875,-12.4220078125,-25.1309921875,-25.59505859375,-19.743328125,-14.61473828125,2.79217578125,-16.68498828125,-21.07159765625,-13.4051640625,-3.29728125,-7.6294140625,-17.63219140625,-16.29623046875,-8.60050390625,-6.8743203125,-20.47729296875,-18.16728125,-12.64508203125,-12.59678125,-4.050828125,-22.62230078125,-21.231625,-18.7289375,-28.296875,-27.072515625,-25.241078125,-22.3220234375,-18.12176171875
-30.01908203125,-20.8179296875,-15.6720078125,-23.9959921875,-23.12405859375,-19.152328125,-14.11773828125,4.35917578125,-14.75098828125,-19.63059765625,-14.8081640625,-4.81328125,-5.7184140625,-16.07619140625,-18.05523046875,-14.17150390625,-9.8943203125,-21.78529296875,-20.04728125,-17.57408203125,-19.14778125,-5.518828125,-23.75230078125,-24.463625,-24.4429375,-26.927875,-30.945515625,-27.256078125,-25.0710234375,-19.27376171875
-28.01508203125,-20.9429296875,-19.7240078125,-22.1899921875,-18.88705859375,-17.195328125,-13.53373828125,4.44117578125,-12.89998828125,-16.71559765625,-15.5361640625,-6.26428125,-4.3224140625,-14.51019140625,-19.36023046875,-19.88850390625,-11.5923203125,-23.20629296875,-21.42728125,-22.39108203125,-25.98178125,-7.352828125,-24.18230078125,-26.252625,-29.4049375,-22.800875,-33.210515625,-28.318078125,-25.9950234375,-18.78676171875
-25.33808203125,-20.9659296875,-24.2770078125,-19.6889921875,-14.15105859375,-15.044328125,-13.87473828125,2.23917578125,-11.26198828125,-13.69859765625,-16.1741640625,-8.24828125,-3.3784140625,-13.69119140625,-20.43423046875,-25.33150390625,-12.4653203125,-24.39229296875,-22.41428125,-26.49608203125,-32.03478125,-9.012828125,-23.95030078125,-26.585625,-32.8629375,-17.745875,-33.506515625,-28.193078125,-25.1630234375,-17.14376171875
-22.19308203125,-20.8729296875,-28.5450078125,-16.3519921875,-10.04205859375,-13.601328125,-15.56673828125,-2.53282421875,-9.80798828125,-11.71159765625,-17.2001640625,-11.25728125,-2.5674140625,-13.99319140625,-21.41723046875,-30.12650390625,-13.6123203125,-24.89029296875,-23.06028125,-29.40808203125,-36.37178125,-10.052828125,-23.16730078125,-25.640625,-34.3349375,-13.733875,-31.800515625,-26.855078125,-22.9910234375,-14.87576171875
-18.81108203125,-20.4879296875,-31.5780078125,-12.2869921875,-7.42405859375,-13.350328125,-18.38373828125,-9.53582421875,-8.57298828125001,-11.38759765625,-18.8661640625,-15.54328125,-1.7124140625,-15.35719140625,-22.38723046875,-34.05550390625,-16.1683203125,-24.40829296875,-23.39128125,-30.93408203125,-38.60678125,-10.345828125,-22.06930078125,-23.843625,-33.8559375,-12.132875,-28.585515625,-24.688078125,-20.2400234375,-12.49976171875
-15.47308203125,-19.5569296875,-32.5530078125,-7.9179921875,-6.68205859375,-14.207328125,-21.48773828125,-17.73082421875,-7.60698828125,-12.62259765625,-20.9771640625,-20.81928125,-0.886414062500002,-17.18019140625,-23.23323046875,-36.93950390625,-20.6693203125,-22.81629296875,-23.28128125,-31.08908203125,-38.94278125,-9.987828125,-20.81930078125,-21.675625,-31.8669375,-13.104875,-24.700515625,-22.319078125,-17.7100234375,-10.38476171875
-12.37808203125,-17.7689296875,-30.9220078125,-3.7349921875,-7.48105859375,-15.446328125,-23.58773828125,-25.41282421875,-6.71598828125,-14.48159765625,-22.7451640625,-26.00328125,-0.195414062499999,-18.29519140625,-23.48523046875,-38.37650390625,-26.7263203125,-19.96429296875,-22.30428125,-29.84208203125,-37.82478125,-8.999828125,-19.23630078125,-19.342625,-28.8579375,-15.495875,-20.857515625,-20.175078125,-15.7940234375,-8.57676171875
-9.65808203125,-14.9269296875,-26.6150078125,-0.1269921875,-8.86205859375,-16.017328125,-23.39573828125,-30.64482421875,-5.42398828125,-15.58459765625,-23.0541640625,-29.49728125,0.399585937499999,-17.38319140625,-22.46423046875,-37.78250390625,-33.2883203125,-15.71629296875,-19.90528125,-27.09108203125,-35.64978125,-7.249828125,-16.83630078125,-16.739625,-25.1919375,-17.532875,-17.375515625,-18.260078125,-14.3560234375,-6.87676171875
-7.55408203125,-11.2069296875,-20.2420078125,2.5910078125,-9.70605859375,-15.153328125,-20.24573828125,-31.99182421875,-3.29198828125,-14.85559765625,-21.1061640625,-29.93528125,1.0275859375,-13.72419140625,-19.74123046875,-34.75850390625,-39.2523203125,-10.25229296875,-15.87828125,-22.89908203125,-32.70178125,-4.698828125,-13.27130078125,-13.737625,-21.2019375,-17.968875,-14.296515625,-16.335078125,-13.0400234375,-5.17576171875
-6.38308203125,-7.1839296875,-12.9480078125,4.1930078125,-9.20105859375,-12.732328125,-14.42873828125,-29.05782421875,-0.246988281250005,-12.03859765625,-16.8631640625,-26.81528125,1.7955859375,-7.66919140625,-15.46723046875,-29.39150390625,-43.7763203125,-4.24829296875,-10.67228125,-17.64308203125,-29.14678125,-1.623828125,-8.71230078125,-10.426625,-17.2299375,-16.769875,-11.574515625,-14.215078125,-11.6120234375,-3.61076171875
-6.21908203125,-3.5219296875,-5.9470078125,4.7240078125,-7.02605859375,-9.162328125,-7.03673828125,-22.54282421875,3.37201171875,-7.65059765625,-11.0151640625,-20.61728125,2.7395859375,-0.511191406249999,-10.29423046875,-22.23350390625,-46.1523203125,1.29970703125,-5.24828124999999,-11.88108203125,-24.99578125,1.446171875,-3.88530078125,-7.078625,-13.5049375,-14.856875,-9.163515625,-11.908078125,-10.0480234375,-2.40376171875
-6.67608203125,-0.638929687499999,-0.135007812500001,4.5920078125,-3.31405859375,-5.064328125,0.426261718750002,-13.99282421875,6.94801171875,-2.62759765625,-4.6641640625,-12.59628125,3.7315859375,6.01280859375,-5.12323046875,-14.17050390625,-45.7153203125,5.34070703125,-0.748281249999994,-6.20708203125,-20.23778125,3.918171875,0.117699218750001,-4.064625,-10.0959375,-13.305875,-7.108515625,-9.685078125,-8.5190234375,-1.66776171875
-7.07108203125,1.3570703125,3.9219921875,4.3770078125,1.40394140625,-1.096328125,6.40726171875,-5.43082421875,9.75201171875,2.00740234375,0.967835937499999,-4.49628125,4.3625859375,10.23780859375,-0.908230468750002,-6.38650390625,-42.1153203125,6.95070703125,1.79471875,-1.28608203125,-15.17078125,5.234171875,2.11369921875,-1.876625,-7.1169375,-12.681875,-5.705515625,-8.120078125,-7.4090234375,-1.44376171875
-6.75108203125,2.5400703125,5.8599921875,4.5430078125,6.32194140625,2.155671875,9.68926171875,1.16117578125,11.16701171875,5.41240234375,4.7978359375,1.89571875,4.1095859375,11.08980859375,1.54276953125,-0.23350390625,-35.6733203125,5.56170703125,1.73671875,2.13391796875,-10.55778125,4.989171875,1.25169921875,-1.062625,-4.8609375,-12.783875,-5.436515625,-7.905078125,-7.1960234375,-1.76676171875
-5.34908203125,3.0440703125,5.5169921875,5.2780078125,10.54394140625,4.313671875,9.77826171875,4.45017578125,10.94901171875,7.15240234375,6.1878359375,5.32871875,2.7835859375,8.50180859375,1.84876953125,3.12349609375,-27.4183203125,1.29970703125,-0.882281249999995,3.43291796875,-7.35478125,3.162171875,-2.49730078125,-1.938625,-3.6579375,-12.808875,-6.605515625,-9.383078125,-8.1230234375,-2.57476171875
-2.99008203125,2.9330703125,2.9639921875,6.4030078125,13.22794140625,5.212671875,7.02826171875,4.10617578125,9.30701171875,7.20640234375,5.0968359375,5.46971875,0.796585937500002,3.44180859375,0.18676953125,3.09749609375,-18.7513203125,-4.88529296875,-5.26928125,2.38791796875,-6.23878125,0.196171875000001,-8.16030078125,-4.323625,-3.6379375,-11.866875,-8.996515625,-12.179078125,-9.9270234375,-3.58876171875
-0.457082031249996,2.0440703125,-1.5820078125,7.2750078125,13.60094140625,4.700671875,2.33326171875,0.65517578125,6.64401171875,5.70440234375,1.9568359375,2.80471875,-1.1264140625,-2.61719140625,-2.87423046875,-0.158503906250001,-11.0043203125,-11.52829296875,-10.20628125,-0.726082031249998,-7.33678125,-3.216828125,-14.13930078125,-7.564625,-4.6839375,-9.613875,-11.908515625,-15.304078125,-11.9430234375,-4.40376171875
0.947917968750001,-0.0219296875000019,-7.8220078125,6.8890078125,11.02194140625,2.486671875,-3.35773828125,-4.92682421875,3.23001171875,2.70040234375,-2.5701640625,-1.73628125,-2.4704140625,-8.32919140625,-6.63823046875,-5.80850390625,-5.0313203125,-17.15429296875,-14.49228125,-5.17808203125,-10.20678125,-6.429828125,-18.83630078125,-10.757625,-6.4979375,-6.479875,-14.434515625,-17.583078125,-13.4230234375,-4.67276171875
-0.00608203124999562,-3.5969296875,-15.2410078125,4.3360078125,5.24394140625,-1.656328125,-9.32073828125,-11.51582421875,-0.823988281250003,-1.71559765625,-7.6851640625,-7.07028125,-3.1364140625,-12.77519140625,-10.36323046875,-12.44950390625,-0.9843203125,-20.61129296875,-17.18128125,-9.84408203125,-13.93778125,-8.865828125,-21.07230078125,-12.924625,-8.6199375,-3.270875,-15.701515625,-18.064078125,-13.7520234375,-4.15076171875
-3.84008203125,-8.5789296875,-22.9590078125,-0.6629921875,-3.28405859375,-7.533328125,-15.07973828125,-17.99582421875,-5.36398828125001,-7.15459765625,-12.4941640625,-12.14128125,-3.2864140625,-15.43519140625,-13.27723046875,-18.39050390625,1.5036796875,-21.23029296875,-17.67328125,-13.40608203125,-17.37478125,-9.909828125,-20.27030078125,-13.225625,-10.4529375,-0.581875,-15.073515625,-16.313078125,-12.5720234375,-2.71176171875
-10.16508203125,-14.3279296875,-29.8500078125,-7.5749921875,-13.38105859375,-14.421328125,-20.35073828125,-23.43682421875,-10.06998828125,-12.88559765625,-16.2021640625,-16.15028125,-3.1714140625,-16.17719140625,-14.77323046875,-22.17050390625,2.7986796875,-18.99629296875,-15.87028125,-14.83408203125,-19.53778125,-9.002828125,-16.58630078125,-11.311625,-11.5039375,1.403125,-12.423515625,-12.630078125,-9.9540234375,-0.500761718749999
-17.90608203125,-19.8799296875,-34.8900078125,-15.2689921875,-23.38405859375,-21.247328125,-24.95273828125,-27.24482421875,-14.48898828125,-18.01059765625,-18.3551640625,-18.70928125,-3.0684140625,-15.26019140625,-14.64523046875,-23.05150390625,2.9396796875,-14.61829296875,-12.29228125,-13.84308203125,-19.98278125,-5.955828125,-10.92430078125,-7.597625,-11.6409375,2.722125,-8.312515625,-8.016078125,-6.4800234375,1.95923828125
-25.55808203125,-24.1719296875,-37.3500078125,-22.3139921875,-31.44705859375,-26.786328125,-28.57173828125,-29.07182421875,-18.03698828125,-21.58859765625,-18.8391640625,-19.66628125,-3.1394140625,-13.12019140625,-13.05723046875,-21.07250390625,1.9206796875,-9.20829296875,-7.85528124999999,-10.88408203125,-18.75378125,-1.124828125,-4.59730078125,-3.061625,-11.0229375,3.470125,-3.743515625,-3.692078125,-2.9760234375,4.03723828125
-31.39808203125,-26.1989296875,-36.7980078125,-27.2289921875,-35.85405859375,-29.800328125,-30.55073828125,-28.58082421875,-19.96898828125,-22.68559765625,-17.6471640625,-18.77228125,-3.2464140625,-10.04619140625,-10.27023046875,-16.72850390625,0.2096796875,-3.72729296875,-3.41528125,-6.70808203125,-16.00978125,4.656171875,1.21769921875,1.313375,-9.7629375,3.795125,0.359484374999997,-0.471078125,-0.0580234374999993,5.44323828125
-33.86908203125,-25.2419296875,-33.1580078125,-28.8619921875,-35.45205859375,-29.344328125,-30.03473828125,-25.45182421875,-19.57698828125,-20.62659765625,-14.7841640625,-15.68128125,-3.0334140625,-6.13019140625,-6.51323046875,-10.69250390625,-1.1773203125,1.29870703125,0.487718750000006,-1.97908203125,-11.79678125,10.187171875,5.79569921875,4.906375,-7.7709375,3.862125,3.461484375,1.457921875,2.0349765625,6.34423828125
-32.11708203125,-21.1989296875,-26.8850078125,-26.8709921875,-30.14305859375,-25.191328125,-26.47473828125,-19.73082421875,-16.61298828125,-15.39959765625,-10.4111640625,-10.32928125,-2.2744140625,-1.55119140625,-2.10223046875,-3.78350390625,-1.2393203125,5.61670703125,3.53871875,2.77591796875,-6.20978125,14.017171875,8.78469921875,7.442375,-4.9399375,3.712125,5.35648437499999,2.240921875,3.2309765625,7.00123828125
-26.27408203125,-14.7109296875,-18.9900078125,-21.9079921875,-21.03905859375,-17.985328125,-20.01973828125,-12.12682421875,-11.53398828125,-7.81759765625,-4.9521640625,-3.25728125,-1.0724140625,3.24580859375,2.48876953125,3.06449609375,0.3986796875,9.03470703125,5.54871875000001,7.11291796875,0.354218750000001,14.824171875,10.08169921875,8.864375,-1.3809375,3.255125,6.050484375,2.069921875,3.4559765625,7.44023828125
-17.32008203125,-6.9449296875,-10.7600078125,-15.2989921875,-10.09605859375,-8.973328125,-11.49173828125,-3.94782421875,-5.30298828125001,0.770402343749996,1.0188359375,4.47571875,0.290585937500001,7.71080859375,6.78376953125,9.01049609375,3.3356796875,11.44070703125,6.55371875,10.71591796875,7.13521875,12.071171875,9.89669921875,9.363375,2.5420625,2.472125,5.81048437499999,1.194921875,2.7419765625,7.51123828125
-6.80808203125,0.7700703125,-3.4120078125,-8.5089921875,0.501941406250001,0.380671875000001,-2.12573828125,3.23117578125,1.00401171875,8.89740234375,6.9108359375,11.57071875,1.5755859375,11.42980859375,10.43476953125,13.47249609375,6.6206796875,12.87170703125,6.87371875,13.40791796875,13.09121875,6.475171875,8.77069921875,9.347375,6.2750625,1.522125,5.148484375,0.0269218749999993,1.3619765625,7.13323828125
3.31791796875,7.1950703125,2.0649921875,-2.7569921875,8.85794140625,8.590671875,6.65626171875,7.95517578125,6.45901171874999,15.22840234375,12.0838359375,16.72171875,2.5735859375,14.14080859375,13.15276953125,16.08649609375,9.1236796875,13.40670703125,6.91271875,15.02891796875,17.05521875,-0.112828125,7.36969921875,9.224375,9.1060625,0.602124999999997,4.577484375,-0.971078125,-0.2680234375,6.40523828125
11.04091796875,11.3700703125,5.0329921875,1.1760078125,13.70694140625,14.312671875,13.46026171875,9.28817578125,10.39501171875,18.73640234375,15.8228359375,18.88771875,3.0365859375,15.66780859375,14.63376953125,16.64649609375,9.9466796875,13.05870703125,6.93071875,15.38291796875,18.06221875,-5.330828125,6.21769921875,9.193375,10.3640625,-0.211875000000003,4.387484375,-1.464078125,-1.7510234375,5.57623828125
14.84591796875,12.8410703125,5.4029921875,3.0910078125,14.65094140625,16.663671875,17.25926171875,7.19117578125,12.52401171875,18.96340234375,17.5188359375,17.67071875,2.7785859375,15.99680859375,14.68576953125,15.19749609375,8.7696796875,11.87970703125,7.02571875,14.41891796875,15.84221875,-7.121828125,5.62969921875,9.299375,9.8270625,-0.913875000000001,4.665484375,-1.277078125,-2.7210234375,4.99923828125
14.24891796875,11.7840703125,3.7099921875,3.3280078125,12.19294140625,15.510671875,17.67126171875,2.59817578125,12.95701171875,16.18040234375,16.9048359375,13.51871875,1.8375859375,15.32380859375,13.39876953125,12.10449609375,5.8376796875,10.11170703125,7.21371875000001,12.40591796875,11.05121875,-4.570828125,5.72269921875,9.546375,7.9470625,-1.477875,5.381484375,-0.411078125000001,-2.8840234375,4.97523828125
9.86491796875,8.8480703125,0.8599921875,2.4550078125,7.43394140625,11.435671875,14.97326171875,-2.97182421875,12.00601171875,11.22940234375,14.0968359375,7.49071875,0.430585937499998,13.89180859375,11.07976953125,7.89749609375,1.6146796875,8.13270703125,7.37071875,9.81391796875,4.96121875,1.495171875,6.33769921875,9.840375,5.5740625,-1.923875,6.31048437499999,0.824921874999999,-2.2250234375,5.48523828125
3.12291796875,4.8710703125,-2.2410078125,0.9140078125,1.65994140625,5.509671875,9.95726171875,-8.01582421875,9.94301171874999,5.21040234375,9.5388359375,0.836718749999999,-1.1634140625,11.82280859375,8.09876953125,3.08449609375,-3.4693203125,6.28570703125,7.18971875,7.08491796875,-1.11978125,8.674171875,7.00669921875,9.913375,3.4660625,-2.352875,7.000484375,1.792921875,-1.1300234375,6.13623828125
-4.05608203125,0.774070312500001,-4.8170078125,-1.0079921875,-3.87705859375,-0.859328124999998,3.85526171875,-11.42282421875,7.03401171874999,-0.650597656250003,4.0788359375,-5.21828125,-2.5744140625,9.24280859375,4.93676953125,-1.76650390625,-8.8463203125,4.87870703125,6.40071875000001,4.63991796875,-6.14578125,14.142171875,7.22669921875,9.523375,2.1100625,-2.760875,7.078484375,1.900921875,-0.0990234374999996,6.52623828125
-9.59708203125,-2.3999296875,-6.1580078125,-2.9569921875,-8.00405859375,-6.031328125,-1.75873828125,-12.60682421875,3.79501171875,-5.03359765625,-0.9731640625,-9.55128125,-3.2724140625,6.56580859375,2.34376953125,-5.81250390625,-13.6053203125,4.27970703125,5.13171875,3.06191796875,-9.29578125,16.121171875,6.88369921875,8.801375,1.8740625,-2.835875,6.692484375,1.130921875,0.733976562500001,6.70323828125
-11.79808203125,-3.6199296875,-5.6850078125,-4.4059921875,-9.73105859375,-8.474328125,-5.32773828125,-11.61382421875,1.06201171875,-6.75559765625,-4.0961640625,-11.38028125,-2.7604140625,4.51280859375,1.23876953125,-8.00950390625,-16.7473203125,4.83870703125,3.98671875,3.06191796875,-10.00278125,14.626171875,6.36969921875,8.310375,3.0640625,-2.066875,6.559484375,0.168921874999999,1.7179765625,7.16823828125
-9.87808203125,-2.1829296875,-3.1660078125,-4.7749921875,-8.45905859375,-7.262328125,-5.83473828125,-9.15882421875,-0.235988281250005,-5.14459765625,-4.1101640625,-10.62128125,-0.8934140625,3.82980859375,2.34976953125,-7.55850390625,-17.7613203125,6.64970703125,3.77171875000001,5.13491796875,-8.20078125,11.151171875,6.33869921875,8.758375,5.7510625,-0.104875,7.54548437499999,0.0239218749999992,3.3609765625,8.45623828125
-4.10508203125,2.0500703125,1.2269921875,-3.5609921875,-4.06905859375,-2.303328125,-3.07273828125,-6.33482421875,0.636011718749995,-0.233597656250002,-0.594164062500003,-7.90928125,2.0645859375,5.05280859375,5.93576953125,-4.32450390625,-16.9133203125,9.49370703125,5.17071875000001,9.28791796875,-4.46078125,7.806171875,7.41469921875,10.674375,9.6530625,3.054125,10.191484375,1.537921875,5.9649765625,10.79523828125
4.50391796875,8.6600703125,7.0659921875,-0.3969921875,3.16994140625,5.772671875,2.46726171875,-4.03282421875,4.06201171875,7.35940234375,6.0158359375,-4.20128125,5.6695859375,8.44080859375,11.73876953125,1.04949609375,-15.0013203125,13.03070703125,8.56371875000001,15.00991796875,0.177218750000002,6.508171875,10.02669921875,14.251375,14.2320625,7.183125,14.506484375,5.098921875,9.4859765625,14.10623828125
14.49091796875,16.7350703125,13.7439921875,4.7500078125,12.61494140625,15.778671875,9.80626171875,-2.53082421875,9.91601171875,16.56840234375,14.5268359375,-0.347281250000002,9.4495859375,13.85680859375,19.00176953125,7.30249609375,-12.9103203125,16.89270703125,13.81371875,21.38491796875,4.51921875,8.369171875,14.23269921875,19.218375,18.8270625,11.980125,19.931484375,10.464921875,13.5139765625,18.08123828125
24.11491796875,24.9150703125,20.3879921875,11.2940078125,23.13594140625,26.046671875,17.58426171875,-1.53482421875,17.39001171875,25.93040234375,23.1888359375,3.09971875,12.8455859375,20.56280859375,26.48676953125,12.87449609375,-11.2473203125,20.60070703125,20.09771875,27.22191796875,7.54121875,13.355171875,19.52069921875,24.734375,22.7300625,17.046125,25.419484375,16.716921875,17.3039765625,22.15523828125
31.59691796875,31.5940703125,25.8739921875,17.9880078125,33.11394140625,34.645671875,24.26826171875,-0.46782421875,25.08101171875,33.80640234375,30.1298359375,5.94371875,15.2645859375,27.28980859375,32.72776953125,16.42649609375,-10.1163203125,23.57770703125,26.07271875,31.36391796875,8.72321875,20.344171875,24.87869921875,29.595375,25.3450625,21.860125,29.763484375,22.534921875,20.0059765625,25.57723828125
35.58891796875,35.3610703125,29.1069921875,23.3110078125,40.76394140625,39.892671875,28.54926171875,1.22217578125,31.43301171875,38.83540234375,33.9828359375,8.36471875,16.3865859375,32.69080859375,36.52676953125,17.38549609375,-9.0813203125,25.43270703125,30.42671875,33.14091796875,8.32021875,27.595171875,29.22569921875,32.750375,26.4380625,25.852125,32.125484375,26.773921875,21.0939765625,27.69023828125
35.53691796875,35.4360703125,29.3509921875,25.9890078125,44.60394140625,40.831671875,29.72426171875,3.76317578125,35.24101171875,40.30440234375,34.3048359375,10.73071875,16.4025859375,35.80880859375,37.34676953125,16.09249609375,-7.5503203125,26.17470703125,32.40271875,32.60791796875,7.24521875,33.293171875,31.83269921875,33.721375,26.1790625,28.444125,32.347484375,28.895921875,20.6159765625,28.20823828125
31.68491796875,31.8400703125,26.4049921875,25.2950078125,43.80794140625,37.410671875,27.81126171875,6.79817578125,35.87501171875,38.17940234375,31.5448359375,13.16771875,15.8275859375,36.22180859375,35.33276953125,13.44949609375,-5.4013203125,26.07270703125,31.90571875,30.35891796875,6.53821875,36.005171875,32.42969921875,32.628375,24.9000625,29.024125,30.818484375,28.970921875,19.0389765625,27.25423828125
24.92991796875,25.3880703125,20.7499921875,21.2050078125,38.43494140625,30.463671875,23.50826171875,9.44917578125,33.31701171875,32.99740234375,26.7598359375,15.35071875,15.0745859375,34.01780859375,31.15876953125,10.43349609375,-3.2253203125,25.38870703125,29.37471875,27.21291796875,6.86621875,35.100171875,31.14769921875,30.016375,22.9220625,27.170125,28.194484375,27.466921875,16.9699765625,25.29123828125
16.74991796875,17.6280703125,13.7189921875,14.5140078125,29.58094140625,21.665671875,18.11726171875,10.84517578125,28.19701171875,25.87240234375,21.4058359375,16.76371875,14.2475859375,29.84180859375,25.97576953125,7.90149609375,-1.8183203125,24.33370703125,25.69271875,24.08191796875,8.42721875,31.097171875,28.51969921875,26.776375,20.6940625,23.164125,25.269484375,25.144921875,15.0319765625,23.09723828125
9.01991796875,10.5720703125,7.3579921875,6.7440078125,19.25894140625,13.277671875,13.31226171875,10.69117578125,21.70701171875,18.43140234375,17.1028359375,17.16671875,13.2265859375,24.85980859375,21.28076953125,6.56749609375,-1.3963203125,23.17370703125,22.06671875,21.91691796875,11.12021875,25.541171875,25.44769921875,24.036375,18.9550625,18.304125,22.906484375,22.913921875,13.7979765625,21.58223828125
3.46891796875,6.0730703125,3.7209921875,-0.3619921875,9.80894140625,7.455671875,10.60426171875,9.40917578125,15.21001171875,12.40540234375,15.1758359375,16.74271875,11.8065859375,20.38480859375,18.47876953125,6.87349609375,-1.2973203125,22.17970703125,19.65271875,21.46591796875,14.63621875,20.252171875,22.90769921875,22.781375,18.5240625,14.490125,21.760484375,21.464921875,13.5299765625,21.33123828125
1.05991796875,5.0840703125,3.9549921875,-5.5059921875,3.09194140625,5.437671875,10.74026171875,7.81017578125,9.73201171874999,9.03140234375,16.1298359375,15.95371875,9.7915859375,17.36780859375,18.32676953125,8.81449609375,-0.3823203125,21.45570703125,19.10671875,22.95191796875,18.48721875,16.461171875,21.54969921875,23.410375,19.8500625,13.338125,21.996484375,20.913921875,13.9489765625,22.19923828125
1.73791796875,7.3250703125,7.8069921875,-8.2049921875,-0.0760585937499982,7.144671875,13.46226171875,6.68617578125,5.75501171875,8.67840234375,19.4618359375,15.37871875,7.1265859375,16.16180859375,20.68276953125,11.98349609375,2.3216796875,20.92170703125,20.41071875,26.02291796875,22.18821875,14.477171875,21.53069921875,25.631375,22.7610625,15.527125,23.309484375,20.873921875,14.4029765625,23.43823828125
4.61691796875,11.4850703125,13.7859921875,-8.7149921875,-0.00805859374999862,11.349671875,17.69426171875,6.53417578125,3.36001171874999,10.83140234375,23.8838359375,15.59171875,4.0055859375,16.59880859375,24.64276953125,15.77549609375,7.1116796875,20.43870703125,23.00971875,29.94291796875,25.45521875,13.913171875,22.60169921875,28.690375,26.5690625,20.680125,25.188484375,20.873921875,14.3269765625,24.22623828125
8.33191796875,15.7650703125,19.7369921875,-7.7709921875,2.11694140625,16.174671875,21.93326171875,7.38617578125,2.41601171875,14.26540234375,27.7488359375,16.88671875,0.7835859375,18.10880859375,28.83076953125,19.50149609375,13.4066796875,19.88870703125,25.98671875,33.77791796875,28.17721875,14.010171875,24.22269921875,31.627375,30.2680625,27.534125,27.086484375,20.654921875,13.5499765625,24.07923828125
11.45391796875,18.5130703125,23.5849921875,-6.2819921875,4.73594140625,19.731671875,24.70726171875,8.79517578125,2.64901171875,17.40340234375,29.5448359375,19.00471875,-2.1764140625,19.83980859375,31.75176953125,22.41149609375,19.9206796875,19.16570703125,28.25871875,36.53091796875,30.20621875,13.923171875,25.67369921875,33.472375,32.7700625,34.228125,28.432484375,20.178921875,12.2579765625,22.93623828125
13.00491796875,18.8350703125,24.1009921875,-4.9579921875,6.51294140625,20.825671875,25.10926171875,10.09917578125,3.72901171874999,18.92240234375,28.4618359375,21.19971875,-4.5014140625,20.97980859375,32.31376953125,23.85049609375,25.2016796875,18.24570703125,28.95171875,37.39591796875,31.30221875,13.143171875,26.32769921875,33.551375,33.2510625,38.801125,28.758484375,19.561921875,10.8519765625,21.08023828125
12.86891796875,16.9320703125,21.3739921875,-4.0139921875,6.85094140625,19.454671875,23.20226171875,10.79717578125,5.40301171875,18.37040234375,24.8018359375,22.64371875,-5.6804140625,21.15080859375,30.33576953125,23.51249609375,28.2276796875,17.29470703125,27.82671875,36.09891796875,31.25321875,11.921171875,25.98069921875,31.819375,31.4850625,39.841125,27.930484375,19.016921875,9.7759765625,19.00423828125
11.66491796875,13.8610703125,16.6069921875,-3.2399921875,5.95494140625,16.659671875,19.91826171875,10.68517578125,7.47301171874999,16.27240234375,19.8378359375,22.75671875,-5.1904140625,20.50080859375,26.59376953125,21.49249609375,28.6276796875,16.56370703125,25.35771875,32.96491796875,29.91321875,11.169171875,24.87969921875,28.861375,27.8460625,36.922125,26.192484375,18.690921875,9.2589765625,17.12323828125
10.17591796875,10.8470703125,11.3759921875,-2.4059921875,4.43994140625,13.786671875,16.45526171875,9.68917578125,9.60801171875,13.66340234375,15.1358359375,21.26771875,-2.8574140625,19.39580859375,22.34376953125,18.09949609375,26.5336796875,16.12870703125,22.35971875,28.64891796875,27.12921875,11.750171875,23.41669921875,25.521375,22.9870625,30.658125,23.957484375,18.469921875,9.1099765625,15.49123828125
8.85591796875,8.6600703125,6.9159921875,-1.5559921875,2.88494140625,11.762671875,13.64426171875,7.75117578125,11.29201171875,11.49640234375,11.8458359375,18.24971875,0.922585937499999,18.13480859375,18.73076953125,13.73749609375,22.4296796875,15.83170703125,19.57371875,23.86091796875,22.83821875,13.771171875,21.87969921875,22.518375,17.6130625,22.548125,21.660484375,18.051921875,8.8659765625,13.87023828125
7.78891796875,7.4570703125,3.8589921875,-0.9239921875,1.64294140625,10.828671875,11.71126171875,4.96317578125,12.07101171875,10.33040234375,10.3738359375,14.23871875,5.3665859375,16.93780859375,16.46276953125,9.01249609375,17.1376796875,15.54370703125,17.49071875,19.29591796875,17.42021875,16.497171875,20.46269921875,20.340375,12.5150625,14.700125,19.791484375,17.288921875,8.2679765625,12.14923828125
6.84591796875,6.9520703125,2.2779921875,-0.6909921875,0.810941406250002,10.625671875,10.35226171875,1.73317578125,11.82601171875,10.21940234375,10.3918359375,10.15171875,9.6135859375,15.96980859375,15.66876953125,4.72949609375,11.6886796875,15.33970703125,16.28571875,15.57391796875,11.83721875,18.801171875,19.31969921875,19.201375,8.5630625,9.248125,18.846484375,16.341921875,7.5109765625,10.57923828125
5.74491796875,6.6160703125,1.7639921875,-0.9319921875,0.181941406250001,10.356671875,8.92326171875,-1.32182421875,10.77301171875,10.64440234375,10.9718359375,6.83771875,12.8915859375,15.20880859375,15.81376953125,1.57549609375,6.9466796875,15.33670703125,15.70471875,13.01191796875,7.26421875,19.709171875,18.43369921875,18.911375,6.4060625,7.504125,19.022484375,15.427921875,6.9799765625,9.51323828125
4.13591796875,5.8830703125,1.6169921875,-1.6559921875,-0.723058593749998,9.109671875,6.74926171875,-3.60282421875,9.28901171875,10.67740234375,10.9578359375,4.66071875,14.6215859375,14.39180859375,15.87676953125,-0.22750390625,3.3836796875,15.47570703125,15.13371875,11.47191796875,4.50121875,18.839171875,17.54669921875,18.877375,6.1280625,9.345125,19.983484375,14.538921875,6.8429765625,9.01023828125
1.91991796875,4.4740703125,1.2739921875,-2.7469921875,-2.36505859375,6.417671875,3.59526171875,-4.65182421875,7.83201171875,9.53740234375,9.59283593749999,3.53571875,14.6435859375,13.28780859375,14.94276953125,-0.91050390625,1.2476796875,15.62370703125,14.01271875,10.54891796875,3.71221875,16.641171875,16.39769921875,18.462375,7.2450625,13.301125,21.061484375,13.532921875,6.9889765625,8.82023828125
-0.451082031249996,2.6670703125,0.713992187499999,-3.8819921875,-4.80905859375,2.702671875,-0.00873828125000031,-4.18782421875,6.90701171875,7.17140234375,7.0518359375,3.24871875,13.3275859375,12.03880859375,12.84176953125,-0.84850390625,0.8526796875,15.82670703125,12.30871875,9.96291796875,4.58421875,14.242171875,15.05869921875,17.435375,9.0120625,17.232125,21.697484375,12.423921875,7.2619765625,8.68923828125
-2.07208203125,1.2230703125,0.456992187499999,-4.6599921875,-7.60705859375,-0.829328125,-2.94373828125,-2.23882421875,6.87701171875,4.34940234375,4.4088359375,3.64571875,11.3375859375,11.13380859375,10.30676953125,-0.277503906250001,2.4666796875,16.30970703125,10.58371875,9.75291796875,6.62821875,12.825171875,13.94769921875,16.080375,10.7430625,19.159125,21.678484375,11.438921875,7.5869765625,8.55423828125
-2.02508203125,0.9850703125,1.1799921875,-4.8319921875,-10.01805859375,-2.812328125,-4.08573828125,0.724175781249999,7.71601171875,2.22640234375,3.0508359375,4.60171875,9.2655859375,11.04580859375,8.56376953125,0.800496093750001,5.9026796875,17.21570703125,9.61771875,10.21791796875,9.39921875,12.948171875,13.52069921875,14.949375,12.0470625,18.045125,21.122484375,10.818921875,7.9339765625,8.49123828125
0.201917968750003,2.4500703125,3.3049921875,-4.3629921875,-11.32205859375,-2.368328125,-2.84773828125,3.89617578125,9.01501171875,1.77240234375,3.9798359375,5.99471875,7.5355859375,11.94080859375,8.68876953125,2.59149609375,10.3136796875,18.42670703125,9.98271875,11.74791796875,12.60921875,14.363171875,13.97369921875,14.569375,13.0000625,14.401125,20.398484375,10.693921875,8.3269765625,8.65723828125
4.49391796875,5.5380703125,6.7529921875,-3.3279921875,-11.07205859375,0.522671875,0.57026171875,6.43717578125,10.25401171875,3.35540234375,7.3298359375,7.70071875,6.5325859375,13.60780859375,11.06376953125,5.32149609375,14.4446796875,19.59370703125,11.75571875,14.58091796875,16.04321875,16.351171875,15.15269921875,15.225375,14.0800625,10.313125,20.031484375,11.106921875,8.8909765625,9.30123828125
10.01791796875,9.5450703125,10.8419921875,-1.8679921875,-9.29805859375,4.944671875,5.19926171875,7.69517578125,11.05401171875,6.49740234375,12.1888359375,9.44871875,6.5685859375,15.47080859375,15.04076953125,8.84149609375,17.0626796875,20.24370703125,14.37471875,18.44591796875,19.29421875,18.124171875,16.54369921875,16.731375,15.7280625,8.455125,20.407484375,11.960921875,9.7229765625,10.63223828125
15.33291796875,13.2870703125,14.3739921875,-0.2809921875,-6.58605859375,9.289671875,9.55826171875,7.28917578125,11.24601171875,9.93040234375,16.8278359375,10.70671875,7.6135859375,16.70180859375,19.02876953125,12.36949609375,17.3136796875,19.90570703125,16.71871875,22.33291796875,21.61521875,19.037171875,17.37469921875,18.336375,17.8180625,10.471125,21.464484375,12.918921875,10.6579765625,12.53623828125
18.89191796875,15.5140703125,16.0769921875,1.0120078125,-3.88105859375,11.906671875,12.20826171875,5.21717578125,10.88601171875,12.12140234375,19.4158359375,10.88771875,9.1965859375,16.57380859375,21.18476953125,14.74249609375,15.0046796875,18.36370703125,17.58071875,24.80991796875,22.21021875,18.749171875,16.96269921875,19.050375,19.5990625,15.882125,22.697484375,13.496921875,11.2689765625,14.46223828125
19.72091796875,15.4620703125,15.2379921875,1.6580078125,-2.06905859375,11.881671875,12.40426171875,1.99517578125,10.26901171875,12.04240234375,18.9178359375,9.79371875,10.6515859375,14.93080859375,20.39576953125,15.09349609375,10.7386796875,15.90870703125,16.34171875,24.76891796875,20.75221875,17.369171875,15.16769921875,18.244375,20.1780625,22.362125,23.540484375,13.360921875,11.1439765625,15.64023828125
17.79491796875,13.1640703125,12.0529921875,1.4960078125,-1.64205859375,9.416671875,10.37426171875,-1.44882421875,9.78301171875,9.66040234375,15.5898359375,7.79771875,11.4365859375,12.30180859375,16.86876953125,13.33549609375,5.6736796875,13.24970703125,13.32371875,22.02391796875,17.58321875,15.404171875,12.52569921875,16.022375,19.0490625,27.146125,23.686484375,12.486921875,10.1149765625,15.39523828125
13.88691796875,9.3650703125,7.4899921875,0.4980078125,-2.59805859375,5.580671875,7.05526171875,-4.16782421875,9.62401171875,5.85440234375,10.7758359375,5.57471875,11.2795859375,9.56880859375,11.97376953125,10.12649609375,0.978679687500001,11.08970703125,9.57171875,17.37891796875,13.46421875,13.437171875,9.92469921875,13.089375,16.3220625,28.523125,23.113484375,11.056921875,8.2539765625,13.40023828125
9.24391796875,5.2350703125,2.9029921875,-1.2289921875,-4.45005859375,1.788671875,3.61126171875,-5.53082421875,9.69901171874999,2.03140234375,6.3008359375,3.75871875,10.2505859375,7.58880859375,7.61976953125,6.55449609375,-2.5583203125,9.83170703125,6.40571875000001,12.29391796875,9.29721875,11.875171875,8.19869921875,10.408375,12.7230625,26.588125,22.021484375,9.330921875,5.8469765625,9.87123828125
5.32591796875,2.0950703125,-0.312007812500001,-3.2859921875,-6.24705859375,-0.619328124999999,1.09426171875,-5.28482421875,9.86201171875,-0.293597656250004,3.8418359375,2.83071875,8.8745859375,7.05680859375,5.55876953125,3.80249609375,-4.5073203125,9.66470703125,5.02571875000001,8.43591796875,6.06821875,10.955171875,7.94269921875,8.913375,9.4760625,22.945125,20.829484375,7.692921875,3.4579765625,5.68323828125
3.45691796875,1.0660703125,-1.0950078125,-4.9339921875,-6.82105859375,-0.750328124999999,0.23026171875,-3.52282421875,10.17901171875,0.00140234374999793,4.3398359375,3.07471875,8.0215859375,8.41280859375,6.72576953125,2.74849609375,-4.6223203125,10.73670703125,6.14071875,7.08191796875,4.71521875,10.824171875,9.41969921875,9.203375,7.8750625,19.629125,20.056484375,6.632921875,1.8159765625,2.09623828125
4.27491796875,2.5920703125,0.826992187499998,-5.4009921875,-5.33205859375,1.443671875,1.18926171875,-0.74882421875,10.85401171875,3.06340234375,7.5498359375,4.39171875,8.4315859375,11.57680859375,10.71376953125,3.46849609375,-2.8823203125,13.05270703125,9.57071875,8.48691796875,5.68821875,11.455171875,12.37769921875,11.167375,8.5870625,17.916125,19.983484375,6.493921875,1.4149765625,0.0962382812500024
7.33591796875,6.1150703125,4.7099921875,-4.3349921875,-1.80505859375,5.033671875,3.48726171875,2.12117578125,11.95801171875,7.81040234375,12.0318359375,6.23371875,10.1905859375,15.76880859375,15.79676953125,5.06649609375,0.3346796875,16.24270703125,14.13671875,11.66091796875,8.57121875,12.599171875,15.98369921875,13.878375,11.1980625,17.845125,20.415484375,7.243921875,2.1699765625,-0.130761718749998
11.28091796875,10.2650703125,9.0769921875,-1.9859921875,2.80694140625,8.535671875,6.23626171875,4.10517578125,13.30801171875,12.34440234375,15.8368359375,7.91871875,12.6655859375,19.73980859375,19.71076953125,6.15049609375,4.2826796875,19.57470703125,18.14271875,14.90591796875,12.23521875,13.968171875,19.13169921875,16.081375,14.4860625,18.699125,20.899484375,8.569921875,3.5419765625,0.926238281250001
14.45691796875,13.4640703125,12.3419921875,0.923007812500001,7.05594140625,10.631671875,8.56526171875,4.61417578125,14.53501171875,14.83140234375,17.4718359375,9.06471875,14.8625859375,22.26880859375,20.76776953125,5.67949609375,8.0776796875,22.18770703125,20.15771875,16.75191796875,15.45121875,15.455171875,20.93369921875,16.918375,17.1620625,19.821125,21.127484375,10.155921875,4.9469765625,2.64523828125
15.53791796875,14.5390703125,13.3529921875,3.4330078125,9.55794140625,10.658671875,9.87026171875,3.64817578125,15.17301171875,14.22540234375,16.4978359375,9.68171875,15.8455859375,22.50480859375,18.56476953125,3.49949609375,10.9396796875,23.30570703125,19.53771875,16.61291796875,17.41821875,17.012171875,20.99569921875,16.294375,18.4620625,20.949125,21.088484375,11.758921875,6.0109765625,4.64623828125
13.95891796875,13.0940703125,11.7099921875,4.6230078125,9.46394140625,8.691671875,9.83926171875,1.65717578125,14.75901171875,10.58040234375,13.5078359375,9.93471875,15.0155859375,20.10480859375,13.97576953125,0.33049609375,12.4086796875,22.40070703125,16.50371875,14.88391796875,17.97721875,18.327171875,19.39169921875,14.728375,18.3070625,21.989125,20.896484375,13.108921875,6.5509765625,6.76623828125
10.19391796875,9.6550703125,7.9379921875,3.9890078125,6.80494140625,5.455671875,8.51926171875,-0.65682421875,13.08501171875,5.03540234375,9.7648359375,9.98271875,12.3565859375,15.38380859375,8.70276953125,-2.58850390625,12.5686796875,19.45470703125,11.99671875,12.65991796875,17.59721875,18.764171875,16.58569921875,13.019375,17.2210625,22.781125,20.667484375,13.938921875,6.5589765625,8.91423828125
5.69491796875,5.5390703125,3.4179921875,1.7790078125,2.58694140625,2.134671875,6.38926171875,-2.49082421875,10.50301171875,-0.520597656250004,6.7248359375,9.99971875,8.5745859375,9.41380859375,4.63076953125,-3.96250390625,12.0946796875,15.15770703125,7.40071875,11.27291796875,17.14621875,17.764171875,13.36569921875,11.946375,16.1060625,23.161125,20.534484375,14.140921875,6.2199765625,10.97523828125
2.30391796875,2.3430703125,-0.155007812500001,-1.0819921875,-1.55005859375,-0.0603281249999981,4.22826171875,-3.19682421875,7.90901171874999,-4.17259765625,5.4888359375,10.12771875,4.8615859375,3.75080859375,3.07876953125,-3.02150390625,11.8746796875,10.70770703125,4.04071875,11.64691796875,17.38621875,15.292171875,10.59869921875,11.932375,15.7550625,23.132125,20.586484375,13.793921875,5.7679765625,12.72523828125
1.35691796875,1.2240703125,-1.5580078125,-3.4759921875,-4.01605859375,-0.419328125,2.74926171875,-2.59082421875,6.32401171875,-4.80659765625,6.3448359375,10.31071875,2.3255859375,-0.164191406250001,4.24976953125,0.0314960937500004,12.3786796875,7.25670703125,2.61971875,13.75991796875,18.42521875,11.946171875,8.85869921875,12.773375,16.3480625,22.879125,20.717484375,12.993921875,5.2009765625,13.76823828125
3.16891796875,2.4800703125,-0.504007812500001,-4.5769921875,-3.87305859375,1.058671875,2.35226171875,-0.974824218750001,6.45001171874999,-2.45759765625,8.7718359375,10.32471875,1.5425859375,-1.47719140625,7.27176953125,4.08249609375,13.3546796875,5.45670703125,3.02871875,16.63891796875,19.65021875,8.745171875,8.24869921875001,13.755375,17.3580625,22.690125,20.630484375,11.800921875,4.2389765625,13.69623828125
7.16591796875,5.6540703125,2.4889921875,-4.0569921875,-1.01805859375,3.931671875,3.19026171875,1.18917578125,8.48901171875,2.00440234375,11.9268359375,10.08871875,2.4985859375,0.00580859375000031,10.86476953125,7.70149609375,14.1326796875,5.42870703125,4.65371875,18.96591796875,20.23521875,6.748171875,8.56369921875,14.145375,17.9990625,22.843125,20.102484375,10.381921875,2.6239765625,12.43123828125
12.30291796875,9.8910703125,6.5099921875,-2.1119921875,3.93894140625,7.675671875,5.28326171875,3.61517578125,12.15201171875,7.45040234375,15.1568359375,9.89871875,4.7535859375,3.90880859375,14.04476953125,9.83649609375,14.1616796875,6.90370703125,6.81371875000001,19.78591796875,19.76021875,6.569171875,9.49369921875,13.626375,17.7560625,23.348125,19.158484375,9.053921875,0.402976562499999,10.36423828125
17.38091796875,14.2100703125,10.5499921875,0.5470078125,9.88194140625,11.783671875,8.44726171875,6.19417578125,16.66801171875,12.83440234375,18.1308359375,10.28171875,7.6035859375,9.32380859375,16.39076953125,10.13149609375,13.2886796875,9.30970703125,8.94971875,18.83191796875,18.44021875,7.989171875,10.65269921875,12.319375,16.5610625,23.662125,17.949484375,8.069921875,-2.1110234375,8.11723828125
21.28791796875,17.6990703125,13.6979921875,2.8810078125,15.48194140625,15.718671875,12.17526171875,8.79817578125,20.91901171875,17.32340234375,20.6768359375,11.64471875,10.2865859375,14.95180859375,17.92376953125,8.91749609375,11.7396796875,11.90570703125,10.65971875,16.48991796875,16.96821875,10.009171875,11.60869921875,10.596375,14.7120625,22.816125,16.601484375,7.430921875,-4.5130234375,6.24723828125
23.31391796875,19.7310703125,15.3679921875,3.9860078125,19.58594140625,18.949671875,15.74326171875,11.18017578125,23.82401171875,20.37740234375,22.6308359375,14.05971875,12.2825859375,19.50180859375,18.89276953125,7.02549609375,9.9616796875,14.07370703125,11.76871875,13.60591796875,16.18821875,11.456171875,12.08569921875,8.944375,12.7620625,20.113125,15.259484375,6.998921875,-6.3610234375,5.15823828125
23.32791796875,20.1150703125,15.4119921875,3.5270078125,21.52094140625,21.030671875,18.45326171875,12.99217578125,24.76801171875,21.73440234375,23.7678359375,17.18571875,13.4515859375,22.10180859375,19.53376953125,5.43049609375,8.3866796875,15.55470703125,12.34071875,11.17191796875,16.68121875,11.624171875,12.12369921875,7.855375,11.3590625,15.866125,14.181484375,6.698921875,-7.2230234375,5.10923828125
21.66191796875,19.0230703125,13.9949921875,1.8000078125,21.11894140625,21.585671875,19.79626171875,13.82017578125,23.78201171875,21.26940234375,23.7708359375,20.24971875,13.8715859375,22.43480859375,19.82076953125,4.76749609375,7.1506796875,16.38070703125,12.51571875,9.88391796875,18.35921875,10.471171875,11.97169921875,7.614375,10.9480625,11.495125,13.636484375,6.523921875,-6.8770234375,6.07223828125
18.88791796875,16.8420703125,11.4339921875,-0.5009921875,18.61394140625,20.366671875,19.55526171875,13.32017578125,21.46101171875,18.95840234375,22.3828359375,22.25971875,13.6295859375,20.69880859375,19.44576953125,5.07149609375,6.0476796875,16.70670703125,12.36571875,9.89091796875,20.43321875,8.430171875,11.87669921875,8.180375,11.5740625,8.925125,13.753484375,6.456921875,-5.4920234375,7.62623828125
15.78491796875,14.1830703125,8.2959921875,-2.5249921875,14.63494140625,17.583671875,17.99626171875,11.54017578125,18.80401171875,15.14040234375,19.7878359375,22.55571875,12.8675859375,17.61380859375,18.21476953125,6.02349609375,4.8716796875,16.80570703125,12.01271875,10.99491796875,21.94821875,6.204171875,12.06369921875,9.368375,13.0310625,9.711125,14.579484375,6.542921875,-3.5120234375,9.12923828125
13.36891796875,11.9360703125,5.5639921875,-3.4579921875,10.24194140625,14.193671875,15.97126171875,9.17917578125,16.96801171875,10.81640234375,16.9368359375,21.32971875,11.9265859375,14.36080859375,16.51676953125,7.43849609375,3.8066796875,17.11270703125,11.83671875,13.05391796875,22.49621875,4.635171875,12.81169921875,11.160375,15.1750625,14.310125,16.207484375,7.012921875,-1.3570234375,10.08623828125
12.66291796875,11.1070703125,4.4849921875,-2.7919921875,6.74894140625,11.731671875,14.66626171875,7.40517578125,16.84401171875,7.50640234375,15.3298359375,19.59271875,11.2855859375,12.20080859375,15.35176953125,9.45649609375,3.3706796875,18.06670703125,12.40671875,16.13191796875,22.48221875,4.459171875,14.36469921875,13.709375,17.9980625,21.752125,18.697484375,8.164921875,0.719976562499999,10.36223828125
14.28591796875,12.4210703125,6.0679921875,-0.5619921875,5.32494140625,11.650671875,15.07026171875,7.30717578125,18.66201171875,6.67440234375,16.3248359375,18.60271875,11.3245859375,11.95680859375,15.84376953125,12.30549609375,3.9706796875,19.80870703125,14.16171875,20.27791796875,22.77121875,6.028171875,16.71969921875,17.070375,21.4220625,29.961125,21.844484375,10.090921875,2.5709765625,10.16923828125
18.20591796875,15.9800703125,10.5859921875,2.7090078125,6.60294140625,14.656671875,17.53826171875,9.37117578125,21.94101171875,9.12140234375,20.4078359375,19.24271875,12.2195859375,13.77480859375,18.61576953125,15.92749609375,5.5846796875,22.11970703125,17.16471875,25.22891796875,24.06621875,9.256171875,19.58969921875,21.002375,25.1110625,36.701125,25.132484375,12.557921875,4.1139765625,9.96923828125
23.74691796875,21.1520703125,17.3479921875,6.3100078125,10.46394140625,20.356671875,21.65426171875,13.26317578125,25.79801171875,14.63940234375,26.8358359375,21.63671875,13.9535859375,17.22080859375,23.38376953125,19.72049609375,7.8116796875,24.59970703125,21.05571875,30.24591796875,26.41621875,13.747171875,22.55469921875,24.966375,28.4350625,40.590125,27.920484375,15.107921875,5.3349765625,10.26323828125
29.66991796875,26.6550703125,24.7059921875,9.5660078125,15.97394140625,27.247671875,26.30326171875,17.89617578125,29.27301171875,21.91140234375,33.7148359375,25.00671875,16.2185859375,21.44080859375,28.82676953125,22.47849609375,10.0826796875,26.80870703125,25.04271875,34.09391796875,28.98921875,18.828171875,25.15469921875,28.187375,30.5190625,41.453125,29.605484375,17.169921875,6.1759765625,11.24223828125
34.33691796875,30.8420703125,30.4219921875,11.8880078125,21.53994140625,33.107671875,29.94226171875,21.76717578125,31.50601171875,28.76940234375,38.5438359375,27.85971875,18.2785859375,25.28380859375,32.87276953125,22.68049609375,11.8186796875,28.27670703125,27.96971875,35.28891796875,30.32021875,23.498171875,26.86669921875,29.768375,30.4200625,39.934125,29.712484375,18.155921875,6.4249765625,12.53123828125
36.23391796875,32.2970703125,32.5159921875,12.8640078125,25.42694140625,35.860671875,31.19126171875,23.60717578125,31.92601171875,32.94440234375,39.2448359375,28.69771875,19.2355859375,27.62980859375,33.54576953125,19.26449609375,12.6466796875,28.64070703125,28.69071875,32.77691796875,29.14321875,26.642171875,27.22869921875,29.049375,27.6110625,36.966125,28.105484375,17.738921875,5.8729765625,13.44123828125
34.72091796875,30.5400703125,30.2949921875,12.4810078125,26.51494140625,34.616671875,29.57926171875,23.09417578125,30.52701171875,33.10540234375,35.2748359375,26.98271875,18.6555859375,27.91380859375,30.04776953125,12.53649609375,12.6696796875,27.91170703125,26.69171875,26.74491796875,25.39921875,27.580171875,26.14769921875,26.115375,22.5730625,33.577125,25.274484375,16.198921875,4.7059765625,13.60323828125
30.43991796875,26.3470703125,24.8289921875,11.1980078125,24.80694140625,30.170671875,25.88626171875,21.06517578125,27.95201171875,29.49740234375,28.0788359375,23.61571875,16.9755859375,26.42180859375,23.35276953125,4.43249609375,12.5066796875,26.55770703125,22.45571875,18.87491796875,20.57421875,26.426171875,24.05669921875,21.947375,16.8840625,30.855125,22.298484375,14.400921875,3.5839765625,13.31323828125
25.00591796875,21.3840703125,18.4239921875,9.6990078125,21.34794140625,24.566671875,21.77226171875,18.99017578125,25.18501171875,23.73440234375,20.4578359375,20.46571875,15.2235859375,24.04480859375,15.79376953125,-2.24350390625,12.9436796875,25.19970703125,17.22571875,11.66591796875,16.98321875,23.931171875,21.66469921875,17.951375,12.5500625,29.723125,20.283484375,13.248921875,3.2079765625,13.21823828125
20.28191796875,17.4320703125,13.5209921875,8.5330078125,17.68594140625,20.086671875,18.97526171875,18.11917578125,23.08201171875,18.00540234375,15.2898359375,19.36271875,14.3585859375,21.78480859375,9.99476953125,-5.09050390625,14.5096796875,24.22870703125,12.41771875,7.31191796875,16.51821875,21.033171875,19.58269921875,15.257375,11.0200625,30.577125,19.734484375,13.087921875,3.7599765625,13.70323828125
17.71591796875,15.7180703125,11.7219921875,7.9680078125,15.25694140625,18.342671875,18.63426171875,18.91817578125,22.10101171875,14.23440234375,14.3768359375,21.25071875,14.7835859375,20.37380859375,7.79276953125,-3.08250390625,17.2976796875,23.68070703125,9.12471875000001,6.85291796875,19.75121875,18.555171875,18.12469921875,14.299375,12.5970625,33.113125,20.362484375,13.583921875,4.7599765625,14.56923828125
17.90091796875,16.5610703125,13.2869921875,7.9940078125,14.87394140625,19.755671875,20.93226171875,20.98617578125,22.24701171875,13.42640234375,17.8568359375,25.81771875,16.1985859375,20.06580859375,9.58676953125,3.13849609375,20.9636796875,23.29470703125,7.81571875,9.92991796875,25.74921875,17.038171875,17.27169921875,14.771375,16.4200625,36.466125,21.339484375,14.034921875,5.3739765625,15.18723828125
20.34291796875,19.3110703125,17.1139921875,8.3050078125,16.40194140625,23.436671875,25.02426171875,23.27917578125,23.07401171875,15.30340234375,24.2408359375,31.58371875,17.6655859375,20.48880859375,14.23076953125,11.57349609375,24.7486796875,22.56970703125,8.18271875000001,15.02491796875,32.48621875,16.551171875,16.65069921875,15.791375,20.8350625,39.541125,21.683484375,13.724921875,4.8149765625,14.82923828125
23.64191796875,22.6340703125,21.2309921875,8.3540078125,18.82694140625,27.567671875,29.31126171875,24.56717578125,23.79101171875,18.45740234375,31.0608359375,36.45071875,17.9445859375,20.75080859375,19.56976953125,19.64649609375,27.6226796875,20.91170703125,9.28971875000001,20.11891796875,37.65821875,16.575171875,15.65169921875,16.275375,24.0430625,41.435125,20.657484375,12.202921875,2.6719765625,13.06323828125
26.19291796875,25.1340703125,23.7499921875,7.6450078125,20.81894140625,30.293671875,32.12326171875,24.05717578125,23.62101171875,21.13540234375,35.9738359375,38.64871875,16.1395859375,19.97480859375,23.52776953125,25.23749609375,28.7216796875,18.04570703125,10.12571875,23.60591796875,39.68421875,16.275171875,13.85769921875,15.540375,24.8920625,41.832125,18.161484375,9.533921875,-0.805023437499999,10.09723828125
26.98991796875,26.0170703125,23.7719921875,6.0880078125,21.46994140625,30.643671875,32.48226171875,21.84217578125,22.24001171875,22.20040234375,37.7798359375,37.56871875,12.3055859375,17.91880859375,25.11776953125,27.47649609375,27.8206796875,14.41570703125,10.25071875,24.99691796875,38.38021875,15.028171875,11.51469921875,13.804375,23.4250625,41.111125,14.917484375,6.425921875,-4.6450234375,6.85623828125
25.93891796875,25.3130703125,21.6349921875,4.0460078125,20.67494140625,28.850671875,30.43126171875,18.78617578125,19.92201171875,21.57140234375,36.7098359375,33.89171875,7.4885859375,15.13080859375,24.69276953125,26.80049609375,25.3726796875,11.09870703125,9.96771875,24.90491796875,34.87121875,12.794171875,9.52769921875,12.076375,20.7270625,39.993125,12.159484375,3.953921875,-7.5370234375,4.55323828125
23.62691796875,23.6270703125,18.4599921875,2.0600078125,18.99994140625,25.952671875,26.81026171875,15.94917578125,17.30401171875,19.95840234375,33.9558359375,29.03871875,3.1585859375,12.54880859375,23.38976953125,24.40349609375,22.0946796875,9.21970703125,9.94071875,24.39191796875,30.83621875,10.134171875,8.93869921875,11.496375,18.2250625,39.025125,10.988484375,3.028921875,-8.4830234375,3.98923828125
20.97591796875,21.7610703125,15.5289921875,0.618007812499999,17.31694140625,23.197671875,22.84926171875,14.08317578125,15.11201171875,18.34640234375,30.9558359375,24.51271875,0.521585937499999,11.02680859375,22.35976953125,21.59849609375,18.5126796875,9.37570703125,10.71671875,24.28491796875,27.76921875,8.058171875,10.33269921875,12.674375,17.0030625,38.404125,11.893484375,4.033921875,-7.2350234375,5.16923828125
19.02891796875,20.5020703125,13.8879921875,0.1510078125,16.51494140625,21.634671875,19.85226171875,13.52017578125,14.05901171875,17.60840234375,28.8928359375,21.53071875,0.1415859375,11.11280859375,22.29776953125,19.48449609375,14.7876796875,11.44570703125,12.50371875,24.90591796875,26.64821875,7.796171875,13.60269921875,15.466375,17.5470625,38.210125,14.719484375,6.860921875,-4.2320234375,7.45523828125
18.67691796875,20.4770703125,14.1349921875,1.0240078125,17.27094140625,21.889671875,18.88526171875,14.27017578125,14.75001171875,18.25540234375,28.4348359375,20.82471875,1.8745859375,12.97580859375,23.32376953125,18.77149609375,10.7436796875,14.76070703125,15.16671875,26.12991796875,27.89321875,10.386171875,18.06469921875,19.159375,19.7940625,38.590125,18.870484375,11.113921875,-0.2720234375,9.99023828125
20.29091796875,21.9480703125,16.2869921875,3.3690078125,19.81794140625,24.005671875,20.42126171875,16.08817578125,17.44001171875,20.28840234375,29.6258359375,22.46971875,5.0385859375,16.36280859375,25.07776953125,19.62849609375,6.0036796875,18.42770703125,18.30471875,27.55891796875,31.37221875,16.162171875,22.79869921875,22.831375,23.2750625,39.658125,23.573484375,16.257921875,3.8319765625,12.04323828125
23.54691796875,24.6890703125,19.8209921875,6.9380078125,23.85194140625,27.485671875,24.12626171875,18.55417578125,21.84101171875,23.27440234375,31.9838359375,25.89471875,8.8055859375,20.70580859375,27.01876953125,21.67749609375,0.2966796875,21.76070703125,21.47171875,28.77591796875,36.46121875,24.558171875,27.10669921875,25.834375,27.3520625,41.312125,28.187484375,21.765921875,7.5439765625,13.26323828125
27.64591796875,28.0890703125,23.9609921875,11.1580078125,28.67094140625,31.573671875,29.00126171875,21.23217578125,27.18201171875,26.64440234375,34.8048359375,30.14371875,12.6185859375,25.41380859375,28.80576953125,24.22849609375,-6.1913203125,24.62970703125,24.46671875,29.63491796875,42.25921875,34.366171875,30.89169921875,28.158375,31.5170625,43.241125,32.503484375,27.309921875,10.8199765625,13.82023828125
27.64591796875,28.0890703125,23.9609921875,11.1580078125,28.67094140625,31.573671875,29.00126171875,21.23217578125,27.18201171875,26.64440234375,34.8048359375,30.14371875,12.6185859375,25.41380859375,28.80576953125,24.22849609375,-6.1913203125,24.62970703125,24.46671875,29.63491796875,42.25921875,34.366171875,30.89169921875,28.158375,31.5170625,43.241125,32.503484375,27.309921875,10.8199765625,13.82023828125
