"Fp1","Fpz","Fp2","F7","F3","Fz","F4","F8","FC5","FC1","FC2","FC6","T7","C3","Cz","C4","T8","CP5","CP1","CP2","CP6","P7","P3","Pz","P4","P8","POz","O1","Oz","O2"
-5.04809765625,-2.8467265625,1.8820546875,4.30176171875,-0.71850390625,2.15474609375,3.37634765625,-2.721734375,0.324125,3.8139765625,6.89571875,3.02769921875,-0.3009296875,7.27212109375,9.96918359375,5.7830859375,-0.44069921875,5.34079296875,8.64668359375,8.88516796875,7.11507421875,6.82546875,11.20239453125,13.47274609375,11.5794453125,12.1442265625,20.645671875,13.15038671875,13.56307421875,9.4431171875
-8.15509765625,-9.6377265625,-2.7469453125,3.11076171875,-0.72550390625,2.10474609375,1.23634765625,-2.594734375,-0.526875,1.3189765625,2.93171875,-0.11430078125,2.8870703125,4.18612109375,5.09018359375,1.0900859375,-2.89469921875,2.54479296875,0.731683593750001,5.84016796875,2.32407421875,-0.27553125,6.38839453125,8.19574609375,4.0904453125,1.7612265625,13.912671875,5.09838671875,5.20707421875,1.0491171875
-9.44409765625,-14.1857265625,-5.8589453125,2.20076171875,-1.76350390625,1.34274609375,-0.67665234375,-3.152734375,-1.785875,-0.8210234375,0.09371875,-2.04330078125,2.7050703125,1.23512109375,1.88518359375,-1.7929140625,-3.32069921875,-0.19220703125,-4.72731640625,3.56716796875,-0.52892578125,-5.09053125,2.66739453125,4.88274609375,-0.391554687500001,-4.3447734375,9.526671875,-0.61861328125,-0.37192578125,-4.4788828125
-8.56209765625,-15.6157265625,-7.1129453125,1.72876171875,-3.48550390625,0.28874609375,-1.94965234375,-3.958734375,-3.116875,-2.3700234375,-1.35928125,-2.58230078125,-0.5569296875,-1.29687890625,0.51218359375,-2.6959140625,-1.88369921875,-2.54620703125,-7.60831640625,2.27916796875,-1.32192578125,-7.43753125,0.25439453125,3.53774609375,-1.8095546875,-6.0057734375,7.578671875,-3.59861328125,-2.96792578125,-6.7798828125
-5.73109765625,-13.6647265625,-6.5619453125,1.67676171875,-5.20350390625,-0.40025390625,-2.19565234375,-4.325734375,-4.069875,-3.1550234375,-1.46928125,-1.91830078125,-5.3069296875,-3.06687890625,0.66318359375,-1.9789140625,0.57630078125,-4.11720703125,-8.41431640625,1.96916796875,-0.52392578125,-7.73153125,-0.89260546875,3.57474609375,-0.9865546875,-4.3357734375,7.476671875,-4.04461328125,-3.14192578125,-6.3338828125
-1.79809765625,-9.0567265625,-4.6479453125,1.72776171875,-6.38150390625,-0.30425390625,-1.33665234375,-3.816734375,-4.443875,-3.1880234375,-0.57328125,-0.53130078125,-9.4229296875,-3.83987890625,1.74518359375,-0.3529140625,3.01330078125,-4.64420703125,-7.89431640625,2.38016796875,1.06307421875,-6.70753125,-1.03760546875,4.15374609375,0.869445312499999,-1.0857734375,8.296671875,-2.65361328125,-1.87892578125,-4.2148828125
1.90990234375,-3.4697265625,-2.1039453125,1.34176171875,-6.94050390625,0.49874609375,0.26234765625,-2.505734375,-4.425875,-2.7230234375,0.78571875,0.97269921875,-11.1829296875,-3.64287890625,3.08518359375,1.3880859375,4.63030078125,-4.14320703125,-6.76031640625,3.08716796875,2.62507421875,-5.16853125,-0.59560546875,4.51174609375,2.6474453125,2.0612265625,9.127671875,-0.41961328125,-0.22792578125,-1.6798828125
3.97890234375,1.0602734375,0.2590546875,0.05576171875,-7.20450390625,1.52974609375,1.93834765625,-0.886734375,-4.398875,-2.1570234375,2.02571875,2.05869921875,-9.9059296875,-2.77087890625,4.11918359375,2.6030859375,5.12030078125,-2.90120703125,-5.55531640625,3.66016796875,3.57707421875,-3.78753125,-0.02760546875,4.17474609375,3.6254453125,3.9862265625,9.301671875,1.63338671875,0.96507421875,0.2351171875
3.46590234375,3.0512734375,1.8160546875,-2.18023828125,-7.57550390625,2.22674609375,3.01934765625,0.439265625,-4.599875,-1.8600234375,2.69871875,2.42069921875,-6.0489296875,-1.64687890625,4.54118359375,2.9740859375,4.63330078125,-1.35420703125,-4.59731640625,3.81916796875,3.68807421875,-2.94953125,0.30139453125,3.06174609375,3.5804453125,4.3432265625,8.537671875,2.72838671875,1.24707421875,0.9921171875
0.42790234375,2.2242734375,2.3070546875,-4.88923828125,-8.22050390625,2.25574609375,3.08834765625,1.048265625,-4.950875,-2.0070234375,2.62071875,2.02769921875,-0.8189296875,-0.63587890625,4.35318359375,2.5450859375,3.58930078125,0.0727929687500001,-3.98831640625,3.52516796875,3.06607421875,-2.68353125,0.23639453125,1.46474609375,2.7274453125,3.4792265625,6.966671875,2.57538671875,0.63907421875,0.6101171875
-3.90409765625,-0.5387265625,1.8430546875,-7.25523828125,-8.97350390625,1.64774609375,2.11934765625,0.844265625,-5.169875,-2.5440234375,1.88871875,1.07969921875,4.3470703125,0.0641210937499999,3.77518359375,1.6290859375,2.43230078125,1.07579296875,-3.70031640625,2.94916796875,2.03507421875,-2.76253125,-0.15260546875,-0.11725390625,1.5284453125,2.1032265625,5.030671875,1.44538671875,-0.44992578125,-0.4748828125
-7.54409765625,-3.8327265625,0.7460546875,-8.50023828125,-9.47350390625,0.74974609375,0.47634765625,0.0542656250000002,-5.009875,-3.2580234375,0.79571875,-0.11130078125,8.2010703125,0.41612109375,3.07818359375,0.6280859375,1.47030078125,1.51079296875,-3.67231640625,2.36016796875,0.95807421875,-2.92853125,-0.65560546875,-1.21025390625,0.4334453125,0.8712265625,3.289671875,0.0073867187500003,-1.47192578125,-1.6938828125
-8.66209765625,-6.3997265625,-0.5919453125,-8.24823828125,-9.40650390625,0.00374609375000001,-1.24965234375,-0.921734375,-4.415875,-3.9050234375,-0.30928125,-1.23230078125,9.9040703125,0.48312109375,2.45918359375,-0.1219140625,0.81230078125,1.36579296875,-3.81331640625,1.98416796875,0.10507421875,-3.06253125,-1.03860546875,-1.52925390625,-0.262554687500001,0.1132265625,2.253671875,-0.99861328125,-1.99792578125,-2.6128828125
-6.50509765625,-7.4387265625,-1.7809453125,-6.71023828125,-8.69850390625,-0.28625390625,-2.50265234375,-1.722734375,-3.546875,-4.3190234375,-1.13328125,-2.05330078125,9.1400703125,0.37912109375,2.01518359375,-0.4479140625,0.41530078125,0.74079296875,-3.94031640625,1.93016796875,-0.39792578125,-3.19253125,-1.11960546875,-1.01825390625,-0.436554687500001,-0.1697734375,2.278671875,-1.10261328125,-1.85992578125,-3.0408828125
-1.78209765625,-6.6437265625,-2.4749453125,-4.57723828125,-7.58250390625,-0.08625390625,-2.99065234375,-2.181734375,-2.716875,-4.4550234375,-1.50628125,-2.47230078125,6.1650703125,0.20712109375,1.77218359375,-0.3469140625,0.15330078125,-0.17920703125,-3.81331640625,2.18116796875,-0.54192578125,-3.39553125,-0.80860546875,0.19674609375,-0.0965546875000003,-0.1467734375,3.479671875,-0.28061328125,-1.15692578125,-2.9838828125
3.66490234375,-4.2307265625,-2.4889453125,-2.62723828125,-6.50550390625,0.39874609375,-2.75865234375,-2.333734375,-2.302875,-4.3920234375,-1.41628125,-2.51930078125,1.7820703125,0.00212109374999987,1.70118359375,0.0370859375000002,-0.11269921875,-1.16420703125,-3.27031640625,2.65616796875,-0.39092578125,-3.69353125,-0.13260546875,1.85774609375,0.625445312499999,-0.00477343750000003,5.651671875,1.08838671875,-0.17192578125,-2.5338828125
7.71990234375,-0.9517265625,-1.9059453125,-1.31723828125,-5.93850390625,0.85674609375,-2.10065234375,-2.330734375,-2.607875,-4.2800234375,-1.00828125,-2.33730078125,-2.8309296875,-0.29787890625,1.72618359375,0.4780859375,-0.47269921875,-2.00420703125,-2.34831640625,3.24616796875,-0.05992578125,-3.99253125,0.75839453125,3.61874609375,1.4954453125,0.1292265625,8.287671875,2.44438671875,0.75407421875,-1.8078828125
8.94490234375,2.1082734375,-1.0579453125,-0.62023828125,-6.14750390625,0.99774609375,-1.42865234375,-2.345734375,-3.702875,-4.2530234375,-0.53128125,-2.11530078125,-6.4539296875,-0.77687890625,1.75718359375,0.7600859375,-0.90369921875,-2.56820703125,-1.25631640625,3.82716796875,0.32007421875,-4.09953125,1.63039453125,5.10074609375,2.2444453125,0.1962265625,10.712671875,3.32638671875,1.37007421875,-0.9558828125
7.15290234375,3.9522734375,-0.3619453125,-0.16723828125,-7.02350390625,0.68674609375,-1.12265234375,-2.472734375,-5.301875,-4.3440234375,-0.23328125,-1.99830078125,-8.2409296875,-1.42087890625,1.71618359375,0.7600859375,-1.25369921875,-2.81120703125,-0.263316406249999,4.26516796875,0.63207421875,-3.82653125,2.22939453125,5.95974609375,2.6524453125,0.1652265625,12.301671875,3.54638671875,1.57607421875,-0.1988828125
3.33090234375,4.0752734375,-0.1189453125,0.45776171875,-8.08150390625,0.01874609375,-1.38865234375,-2.637734375,-6.784875,-4.4550234375,-0.25828125,-2.03330078125,-7.9929296875,-2.04187890625,1.55418359375,0.4720859375,-1.31969921875,-2.74020703125,0.388683593750001,4.43616796875,0.79907421875,-3.14253125,2.35839453125,5.94074609375,2.5834453125,-0.0357734374999999,12.663671875,3.19638671875,1.37407421875,0.1791171875
-0.97609765625,2.5792734375,-0.4189453125,1.47276171875,-8.67350390625,-0.72925390625,-2.16965234375,-2.635734375,-7.432875,-4.4180234375,-0.60528125,-2.17130078125,-6.1469296875,-2.34187890625,1.24718359375,-0.0199140624999998,-0.98469921875,-2.39120703125,0.551683593750001,4.25716796875,0.79207421875,-2.23253125,1.94639453125,4.94774609375,2.0104453125,-0.5127734375,11.755671875,2.51638671875,0.77307421875,-0.0828828125000001
-4.43209765625,-0.0107265624999999,-1.1639453125,2.75376171875,-8.36150390625,-1.29425390625,-3.22965234375,-2.330734375,-6.805875,-4.1290234375,-1.19028125,-2.35930078125,-3.5249296875,-2.08687890625,0.78818359375,-0.6129140625,-0.33169921875,-1.83820703125,0.220683593750001,3.69716796875,0.61507421875,-1.38453125,1.08339453125,3.10874609375,1.0404453125,-1.3107734375,9.920671875,1.75238671875,-0.22492578125,-1.0928828125
-6.41909765625,-3.0907265625,-2.1819453125,3.84776171875,-7.21550390625,-1.64225390625,-4.36065234375,-1.865734375,-5.075875,-3.6650234375,-1.94728125,-2.62930078125,-1.0359296875,-1.28387890625,0.16218359375,-1.2549140625,0.37330078125,-1.22120703125,-0.486316406249999,2.78116796875,0.27007421875,-0.84553125,-0.01360546875,0.78874609375,-0.1045546875,-2.3237734375,7.767671875,1.05738671875,-1.56592578125,-2.7218828125
-7.08509765625,-6.2437265625,-3.3349453125,4.17476171875,-5.81050390625,-1.99125390625,-5.51065234375,-1.626734375,-3.020875,-3.2870234375,-2.87528125,-3.09930078125,0.5240703125,-0.22687890625,-0.65681640625,-1.9649140625,0.81530078125,-0.75220703125,-1.41031640625,1.58816796875,-0.24792578125,-0.75553125,-1.10660546875,-1.52925390625,-1.1835546875,-3.2987734375,5.920671875,0.47038671875,-3.09492578125,-4.6058828125
-6.97709765625,-9.2657265625,-4.5379453125,3.37476171875,-4.86450390625,-2.61125390625,-6.71165234375,-1.937734375,-1.603875,-3.2680234375,-3.97828125,-3.84630078125,0.6300703125,0.64512109375,-1.65581640625,-2.7869140625,0.80930078125,-0.64820703125,-2.41031640625,0.27016796875,-0.91292578125,-1.17553125,-2.03060546875,-3.40225390625,-2.0315546875,-3.9277734375,4.776671875,-0.0436132812499999,-4.55892578125,-6.2418828125
-6.55909765625,-11.9457265625,-5.6729453125,1.57576171875,-4.78050390625,-3.57325390625,-7.88665234375,-2.765734375,-1.395875,-3.6780234375,-5.14328125,-4.76530078125,-0.8059296875,1.01112109375,-2.69781640625,-3.6899140625,0.40730078125,-1.02620703125,-3.33331640625,-0.93683203125,-1.61292578125,-2.07753125,-2.70660546875,-4.52825390625,-2.5425546875,-3.9237734375,4.441671875,-0.49861328125,-5.62992578125,-7.1208828125
-5.93809765625,-13.8507265625,-6.4989453125,-0.63823828125,-5.38150390625,-4.64325390625,-8.76265234375,-3.700734375,-2.241875,-4.2700234375,-6.08928125,-5.52830078125,-3.3159296875,0.85812109375,-3.49281640625,-4.4919140625,-0.11069921875,-1.80220703125,-3.95231640625,-1.74583203125,-2.11792578125,-3.27653125,-3.07260546875,-4.75125390625,-2.6045546875,-3.0747734375,4.844671875,-0.78461328125,-5.95292578125,-6.8708828125
-4.94809765625,-14.3687265625,-6.6949453125,-2.57223828125,-6.02450390625,-5.36325390625,-8.95265234375,-4.195734375,-3.401875,-4.5880234375,-6.45728125,-5.73130078125,-5.9469296875,0.48812109375,-3.70181640625,-4.9109140625,-0.35969921875,-2.68420703125,-4.03231640625,-1.89783203125,-2.15192578125,-4.43553125,-3.03960546875,-4.05325390625,-2.1075546875,-1.3337734375,5.850671875,-0.66861328125,-5.27192578125,-5.3768828125
-3.41009765625,-13.0607265625,-6.0249453125,-3.82723828125,-5.97450390625,-5.26825390625,-8.15265234375,-3.865734375,-4.003875,-4.2270234375,-5.99928125,-5.12430078125,-7.5829296875,0.32912109375,-3.13481640625,-4.7129140625,-0.04769921875,-3.26520703125,-3.47131640625,-1.28383203125,-1.53992578125,-5.15653125,-2.50460546875,-2.56225390625,-1.0575546875,1.0472265625,7.307671875,0.0933867187500002,-3.60492578125,-2.8658828125
-1.32509765625,-10.0207265625,-4.5239453125,-4.45823828125,-4.81450390625,-4.14125390625,-6.36365234375,-2.681734375,-3.527875,-3.0810234375,-4.74428125,-3.77030078125,-7.4269296875,0.68712109375,-1.88581640625,-3.8539140625,0.88230078125,-3.20020703125,-2.36831640625,-0.03183203125,-0.34992578125,-5.12253125,-1.41160546875,-0.54725390625,0.335445312499999,3.5002265625,9.032671875,1.58038671875,-1.30392578125,0.1051171875
1.10490234375,-5.9797265625,-2.5359453125,-4.78723828125,-2.66850390625,-2.18025390625,-3.99365234375,-0.978734375,-2.031875,-1.4120234375,-3.01328125,-2.03830078125,-5.3589296875,1.59412109375,-0.29281640625,-2.5199140625,2.20330078125,-2.36420703125,-0.954316406249999,1.50916796875,1.09507421875,-4.19553125,0.19439453125,1.64874609375,1.7304453125,5.3052265625,10.851671875,3.62138671875,1.05907421875,2.8071171875
3.52490234375,-2.0957265625,-0.5979453125,-4.99823828125,-0.12250390625,0.04774609375,-1.75765234375,0.692265625,-0.0618749999999997,0.2769765625,-1.26328125,-0.41630078125,-1.9709296875,2.81812109375,1.22518359375,-1.0339140625,3.49130078125,-0.90020703125,0.529683593750001,2.93016796875,2.36407421875,-2.45953125,2.16939453125,3.71974609375,2.8274453125,5.9092265625,12.650671875,5.83238671875,2.94107421875,4.6211171875
5.48290234375,0.4662734375,0.7570546875,-4.89023828125,2.09449609375,1.86974609375,-0.34865234375,1.835265625,1.683125,1.4979765625,0.12171875,0.71369921875,1.7220703125,4.01112109375,2.36118359375,0.3040859375,4.28430078125,0.85879296875,1.91568359375,3.96816796875,3.13007421875,-0.23653125,4.29839453125,5.48074609375,3.5244453125,5.1902265625,14.403671875,7.76338671875,4.02307421875,5.3001171875
6.49490234375,0.9892734375,1.2170546875,-4.02723828125,3.47549609375,2.83174609375,-0.0876523437500003,2.207265625,2.711125,1.9999765625,0.99371875,1.23569921875,4.7050703125,4.88712109375,3.03318359375,1.3410859375,4.25730078125,2.54379296875,3.15868359375,4.61416796875,3.33407421875,2.00046875,6.35339453125,6.90774609375,3.9614453125,3.5462265625,16.155671875,9.07538671875,4.30307421875,5.0661171875
6.18390234375,-0.5037265625,0.8080546875,-2.22323828125,3.91049609375,2.87274609375,-0.79765234375,1.831265625,2.916125,1.8499765625,1.44071875,1.28369921875,6.2960703125,5.34712109375,3.38418359375,2.1040859375,3.32930078125,3.88079296875,4.35868359375,5.06216796875,3.17807421875,3.80346875,8.14639453125,8.11474609375,4.4394453125,1.7412265625,17.970671875,9.67738671875,4.07107421875,4.4571171875
4.44290234375,-3.2867265625,-0.1349453125,0.0857617187499999,3.62049609375,2.26774609375,-1.97265234375,0.864265625,2.506125,1.3409765625,1.67471875,1.10969921875,6.3000703125,5.47912109375,3.65218359375,2.7040859375,1.69030078125,4.77579296875,5.67568359375,5.53816796875,2.97007421875,4.93046875,9.55739453125,9.25574609375,5.1974453125,0.5602265625,19.856671875,9.76838671875,3.79107421875,4.0331171875
1.57890234375,-6.3177265625,-1.1529453125,1.97276171875,2.92449609375,1.43874609375,-3.07365234375,-0.511734375,1.801125,0.7999765625,1.86371875,0.90769921875,4.9440703125,5.44812109375,3.97818359375,3.2080859375,-0.25869921875,5.29379296875,7.16768359375,6.12916796875,2.91007421875,5.39546875,10.51939453125,10.36874609375,6.1954453125,0.4162265625,21.655671875,9.72238671875,3.88007421875,4.1041171875
-1.69309765625,-8.7107265625,-1.8929453125,2.59476171875,2.04449609375,0.75774609375,-3.74665234375,-2.095734375,1.062125,0.4269765625,2.02471875,0.73569921875,2.6640703125,5.35512109375,4.29518359375,3.5490859375,-2.03669921875,5.54479296875,8.64668359375,6.70616796875,2.98907421875,5.36146875,10.96839453125,11.28674609375,7.0634453125,1.1922265625,23.030671875,9.86438671875,4.50207421875,4.6101171875
-4.45409765625,-9.9827265625,-2.2399453125,1.77876171875,1.03449609375,0.41874609375,-3.87865234375,-3.642734375,0.402125,0.2229765625,2.05371875,0.54769921875,-0.1279296875,5.14712109375,4.37718359375,3.5800859375,-3.24469921875,5.53979296875,9.71068359375,6.98416796875,3.02707421875,4.97746875,10.80039453125,11.68074609375,7.2904453125,2.4012265625,23.576671875,10.21638671875,5.45307421875,5.2031171875
-5.94109765625,-10.0537265625,-2.3009453125,0.14976171875,-0.12750390625,0.42974609375,-3.54165234375,-4.873734375,-0.221875,0.0659765624999999,1.84271875,0.29669921875,-3.1239296875,4.65012109375,4.00418359375,3.1940859375,-3.71269921875,5.11679296875,9.91568359375,6.66216796875,2.80907421875,4.24946875,9.87339453125,11.20874609375,6.5214453125,3.4862265625,22.969671875,10.37638671875,6.19507421875,5.4041171875
-5.88209765625,-9.1507265625,-2.2869453125,-1.27923828125,-1.40850390625,0.69974609375,-2.86965234375,-5.512734375,-0.966875,-0.1760234375,1.40371875,0.0246992187500001,-5.9839296875,3.68212109375,3.12118359375,2.4240859375,-3.52669921875,4.03579296875,8.96068359375,5.57816796875,2.19907421875,3.05046875,8.06739453125,9.66274609375,4.7204453125,4.0092265625,21.056671875,9.65038671875,6.00907421875,4.7481171875
-4.55809765625,-7.7117265625,-2.3719453125,-1.74723828125,-2.62850390625,1.15674609375,-1.92765234375,-5.308734375,-1.984875,-0.5340234375,0.91571875,-0.10830078125,-8.1669296875,2.19312109375,1.89018359375,1.4720859375,-2.92769921875,2.17579296875,6.83668359375,3.81316796875,1.19007421875,1.26446875,5.41039453125,7.08174609375,2.1664453125,3.6822265625,17.904671875,7.43938671875,4.28307421875,2.9311171875
-2.51309765625,-6.2307265625,-2.5679453125,-1.20523828125,-3.50050390625,1.78474609375,-0.67665234375,-4.122734375,-3.254875,-0.9050234375,0.65971875,0.10069921875,-8.9589296875,0.37212109375,0.65518359375,0.6480859375,-2.15469921875,-0.27020703125,3.91668359375,1.68816796875,-0.0919257812500001,-0.98853125,2.20839453125,3.82174609375,-0.633554687500001,2.4152265625,13.861671875,3.68138671875,0.87907421875,-0.0318828125000001
-0.13809765625,-5.0147265625,-2.6929453125,-0.30523828125,-3.74550390625,2.57974609375,0.94134765625,-2.051734375,-4.497875,-1.1060234375,0.88271875,0.77469921875,-7.8229296875,-1.35187890625,-0.18881640625,0.2610859375,-1.34869921875,-2.77920703125,0.902683593750001,-0.32183203125,-1.40892578125,-3.25253125,-0.93760546875,0.52874609375,-3.0505546875,0.4002265625,9.603671875,-0.93961328125,-3.63592578125,-3.6658828125
2.49690234375,-4.0237265625,-2.4679453125,0.0327617187499999,-3.23050390625,3.49374609375,2.86434765625,0.503265625,-5.277875,-0.9760234375,1.65971875,1.85269921875,-4.8219296875,-2.45887890625,-0.37081640625,0.4840859375,-0.56969921875,-4.66920703125,-1.42131640625,-1.74683203125,-2.46692578125,-4.89853125,-3.29860546875,-2.05025390625,-4.5165546875,-1.8537734375,6.009671875,-5.20661328125,-8.11092578125,-7.0808828125
5.40290234375,-2.9637265625,-1.7139453125,-0.84023828125,-2.06050390625,4.39774609375,4.82034765625,2.885265625,-5.253875,-0.5030234375,2.80671875,3.03569921875,-0.7609296875,-2.59987890625,0.10718359375,1.2430859375,0.12830078125,-5.40920703125,-2.54231640625,-2.29683203125,-3.02892578125,-5.45553125,-4.31860546875,-3.37625390625,-4.7475546875,-3.6797734375,3.867671875,-7.88961328125,-11.27592578125,-9.2568828125
8.23890234375,-1.6657265625,-0.5509453125,-2.95423828125,-0.62250390625,5.04174609375,6.32634765625,4.352265625,-4.433875,0.1039765625,3.89171875,3.85669921875,3.1050703125,-1.83487890625,0.92518359375,2.2000859375,0.64630078125,-4.89320703125,-2.44731640625,-1.99983203125,-3.01492578125,-4.86753125,-3.88460546875,-3.36625390625,-3.8755546875,-4.5177734375,3.549671875,-8.29461328125,-12.29092578125,-9.4888828125
10.13190234375,-0.4537265625,0.5430546875,-5.68923828125,0.48249609375,5.04574609375,6.77434765625,4.268265625,-3.247875,0.4459765625,4.34771875,3.82269921875,5.5440703125,-0.70087890625,1.56018359375,2.8550859375,0.85730078125,-3.54320703125,-1.61231640625,-1.23883203125,-2.56892578125,-3.51553125,-2.41160546875,-2.43725390625,-2.3945546875,-4.1627734375,4.861671875,-6.55361328125,-11.07292578125,-7.7418828125
9.98790234375,-0.1387265625,0.8840546875,-8.02623828125,0.62849609375,4.00974609375,5.64534765625,2.345265625,-2.384875,0.0739765625,3.68571875,2.62469921875,5.7410703125,-0.0268789062500001,1.47818359375,2.7260859375,0.67230078125,-2.16120703125,-0.817316406249999,-0.62083203125,-2.03092578125,-2.04353125,-0.69560546875,-1.33225390625,-0.9825546875,-2.8837734375,7.106671875,-3.54061328125,-8.30392578125,-4.7288828125
7.14090234375,-1.5427265625,-0.0809453125000001,-9.00523828125,-0.56550390625,1.75774609375,2.80934765625,-1.127734375,-2.452875,-1.3070234375,1.71071875,0.30369921875,3.4700703125,-0.57987890625,0.33918359375,1.5450859375,0.09730078125,-1.58120703125,-0.861316406249999,-0.73183203125,-1.81992578125,-1.09453125,0.40039453125,-0.81925390625,-0.282554687500001,-1.3687734375,9.341671875,-0.46661328125,-5.15492578125,-1.6368828125
1.87990234375,-4.8457265625,-2.4349453125,-8.20923828125,-3.02950390625,-1.47325390625,-1.27765234375,-5.257734375,-3.673875,-3.6590234375,-1.34928125,-2.71130078125,-0.8779296875,-2.70787890625,-1.85781640625,-0.6169140625,-0.74569921875,-2.30520703125,-2.24931640625,-1.87583203125,-2.26592578125,-1.07553125,0.30039453125,-1.36725390625,-0.6755546875,-0.4327734375,10.755671875,1.60638671875,-2.83692578125,0.3751171875
-4.50309765625,-9.2847265625,-5.6499453125,-6.04223828125,-6.25750390625,-5.07625390625,-5.68465234375,-8.857734375,-5.804875,-6.5870234375,-4.90328125,-5.73730078125,-6.3499296875,-6.15887890625,-4.74581640625,-3.3489140625,-1.66569921875,-4.29120703125,-4.91631640625,-3.93883203125,-3.44292578125,-1.98953125,-1.04160546875,-2.92825390625,-2.1125546875,-0.5997734375,11.030671875,2.16438671875,-2.10192578125,0.6741171875
-10.15809765625,-13.4637265625,-8.7889453125,-3.55023828125,-9.52050390625,-8.34725390625,-9.39865234375,-10.983734375,-8.292875,-9.4760234375,-8.20728125,-8.12030078125,-11.5699296875,-10.15987890625,-7.70281640625,-6.0519140625,-2.50369921875,-6.96720703125,-8.20931640625,-6.43383203125,-5.12692578125,-3.42253125,-3.11860546875,-4.95125390625,-4.1105546875,-1.8137734375,10.462671875,1.38238671875,-2.93692578125,-0.5828828125
-13.38009765625,-16.0597265625,-10.9409453125,-1.86823828125,-12.15150390625,-10.76025390625,-11.73265234375,-11.325734375,-10.523875,-11.7310234375,-10.65228125,-9.50230078125,-15.0419296875,-13.72187890625,-10.08181640625,-8.1919140625,-3.24269921875,-9.47420703125,-11.16931640625,-8.70883203125,-6.90292578125,-4.70253125,-5.09760546875,-6.66525390625,-5.9835546875,-3.5097734375,9.753671875,-0.0016132812499996,-4.62292578125,-2.5808828125
-13.25609765625,-16.4237265625,-11.6239453125,-1.63123828125,-13.72350390625,-12.11325390625,-12.52465234375,-10.239734375,-11.993875,-12.9840234375,-11.97228125,-9.94530078125,-15.6169296875,-16.01887890625,-11.44081640625,-9.5099140625,-4.02069921875,-11.00620703125,-12.96831640625,-10.22383203125,-8.36692578125,-5.19153125,-6.18560546875,-7.46825390625,-7.1765546875,-4.9737734375,9.598671875,-1.04961328125,-6.14092578125,-4.2938828125
-10.01809765625,-14.7247265625,-10.9319453125,-2.72623828125,-14.11650390625,-12.52725390625,-12.10865234375,-8.488734375,-12.394875,-13.1910234375,-12.29428125,-9.83130078125,-13.0249296875,-16.65887890625,-11.66281640625,-10.0719140625,-5.02069921875,-11.13920703125,-13.24631640625,-10.76483203125,-9.28592578125,-4.54453125,-5.97360546875,-7.19625390625,-7.4635546875,-5.7067734375,10.334671875,-1.04661328125,-6.67392578125,-4.9728828125
-4.97109765625,-11.7077265625,-9.3969453125,-4.48823828125,-13.48450390625,-12.34125390625,-11.12265234375,-6.903734375,-11.701875,-12.6030234375,-12.02028125,-9.63330078125,-8.1359296875,-15.77487890625,-10.95081640625,-10.1549140625,-6.27569921875,-9.98120703125,-12.20631640625,-10.49283203125,-9.63292578125,-2.86753125,-4.60660546875,-6.14625390625,-6.9575546875,-5.5687734375,11.827671875,0.19338671875,-5.93792578125,-4.4138828125
0.00990234374999988,-8.3567265625,-7.7229453125,-6.12423828125,-12.19350390625,-11.95525390625,-10.23665234375,-6.081734375,-10.248875,-11.6520234375,-11.61328125,-9.67330078125,-2.7009296875,-13.94187890625,-9.72681640625,-10.0649140625,-7.55369921875,-8.09620703125,-10.50031640625,-9.80083203125,-9.51592578125,-0.68753125,-2.69360546875,-4.88325390625,-5.9815546875,-4.7127734375,13.576671875,2.29438671875,-4.22992578125,-2.9018828125
3.20190234375,-5.6577265625,-6.5209453125,-7.11823828125,-10.71450390625,-11.66625390625,-9.87765234375,-6.210734375,-8.681875,-10.7860234375,-11.39228125,-10.01430078125,1.3500703125,-11.95487890625,-8.48381640625,-9.9869140625,-8.42269921875,-6.23820703125,-8.93031640625,-9.08883203125,-9.07592578125,1.26046875,-1.02360546875,-3.96125390625,-4.9175546875,-3.4537734375,14.948671875,4.53538671875,-2.22192578125,-0.9738828125
3.65490234375,-4.4077265625,-6.1459453125,-7.37523828125,-9.49250390625,-11.59525390625,-10.10165234375,-7.066734375,-7.735875,-10.3140234375,-11.43828125,-10.49430078125,2.6810703125,-10.54187890625,-7.60381640625,-9.9459140625,-8.46869921875,-5.03920703125,-8.08931640625,-8.58083203125,-8.43792578125,2.36046875,-0.20960546875,-3.67225390625,-4.0725546875,-2.1467734375,15.441671875,6.19738671875,-0.62792578125,0.7911171875
1.44290234375,-5.0197265625,-6.6229453125,-7.12123828125,-8.83550390625,-11.72625390625,-10.67265234375,-8.193734375,-7.891875,-10.3120234375,-11.63428125,-10.86830078125,1.0090703125,-10.09387890625,-7.22481640625,-9.8399140625,-7.54769921875,-4.78520703125,-8.09531640625,-8.28983203125,-7.71092578125,2.37946875,-0.45160546875,-3.96025390625,-3.5975546875,-1.1077734375,14.870671875,6.84138671875,0.08407421875,1.9031171875
-2.47509765625,-7.3447265625,-7.6769453125,-6.68923828125,-8.83350390625,-11.98925390625,-11.26465234375,-9.113734375,-9.135875,-10.6340234375,-11.79228125,-10.95030078125,-2.9039296875,-10.53987890625,-7.23281640625,-9.5489140625,-5.88969921875,-5.34620703125,-8.62431640625,-8.09083203125,-7.01292578125,1.50846875,-1.51660546875,-4.52825390625,-3.5135546875,-0.5697734375,13.393671875,6.41438671875,-0.18692578125,2.0321171875
-6.65009765625,-10.6457265625,-8.8359453125,-6.37623828125,-9.34950390625,-12.29525390625,-11.61365234375,-9.465734375,-10.944875,-11.0120234375,-11.78128125,-10.68130078125,-7.6019296875,-11.42687890625,-7.37781640625,-9.0199140625,-4.00069921875,-6.27920703125,-9.18331640625,-7.84183203125,-6.47292578125,0.16746875,-2.92060546875,-5.04425390625,-3.7935546875,-0.6677734375,11.384671875,5.15138671875,-1.25392578125,1.0821171875
-9.60309765625,-13.7857265625,-9.5729453125,-6.38323828125,-10.08250390625,-12.55925390625,-11.58065234375,-9.053734375,-12.517875,-11.1770234375,-11.56728125,-10.10930078125,-11.4649296875,-12.14987890625,-7.40181640625,-8.2939140625,-2.41569921875,-7.05220703125,-9.39231640625,-7.46883203125,-6.19592578125,-1.24953125,-4.16360546875,-5.28225390625,-4.4055546875,-1.4077734375,9.274671875,3.39738671875,-2.79092578125,-0.7778828125
-10.26209765625,-15.5887265625,-9.4579453125,-6.71823828125,-10.68250390625,-12.70725390625,-11.14665234375,-7.881734375,-13.123875,-10.9440234375,-11.17528125,-9.31230078125,-13.2059296875,-12.18987890625,-7.11681640625,-7.4609140625,-1.45969921875,-7.25720703125,-9.10531640625,-6.98683203125,-6.20892578125,-2.50053125,-4.89160546875,-5.13825390625,-5.2675546875,-2.6357734375,7.447671875,1.45738671875,-4.44192578125,-3.1508828125
-8.32209765625,-15.2917265625,-8.3179453125,-7.05723828125,-10.84950390625,-12.66925390625,-10.37565234375,-6.148734375,-12.375875,-10.2530234375,-10.61828125,-8.34630078125,-12.2179296875,-11.28087890625,-6.43481640625,-6.6089140625,-1.15169921875,-6.73520703125,-8.39631640625,-6.45383203125,-6.43692578125,-3.50353125,-4.95660546875,-4.57825390625,-6.2075546875,-4.0787734375,6.165671875,-0.46061328125,-5.88092578125,-5.5188828125
-4.43109765625,-12.8987265625,-6.3509453125,-6.73023828125,-10.38950390625,-12.35725390625,-9.37165234375,-4.197734375,-10.309875,-9.1650234375,-9.88228125,-7.24430078125,-8.7269296875,-9.46987890625,-5.38281640625,-5.8119140625,-1.27769921875,-5.58820703125,-7.48431640625,-5.93183203125,-6.73592578125,-4.28653125,-4.41560546875,-3.63025390625,-7.0125546875,-5.4697734375,5.522671875,-2.24361328125,-6.88392578125,-7.3898828125
-0.0320976562499999,-9.2247265625,-4.1079453125,-5.03923828125,-9.24250390625,-11.69025390625,-8.24465234375,-2.412734375,-7.304875,-7.8560234375,-8.98428125,-6.07930078125,-3.7129296875,-7.09487890625,-4.11881640625,-5.1589140625,-1.55869921875,-4.11520703125,-6.64631640625,-5.46783203125,-6.97192578125,-4.91253125,-3.49660546875,-2.41925390625,-7.5275546875,-6.6747734375,5.430671875,-3.83661328125,-7.37892578125,-8.4438828125
3.20390234375,-5.5317265625,-2.2929453125,-1.75423828125,-7.51850390625,-10.68125390625,-7.15165234375,-1.159734375,-3.944875,-6.5940234375,-8.04428125,-5.01030078125,1.4420703125,-4.69087890625,-2.91381640625,-4.7609140625,-1.80369921875,-2.71420703125,-6.10531640625,-5.12883203125,-7.10192578125,-5.40453125,-2.52260546875,-1.17525390625,-7.7265546875,-7.7197734375,5.688671875,-5.19061328125,-7.43092578125,-8.6348828125
4.11490234375,-2.9177265625,-1.4569453125,2.57376171875,-5.51450390625,-9.51925390625,-6.32765234375,-0.718734375,-0.907875,-5.6850234375,-7.29328125,-4.27630078125,5.4710703125,-2.83687890625,-2.09781640625,-4.7439140625,-1.98469921875,-1.75820703125,-5.98431640625,-5.01483203125,-7.20492578125,-5.70053125,-1.81160546875,-0.20225390625,-7.7115546875,-8.7217734375,6.088671875,-6.21761328125,-7.18092578125,-8.1838828125
2.53790234375,-1.8717265625,-1.7779453125,6.74776171875,-3.67250390625,-8.52325390625,-6.02765234375,-1.188734375,1.149125,-5.3830234375,-6.99828125,-4.11230078125,7.6280703125,-1.98787890625,-1.96581640625,-5.2069140625,-2.22469921875,-1.46520703125,-6.33431640625,-5.23083203125,-7.43792578125,-5.71753125,-1.58260546875,0.19274609375,-7.6665546875,-9.7887734375,6.475671875,-6.80561328125,-6.78292578125,-7.4658828125
-0.69709765625,-2.2817265625,-3.0589453125,9.42376171875,-2.47350390625,-8.00025390625,-6.39765234375,-2.418734375,1.740125,-5.8100234375,-7.33428125,-4.64430078125,7.7630703125,-2.33887890625,-2.66481640625,-6.1729140625,-2.72169921875,-1.84620703125,-7.17431640625,-5.82783203125,-7.93692578125,-5.44153125,-1.88660546875,-0.19325390625,-7.7735546875,-10.9197734375,6.765671875,-6.88861328125,-6.37592578125,-6.8228828125
-4.20909765625,-3.7487265625,-4.8819453125,9.69976171875,-2.29750390625,-8.13225390625,-7.39265234375,-4.052734375,0.707125,-6.8960234375,-8.28628125,-5.82330078125,6.1010703125,-3.77587890625,-4.10181640625,-7.5449140625,-3.63569921875,-2.74220703125,-8.43631640625,-6.75583203125,-8.71592578125,-4.97853125,-2.60360546875,-1.34625390625,-8.0955546875,-11.9257734375,6.943671875,-6.51861328125,-6.03392578125,-6.3858828125
-6.66809765625,-5.8857265625,-6.8029453125,7.53976171875,-3.27050390625,-8.92025390625,-8.80665234375,-5.693734375,-1.671875,-8.3860234375,-9.61228125,-7.41630078125,3.0240703125,-5.89087890625,-5.92981640625,-9.0849140625,-4.98269921875,-3.90220703125,-9.90431640625,-7.85283203125,-9.59592578125,-4.50553125,-3.49160546875,-2.98525390625,-8.5115546875,-12.4337734375,7.063671875,-5.86461328125,-5.71092578125,-5.9978828125
-7.27109765625,-8.3277265625,-8.4459453125,3.87476171875,-5.13950390625,-10.15025390625,-10.31865234375,-7.001734375,-4.705875,-9.8850234375,-10.90128125,-9.03830078125,-0.9529296875,-8.08287890625,-7.65281640625,-10.4479140625,-6.57969921875,-5.03820703125,-11.22431640625,-8.85883203125,-10.25292578125,-4.18253125,-4.26460546875,-4.64825390625,-8.7695546875,-12.0547734375,7.217671875,-5.10361328125,-5.24892578125,-5.3118828125
-5.91009765625,-10.5837265625,-9.5099453125,0.28076171875,-7.24750390625,-11.38825390625,-11.49865234375,-7.693734375,-7.437875,-10.9410234375,-11.69628125,-10.23430078125,-5.0229296875,-9.70287890625,-8.80081640625,-11.2719140625,-8.08969921875,-5.83420703125,-12.01831640625,-9.47483203125,-10.35992578125,-4.05453125,-4.67060546875,-5.86725390625,-8.6555546875,-10.6717734375,7.470671875,-4.30561328125,-4.48692578125,-4.0378828125
-3.07309765625,-11.9887265625,-9.7709453125,-1.69523828125,-8.70050390625,-12.08725390625,-11.86765234375,-7.550734375,-8.933875,-11.1600234375,-11.66128125,-10.61030078125,-8.0309296875,-10.22587890625,-9.08981640625,-11.2959140625,-9.13969921875,-6.00120703125,-12.00831640625,-9.47183203125,-9.75992578125,-3.99253125,-4.54760546875,-6.34425390625,-8.1125546875,-8.5987734375,7.844671875,-3.41461328125,-3.39392578125,-2.2178828125
0.37190234375,-11.9167265625,-9.1169453125,-1.27323828125,-8.73950390625,-11.82025390625,-11.08565234375,-6.541734375,-8.638875,-10.3390234375,-10.70728125,-9.99130078125,-8.7819296875,-9.41087890625,-8.48981640625,-10.4589140625,-9.45869921875,-5.38020703125,-11.08731640625,-8.79683203125,-8.56892578125,-3.73553125,-3.86360546875,-6.01325390625,-7.2535546875,-6.4827734375,8.326671875,-2.35561328125,-2.13192578125,-0.3008828125
3.38190234375,-10.1527265625,-7.6229453125,1.13476171875,-7.11050390625,-10.48525390625,-9.17465234375,-4.919734375,-6.614875,-8.5480234375,-9.02728125,-8.51530078125,-6.6509296875,-7.38087890625,-7.19781640625,-8.9379140625,-8.94169921875,-4.03920703125,-9.38631640625,-7.60183203125,-7.11992578125,-3.06553125,-2.72860546875,-5.03025390625,-6.2785546875,-4.9847734375,8.875671875,-1.15461328125,-1.00292578125,1.0491171875
4.93290234375,-7.1457265625,-5.5959453125,4.10776171875,-4.18250390625,-8.32725390625,-6.54065234375,-3.173734375,-3.501875,-6.1190234375,-6.98928125,-6.58230078125,-2.0969296875,-4.58287890625,-5.53381640625,-7.0769140625,-7.66469921875,-2.29020703125,-7.26531640625,-6.14983203125,-5.77792578125,-2.00253125,-1.38260546875,-3.70025390625,-5.3665546875,-4.4427734375,9.438671875,0.0273867187500001,-0.29392578125,1.3461171875
4.32190234375,-3.8757265625,-3.5129453125,5.98276171875,-0.73550390625,-5.78025390625,-3.77365234375,-1.814734375,-0.207875,-3.5110234375,-4.96528125,-4.67330078125,3.3810703125,-1.62487890625,-3.78881640625,-5.2369140625,-5.85769921875,-0.58020703125,-5.18831640625,-4.67683203125,-4.73692578125,-0.81653125,-0.10560546875,-2.34225390625,-4.5585546875,-4.6727734375,9.988671875,1.00838671875,-0.09692578125,0.6051171875
1.58490234375,-1.3357265625,-1.8379453125,5.80376171875,2.44249609375,-3.25425390625,-1.36165234375,-1.152734375,2.472125,-1.1320234375,-3.16528125,-3.13730078125,7.8950703125,0.93912109375,-2.12381640625,-3.6489140625,-3.86269921875,0.68879296875,-3.50031640625,-3.28583203125,-3.92392578125,0.14346875,0.89339453125,-1.15225390625,-3.7095546875,-5.0307734375,10.593671875,1.71938671875,-0.20292578125,-0.5988828125
-2.26109765625,0.000273437500000195,-0.8419453125,3.87676171875,4.87049609375,-0.99825390625,0.48134765625,-1.174734375,4.072125,0.7799765625,-1.60928125,-2.08230078125,10.0240703125,2.74912109375,-0.56981640625,-2.3669140625,-2.03269921875,1.31379296875,-2.29931640625,-1.95583203125,-3.07892578125,0.65946875,1.55639453125,-0.14425390625,-2.5805546875,-4.7327734375,11.400671875,2.25238671875,-0.19692578125,-1.4208828125
-5.45609765625,0.3082734375,-0.5279453125,1.54076171875,6.44449609375,0.91774609375,1.81034765625,-1.537734375,4.475125,2.1589765625,-0.21828125,-1.40130078125,9.3410703125,3.66212109375,0.86018359375,-1.3419140625,-0.62969921875,1.34279296875,-1.49431640625,-0.63983203125,-1.96992578125,0.72846875,1.96339453125,0.77674609375,-1.0435546875,-3.3037734375,12.503671875,2.77638671875,0.27607421875,-1.1958828125
-6.26809765625,0.1172734375,-0.7079453125,0.26076171875,7.29849609375,2.51574609375,2.82234765625,-1.716734375,3.821125,3.0329765625,1.04671875,-0.90530078125,6.3700703125,3.69912109375,2.06718359375,-0.5269140625,0.24730078125,1.00879296875,-0.940316406249999,0.62516796875,-0.56492578125,0.49946875,2.23639453125,1.67874609375,0.764445312499999,-0.8387734375,13.828671875,3.39338671875,1.28007421875,0.2201171875
-3.93609765625,-0.1127265625,-1.1219453125,0.68476171875,7.62549609375,3.78874609375,3.66034765625,-1.297734375,2.433125,3.4529765625,2.11671875,-0.45930078125,2.1540703125,3.01312109375,2.88218359375,0.0800859375000002,0.64630078125,0.58579296875,-0.522316406249999,1.66716796875,0.92207421875,0.17646875,2.45439453125,2.50974609375,2.4754453125,2.0712265625,15.125671875,4.04538671875,2.53707421875,2.3901171875
0.82090234375,-0.2067265625,-1.5489453125,2.33776171875,7.58449609375,4.64474609375,4.28534765625,-0.253734375,0.784125,3.4879765625,2.86271875,-0.07830078125,-2.1989296875,1.89512109375,3.16918359375,0.4400859375,0.66230078125,0.28579296875,-0.164316406249999,2.25216796875,2.13107421875,-0.0545312500000001,2.60039453125,3.10974609375,3.6714453125,4.6532265625,16.078671875,4.52738671875,3.58107421875,4.5031171875
6.11590234375,-0.2367265625,-1.8599453125,4.16376171875,7.34849609375,4.97674609375,4.51234765625,0.989265625,-0.548875,3.2709765625,3.19971875,0.0866992187500001,-5.7309296875,0.76312109375,2.93818359375,0.5240859375,0.34030078125,0.23179296875,0.152683593750001,2.22716796875,2.71607421875,-0.07153125,2.59539453125,3.28374609375,4.0584453125,6.2532265625,16.425671875,4.59938671875,3.97707421875,5.7351171875
9.89190234375,-0.3607265625,-2.0309453125,5.38176171875,7.15249609375,4.79374609375,4.20034765625,1.797265625,-0.994875,3.0329765625,3.18371875,-0.14130078125,-7.6429296875,0.0901210937499999,2.39318359375,0.3570859375,-0.34169921875,0.49379296875,0.410683593750001,1.64616796875,2.50107421875,0.18446875,2.37639453125,2.93074609375,3.5784453125,6.5352265625,16.030671875,4.14538671875,3.52807421875,5.6041171875
11.00490234375,-0.6597265625,-2.0819453125,5.97376171875,7.25549609375,4.28974609375,3.43134765625,1.696265625,-0.216875,3.0549765625,3.01871875,-0.80430078125,-7.3269296875,0.23612109375,1.88918359375,0.0630859375000002,-1.38069921875,1.09979296875,0.605683593750001,0.79716796875,1.59507421875,0.74746875,1.99439453125,2.15574609375,2.4694453125,5.5872265625,14.929671875,3.28838671875,2.40307421875,4.1911171875
9.73090234375,-1.0017265625,-2.0009453125,6.49076171875,7.78949609375,3.78774609375,2.53134765625,0.672265625,1.680125,3.5499765625,2.97871875,-1.69730078125,-4.5889296875,1.28112109375,1.79818359375,-0.1429140625,-2.61569921875,1.99879296875,0.802683593750001,0.0961679687500001,0.38507421875,1.62546875,1.62439453125,1.28574609375,1.2134453125,3.9202265625,13.298671875,2.37538671875,1.09007421875,2.1171171875
7.43990234375,-1.0177265625,-1.6999453125,7.46876171875,8.66849609375,3.63174609375,1.95034765625,-0.766734375,4.129125,4.5519765625,3.28471875,-2.40030078125,0.0700703125,2.95212109375,2.33818359375,-0.0279140624999997,-3.69569921875,3.02179296875,1.09568359375,-0.10183203125,-0.60892578125,2.72046875,1.47539453125,0.72374609375,0.3284453125,2.2572265625,11.336671875,1.80938671875,0.16207421875,0.2451171875
5.68690234375,-0.2707265625,-1.0639453125,8.92176171875,9.63049609375,4.06574609375,2.08634765625,-1.789734375,6.346125,5.8929765625,3.99871875,-2.46630078125,5.4460703125,4.71312109375,3.47618359375,0.5380859375,-4.19669921875,3.89679296875,1.50868359375,0.33516796875,-0.97292578125,3.78046875,1.66539453125,0.74074609375,0.109445312499999,1.1862265625,9.153671875,1.82538671875,-0.05892578125,-0.7448828125
5.28990234375,1.4222734375,-0.0559453125,10.22676171875,10.37649609375,5.12374609375,3.10834765625,-1.656734375,7.697125,7.2929765625,4.99471875,-1.65030078125,10.0120703125,5.99312109375,4.96118359375,1.5170859375,-3.83469921875,4.34779296875,1.98268359375,1.27416796875,-0.58692578125,4.48046875,2.16639453125,1.35474609375,0.518445312499999,0.9122265625,6.787671875,2.35238671875,0.34507421875,-0.6618828125
5.97590234375,3.7652734375,1.2240546875,10.45776171875,10.70849609375,6.57074609375,4.83834765625,-0.138734375,7.931125,8.5079765625,6.04671875,-0.0453007812499999,12.5030703125,6.44612109375,6.48918359375,2.7450859375,-2.60769921875,4.22579296875,2.45468359375,2.41416796875,0.37307421875,4.62646875,2.85439453125,2.39874609375,1.3174453125,1.2532265625,4.335671875,3.07538671875,0.99007421875,0.1881171875
6.77390234375,6.0562734375,2.5680546875,8.97176171875,10.61149609375,7.99974609375,6.80934765625,2.364265625,7.185125,9.4479765625,6.97471875,1.99169921875,12.3670703125,6.10812109375,7.86518359375,4.0500859375,-0.78069921875,3.60679296875,2.93768359375,3.49516796875,1.60107421875,4.28046875,3.62039453125,3.68574609375,2.2824453125,1.8552265625,2.042671875,3.60538671875,1.46107421875,1.2531171875
6.82190234375,7.5452734375,3.7500546875,5.91376171875,10.27549609375,9.06474609375,8.51834765625,5.091265625,5.858125,10.2029765625,7.75171875,4.04569921875,9.8550703125,5.37012109375,9.06218359375,5.3490859375,1.25630078125,2.78579296875,3.50368359375,4.43416796875,2.85307421875,3.70246875,4.42239453125,5.11074609375,3.3104453125,2.4172265625,0.226671875000001,3.67138671875,1.52707421875,2.0651171875
5.97990234375,7.8122734375,4.6040546875,2.27576171875,10.04949609375,9.66874609375,9.67834765625,7.363265625,4.450125,10.9569765625,8.47371875,5.83569921875,5.7910703125,4.76912109375,10.14418359375,6.6470859375,3.15230078125,2.14979296875,4.21968359375,5.30916796875,4.03307421875,3.18946875,5.25639453125,6.64874609375,4.3844453125,2.8232265625,-0.889328124999999,3.22038671875,1.20707421875,2.4381171875
4.86390234375,6.9632734375,5.0520546875,-0.53923828125,10.27049609375,9.93974609375,10.27034765625,8.847265625,3.410125,11.8149765625,9.21571875,7.26469921875,1.1910703125,4.70312109375,11.13218359375,7.9410859375,4.67030078125,1.98979296875,5.07768359375,6.18616796875,5.12707421875,2.93846875,6.07439453125,8.24074609375,5.4584453125,3.1442265625,-1.307328125,2.39238671875,0.70607421875,2.4501171875
4.35690234375,5.5192734375,5.0700546875,-1.43823828125,11.05949609375,10.04574609375,10.38534765625,9.533265625,2.966125,12.6699765625,9.88071875,8.31669921875,-3.0529296875,5.21412109375,11.88318359375,9.0910859375,5.68030078125,2.33279296875,5.91068359375,6.95716796875,6.06607421875,2.98146875,6.70939453125,9.66674609375,6.3634453125,3.5042265625,-1.297328125,1.41138671875,0.24507421875,2.2641171875
4.98390234375,4.1292734375,4.6610546875,-0.20523828125,12.17949609375,10.01874609375,10.07434765625,9.573265625,3.021125,13.1809765625,10.17171875,8.92969921875,-6.3189296875,5.95012109375,12.08618359375,9.7830859375,6.11430078125,2.91779296875,6.34368359375,7.31016796875,6.64807421875,3.16146875,6.85939453125,10.49674609375,6.7814453125,3.9202265625,-1.337328125,0.42738671875,-0.12192578125,1.9481171875
6.55990234375,3.2662734375,3.8590546875,2.36176171875,13.07449609375,9.69874609375,9.32434765625,9.150265625,3.205125,12.9079765625,9.71671875,8.96569921875,-8.2499296875,6.32512109375,11.39118359375,9.6390859375,5.95130078125,3.29879296875,5.89668359375,6.87116796875,6.58807421875,3.19546875,6.18739453125,10.21374609375,6.3664453125,4.2422265625,-1.950328125,-0.55461328125,-0.55992578125,1.4131171875
8.27390234375,3.0782734375,2.7920546875,4.78876171875,13.07549609375,8.81274609375,8.15334765625,8.440265625,3.075125,11.5289765625,8.28971875,8.30369921875,-8.6949296875,5.83912109375,9.62118359375,8.4320859375,5.25330078125,3.05279296875,4.25468359375,5.42616796875,5.70007421875,2.82646875,4.50439453125,8.47774609375,4.9654453125,4.2762265625,-3.466328125,-1.61161328125,-1.29592578125,0.5241171875
9.12990234375,3.4172734375,1.7140546875,5.56176171875,11.70449609375,7.12474609375,6.66334765625,7.614265625,2.364125,9.0449765625,5.98271875,6.96869921875,-7.6889296875,4.34812109375,6.93118359375,6.2600859375,4.19030078125,1.99979296875,1.54168359375,3.09216796875,4.05407421875,1.99546875,1.93539453125,5.39074609375,2.7914453125,3.9632265625,-5.824328125,-2.73561328125,-2.38992578125,-0.7248828125
8.47490234375,3.9752734375,0.9450546875,3.77376171875,8.93049609375,4.63074609375,5.05934765625,6.852265625,1.138125,5.8399765625,3.21771875,5.19669921875,-5.5249296875,2.15712109375,3.78618359375,3.5490859375,3.01230078125,0.31679296875,-1.64731640625,0.33916796875,2.00407421875,0.87146875,-1.04760546875,1.53974609375,0.3704453125,3.4302265625,-8.569328125,-3.74561328125,-3.64192578125,-2.1208828125
6.32890234375,4.4102734375,0.7210546875,-0.51423828125,5.21849609375,1.64674609375,3.57834765625,6.307265625,-0.253875,2.5629765625,0.58071875,3.36469921875,-2.8139296875,-0.14787890625,0.78418359375,0.8890859375,1.96230078125,-1.54720703125,-4.49231640625,-2.16083203125,0.0440742187500001,-0.27753125,-3.78360546875,-2.19225390625,-1.6895546875,2.8612265625,-11.049328125,-4.36361328125,-4.71892578125,-3.3058828125
3.35890234375,4.4262734375,1.0440546875,-6.35423828125,1.32649609375,-1.30925390625,2.36834765625,5.988265625,-1.434875,-0.1330234375,-1.44628125,1.81569921875,-0.3899296875,-2.01487890625,-1.56281640625,-1.2039140625,1.17630078125,-3.11220703125,-6.27831640625,-3.81383203125,-1.39992578125,-1.24353125,-5.67660546875,-4.95525390625,-2.9465546875,2.3552265625,-12.682328125,-4.41761328125,-5.37192578125,-3.9808828125
0.51590234375,3.8192734375,1.6520546875,-12.32823828125,-2.06350390625,-3.76325390625,1.36034765625,5.675265625,-2.301875,-1.8660234375,-2.66128125,0.69369921875,0.9790703125,-3.19987890625,-2.98181640625,-2.4639140625,0.63530078125,-4.12020703125,-6.65331640625,-4.33283203125,-2.12592578125,-1.96553125,-6.42160546875,-6.21125390625,-3.2395546875,1.8902265625,-13.150328125,-3.99061328125,-5.55992578125,-4.0558828125
-1.41609765625,2.5352734375,2.1310546875,-17.03723828125,-4.60450390625,-5.48825390625,0.31734765625,5.022265625,-3.128875,-2.6470234375,-3.16328125,-0.09030078125,0.9320703125,-3.83387890625,-3.47081640625,-2.9079140625,0.18430078125,-4.62220703125,-5.72731640625,-3.81283203125,-2.17592578125,-2.50653125,-6.07760546875,-5.87525390625,-2.6815546875,1.4122265625,-12.464328125,-3.38761328125,-5.41092578125,-3.6358828125
-2.15709765625,0.7642734375,2.1340546875,-19.45323828125,-6.30850390625,-6.50925390625,-0.94065234375,3.842265625,-4.334875,-2.8090234375,-3.22328125,-0.74130078125,-0.3469296875,-4.27187890625,-3.24981640625,-2.7509140625,-0.37269921875,-4.86920703125,-3.98031640625,-2.62483203125,-1.74692578125,-2.96453125,-4.97660546875,-4.28925390625,-1.5715546875,0.9452265625,-10.902328125,-2.92061328125,-5.07992578125,-2.8718828125
-2.00709765625,-1.0497265625,1.5570546875,-19.11023828125,-7.37650390625,-6.99825390625,-2.34065234375,2.299265625,-6.103875,-2.7990234375,-3.13428125,-1.42030078125,-2.2979296875,-4.82987890625,-2.65881640625,-2.2809140625,-1.14969921875,-5.09820703125,-2.02931640625,-1.24483203125,-1.07792578125,-3.34453125,-3.52360546875,-2.04725390625,-0.2615546875,0.6512265625,-8.849328125,-2.67961328125,-4.59592578125,-1.8258828125
-1.62509765625,-2.3947265625,0.5690546875,-16.20523828125,-8.01250390625,-7.19925390625,-3.59665234375,0.814265625,-8.164875,-2.9740234375,-3.12628125,-2.14430078125,-4.3259296875,-5.58687890625,-2.03681640625,-1.7709140625,-2.09169921875,-5.37320703125,-0.368316406249999,-0.10983203125,-0.37392578125,-3.49153125,-2.02760546875,0.23574609375,0.9534453125,0.7532265625,-6.644328125,-2.47161328125,-3.83892578125,-0.4848828125
-1.62109765625,-3.0227265625,-0.5349453125,-11.57323828125,-8.35650390625,-7.38825390625,-4.44865234375,-0.228734375,-9.913875,-3.5070234375,-3.36028125,-2.82330078125,-6.0399296875,-6.36787890625,-1.65481640625,-1.4639140625,-2.97969921875,-5.55920703125,0.743683593750001,0.45316796875,0.18907421875,-3.16953125,-0.65160546875,2.07474609375,1.8584453125,1.3512265625,-4.550328125,-1.99661328125,-2.68892578125,1.0771171875
-2.21009765625,-3.1777265625,-1.5139453125,-6.47023828125,-8.52050390625,-7.82625390625,-4.86965234375,-0.697734375,-10.769875,-4.4090234375,-3.94828125,-3.36130078125,-7.2339296875,-6.90587890625,-1.68981640625,-1.5809140625,-3.53269921875,-5.43120703125,1.21168359375,0.26316796875,0.44007421875,-2.25353125,0.50039453125,3.14574609375,2.2714453125,2.2592265625,-2.837328125,-1.11161328125,-1.24092578125,2.5761171875
-3.15609765625,-3.4317265625,-2.2849453125,-2.19023828125,-8.64450390625,-8.69225390625,-5.07065234375,-0.724734375,-10.500875,-5.6000234375,-4.96328125,-3.74230078125,-7.7369296875,-7.05987890625,-2.22881640625,-2.2949140625,-3.55869921875,-4.85320703125,1.00568359375,-0.71583203125,0.21707421875,-0.86453125,1.28739453125,3.27674609375,2.0324453125,3.0512265625,-1.810328125,0.0363867187500002,0.14707421875,3.5761171875
-4.00909765625,-4.2007265625,-2.8689453125,0.36376171875,-8.87750390625,-10.01925390625,-5.36165234375,-0.579734375,-9.343875,-6.9690234375,-6.40828125,-4.05530078125,-7.3529296875,-6.92487890625,-3.25681640625,-3.6539140625,-3.08869921875,-3.89520703125,0.145683593750001,-2.38183203125,-0.56192578125,0.68046875,1.52039453125,2.45374609375,1.0874453125,3.3252265625,-1.722328125,1.12138671875,1.05307421875,3.7231171875
-4.43209765625,-5.3497265625,-3.2979453125,0.93576171875,-9.28550390625,-11.66125390625,-5.96965234375,-0.536734375,-7.853875,-8.3800234375,-8.16528125,-4.44030078125,-6.0179296875,-6.76687890625,-4.65581640625,-5.5189140625,-2.37869921875,-2.82120703125,-1.26331640625,-4.50783203125,-1.83292578125,2.02946875,1.05539453125,0.82974609375,-0.431554687500001,2.9632265625,-2.624328125,1.86138671875,1.25407421875,2.9911171875
-4.41509765625,-6.2647265625,-3.5749453125,-0.0942382812500001,-9.76650390625,-13.30425390625,-6.90765234375,-0.762734375,-6.608875,-9.6570234375,-9.99228125,-5.00830078125,-4.0269296875,-6.85587890625,-6.23181640625,-7.5749140625,-1.80269921875,-1.96620703125,-3.03131640625,-6.77583203125,-3.38192578125,2.91046875,-0.10760546875,-1.32225390625,-2.2505546875,2.1682265625,-4.329328125,2.16238671875,0.83207421875,1.7331171875
-4.24809765625,-6.3647265625,-3.7209453125,-2.01523828125,-10.07150390625,-14.55425390625,-7.95365234375,-1.263734375,-5.947875,-10.5960234375,-11.57928125,-5.78030078125,-2.0759296875,-7.32087890625,-7.76581640625,-9.4399140625,-1.66569921875,-1.59220703125,-4.92131640625,-8.85683203125,-4.91292578125,3.15146875,-1.80560546875,-3.70425390625,-4.0795546875,1.2912265625,-6.500328125,2.08438671875,0.0440742187500001,0.4991171875
-4.28009765625,-5.5947265625,-3.8119453125,-4.19523828125,-9.94750390625,-15.09225390625,-8.76365234375,-1.919734375,-5.878875,-11.0240234375,-12.64228125,-6.67430078125,-0.9329296875,-8.09187890625,-9.06481640625,-10.7839140625,-2.07269921875,-1.82020703125,-6.66831640625,-10.50283203125,-6.16192578125,2.68546875,-3.77060546875,-6.04325390625,-5.6975546875,0.6382265625,-8.760328125,1.69238671875,-0.86292578125,-0.2578828125
-4.62109765625,-4.4577265625,-3.9419453125,-6.34423828125,-9.29750390625,-14.80225390625,-9.03865234375,-2.572734375,-6.173875,-10.8520234375,-12.99928125,-7.52130078125,-0.9509296875,-8.93387890625,-9.98281640625,-11.4309140625,-2.90769921875,-2.61320703125,-7.99231640625,-11.59683203125,-6.96192578125,1.57846875,-5.71260546875,-8.09225390625,-6.9675546875,0.3542265625,-10.767328125,0.97938671875,-1.76192578125,-0.3998828125
-4.99009765625,-3.5567265625,-4.1159453125,-8.45723828125,-8.22450390625,-13.76625390625,-8.63765234375,-3.080734375,-6.551875,-10.0980234375,-12.58428125,-8.11930078125,-1.8029296875,-9.54487890625,-10.42181640625,-11.3719140625,-3.91569921875,-3.79720703125,-8.64531640625,-12.10683203125,-7.26892578125,0.0454687499999999,-7.36560546875,-9.60125390625,-7.8205546875,0.3882265625,-12.235328125,-0.07061328125,-2.63892578125,-0.1298828125
-4.85509765625,-3.0437265625,-4.1849453125,-10.52923828125,-6.93750390625,-12.13825390625,-7.55465234375,-3.310734375,-6.815875,-8.8450234375,-11.42028125,-8.28230078125,-2.7119296875,-9.66887890625,-10.31281640625,-10.7139140625,-4.80869921875,-5.09720703125,-8.47531640625,-12.00683203125,-7.12692578125,-1.57653125,-8.48960546875,-10.32025390625,-8.2105546875,0.5522265625,-12.942328125,-1.32661328125,-3.49392578125,0.1831171875
-3.79109765625,-2.4667265625,-3.8879453125,-12.32423828125,-5.63350390625,-10.05025390625,-5.87765234375,-3.155734375,-6.897875,-7.1960234375,-9.59028125,-7.88430078125,-3.0149296875,-9.19587890625,-9.58981640625,-9.5669140625,-5.32369921875,-6.22820703125,-7.43131640625,-11.21783203125,-6.59092578125,-2.89353125,-8.87660546875,-10.02325390625,-8.0445546875,0.6872265625,-12.725328125,-2.43361328125,-4.21992578125,0.2761171875
-1.84209765625,-1.1847265625,-3.0219453125,-13.37823828125,-4.43350390625,-7.61025390625,-3.77665234375,-2.610734375,-6.837875,-5.2380234375,-7.22328125,-6.89230078125,-2.6189296875,-8.19387890625,-8.19281640625,-7.9729140625,-5.24969921875,-6.97820703125,-5.54531640625,-9.64583203125,-5.66492578125,-3.57853125,-8.40060546875,-8.58425390625,-7.1455546875,0.8412265625,-11.501328125,-2.94361328125,-4.55192578125,0.1821171875
0.38390234375,0.9742734375,-1.6359453125,-13.18523828125,-3.36150390625,-4.94225390625,-1.51165234375,-1.833734375,-6.677875,-3.0430234375,-4.49728125,-5.39930078125,-2.0539296875,-6.86087890625,-6.12281640625,-5.9199140625,-4.48769921875,-7.26420703125,-2.96431640625,-7.28983203125,-4.33192578125,-3.50253125,-7.11060546875,-6.09925390625,-5.3635546875,1.2502265625,-9.367328125,-2.60061328125,-4.20892578125,0.1821171875
1.98990234375,3.4082734375,-0.0879453125,-11.43423828125,-2.31850390625,-2.16925390625,0.62434765625,-1.065734375,-6.338875,-0.6650234375,-1.63828125,-3.62830078125,-2.1199296875,-5.40487890625,-3.51881640625,-3.4549140625,-3.13969921875,-7.10120703125,-0.00931640624999908,-4.33083203125,-2.65892578125,-2.81953125,-5.27260546875,-2.95725390625,-2.7725546875,2.0932265625,-6.687328125,-1.56661328125,-3.13092578125,0.5511171875
2.27490234375,5.1122734375,1.1170546875,-8.18823828125,-1.06750390625,0.61674609375,2.41034765625,-0.491734375,-5.567875,1.8519765625,1.10171875,-1.89330078125,-3.3989296875,-3.92287890625,-0.67081640625,-0.7869140625,-1.53969921875,-6.54920703125,2.87368359375,-1.14883203125,-0.86092578125,-1.88053125,-3.28560546875,0.24274609375,0.224445312499999,3.2742265625,-4.041328125,-0.37361328125,-1.61092578125,1.2991171875
1.16190234375,5.4552734375,1.6270546875,-3.95323828125,0.67949609375,3.34974609375,3.74934765625,-0.153734375,-4.094875,4.4589765625,3.49071875,-0.50830078125,-5.8729296875,-2.37987890625,2.05718359375,1.7190859375,-0.15969921875,-5.65820703125,5.26268359375,1.77316796875,0.73607421875,-1.01553125,-1.51160546875,2.91074609375,3.0284453125,4.4332265625,-1.990328125,0.38538671875,-0.15292578125,2.1461171875
-0.66109765625,4.7462734375,1.4790546875,0.43876171875,3.07549609375,5.95574609375,4.67034765625,0.0352656250000001,-1.898875,7.0489765625,5.36871875,0.31169921875,-8.8199296875,-0.69387890625,4.32418359375,3.6570859375,0.59030078125,-4.46020703125,6.88968359375,4.00716796875,1.84107421875,-0.35953125,-0.12660546875,4.69574609375,5.0924453125,5.1732265625,-0.833328125,0.41038671875,0.81507421875,2.7321171875
-1.95409765625,4.1222734375,1.0800546875,4.10976171875,5.96649609375,8.32874609375,5.31534765625,0.226265625,0.643125,9.4209765625,6.66571875,0.51569921875,-11.0709296875,1.12312109375,5.88418359375,4.7220859375,0.53530078125,-2.99220703125,7.64968359375,5.31516796875,2.30907421875,0.14846875,0.88039453125,5.54774609375,6.1194453125,5.2632265625,-0.530328124999999,-0.16161328125,1.14107421875,2.8681171875
-1.47009765625,4.7932734375,0.9450546875,6.41976171875,8.85649609375,10.32074609375,5.89934765625,0.547265625,2.888125,11.2729765625,7.38371875,0.22169921875,-11.5249296875,2.89012109375,6.60518359375,4.8260859375,-0.21369921875,-1.35520703125,7.54668359375,5.68616796875,2.18007421875,0.62646875,1.59339453125,5.62274609375,6.1024453125,4.6882265625,-0.823328125,-0.91361328125,0.95207421875,2.6161171875
1.33690234375,7.1522734375,1.3620546875,7.11376171875,11.04849609375,11.72074609375,6.57334765625,0.965265625,4.251125,12.2849765625,7.54871875,-0.35130078125,-9.6559296875,4.30012109375,6.48818359375,4.1090859375,-1.33369921875,0.25379296875,6.68268359375,5.27716796875,1.62907421875,1.13846875,2.04239453125,5.14674609375,5.2834453125,3.6092265625,-1.405328125,-1.43161328125,0.52307421875,2.1891171875
5.83490234375,10.3562734375,2.2020546875,6.31176171875,11.93149609375,12.27474609375,7.27934765625,1.211265625,4.497125,12.2449765625,7.18371875,-0.98230078125,-5.7159296875,5.07012109375,5.66618359375,2.8860859375,-2.43669921875,1.58579296875,5.27268359375,4.32716796875,0.89407421875,1.65646875,2.18139453125,4.33874609375,4.0444453125,2.3002265625,-2.046328125,-1.49961328125,0.14807421875,1.8111171875
10.35790234375,12.7352734375,2.9970546875,4.43776171875,11.28449609375,11.82574609375,7.73734765625,0.895265625,3.848125,11.1929765625,6.33671875,-1.51130078125,-0.5879296875,5.09412109375,4.38018359375,1.5270859375,-3.19769921875,2.44079296875,3.60368359375,3.10016796875,0.21407421875,2.08146875,1.94939453125,3.37774609375,2.7804453125,1.0762265625,-2.634328125,-1.12661328125,0.0460742187500001,1.6471171875
13.01290234375,12.7922734375,3.2370546875,2.15876171875,9.45049609375,10.48774609375,7.65834765625,-0.217734375,2.888125,9.4809765625,5.13271875,-1.84230078125,4.5090703125,4.50412109375,2.93918359375,0.3480859375,-3.42069921875,2.73779296875,1.98668359375,1.85916796875,-0.22992578125,2.27146875,1.35739453125,2.40874609375,1.7794453125,0.1932265625,-3.166328125,-0.46561328125,0.30207421875,1.7741171875
12.66990234375,10.1302734375,2.6810546875,0.27376171875,7.23049609375,8.70374609375,6.97134765625,-2.006734375,2.317125,7.6859765625,3.81571875,-1.92230078125,8.2990703125,3.62412109375,1.67318359375,-0.4419140625,-3.07769921875,2.53479296875,0.726683593750001,0.83016796875,-0.36192578125,2.10646875,0.54139453125,1.56874609375,1.1894453125,-0.2117734375,-3.666328125,0.28638671875,0.85907421875,2.1751171875
9.49590234375,5.6822734375,1.4880546875,-0.50023828125,5.53649609375,7.08274609375,5.89734765625,-4.003734375,2.627125,6.3909765625,2.71271875,-1.71830078125,9.6990703125,2.83712109375,0.86918359375,-0.7529140625,-2.30969921875,1.97979296875,0.104683593750001,0.18016796875,-0.21292578125,1.57146875,-0.24860546875,1.00074609375,1.0564453125,-0.1367734375,-4.103328125,0.98338671875,1.59207421875,2.7621171875
4.78290234375,1.1302734375,0.0870546875,0.15076171875,4.97749609375,6.14174609375,4.81534765625,-5.577734375,3.872125,5.9389765625,2.12871875,-1.23730078125,8.1190703125,2.42712109375,0.68318359375,-0.5999140625,-1.40269921875,1.26179296875,0.282683593750001,0.00716796875000014,0.11707421875,0.80746875,-0.73060546875,0.82274609375,1.3534453125,0.3202265625,-4.360328125,1.60038671875,2.38607421875,3.4301171875
0.26590234375,-2.0107265625,-1.0639453125,1.88376171875,5.61549609375,6.07974609375,4.07034765625,-6.145734375,5.641125,6.2789765625,2.20271875,-0.53730078125,3.7600703125,2.45412109375,1.06018359375,-0.0799140624999998,-0.69669921875,0.55079296875,1.18568359375,0.33216796875,0.52207421875,0.0564687500000001,-0.70660546875,1.08774609375,1.9974453125,1.0162265625,-4.311328125,2.22638671875,3.19007421875,4.1291171875
-2.59509765625,-3.0307265625,-1.6769453125,3.72276171875,6.98449609375,6.69474609375,3.81434765625,-5.377734375,7.279125,6.9809765625,2.80871875,0.26469921875,-2.2569296875,2.73312109375,1.72518359375,0.6520859375,-0.46569921875,-0.0422070312499999,2.48968359375,1.06016796875,0.94607421875,-0.41653125,-0.15060546875,1.75374609375,2.8654453125,1.8292265625,-3.892328125,2.98638671875,4.00907421875,4.8741171875
-3.09809765625,-2.1107265625,-1.6919453125,4.45476171875,8.31949609375,7.43774609375,3.92734765625,-3.369734375,8.190125,7.4089765625,3.56171875,1.01169921875,-8.1279296875,2.92312109375,2.26518359375,1.4120859375,-0.81469921875,-0.49020703125,3.73768359375,1.96016796875,1.37007421875,-0.42353125,0.77039453125,2.69874609375,3.8154453125,2.6952265625,-3.155328125,3.91938671875,4.85507421875,5.6691171875
-1.48709765625,-0.0447265624999997,-1.2439453125,3.28676171875,8.85749609375,7.62674609375,4.07134765625,-0.676734375,8.062125,6.9749765625,3.95571875,1.54469921875,-12.0019296875,2.68112109375,2.25818359375,1.9960859375,-1.62969921875,-0.82420703125,4.49868359375,2.69516796875,1.77507421875,0.0714687499999997,1.76639453125,3.73574609375,4.6724453125,3.5652265625,-2.282328125,4.88038671875,5.65207421875,6.4041171875
1.19590234375,2.1432734375,-0.5959453125,0.36576171875,8.11249609375,6.73074609375,3.84934765625,1.867265625,6.927125,5.3729765625,3.56571875,1.73869921875,-12.7789296875,1.81512109375,1.41018359375,2.2000859375,-2.59569921875,-1.08220703125,4.48368359375,2.92116796875,2.09707421875,0.90146875,2.54139453125,4.62374609375,5.1924453125,4.3142265625,-1.575328125,5.56538671875,6.18307421875,6.8221171875
3.58590234375,3.5552734375,-0.0389453125000001,-3.18523828125,6.05149609375,4.61374609375,3.00634765625,3.488265625,5.125125,2.7239765625,2.22471875,1.55269921875,-10.6149296875,0.40112109375,-0.31781640625,1.8860859375,-3.28469921875,-1.24820703125,3.65668359375,2.43216796875,2.23807421875,1.76546875,2.94339453125,5.12374609375,5.1244453125,4.7392265625,-1.349328125,5.64338671875,6.17107421875,6.6221171875
4.67890234375,3.7022734375,0.2280546875,-5.80023828125,3.12949609375,1.59274609375,1.52134765625,3.765265625,3.212125,-0.4310234375,0.11271875,1.03769921875,-6.7719296875,-1.19187890625,-2.65381640625,1.0530859375,-3.31369921875,-1.21520703125,2.28768359375,1.25616796875,2.13707421875,2.41046875,3.04139453125,5.09874609375,4.3634453125,4.6972265625,-1.760328125,4.96938671875,5.48907421875,5.6721171875
4.32390234375,2.6522734375,0.1820546875,-6.26423828125,0.15249609375,-1.68425390625,-0.41365234375,2.757265625,1.826125,-3.3080234375,-2.30828125,0.32369921875,-2.8769296875,-2.41087890625,-5.08381640625,-0.1339140625,-2.52769921875,-0.78820703125,0.861683593750001,-0.34783203125,1.82007421875,2.78746875,3.09639453125,4.57274609375,3.0604453125,4.2352265625,-2.707328125,3.71738671875,4.30007421875,4.1591171875
3.17990234375,0.9122734375,-0.0469453125000001,-4.32023828125,-2.01850390625,-4.49125390625,-2.47665234375,0.933265625,1.493125,-5.1890234375,-4.49528125,-0.44030078125,-0.0739296875,-2.75987890625,-7.07381640625,-1.4249140625,-1.10769921875,0.21879296875,-0.183316406249999,-2.00383203125,1.39107421875,3.04446875,3.36939453125,3.66874609375,1.5424453125,3.5542265625,-3.912328125,2.32738671875,2.97807421875,2.5291171875
2.18190234375,-0.8887265625,-0.2909453125,-0.77623828125,-2.83450390625,-6.30225390625,-4.33965234375,-1.053734375,2.409125,-5.7210234375,-6.06128125,-1.15230078125,1.4300703125,-2.07187890625,-8.31681640625,-2.6009140625,0.48730078125,1.81479296875,-0.697316406249999,-3.40183203125,0.94407421875,3.38146875,3.91839453125,2.49474609375,0.1384453125,2.8622265625,-5.112328125,1.27538671875,1.87107421875,1.2551171875
1.93490234375,-2.2567265625,-0.4499453125,2.95176171875,-2.32350390625,-6.99825390625,-5.78465234375,-2.649734375,4.306125,-5.0750234375,-6.91528125,-1.78130078125,2.2060703125,-0.63287890625,-8.82681640625,-3.5469140625,1.72630078125,3.70879296875,-0.852316406249999,-4.41483203125,0.50907421875,3.88146875,4.50039453125,1.10574609375,-0.9535546875,2.2722265625,-6.192328125,0.81938671875,1.11207421875,0.5941171875
2.46590234375,-2.9087265625,-0.5059453125,5.58076171875,-1.04850390625,-6.85225390625,-6.76065234375,-3.573734375,6.520125,-3.8260234375,-7.21128125,-2.32730078125,3.0200703125,0.93812109375,-8.84681640625,-4.2369140625,2.23330078125,5.34879296875,-0.984316406249999,-5.08483203125,0.0580742187500001,4.43446875,4.69339453125,-0.42825390625,-1.6685546875,1.8072265625,-7.171328125,0.88538671875,0.62707421875,0.5191171875
3.40490234375,-2.7267265625,-0.4909453125,6.59876171875,0.20749609375,-6.30525390625,-7.32365234375,-3.788734375,8.284125,-2.6600234375,-7.18728125,-2.75930078125,4.2280703125,1.99112109375,-8.65181640625,-4.6719140625,1.92730078125,6.16179296875,-1.38031640625,-5.49683203125,-0.43792578125,4.76046875,4.14539453125,-1.94625390625,-2.0315546875,1.4322265625,-8.125328125,1.14738671875,0.25707421875,0.8101171875
4.29690234375,-1.7687265625,-0.4479453125,6.39776171875,0.83149609375,-5.72425390625,-7.54765234375,-3.382734375,9.062125,-2.0600234375,-7.01428125,-2.99130078125,5.5010703125,2.14012109375,-8.40181640625,-4.8519140625,1.01530078125,5.82679296875,-2.12131640625,-5.67983203125,-0.96792578125,4.53446875,2.80239453125,-3.19125390625,-2.1175546875,1.0732265625,-9.084328125,1.25738671875,-0.09792578125,1.2111171875
4.79190234375,-0.3177265625,-0.4169453125,5.84076171875,0.56349609375,-5.32925390625,-7.51365234375,-2.540734375,8.704125,-2.1770234375,-6.77828125,-2.94930078125,5.9810703125,1.39312109375,-8.10481640625,-4.8029140625,-0.13469921875,4.41779296875,-3.02431640625,-5.61183203125,-1.49092578125,3.56846875,0.97339453125,-3.88525390625,-2.0035546875,0.6412265625,-9.967328125,1.04138671875,-0.40992578125,1.5241171875
4.70890234375,1.1372734375,-0.4369453125,5.59376171875,-0.54650390625,-5.27125390625,-7.37565234375,-1.587734375,7.365125,-2.8810234375,-6.54328125,-2.66330078125,4.7730703125,0.0701210937499999,-7.70381640625,-4.6179140625,-1.14669921875,2.33479296875,-3.71831640625,-5.30383203125,-1.96192578125,1.93846875,-0.81160546875,-3.85125390625,-1.7505546875,0.0902265625000001,-10.583328125,0.57538671875,-0.54792578125,1.6411171875
4.11490234375,2.0692734375,-0.5329453125,5.72176171875,-2.24050390625,-5.66425390625,-7.34065234375,-0.931734375,5.343125,-3.9020234375,-6.38328125,-2.29330078125,1.5280703125,-1.38387890625,-7.17981640625,-4.4479140625,-1.77269921875,0.13279296875,-3.84031640625,-4.83983203125,-2.34992578125,-0.01553125,-2.04260546875,-3.10725390625,-1.4195546875,-0.5407734375,-10.715328125,0.0873867187500001,-0.39492578125,1.5331171875
3.38490234375,2.1552734375,-0.6909453125,5.81576171875,-4.10350390625,-6.48525390625,-7.51665234375,-0.839734375,3.003125,-4.9380234375,-6.34528125,-2.03630078125,-3.1499296875,-2.56787890625,-6.60281640625,-4.4249140625,-1.93269921875,-1.65420703125,-3.23131640625,-4.33683203125,-2.63192578125,-1.82053125,-2.42660546875,-1.88425390625,-1.1005546875,-1.1247734375,-10.249328125,-0.21261328125,0.0450742187500001,1.2551171875
3.10490234375,1.4482734375,-0.8319453125,5.43376171875,-5.62050390625,-7.50225390625,-7.78065234375,-1.253734375,0.790125,-5.7060234375,-6.39328125,-1.99930078125,-7.7779296875,-3.21287890625,-6.08081640625,-4.5559140625,-1.67769921875,-2.64620703125,-1.99131640625,-3.86083203125,-2.76592578125,-3.04253125,-1.95060546875,-0.53825390625,-0.868554687500001,-1.4737734375,-9.221328125,-0.26761328125,0.64507421875,0.9351171875
3.73490234375,0.3542734375,-0.8229453125,4.44076171875,-6.34450390625,-8.34125390625,-7.85165234375,-1.835734375,-0.820875,-5.9940234375,-6.40128125,-2.13530078125,-10.6019296875,-3.22487890625,-5.67481640625,-4.7009140625,-1.12769921875,-2.69820703125,-0.390316406249999,-3.40783203125,-2.69892578125,-3.42453125,-0.83460546875,0.59174609375,-0.719554687500001,-1.4087734375,-7.814328125,-0.16961328125,1.25007421875,0.7321171875
5.25490234375,-0.5667265625,-0.5289453125,2.98576171875,-6.11350390625,-8.66025390625,-7.48465234375,-2.183734375,-1.488875,-5.7190234375,-6.23028125,-2.27930078125,-10.4559296875,-2.68887890625,-5.37381640625,-4.6609140625,-0.42269921875,-1.92120703125,1.23068359375,-2.94183203125,-2.39992578125,-2.96153125,0.56539453125,1.28174609375,-0.568554687500001,-0.8687734375,-6.310328125,-0.0566132812499998,1.75607421875,0.7391171875
7.06990234375,-0.8987265625,0.1130546875,1.28276171875,-5.11950390625,-8.27425390625,-6.58665234375,-2.003734375,-1.155875,-4.9390234375,-5.79028125,-2.22630078125,-7.3339296875,-1.82487890625,-5.10781640625,-4.3039140625,0.30430078125,-0.59820703125,2.55368359375,-2.43683203125,-1.89592578125,-1.86953125,1.88739453125,1.47374609375,-0.323554687500001,-0.00277343750000003,-5.034328125,0.0363867187500002,2.13507421875,0.9391171875
8.28890234375,-0.5727265625,1.0520546875,-0.54223828125,-3.76350390625,-7.16825390625,-5.17965234375,-1.138734375,-0.0358749999999999,-3.7970234375,-5.05428125,-1.78230078125,-2.3129296875,-0.87787890625,-4.75681640625,-3.6199140625,0.95630078125,0.96279296875,3.41868359375,-1.87583203125,-1.24492578125,-0.43053125,2.89239453125,1.30574609375,0.0674453124999994,0.9042265625,-4.228328125,0.25838671875,2.42307421875,1.2601171875
8.19990234375,0.1512734375,2.1520546875,-2.37223828125,-2.40150390625,-5.47925390625,-3.34265234375,0.425265625,1.523125,-2.4410234375,-4.02828125,-0.81430078125,3.0090703125,0.0191210937499999,-4.15381640625,-2.6839140625,1.48830078125,2.55279296875,3.93668359375,-1.21983203125,-0.49092578125,1.17746875,3.55339453125,1.09874609375,0.6464453125,1.6272265625,-3.922328125,0.87538671875,2.72607421875,1.6711171875
6.59990234375,0.9182734375,3.2450546875,-3.92023828125,-1.18250390625,-3.46825390625,-1.22465234375,2.530265625,3.196125,-0.9840234375,-2.75128125,0.67169921875,7.1380703125,0.89412109375,-3.15581640625,-1.6059140625,1.88330078125,4.08379296875,4.45068359375,-0.41783203125,0.35107421875,2.89646875,4.02639453125,1.22374609375,1.4434453125,2.1392265625,-3.914328125,2.07138671875,3.17607421875,2.2321171875
3.84690234375,1.5462734375,4.1690546875,-4.70423828125,-0.06550390625,-1.46825390625,0.90534765625,4.823265625,4.764125,0.4639765625,-1.33628125,2.46369921875,9.0500703125,1.85812109375,-1.75581640625,-0.5129140625,2.10030078125,5.50179296875,5.27568359375,0.53716796875,1.23807421875,4.63346875,4.49639453125,1.87774609375,2.3934453125,2.5462265625,-3.940328125,3.73638671875,3.82207421875,3.0141171875
0.71090234375,2.1092734375,4.7940546875,-4.25023828125,1.02849609375,0.19774609375,2.69534765625,6.829265625,6.123125,1.7469765625,0.00571874999999999,4.16369921875,8.3460703125,2.95512109375,-0.16681640625,0.4330859375,2.06430078125,6.68279296875,6.44868359375,1.53816796875,2.04007421875,6.12146875,5.00839453125,2.91174609375,3.2494453125,2.9042265625,-3.903328125,5.38938671875,4.52307421875,3.9481171875
-1.81909765625,2.8052734375,5.0390546875,-2.38023828125,2.05849609375,1.27874609375,3.82334765625,8.070265625,7.225125,2.6729765625,1.01371875,5.33369921875,5.3450703125,4.07012109375,1.23418359375,1.0650859375,1.73030078125,7.39179296875,7.66668359375,2.36016796875,2.53807421875,6.96046875,5.40639453125,3.86674609375,3.6404453125,3.0882265625,-3.955328125,6.33538671875,4.96607421875,4.7471171875
-2.80209765625,3.7092734375,4.8920546875,0.61776171875,2.80349609375,1.64774609375,4.11934765625,8.225265625,7.991125,3.0649765625,1.48771875,5.69969921875,1.0890703125,4.93512109375,2.07218359375,1.2610859375,1.16930078125,7.36079296875,8.45168359375,2.73316796875,2.51007421875,6.82446875,5.39939453125,4.19574609375,3.2494453125,2.8422265625,-4.411328125,5.97438671875,4.82007421875,4.9761171875
-1.72909765625,4.6072734375,4.4100546875,4.04876171875,2.96349609375,1.33074609375,3.64834765625,7.264265625,8.257125,2.8529765625,1.39271875,5.28569921875,-2.9029296875,5.24812109375,2.12918359375,1.0050859375,0.59330078125,6.44379296875,8.39368359375,2.48416796875,1.85707421875,5.63646875,4.72039453125,3.52374609375,1.9954453125,1.9452265625,-5.542328125,4.11538671875,3.91007421875,4.2851171875
1.12190234375,5.0312734375,3.6930546875,7.00576171875,2.36649609375,0.53474609375,2.72934765625,5.521265625,7.834125,2.1299765625,0.88571875,4.37969921875,-5.2229296875,4.81612109375,1.43318359375,0.3970859375,0.24730078125,4.72879296875,7.34868359375,1.64716796875,0.68207421875,3.62646875,3.28539453125,1.81974609375,0.107445312499999,0.3882265625,-7.383328125,1.10838671875,2.31707421875,2.6721171875
4.67690234375,4.5652734375,2.8660546875,8.67076171875,1.14749609375,-0.40425390625,1.84034765625,3.591265625,6.666125,1.1599765625,0.25971875,3.36969921875,-5.2319296875,3.68112109375,0.248183593749999,-0.3619140625,0.25430078125,2.55379296875,5.54868359375,0.46516796875,-0.72392578125,1.26646875,1.27239453125,-0.58925390625,-1.9375546875,-1.5407734375,-9.655328125,-2.27961328125,0.37907421875,0.5631171875
7.55790234375,3.2162734375,2.0870546875,8.66776171875,-0.22650390625,-1.10725390625,1.43534765625,2.091265625,4.963125,0.3139765625,-0.15728125,2.56569921875,-3.3259296875,2.16012109375,-1.01581640625,-1.0329140625,0.52630078125,0.40079296875,3.55168359375,-0.71283203125,-2.00092578125,-0.87753125,-0.92360546875,-3.13925390625,-3.5955546875,-3.3507734375,-11.853328125,-5.17961328125,-1.43492578125,-1.3738828125
8.77290234375,1.5452734375,1.5330546875,7.31076171875,-1.10950390625,-1.25625390625,1.76734765625,1.433265625,3.210125,-0.0620234375000002,-0.11828125,2.11169921875,-0.5759296875,0.75312109375,-1.96181640625,-1.4219140625,0.84130078125,-1.23920703125,1.99168359375,-1.57683203125,-2.85992578125,-2.34453125,-2.83060546875,-5.26625390625,-4.5045546875,-4.5957734375,-13.507328125,-6.97061328125,-2.72992578125,-2.5768828125
8.11490234375,0.3722734375,1.3330546875,5.49876171875,-0.939503906250001,-0.67725390625,2.81334765625,1.698265625,2.000125,0.2119765625,0.44871875,1.99469921875,1.9580703125,-0.0528789062500001,-2.37581640625,-1.4479140625,1.01030078125,-2.01320703125,1.25968359375,-1.97083203125,-3.18492578125,-2.93553125,-4.08760546875,-6.62325390625,-4.6475546875,-5.0767734375,-14.419328125,-7.48361328125,-3.36092578125,-2.8518828125
6.04990234375,0.2622734375,1.4810546875,4.23176171875,0.49849609375,0.58074609375,4.29034765625,2.641265625,1.775125,1.0709765625,1.40071875,2.10769921875,3.6960703125,0.00612109374999988,-2.28581640625,-1.1679140625,1.00130078125,-1.80820703125,1.34868359375,-1.92883203125,-3.02692578125,-2.72653125,-4.54860546875,-7.16225390625,-4.2905546875,-4.8717734375,-14.711328125,-6.97661328125,-3.46292578125,-2.3998828125
3.28190234375,1.1702734375,1.8270546875,4.03276171875,2.94149609375,2.21274609375,5.73234765625,3.768265625,2.622125,2.2479765625,2.43771875,2.30569921875,4.5370703125,0.87812109375,-1.89481640625,-0.7229140625,0.93730078125,-0.78820703125,1.95268359375,-1.63583203125,-2.52292578125,-1.96253125,-4.29260546875,-7.04725390625,-3.7725546875,-4.1997734375,-14.654328125,-5.93761328125,-3.29892578125,-1.6508828125
0.41090234375,2.5032734375,2.1660546875,4.63676171875,5.73149609375,3.75274609375,6.65434765625,4.527265625,4.243125,3.4119765625,3.24671875,2.47369921875,4.5550703125,2.26112109375,-1.43081640625,-0.2689140625,0.99430078125,0.68479296875,2.67768359375,-1.30983203125,-1.82492578125,-0.94353125,-3.54660546875,-6.52025390625,-3.3215546875,-3.3307734375,-14.465328125,-4.84361328125,-3.10992578125,-1.0498828125
-2.13609765625,3.5312734375,2.3680546875,5.14276171875,8.07049609375,4.79174609375,6.78234765625,4.570265625,6.103125,4.3109765625,3.65471875,2.56369921875,3.7700703125,3.74512109375,-1.02581640625,0.0860859375000002,1.27330078125,2.18979296875,3.22668359375,-1.09583203125,-1.06192578125,0.0134687499999999,-2.60160546875,-5.81525390625,-3.0215546875,-2.5677734375,-14.243328125,-4.02661328125,-3.04392578125,-0.9098828125
-3.98109765625,3.8442734375,2.4670546875,4.50176171875,9.32949609375,5.18274609375,6.22334765625,3.918265625,7.641125,4.8469765625,3.70171875,2.61069921875,2.1910703125,4.97312109375,-0.66681640625,0.3060859375,1.73730078125,3.38779296875,3.49268359375,-0.99683203125,-0.33192578125,0.62346875,-1.71260546875,-5.11625390625,-2.8605546875,-2.1997734375,-13.984328125,-3.62361328125,-3.16592578125,-1.3268828125
-4.70909765625,3.6152734375,2.6640546875,2.10876171875,9.26249609375,5.07674609375,5.40934765625,2.907265625,8.455125,5.0829765625,3.60871875,2.70869921875,0.0970703125000001,5.76412109375,-0.223816406250001,0.4520859375,2.24630078125,4.13979296875,3.59168359375,-0.89283203125,0.32407421875,0.75946875,-1.01360546875,-4.50925390625,-2.7355546875,-2.3517734375,-13.614328125,-3.58761328125,-3.43792578125,-2.1468828125
-3.90609765625,3.5192734375,3.2380546875,-1.76123828125,8.08849609375,4.82974609375,4.85034765625,1.964265625,8.422125,5.2089765625,3.67771875,2.95669921875,-1.7419296875,6.18912109375,0.47918359375,0.6820859375,2.66630078125,4.55779296875,3.80168359375,-0.588832031249999,0.94807421875,0.56846875,-0.44960546875,-3.94925390625,-2.4565546875,-2.8507734375,-12.982328125,-3.69861328125,-3.67892578125,-2.9888828125
-1.33509765625,4.3782734375,4.4010546875,-5.85623828125,6.44349609375,4.85274609375,4.90434765625,1.427265625,7.755125,5.4859765625,4.17471875,3.42369921875,-2.2189296875,6.53812109375,1.56618359375,1.2010859375,2.97730078125,4.94879296875,4.39968359375,0.11616796875,1.66707421875,0.42446875,0.17739453125,-3.29125390625,-1.7975546875,-3.2727734375,-11.928328125,-3.62861328125,-3.59292578125,-3.3708828125
2.83990234375,6.6992734375,6.1570546875,-8.35823828125,5.15949609375,5.45474609375,5.66434765625,1.460265625,6.949125,6.1479765625,5.22971875,4.12869921875,-0.5209296875,7.16712109375,3.02618359375,2.1710859375,3.31330078125,5.64279296875,5.49668359375,1.34716796875,2.64007421875,0.70946875,1.07039453125,-2.39125390625,-0.605554687500001,-3.1537734375,-10.386328125,-3.07761328125,-2.88692578125,-2.8888828125
7.87390234375,10.3042734375,8.2130546875,-7.71123828125,4.91549609375,6.66574609375,6.95134765625,2.007265625,6.554125,7.2499765625,6.73671875,5.02769921875,3.1850703125,8.26112109375,4.66118359375,3.5960859375,3.86830078125,6.74679296875,6.95968359375,3.04816796875,3.94707421875,1.57446875,2.26739453125,-1.21825390625,1.1124453125,-2.2287734375,-8.483328125,-1.93261328125,-1.42892578125,-1.4288828125
12.46090234375,14.2262734375,10.0110546875,-3.53323828125,5.86949609375,8.12174609375,8.32434765625,2.753265625,6.866125,8.5319765625,8.31971875,5.97269921875,7.5800703125,9.63812109375,6.07718359375,5.2360859375,4.73230078125,8.01179296875,8.42668359375,4.91816796875,5.47407421875,2.82946875,3.53439453125,0.0777460937500001,3.1264453125,-0.6017734375,-6.565328125,-0.39961328125,0.61307421875,0.7101171875
15.11490234375,16.9842734375,10.8920546875,2.96376171875,7.52249609375,9.14274609375,9.18034765625,3.218265625,7.707125,9.4279765625,9.39971875,6.70269921875,10.8020703125,10.75112109375,6.75118359375,6.6260859375,5.75030078125,8.90879296875,9.38468359375,6.44816796875,6.87607421875,4.02446875,4.41339453125,1.15974609375,4.9844453125,1.2342265625,-5.148328125,1.00138671875,2.72007421875,2.8601171875
14.83390234375,17.2232734375,10.3760546875,9.42376171875,8.92849609375,9.04774609375,8.99934765625,3.016265625,8.481125,9.2899765625,9.43071875,6.93669921875,11.4730703125,10.91512109375,6.21518359375,7.2440859375,6.55730078125,8.89779296875,9.33168359375,7.10316796875,7.68507421875,4.65646875,4.42139453125,1.61974609375,6.1324453125,2.5652265625,-4.740328125,1.62338671875,4.15107421875,4.2431171875
11.69190234375,14.4522734375,8.4490546875,13.46976171875,9.16249609375,7.52474609375,7.61234765625,2.125265625,8.481125,7.7279765625,8.18171875,6.53969921875,9.4720703125,9.67312109375,4.32118359375,6.7780859375,6.79330078125,7.74479296875,8.04168359375,6.57516796875,7.55507421875,4.45546875,3.33539453125,1.19174609375,6.2004453125,2.8352265625,-5.581328125,1.03438671875,4.29607421875,4.3621171875
6.91690234375,9.4082734375,5.6580546875,13.83776171875,7.75949609375,4.79674609375,5.30534765625,0.926265625,7.251125,4.8679765625,5.90871875,5.63769921875,5.9780703125,7.07812109375,1.40618359375,5.3360859375,6.34030078125,5.67879296875,5.76068359375,4.95716796875,6.50007421875,3.57646875,1.37339453125,-0.0442539062499998,5.2584453125,1.9882265625,-7.418328125,-0.66061328125,3.05907421875,3.3071171875
2.30990234375,3.7472734375,2.8940546875,10.84776171875,4.90449609375,1.52374609375,2.67634765625,-0.00673437500000018,4.803125,1.3229765625,3.25671875,4.57369921875,2.7700703125,3.70712109375,-1.80181640625,3.4120859375,5.39830078125,3.31879296875,3.13168359375,2.73316796875,4.92807421875,2.54646875,-0.86160546875,-1.66325390625,3.8234453125,0.5192265625,-9.571328125,-2.75461328125,0.99707421875,1.7311171875
-0.69609765625,-0.7737265625,0.9590546875,6.03376171875,1.30849609375,-1.51025390625,0.37134765625,-0.244734375,1.625125,-2.0870234375,0.94571875,3.70069921875,1.1930703125,0.40812109375,-4.51081640625,1.6240859375,4.34130078125,1.37179296875,0.867683593750001,0.55416796875,3.42707421875,1.96346875,-2.68260546875,-3.11825390625,2.5524453125,-0.8497734375,-11.268328125,-4.23461328125,-0.94492578125,0.4981171875
-1.76609765625,-3.1027265625,0.1830546875,1.24676171875,-2.12450390625,-3.73025390625,-1.19465234375,0.238265625,-1.504875,-4.7030234375,-0.57928125,3.16669921875,1.4120703125,-2.07587890625,-6.20981640625,0.3950859375,3.46530078125,0.28779296875,-0.589316406249999,-1.06183203125,2.45207421875,2.14546875,-3.66460546875,-4.02125390625,1.8754453125,-1.5827734375,-12.045328125,-4.30761328125,-1.92392578125,0.2031171875
-1.73009765625,-3.1927265625,0.3430546875,-2.19023828125,-4.66550390625,-4.97925390625,-1.97465234375,1.021265625,-3.829875,-6.2630234375,-1.29928125,2.84969921875,2.4250703125,-3.38887890625,-6.82781640625,-0.2099140625,2.83830078125,0.0527929687500001,-1.19931640625,-1.93583203125,2.11507421875,2.97146875,-3.82960546875,-4.29025390625,1.8054453125,-1.5617734375,-11.927328125,-2.82761328125,-1.58992578125,0.8781171875
-1.92809765625,-1.7497265625,0.8900546875,-3.85223828125,-5.98350390625,-5.47425390625,-2.21665234375,1.489265625,-4.918875,-6.8940234375,-1.52528125,2.49269921875,2.8290703125,-3.62687890625,-6.66281640625,-0.4119140625,2.33330078125,0.27379296875,-1.24031640625,-2.22483203125,2.19207421875,3.96146875,-3.56660546875,-4.12825390625,2.0014453125,-1.0557734375,-11.323328125,-0.40061328125,-0.22692578125,2.0411171875
-3.22709765625,0.2972734375,1.3170546875,-4.05323828125,-6.13950390625,-5.54725390625,-2.19765234375,1.236265625,-4.780875,-6.9210234375,-1.62328125,1.93269921875,1.8090703125,-3.19287890625,-6.16281640625,-0.5169140625,1.79330078125,0.45179296875,-1.11731640625,-2.25183203125,2.30807421875,4.52346875,-3.37060546875,-3.87125390625,1.9894453125,-0.5317734375,-10.766328125,1.87938671875,1.40007421875,3.0041171875
-5.34409765625,2.2562734375,1.4280546875,-3.42623828125,-5.41850390625,-5.38625390625,-1.97365234375,0.342265625,-3.747875,-6.6250234375,-1.76828125,1.23669921875,-0.3019296875,-2.53887890625,-5.69481640625,-0.7069140625,1.19030078125,0.27779296875,-1.13031640625,-2.29283203125,2.16107421875,4.24146875,-3.56460546875,-3.79525390625,1.4284453125,-0.4237734375,-10.627328125,2.92938671875,2.41007421875,3.2371171875
-6.97309765625,3.8812734375,1.3810546875,-2.57223828125,-4.18350390625,-4.98325390625,-1.39365234375,-0.731734375,-2.251875,-6.1240234375,-1.88528125,0.65369921875,-2.2669296875,-1.95487890625,-5.40581640625,-0.9669140625,0.66330078125,-0.23220703125,-1.32331640625,-2.47283203125,1.65807421875,3.09646875,-4.14760546875,-3.97325390625,0.2944453125,-0.9467734375,-10.950328125,2.16738671875,2.24507421875,2.5861171875
-6.67509765625,5.2472734375,1.5010546875,-1.91123828125,-2.81750390625,-4.29425390625,-0.36265234375,-1.507734375,-0.680875,-5.4380234375,-1.79028125,0.41169921875,-2.7799296875,-1.51387890625,-5.25081640625,-1.1669140625,0.42530078125,-0.81420703125,-1.50631640625,-2.77583203125,0.91907421875,1.48646875,-4.85260546875,-4.25825390625,-1.1345546875,-2.0297734375,-11.476328125,-0.22461328125,0.94307421875,1.2721171875
-3.96209765625,6.4202734375,1.9720546875,-1.61523828125,-1.67750390625,-3.38625390625,0.93334765625,-1.780734375,0.675125,-4.6110234375,-1.39328125,0.53569921875,-1.2809296875,-1.15587890625,-5.11681640625,-1.2259140625,0.58330078125,-1.15120703125,-1.45431640625,-3.11783203125,0.16107421875,0.0224687499999998,-5.34560546875,-4.42325390625,-2.4765546875,-3.4127734375,-11.849328125,-3.39161328125,-0.91292578125,-0.2838828125
0.19090234375,7.1652734375,2.6330546875,-1.55323828125,-0.97850390625,-2.45025390625,2.05834765625,-1.637734375,1.635125,-3.7660234375,-0.79628125,0.81769921875,1.7800703125,-0.81087890625,-4.95381640625,-1.1979140625,1.01530078125,-1.05120703125,-1.10231640625,-3.40783203125,-0.43492578125,-0.76153125,-5.42060546875,-4.32025390625,-3.4685546875,-4.7927734375,-11.835328125,-6.20361328125,-2.52892578125,-1.6688828125
3.79690234375,6.9612734375,3.0280546875,-1.32023828125,-0.71050390625,-1.70425390625,2.58034765625,-1.309734375,2.149125,-3.0650234375,-0.22628125,0.94069921875,5.2920703125,-0.45887890625,-4.78381640625,-1.2289140625,1.36330078125,-0.53620703125,-0.564316406249999,-3.57683203125,-0.79092578125,-0.62553125,-5.07860546875,-3.95725390625,-4.0425546875,-5.9087734375,-11.406328125,-7.74061328125,-3.26692578125,-2.6108828125
5.01890234375,5.3592734375,2.6950546875,-0.48923828125,-0.71250390625,-1.31225390625,2.28734765625,-1.056734375,2.259125,-2.6310234375,0.11271875,0.64169921875,8.0640703125,-0.14287890625,-4.67381640625,-1.4539140625,1.17730078125,0.17679296875,-0.0363164062499992,-3.59683203125,-0.94292578125,0.31146875,-4.49360546875,-3.46925390625,-4.2645546875,-6.5627734375,-10.689328125,-7.64661328125,-2.89092578125,-3.0158828125
3.22790234375,2.4142734375,1.4760546875,1.03876171875,-0.84950390625,-1.34525390625,1.26734765625,-1.113734375,2.030125,-2.5230234375,0.13671875,-0.17030078125,9.2810703125,0.0551210937499999,-4.70181640625,-1.9179140625,0.14930078125,0.77179296875,0.279683593750001,-3.49683203125,-0.99492578125,1.61946875,-3.91960546875,-3.05125390625,-4.2585546875,-6.6557734375,-9.884328125,-6.20961328125,-1.62792578125,-2.9398828125
-0.70609765625,-1.1497265625,-0.3469453125,2.88876171875,-1.12250390625,-1.73425390625,-0.14365234375,-1.621734375,1.528125,-2.7230234375,-0.08028125,-1.38330078125,8.6790703125,0.0511210937499999,-4.91281640625,-2.5459140625,-1.68269921875,0.96179296875,0.232683593750001,-3.34083203125,-1.06592578125,2.71146875,-3.58460546875,-2.89225390625,-4.1605546875,-6.2507734375,-9.192328125,-4.17461328125,-0.04392578125,-2.5338828125
-5.03109765625,-4.1707265625,-2.1609453125,4.41076171875,-1.57150390625,-2.24625390625,-1.45465234375,-2.539734375,0.877125,-3.1000234375,-0.33128125,-2.69530078125,6.4980703125,-0.16287890625,-5.22681640625,-3.1369140625,-3.87669921875,0.61479296875,-0.176316406249999,-3.16283203125,-1.21392578125,3.09046875,-3.58960546875,-3.05825390625,-4.0425546875,-5.5597734375,-8.732328125,-2.37561328125,1.23307421875,-1.9748828125
-8.10009765625,-5.5317265625,-3.2889453125,5.06976171875,-2.07650390625,-2.48225390625,-2.14265234375,-3.610734375,0.305125,-3.3510234375,-0.30428125,-3.68430078125,3.3180703125,-0.43187890625,-5.35481640625,-3.3749140625,-5.71069921875,-0.18420703125,-0.702316406249999,-2.89883203125,-1.38092578125,2.59146875,-3.85260546875,-3.41125390625,-3.8555546875,-4.8397734375,-8.450328125,-1.37161328125,1.84207421875,-1.4048828125
-9.11609765625,-4.6267265625,-3.2559453125,4.71076171875,-2.24450390625,-1.96825390625,-1.78765234375,-4.420734375,0.118125,-3.0390234375,0.35171875,-3.90830078125,-0.0929296875000001,-0.44387890625,-4.85881640625,-2.9119140625,-6.47069921875,-1.12320703125,-0.891316406249999,-2.36183203125,-1.40292578125,1.46146875,-4.11660546875,-3.62325390625,-3.4405546875,-4.2707734375,-8.113328125,-1.21461328125,1.84707421875,-0.9118828125
-8.28909765625,-1.6157265625,-1.9549453125,3.53876171875,-1.56950390625,-0.34025390625,-0.19065234375,-4.535734375,0.559125,-1.7690234375,1.87771875,-3.06330078125,-2.8729296875,0.13312109375,-3.35581640625,-1.5269140625,-5.76569921875,-1.75220703125,-0.292316406249999,-1.32283203125,-1.09792578125,0.24146875,-4.05060546875,-3.33125390625,-2.6575546875,-3.9157734375,-7.424328125,-1.48161328125,1.64407421875,-0.5258828125
-6.47209765625,2.6042734375,0.3210546875,1.92676171875,0.20549609375,2.41074609375,2.52334765625,-3.683734375,1.642125,0.5429765625,4.24571875,-1.13030078125,-4.1869296875,1.44012109375,-0.76881640625,0.7280859375,-3.73269921875,-1.66520703125,1.30968359375,0.33616796875,-0.37692578125,-0.48253125,-3.39160546875,-2.32425390625,-1.4895546875,-3.7037734375,-6.172328125,-1.53661328125,1.69507421875,-0.2218828125
-4.57209765625,6.7202734375,2.9950546875,0.25576171875,2.76749609375,5.77974609375,5.83434765625,-1.924734375,3.047125,3.5019765625,7.07071875,1.55469921875,-3.4919296875,3.28112109375,2.56118359375,3.4860859375,-0.98269921875,-0.70620703125,3.77668359375,2.49116796875,0.69907421875,-0.33053125,-2.06860546875,-0.64625390625,-0.0445546875000007,-3.4267734375,-4.339328125,-0.92061328125,2.28407421875,0.0921171875
-3.11009765625,9.4692734375,5.3850546875,-1.12523828125,5.26049609375,8.85174609375,8.90434765625,0.310265625,4.190125,6.3159765625,9.69471875,4.36869921875,-0.8549296875,5.15612109375,5.94618359375,6.1510859375,1.66430078125,0.92779296875,6.63368359375,4.75316796875,1.93907421875,0.69046875,-0.26160546875,1.39674609375,1.4914453125,-2.8017734375,-2.140328125,0.37638671875,3.39507421875,0.5491171875
-2.13709765625,10.0662734375,6.9010546875,-1.90023828125,6.71749609375,10.67474609375,10.84934765625,2.367265625,4.491125,8.1139765625,11.41471875,6.59969921875,2.9390703125,6.48112109375,8.58518359375,8.0960859375,3.52030078125,2.76679296875,9.19068359375,6.60216796875,3.10007421875,2.15646875,1.63039453125,3.33374609375,2.9014453125,-1.6337734375,0.00367187500000021,1.89738671875,4.73307421875,1.2601171875
-1.48409765625,8.4622734375,7.2090546875,-1.89623828125,6.61549609375,10.70574609375,11.09134765625,3.629265625,3.724125,8.3489765625,11.74071875,7.69969921875,6.6300703125,6.86512109375,9.85318359375,8.8770859375,4.25630078125,4.29079296875,10.77668359375,7.59516796875,3.97207421875,3.42646875,3.13839453125,4.68274609375,3.9654453125,0.0192265625,1.602671875,3.00838671875,5.88107421875,2.2221171875
-1.04609765625,5.4112734375,6.3580546875,-1.24623828125,5.20849609375,9.04874609375,9.60034765625,3.737265625,2.215125,7.0569765625,10.58671875,7.47169921875,8.9630703125,6.31012109375,9.55218359375,8.3980859375,3.94030078125,5.15679296875,11.03468359375,7.54516796875,4.44207421875,3.97846875,3.91039453125,5.14074609375,4.5284453125,1.8362265625,2.296671875,3.28438671875,6.51707421875,3.2811171875
-0.82609765625,2.3032734375,4.7960546875,-0.41423828125,3.37749609375,6.38774609375,6.88834765625,2.687265625,0.718125,4.8409765625,8.31371875,6.13569921875,9.1500703125,5.19212109375,7.98618359375,6.9510859375,2.92830078125,5.30579296875,10.06668359375,6.59516796875,4.50507421875,3.65446875,3.84339453125,4.69274609375,4.5544453125,3.3512265625,2.004671875,2.73038671875,6.54507421875,4.1531171875
-0.77109765625,0.6602734375,3.2060546875,0.05276171875,2.12349609375,3.68474609375,3.79834765625,0.847265625,-0.00587500000000007,2.5739765625,5.59471875,4.22469921875,7.1560703125,4.02912109375,5.80018359375,5.0920859375,1.67730078125,4.90579296875,8.33768359375,5.14616796875,4.21607421875,2.65746875,3.07939453125,3.57974609375,4.0914453125,4.1122265625,0.894671875,1.67738671875,6.02107421875,4.4931171875
-0.66709765625,1.4152734375,2.2030546875,-0.12823828125,2.01049609375,1.77874609375,1.18234765625,-1.154734375,0.375125,0.9889765625,3.14771875,2.35069921875,3.7250703125,3.19512109375,3.68718359375,3.4030859375,0.56730078125,4.22079296875,6.40568359375,3.68216796875,3.64007421875,1.36246875,1.89739453125,2.16374609375,3.2214453125,3.8172265625,-0.730328125,0.52238671875,5.02507421875,4.0151171875
-0.26309765625,4.3452734375,2.0320546875,-0.80223828125,2.87649609375,1.04074609375,-0.42265234375,-2.668734375,1.575125,0.3709765625,1.45471875,0.96269921875,0.1280703125,2.76012109375,2.11618359375,2.2680859375,-0.19469921875,3.47979296875,4.72168359375,2.56416796875,2.83807421875,0.14746875,0.60339453125,0.79974609375,2.0574453125,2.4612265625,-2.533328125,-0.47861328125,3.65007421875,2.6441171875
0.47490234375,8.0682734375,2.4790546875,-1.51523828125,3.98149609375,1.25274609375,-0.98865234375,-3.308734375,2.860125,0.5069765625,0.60471875,0.19669921875,-2.3089296875,2.55512109375,1.23318359375,1.7680859375,-0.60069921875,2.83679296875,3.54868359375,1.91116796875,1.90007421875,-0.70053125,-0.53960546875,-0.24325390625,0.784445312499999,0.4242265625,-4.167328125,-1.25061328125,2.09707421875,0.6361171875
1.22890234375,10.7292734375,3.0360546875,-1.82923828125,4.49549609375,1.81274609375,-0.92065234375,-3.071734375,3.488125,0.9099765625,0.35371875,-0.08230078125,-2.7379296875,2.37212109375,0.92018359375,1.7290859375,-0.76069921875,2.38079296875,2.95768359375,1.62816796875,0.97607421875,-1.05553125,-1.34560546875,-0.82925390625,-0.3495546875,-1.6087734375,-5.332328125,-1.83761328125,0.70907421875,-1.4558828125
1.44690234375,10.9852734375,3.2270546875,-1.57823828125,4.03349609375,2.14274609375,-0.74765234375,-2.218734375,3.163125,1.1679765625,0.34371875,-0.10230078125,-1.1189296875,2.16012109375,0.96018359375,1.8870859375,-0.79969921875,2.17879296875,2.86468359375,1.53316796875,0.26207421875,-0.98553125,-1.70660546875,-0.95925390625,-1.1065546875,-2.9357734375,-5.851328125,-2.30461328125,-0.14392578125,-2.9908828125
0.62890234375,8.6742734375,2.8800546875,-0.86623828125,2.87449609375,2.01874609375,-0.81665234375,-1.086734375,2.220125,1.1929765625,0.33471875,-0.00630078124999989,1.8430703125,2.08712109375,1.20518359375,2.0680859375,-0.76469921875,2.29279296875,3.13868359375,1.51216796875,-0.05392578125,-0.68253125,-1.56560546875,-0.70525390625,-1.3235546875,-3.1227734375,-5.691328125,-2.63361328125,-0.20092578125,-3.5028828125
-1.41909765625,4.7762734375,2.1790546875,0.14276171875,1.74349609375,1.58474609375,-1.19965234375,0.0132656249999998,1.408125,1.2169765625,0.28971875,0.20969921875,5.1480703125,2.42212109375,1.63718359375,2.2640859375,-0.62669921875,2.76779296875,3.70868359375,1.57016796875,0.14807421875,-0.28953125,-0.90060546875,-0.13625390625,-0.923554687500001,-2.1387734375,-4.916328125,-2.66261328125,0.62607421875,-2.8678828125
-4.45809765625,0.7832734375,1.4770546875,1.42976171875,1.32349609375,1.15174609375,-1.79865234375,0.835265625,1.390125,1.5609765625,0.30471875,0.62469921875,8.0220703125,3.30912109375,2.29118359375,2.5670859375,-0.33869921875,3.57579296875,4.53368359375,1.78716796875,0.85407421875,0.18346875,0.22839453125,0.68374609375,0.0444453124999995,-0.3237734375,-3.676328125,-2.16961328125,2.20007421875,-1.3218828125
-7.84009765625,-2.0187265625,1.0680546875,3.06876171875,1.87549609375,0.98374609375,-2.43465234375,1.277265625,2.316125,2.3489765625,0.47471875,1.30069921875,10.1480703125,4.58512109375,3.10718359375,3.0360859375,0.10430078125,4.55479296875,5.46968359375,2.21716796875,1.89607421875,0.77246875,1.59539453125,1.60774609375,1.3454453125,1.7412265625,-2.260328125,-1.09661328125,4.11607421875,0.6281171875
-10.63509765625,-2.9237265625,1.0700546875,4.93276171875,3.13649609375,1.18974609375,-2.86065234375,1.455265625,3.733125,3.3949765625,0.81571875,2.22869921875,11.4980703125,5.78012109375,3.88018359375,3.6250859375,0.64830078125,5.38279296875,6.20568359375,2.79916796875,3.00207421875,1.40346875,2.78839453125,2.36474609375,2.5664453125,3.4212265625,-1.111328125,0.27438671875,5.74307421875,2.3611171875
-11.89609765625,-1.7967265625,1.4720546875,6.48876171875,4.51249609375,1.72574609375,-2.79765234375,1.644265625,4.862125,4.2929765625,1.26871875,3.34669921875,12.0100703125,6.33612109375,4.34918359375,4.2090859375,1.23430078125,5.66579296875,6.39068359375,3.35716796875,3.89107421875,1.84446875,3.33839453125,2.63874609375,3.2704453125,4.2632265625,-0.700328124999999,1.36138671875,6.46107421875,3.3341171875
-11.02309765625,1.0762734375,2.2080546875,6.99576171875,5.39449609375,2.46174609375,-2.04665234375,2.108265625,5.052125,4.6679765625,1.77471875,4.55969921875,11.4510703125,5.90012109375,4.34818359375,4.6710859375,1.84230078125,5.12379296875,5.82568359375,3.67916796875,4.38007421875,1.83446875,2.93739453125,2.22674609375,3.1904453125,4.1462265625,-1.311328125,1.57838671875,5.95307421875,3.2651171875
-8.10209765625,5.0502734375,3.1720546875,6.03176171875,5.46449609375,3.27574609375,-0.61565234375,2.954265625,4.150125,4.3949765625,2.30971875,5.75169921875,9.5990703125,4.53912109375,3.91118359375,4.9560859375,2.49830078125,3.78479296875,4.58168359375,3.63516796875,4.43807421875,1.24446875,1.61939453125,1.14874609375,2.3304453125,3.2682265625,-2.900328125,0.66438671875,4.35307421875,2.2281171875
-4.00209765625,9.1242734375,4.1650546875,3.90376171875,4.82449609375,4.11474609375,1.24434765625,4.116265625,2.570125,3.6759765625,2.88071875,6.79569921875,6.5540703125,2.70912109375,3.26318359375,5.0700859375,3.22730078125,2.02579296875,2.97668359375,3.23716796875,4.16107421875,0.17846875,-0.23560546875,-0.35725390625,0.9354453125,2.0022265625,-5.111328125,-1.17361328125,2.17507421875,0.5871171875
-0.12009765625,12.0632734375,4.8870546875,1.53176171875,3.87449609375,4.95774609375,3.08734765625,5.393265625,1.024125,2.9129765625,3.47071875,7.56469921875,2.8960703125,1.03312109375,2.71418359375,5.0480859375,4.00030078125,0.39879296875,1.46468359375,2.60916796875,3.70207421875,-1.04753125,-2.05960546875,-1.92325390625,-0.6085546875,0.7402265625,-7.413328125,-3.38161328125,0.0610742187500001,-1.1818828125
2.14390234375,12.7372734375,5.0200546875,-0.0932382812500001,3.05949609375,5.73674609375,4.42634765625,6.510265625,0.100125,2.5019765625,4.01071875,7.98169921875,-0.4369296875,0.0121210937499999,2.51718359375,4.9300859375,4.72330078125,-0.63620703125,0.466683593750001,1.91016796875,3.20307421875,-2.03653125,-3.34260546875,-3.18525390625,-1.8965546875,-0.2097734375,-9.292328125,-5.33761328125,-1.46992578125,-2.6938828125
1.93790234375,10.6072734375,4.4010546875,-0.47923828125,2.65449609375,6.34274609375,4.94834765625,7.193265625,0.00512500000000005,2.6639765625,4.42371875,8.05269921875,-2.4739296875,-0.14887890625,2.76818359375,4.7540859375,5.26730078125,-0.89720703125,0.195683593750001,1.28216796875,2.75507421875,-2.47353125,-3.80560546875,-3.91425390625,-2.6295546875,-0.6687734375,-10.414328125,-6.58961328125,-2.17092578125,-3.7368828125
-0.71509765625,6.1052734375,3.1500546875,0.14976171875,2.73949609375,6.72574609375,4.71234765625,7.284265625,0.582125,3.4109765625,4.69771875,7.88369921875,-2.6359296875,0.45012109375,3.39418359375,4.5750859375,5.52730078125,-0.48820703125,0.577683593750001,0.86016796875,2.42307421875,-2.23353125,-3.45460546875,-4.06525390625,-2.6885546875,-0.5987734375,-10.683328125,-6.93261328125,-2.05492578125,-4.2248828125
-4.91009765625,0.6162734375,1.6810546875,1.04976171875,3.27949609375,6.97174609375,4.14634765625,6.833265625,1.512125,4.6129765625,4.93771875,7.64969921875,-1.0599296875,1.52212109375,4.24218359375,4.4870859375,5.47230078125,0.29479296875,1.33268359375,0.76416796875,2.26607421875,-1.40953125,-2.51360546875,-3.73925390625,-2.1115546875,-0.0467734375,-10.186328125,-6.37861328125,-1.26592578125,-4.1278828125
-9.17509765625,-3.9967265625,0.5490546875,1.40976171875,4.19749609375,7.27374609375,3.82734765625,6.085265625,2.500125,6.0789765625,5.32871875,7.53769921875,1.3760703125,2.73512109375,5.17618359375,4.6210859375,5.17330078125,1.09879296875,2.12468359375,1.08016796875,2.34207421875,-0.27453125,-1.33160546875,-3.10525390625,-1.0425546875,0.9002265625,-9.116328125,-5.11261328125,0.01207421875,-3.4648828125
-11.96709765625,-6.1197265625,0.2270546875,0.80376171875,5.38049609375,7.83174609375,4.19634765625,5.400265625,3.352125,7.6139765625,6.04871875,7.68269921875,3.4760703125,3.80112109375,6.10218359375,5.0950859375,4.81330078125,1.62279296875,2.67268359375,1.80916796875,2.68007421875,0.75746875,-0.29260546875,-2.35625390625,0.2944453125,2.1012265625,-7.765328125,-3.50361328125,1.53307421875,-2.3718828125
-12.19509765625,-4.9757265625,0.9380546875,-0.60723828125,6.63649609375,8.77374609375,5.39034765625,5.137265625,3.984125,9.0269765625,7.17371875,8.13369921875,4.3770703125,4.50612109375,6.94618359375,5.9560859375,4.64030078125,1.70179296875,2.75968359375,2.84316796875,3.24907421875,1.23046875,0.27039453125,-1.69225390625,1.5934453125,3.3152265625,-6.523328125,-2.08161328125,2.92207421875,-1.1358828125
-9.61609765625,-0.8417265625,2.5910546875,-2.20923828125,7.69149609375,10.07574609375,7.23334765625,5.523265625,4.386125,10.1519765625,8.63471875,8.83369921875,3.9910703125,4.72012109375,7.63818359375,7.1460859375,4.87830078125,1.32979296875,2.27568359375,3.99216796875,3.96807421875,0.82246875,0.18139453125,-1.26425390625,2.5524453125,4.2412265625,-5.789328125,-1.40461328125,3.72307421875,-0.1178828125
-4.99609765625,5.0982734375,4.8210546875,-3.28123828125,8.25549609375,11.52274609375,9.29134765625,6.518265625,4.572125,10.8659765625,10.22771875,9.62569921875,2.9610703125,4.42712109375,8.14018359375,8.5160859375,5.59930078125,0.64879296875,1.28668359375,5.04416796875,4.75007421875,-0.43753125,-0.48360546875,-1.10025390625,3.0164453125,4.6632265625,-5.776328125,-1.80161328125,3.62607421875,0.4071171875
0.0719023437500002,11.1232734375,7.0700546875,-3.34123828125,8.17049609375,12.76374609375,11.01034765625,7.823265625,4.558125,11.1299765625,11.68271875,10.29769921875,2.1890703125,3.75912109375,8.48118359375,9.8600859375,6.62430078125,-0.08820703125,0.0566835937500008,5.84516796875,5.53007421875,-2.10453125,-1.39360546875,-1.09525390625,3.0614453125,4.5602265625,-6.369328125,-3.14961328125,2.68907421875,0.3821171875
3.73190234375,15.5072734375,8.7320546875,-2.32123828125,7.54849609375,13.46974609375,11.91834765625,9.025265625,4.392125,11.0079765625,12.73771875,10.63669921875,2.2910703125,2.99912109375,8.74818359375,10.9640859375,7.53730078125,-0.57120703125,-1.04331640625,6.34216796875,6.25207421875,-3.47653125,-2.07860546875,-1.09425390625,2.9114453125,4.0662265625,-7.171328125,-4.84161328125,1.35107421875,-0.0258828125000001
4.61990234375,17.0872734375,9.3350546875,-0.53023828125,6.79849609375,13.50374609375,11.83134765625,9.795265625,4.196125,10.6479765625,13.21271875,10.50069921875,3.2520703125,2.49912109375,9.03018359375,11.6510859375,7.83330078125,-0.52520703125,-1.67131640625,6.57016796875,6.81907421875,-3.91553125,-2.12560546875,-0.99525390625,2.7894453125,3.3522265625,-7.684328125,-6.02461328125,0.22507421875,-0.5578828125
2.46190234375,15.6502734375,8.7110546875,1.54576171875,6.44449609375,12.94374609375,10.89934765625,9.935265625,4.158125,10.2289765625,13.03471875,9.85569921875,4.4570703125,2.55012109375,9.36218359375,11.8190859375,7.15630078125,0.18679296875,-1.62231640625,6.58816796875,7.08607421875,-3.11753125,-1.36060546875,-0.78325390625,2.8144453125,2.5632265625,-7.509328125,-6.00961328125,-0.18692578125,-1.0018828125
-1.81809765625,11.9332734375,7.0590546875,3.48476171875,6.81349609375,11.99074609375,9.46434765625,9.348265625,4.402125,9.8699765625,12.24971875,8.78169921875,5.0550703125,3.24412109375,9.68618359375,11.4650859375,5.51230078125,1.47379296875,-0.906316406249999,6.43916796875,6.91307421875,-1.25653125,0.0673945312499999,-0.50025390625,2.9964453125,1.8152265625,-6.503328125,-4.64261328125,0.27207421875,-1.2618828125
-6.47909765625,7.2692734375,4.8790546875,5.04176171875,7.79549609375,10.86774609375,7.88934765625,8.062265625,4.846125,9.5699765625,11.02071875,7.46069921875,4.5010703125,4.40612109375,9.85718359375,10.6910859375,3.33830078125,3.03279296875,0.207683593750001,6.16216796875,6.27307421875,1.06646875,1.73539453125,-0.20925390625,3.2574453125,1.1942265625,-4.842328125,-2.44361328125,1.33307421875,-1.3448828125
-9.64509765625,3.1212734375,2.8320546875,6.08776171875,8.85749609375,9.77974609375,6.47834765625,6.323265625,5.196125,9.2219765625,9.61071875,6.14769921875,2.9700703125,5.65912109375,9.72118359375,9.6940859375,1.37430078125,4.45679296875,1.27568359375,5.83916796875,5.31507421875,3.05846875,3.12539453125,0.0497460937500001,3.4864453125,0.7482265625,-2.955328125,-0.36461328125,2.43407421875,-1.2988828125
-10.00709765625,0.6842734375,1.5660546875,6.50176171875,9.29849609375,8.87674609375,5.45234765625,4.593265625,5.093125,8.7089765625,8.33271875,5.10369921875,1.3860703125,6.59812109375,9.22318359375,8.7320859375,0.35230078125,5.41079296875,1.90368359375,5.61216796875,4.34807421875,4.11146875,3.86939453125,0.30374609375,3.6284453125,0.4992265625,-1.292328125,0.72338671875,3.04307421875,-1.1538828125
-7.34509765625,0.5652734375,1.4920546875,6.18476171875,8.61249609375,8.19174609375,4.89634765625,3.339265625,4.338125,7.9809765625,7.42971875,4.48869921875,0.9320703125,6.96212109375,8.45018359375,8.0420859375,0.63230078125,5.75579296875,1.95668359375,5.61816796875,3.70707421875,4.09346875,3.90639453125,0.64274609375,3.7374453125,0.4932265625,-0.0983281249999983,0.51738671875,2.98007421875,-0.8828828125
-2.65609765625,2.5332734375,2.5650546875,5.19876171875,6.74049609375,7.59574609375,4.71434765625,2.778265625,3.030125,7.0539765625,6.93471875,4.26469921875,2.2730703125,6.67112109375,7.55218359375,7.7150859375,1.98130078125,5.54879296875,1.58768359375,5.87716796875,3.57207421875,3.35146875,3.46039453125,1.14074609375,3.9094453125,0.7922265625,0.653671875000001,-0.57061328125,2.49207421875,-0.4208828125
2.24890234375,5.5422734375,4.2210546875,3.86576171875,4.11149609375,6.85774609375,4.68934765625,2.790265625,1.570125,5.9579765625,6.60571875,4.21269921875,5.0180703125,5.74312109375,6.61418359375,7.6400859375,3.65430078125,4.93779296875,1.10768359375,6.21816796875,3.86007421875,2.46046875,2.86239453125,1.74274609375,4.1664453125,1.4182265625,1.138671875,-1.69161328125,2.08007421875,0.3011171875
5.55090234375,8.1512734375,5.6070546875,2.66876171875,1.43749609375,5.75674609375,4.61934765625,3.059265625,0.521125,4.7029765625,6.02371875,4.05269921875,7.8840703125,4.22012109375,5.62218359375,7.5760859375,4.74330078125,4.05279296875,0.841683593750001,6.32616796875,4.28007421875,1.93146875,2.38139453125,2.27474609375,4.4394453125,2.3452265625,1.527671875,-2.01261328125,2.21907421875,1.3231171875
6.20390234375,9.2152734375,6.0140546875,2.00476171875,-0.63750390625,4.17674609375,4.41534765625,3.278265625,0.357125,3.2889765625,4.81671875,3.59769921875,9.4740703125,2.16412109375,4.52418359375,7.3110859375,4.61130078125,2.95479296875,1.04268359375,5.90116796875,4.51607421875,2.04446875,2.14539453125,2.56374609375,4.6554453125,3.5422265625,1.940671875,-1.08261328125,3.18507421875,2.6581171875
4.28890234375,8.4262734375,5.2430546875,1.97076171875,-1.85450390625,2.15374609375,4.09634765625,3.289265625,1.206125,1.7379765625,2.88271875,2.82469921875,9.1520703125,-0.31087890625,3.30318359375,6.7780859375,3.17430078125,1.68379296875,1.79268359375,4.85016796875,4.41707421875,2.80846875,2.15139453125,2.56374609375,4.8074453125,4.9812265625,2.439671875,1.05038671875,4.96707421875,4.2701171875
0.85590234375,6.4202734375,3.6900546875,2.33176171875,-2.45150390625,-0.13425390625,3.72734765625,3.123265625,2.736125,0.1129765625,0.46271875,1.85469921875,7.4170703125,-3.00987890625,2.00318359375,6.0640859375,0.90730078125,0.30479296875,2.92968359375,3.37516796875,4.06007421875,3.98146875,2.30239453125,2.37574609375,4.9304453125,6.5832265625,3.022671875,3.92138671875,7.27007421875,6.0551171875
0.85590234375,6.4202734375,3.6900546875,2.33176171875,-2.45150390625,-0.13425390625,3.72734765625,3.123265625,2.736125,0.1129765625,0.46271875,1.85469921875,7.4170703125,-3.00987890625,2.00318359375,6.0640859375,0.90730078125,0.30479296875,2.92968359375,3.37516796875,4.06007421875,3.98146875,2.30239453125,2.37574609375,4.9304453125,6.5832265625,3.022671875,3.92138671875,7.27007421875,6.0551171875
