"Fp1","Fpz","Fp2","F7","F3","Fz","F4","F8","FC5","FC1","FC2","FC6","T7","C3","Cz","C4","T8","CP5","CP1","CP2","CP6","P7","P3","Pz","P4","P8","POz","O1","Oz","O2"
12.3064296875,10.36509375,8.5419921875,-2.2619609375,9.8740546875,13.4621484375,13.47671875,17.13301171875,11.3080546875,13.0658984375,13.31991015625,14.1277578125,9.9935390625,10.5326796875,10.5216953125,11.0634140625,3.20411328125,9.5388359375,5.0170859375,6.432859375,8.14733984375,9.43978515625,7.59134765625,4.10736328125,2.9246875,12.6516875,-12.08273828125,4.527265625,6.19353515625,7.7185546875
16.9294296875,14.18709375,12.6219921875,4.0970390625,16.0830546875,18.0511484375,17.13571875,21.60401171875,16.1170546875,17.8118984375,16.68191015625,16.2837578125,13.5755390625,12.1066796875,14.1046953125,14.0214140625,5.30611328125,9.8698359375,7.4480859375,10.564859375,11.54933984375,5.73678515625,9.68334765625,9.14636328125,7.3326875,14.0556875,-7.91673828125,5.449265625,8.00653515625,10.6545546875
21.0084296875,18.09509375,16.4899921875,9.7210390625,21.4050546875,22.9411484375,21.03671875,25.24301171875,20.3710546875,22.7948984375,20.40491015625,18.4527578125,17.3045390625,13.5626796875,18.3616953125,17.4554140625,8.22811328125,11.0558359375,10.5890859375,15.375859375,15.07033984375,4.52278515625,12.26134765625,14.75736328125,12.6186875,15.5126875,-3.14573828125,6.558265625,10.21453515625,13.8325546875
24.3504296875,21.85009375,19.9679921875,14.2830390625,25.4920546875,27.7811484375,24.98071875,27.92801171875,23.7680546875,27.5808984375,24.24391015625,20.5667578125,20.8665390625,14.7906796875,23.0316953125,21.2004140625,11.42111328125,12.9468359375,14.3070859375,20.672859375,18.51733984375,5.66278515625,15.29034765625,20.73836328125,18.4776875,16.8476875,2.13626171875,7.999265625,12.87353515625,17.1205546875
26.8514296875,25.08809375,22.8639921875,17.5340390625,28.1270546875,31.9341484375,28.59171875,29.73901171875,26.0570546875,31.4788984375,27.71991015625,22.5267578125,23.7165390625,15.7316796875,27.4926953125,24.8414140625,13.97111328125,15.0488359375,18.1530859375,25.861859375,21.57033984375,8.09478515625,18.49034765625,26.49836328125,24.1266875,17.7866875,7.51026171875,9.831265625,15.81453515625,20.1665546875
28.5184296875,27.48109375,25.0449921875,19.3630390625,29.2880546875,34.7371484375,31.46271875,30.88101171875,27.1450546875,33.8438984375,30.31291015625,24.2437578125,25.2885390625,16.4566796875,30.9976953125,27.8764140625,15.14511328125,16.7858359375,21.5420859375,30.120859375,23.90733984375,10.34478515625,21.42234765625,31.21136328125,28.5916875,18.0416875,12.32526171875,11.924265625,18.63253515625,22.4915546875
29.4434296875,28.83109375,26.4459921875,19.8490390625,29.1670546875,35.7661484375,33.28471875,31.59801171875,27.1950546875,34.3638984375,31.63991015625,25.6527578125,25.2955390625,17.1826796875,32.9406953125,29.8764140625,14.82111328125,17.8138359375,23.9730859375,32.668859375,25.30633984375,11.23478515625,23.68234765625,34.06736328125,31.0446875,17.4286875,15.89626171875,13.943265625,20.77353515625,23.6355546875
29.7364296875,29.09109375,27.0349921875,19.2520390625,28.1030546875,34.9901484375,33.90671875,32.06601171875,26.6060546875,33.1738984375,31.55691015625,26.7107578125,23.9665390625,18.1856796875,33.0316953125,30.5974140625,13.54211328125,18.2258359375,25.1810859375,33.018859375,25.68433984375,10.45878515625,25.07734765625,34.53636328125,31.0576875,15.9356875,17.71626171875,15.415265625,21.70153515625,23.2725546875
29.4424296875,28.32409375,26.7599921875,17.9270390625,26.4590546875,32.7251484375,33.31971875,32.29201171875,25.8590546875,30.7498984375,30.14391015625,27.3567578125,22.0435390625,19.6326796875,31.3346953125,30.0024140625,12.19111328125,18.5098359375,25.1590859375,31.116859375,25.05333984375,8.71278515625,25.64634765625,32.52336328125,28.6566875,13.7276875,17.58826171875,15.862265625,21.03753515625,21.2515546875
28.4964296875,26.63409375,25.5399921875,16.2060390625,24.5000546875,29.4641484375,31.57571875,32.11301171875,25.3210546875,27.6748984375,27.61491015625,27.4767578125,20.5025390625,21.4386796875,28.1746953125,28.1954140625,11.51611328125,19.2298359375,24.0700859375,27.313859375,23.44733984375,7.25678515625,25.53334765625,28.35736328125,24.2086875,11.0496875,15.61926171875,14.935265625,18.63853515625,17.6055546875
26.7704296875,24.13409375,23.3269921875,14.3280390625,22.3420546875,25.6831484375,28.73271875,31.30101171875,25.1020546875,24.3968984375,24.20891015625,26.8927578125,20.1365390625,23.2196796875,23.9876953125,25.3324140625,11.76411328125,20.6358359375,22.1150859375,22.209859375,20.87633984375,7.18878515625,24.82334765625,22.63536328125,18.2336875,8.1056875,12.10126171875,12.526265625,14.62253515625,12.5455546875
24.1804296875,20.96709375,20.2109921875,12.4040390625,19.9770546875,21.7171484375,24.87471875,29.71401171875,25.0350546875,21.1068984375,20.14191015625,25.4257578125,21.2165390625,24.4016796875,19.1996953125,21.5724140625,12.56311328125,22.4378359375,19.4530859375,16.462859375,17.36233984375,8.83278515625,23.44334765625,16.03036328125,11.2856875,5.0106875,7.38426171875,8.820265625,9.34653515625,6.4465546875
20.8044296875,17.35909375,16.4979921875,10.4290390625,17.3410546875,17.7461484375,20.21971875,27.39401171875,24.7390546875,17.7708984375,15.62391015625,23.0047578125,23.3865390625,24.4136796875,14.1796953125,17.1094140625,13.11411328125,23.8848359375,16.1840859375,10.627859375,13.03033984375,11.57978515625,21.19534765625,9.14836328125,3.9476875,1.8426875,1.82426171875,4.253265625,3.34453515625,-0.1814453125
16.9394296875,13.62409375,12.6689921875,8.3410390625,14.3780546875,13.8441484375,15.19371875,24.57201171875,23.7660546875,14.2788984375,10.90291015625,19.7627578125,25.7795390625,22.8826796875,9.2476953125,12.2214140625,12.64311328125,24.0828359375,12.3900859375,5.101859375,8.19033984375,14.19778515625,17.90834765625,2.48036328125,-3.1423125,-1.2653125,-4.19273828125,-0.579734375,-2.74146484375,-6.7324453125
13.0284296875,10.09109375,9.2099921875,6.0980390625,11.0880546875,10.0611484375,10.37271875,21.60301171875,21.7770546875,10.6038984375,6.29091015625,16.0547578125,27.3145390625,19.7586796875,4.6796953125,7.2964140625,10.90211328125,22.3838359375,8.1960859375,0.158859374999999,3.34433984375,15.41778515625,13.61934765625,-3.56363671875,-9.3093125,-4.0423125,-10.17273828125,-5.045734375,-8.23046484375,-12.5334453125
9.5094296875,7.00109375,6.4239921875,3.7340390625,7.5430546875,6.4701484375,6.29371875,18.83801171875,18.6890546875,6.8618984375,2.12391015625,12.3657578125,27.0785390625,15.3256796875,0.7016953125,2.7934140625,8.40411328125,18.6458359375,3.8200859375,-3.970140625,-0.88466015625,14.49278515625,8.68234765625,-8.61163671875,-13.9313125,-6.0663125,-15.49373828125,-8.583734375,-12.47146484375,-16.8904453125
6.6404296875,4.43609375,4.3239921875,1.3470390625,3.8560546875,3.1521484375,3.25071875,16.48001171875,14.6890546875,3.2638984375,-1.31708984375,9.1497578125,24.6455390625,10.1096796875,-2.5403046875,-0.8605859375,6.19111328125,13.2878359375,-0.440914062499999,-7.069140625,-3.89666015625,11.47178515625,3.70134765625,-12.31963671875,-16.5623125,-6.8433125,-19.49873828125,-10.791734375,-14.94146484375,-19.2044453125
4.4214296875,2.33009375,2.6769921875,-0.9339609375,0.1670546875,0.160148437499998,1.21871875,14.49501171875,10.1470546875,-0.00310156249999949,-3.88808984375,6.6747578125,20.2175390625,4.7246796875,-5.0003046875,-3.3865859375,5.22811328125,7.1278359375,-4.2709140625,-8.977140625,-5.29566015625,7.11978515625,-0.669652343749998,-14.43863671875,-17.0523125,-5.9653125,-21.68473828125,-11.477734375,-15.36346484375,-19.1394453125
2.6494296875,0.552093749999999,1.1789921875,-2.9829609375,-3.3429453125,-2.4858515625,-0.0592812499999997,12.67501171875,5.4980546875,-2.8361015625,-5.59808984375,4.9707578125,14.5225390625,-0.261320312500001,-6.7333046875,-4.7205859375,5.80311328125,1.1148359375,-7.4159140625,-9.672140625,-5.01366015625,2.55978515625,-3.93065234375,-14.90963671875,-15.6003125,-3.3143125,-21.88773828125,-10.682734375,-13.80646484375,-16.7804453125
1.0784296875,-0.979906250000001,-0.328007812500001,-4.6999609375,-6.4249453125,-4.7398515625,-0.86728125,10.80501171875,1.1670546875,-5.1941015625,-6.54908984375,3.9047578125,8.5355390625,-4.4083203125,-7.8553046875,-4.9905859375,7.35811328125,-3.9331640625,-9.7229140625,-9.304140625,-3.32066015625,-1.16921484375,-5.83065234375,-13.92563671875,-12.7143125,0.815687500000001,-20.35273828125,-8.656734375,-10.70546484375,-12.6694453125
-0.4065703125,-2.19190625,-1.7160078125,-6.0339609375,-8.7719453125,-6.4588515625,-1.31428125,8.82401171875,-2.4909453125,-6.9981015625,-6.83008984375,3.3207578125,3.1695390625,-7.4143203125,-8.4393046875,-4.4095859375,8.86011328125,-7.5091640625,-11.1049140625,-8.162140625,-0.710660156249999,-3.48421484375,-6.36365234375,-11.90463671875,-9.0923125,5.7246875,-17.64173828125,-5.816734375,-6.78346484375,-7.6744453125
-1.6935703125,-2.84190625,-2.6010078125,-6.9859609375,-10.0629453125,-7.3728515625,-1.27328125,6.88501171875,-5.2069453125,-8.0371015625,-6.44008984375,3.1507578125,-0.966460937500001,-9.1003203125,-8.4343046875,-3.1835859375,9.46011328125,-9.4761640625,-11.5009140625,-6.581140625,2.23233984375,-4.42421484375,-5.71865234375,-9.37163671875,-5.4513125,10.4816875,-14.43973828125,-2.679734375,-2.86146484375,-2.7194453125
-2.4655703125,-2.61290625,-2.5400078125,-7.5759609375,-10.0329453125,-7.1298515625,-0.474281249999999,5.30901171875,-6.7939453125,-7.9841015625,-5.28708984375,3.4287578125,-3.6304609375,-9.4073203125,-7.6443046875,-1.4595859375,8.94811328125,-10.0181640625,-10.8489140625,-4.828140625,4.96433984375,-4.55521484375,-4.20765234375,-6.81263671875,-2.3663125,14.2016875,-11.34673828125,0.219265625,0.37153515625,1.4915546875
-2.3395703125,-1.28090625,-1.2800078125,-7.7809609375,-8.5459453125,-5.4348515625,1.28071875,4.43901171875,-7.1239453125,-6.5151015625,-3.27108984375,4.2187578125,-4.8754609375,-8.4063203125,-5.8063046875,0.650414062500001,7.75311328125,-9.5271640625,-9.1229140625,-3.011140625,7.08233984375,-4.66021484375,-2.20465234375,-4.53363671875,-0.1303125,16.3406875,-8.74473828125,2.413265625,2.54553515625,4.6245546875
-1.0695703125,1.14009375,1.0859921875,-7.5279609375,-5.6799453125,-2.2218515625,3.93171875,4.45701171875,-6.1769453125,-3.5131015625,-0.406089843749999,5.5117578125,-4.8954609375,-6.3163203125,-2.7543046875,3.0254140625,6.56311328125,-8.4651640625,-6.4059140625,-1.093140625,8.40433984375,-5.38121484375,-0.0926523437499984,-2.60663671875,1.3246875,16.8716875,-6.75973828125,3.568265625,3.65453515625,6.6955546875
1.2794296875,4.34509375,4.1429921875,-6.7539609375,-1.7939453125,2.1961484375,7.08671875,5.23001171875,-4.1299453125,0.764898437499999,3.07991015625,7.1367578125,-3.8974609375,-3.5083203125,1.4116953125,5.4884140625,5.86611328125,-7.2381640625,-2.9599140625,1.019859375,8.97733984375,-6.97321484375,1.77934765625,-0.89763671875,2.3586875,16.2276875,-5.30773828125,3.544265625,3.95953515625,7.9275546875
4.2874296875,7.79409375,7.2939921875,-5.4689609375,2.5080546875,7.1271484375,10.10471875,6.33001171875,-1.3909453125,5.6668984375,6.71791015625,8.7547578125,-2.0404609375,-0.4423203125,6.2366953125,7.7964140625,5.67511328125,-6.1041640625,0.787085937500001,3.347859375,9.00233984375,-9.23221484375,3.17534765625,0.81836328125,3.4386875,15.0426875,-4.16873828125,2.449265625,3.83853515625,8.6045546875
7.2954296875,10.85709375,9.9329921875,-3.7789609375,6.5260546875,11.6561484375,12.29571875,7.22501171875,1.5120546875,10.3088984375,9.88391015625,9.9417578125,0.540539062500001,2.4486796875,10.9656953125,9.6534140625,5.53311328125,-5.1151640625,4.3240859375,5.749859375,8.69633984375,-11.54421484375,4.05834765625,2.71936328125,4.8816875,13.8276875,-3.06073828125,0.687265625,3.65653515625,8.9995546875
9.6294296875,12.98709375,11.5849921875,-1.8779609375,9.6830546875,14.9261484375,13.15671875,7.50601171875,4.1030546875,13.8378984375,11.98191015625,10.3227578125,3.6965390625,4.8726796875,14.7396953125,10.7664140625,4.76911328125,-4.1241640625,7.1950859375,7.896859375,8.15033984375,-13.06221484375,4.61134765625,4.80436328125,6.6636875,12.7526875,-1.73673828125,-1.098734375,3.68053515625,9.3545546875
10.8114296875,13.86609375,11.9889921875,-0.0329609375000004,11.6690546875,16.3841484375,12.54171875,7.02001171875,6.0880546875,15.6898984375,12.62491015625,9.7187578125,7.2045390625,6.7256796875,16.8756953125,10.9114140625,2.87111328125,-2.8761640625,9.1030859375,9.336859375,7.26833984375,-12.98521484375,5.13334765625,6.83736328125,8.3826875,11.6296875,-0.0997382812500001,-2.220734375,4.03453515625,9.8395546875
10.6944296875,13.46309375,11.1359921875,1.4700390625,12.4770546875,15.9281484375,10.68771875,5.85801171875,7.3910546875,15.7278984375,11.75591015625,8.2107578125,10.7555390625,8.0496796875,17.0756953125,9.9844140625,-0.16688671875,-1.1811640625,9.9410859375,9.624859375,5.82733984375,-10.88621484375,5.87534765625,8.38336328125,9.3936875,10.0496875,1.69926171875,-2.213734375,4.65853515625,10.4715546875
9.4704296875,11.99109375,9.2459921875,2.4230390625,12.3220546875,13.9071484375,8.10871875,4.28601171875,8.1060546875,14.2348984375,9.65191015625,6.1227578125,13.9855390625,8.9366796875,15.4986953125,8.0474140625,-3.70588671875,0.936835937499998,9.7720859375,8.514859375,3.63733984375,-6.93821484375,6.90234765625,8.96236328125,9.0576875,7.5976875,3.26126171875,-1.041734375,5.31953515625,11.0235546875
7.5554296875,9.81109375,6.6989921875,2.7830390625,11.5140546875,10.9951484375,5.40971875,2.64801171875,8.4210546875,11.7718984375,6.83491015625,3.9137578125,16.5395390625,9.4616796875,12.6726953125,5.3494140625,-6.64988671875,3.2058359375,8.7880859375,6.105859375,0.71733984375,-1.88721484375,8.07434765625,8.25736328125,7.0146875,4.0696875,4.05826171875,0.887265625,5.65753515625,11.0145546875
5.4324296875,7.34209375,3.9519921875,2.6580390625,10.3470546875,7.9881484375,3.12671875,1.26501171875,8.5090546875,8.9818984375,3.92991015625,2.0457578125,18.1445390625,9.6576796875,9.3116953125,2.3224140625,-7.94188671875,5.2148359375,7.2610859375,2.873859375,-2.60666015625,3.22078515625,9.10934765625,6.28836328125,3.3716875,-0.380312499999999,3.64826171875,2.907265625,5.29653515625,9.8425546875
3.4944296875,4.99009375,1.4459921875,2.2130390625,9.0380546875,5.5901484375,1.63571875,0.355011718749999,8.4540546875,6.4208984375,1.53191015625,0.866757812500001,18.6495390625,9.5346796875,6.1136953125,-0.475585937499998,-7.12388671875,6.5938359375,5.5060859375,-0.443140625,-5.74966015625,7.43578515625,9.71134765625,3.43836328125,-1.2763125,-5.2293125,1.87226171875,4.374265625,3.95053515625,7.0315546875
1.9794296875,3.09009375,-0.4830078125,1.5800390625,7.7410546875,4.2561484375,1.11671875,-0.00498828125000017,8.2440546875,4.4698984375,0.0769101562499994,0.559757812500003,18.0395390625,9.1166796875,3.5986953125,-2.4905859375,-4.59788671875,7.1538359375,3.8270859375,-3.067140625,-8.06266015625,10.19878515625,9.71534765625,0.31636328125,-6.0413125,-9.7663125,-1.07473828125,4.892265625,1.52053515625,2.4845546875
0.9754296875,1.85509375,-1.6690078125,0.8240390625,6.5940546875,4.1391484375,1.56971875,0.131011718749999,7.8330546875,3.3438984375,-0.23108984375,1.1287578125,16.4365390625,8.4656796875,2.0406953125,-3.3345859375,-1.41888671875,6.9188359375,2.4750859375,-4.435140625,-9.09666015625,11.40878515625,9.17234765625,-2.46763671875,-10.0583125,-13.3743125,-4.72073828125,4.390265625,-1.87146484375,-3.3924453125
0.474429687500001,1.37409375,-2.1080078125,-0.0159609375,5.7510546875,5.1221484375,2.86071875,0.610011718749998,7.2100546875,3.1438984375,0.56691015625,2.4137578125,14.0985390625,7.7166796875,1.4996953125,-2.8975859375,1.22111328125,6.0768359375,1.6540859375,-4.355140625,-8.80966015625,11.31878515625,8.32634765625,-4.48863671875,-12.7533125,-15.7453125,-8.47673828125,3.063265625,-5.88746484375,-9.7824453125
0.4464296875,1.63509375,-1.8990078125,-0.8549609375,5.3770546875,6.9301484375,4.78871875,1.23801171875,6.4610546875,3.9158984375,2.24191015625,4.1477578125,11.4285390625,7.1216796875,1.9336953125,-1.3505859375,2.49311328125,4.9338359375,1.5440859375,-3.005140625,-7.57366015625,10.38378515625,7.53134765625,-5.56563671875,-13.9533125,-16.9053125,-11.78073828125,1.251265625,-10.02146484375,-15.7034453125
0.8754296875,2.55509375,-1.1720078125,-1.5209609375,5.6240546875,9.2501484375,7.11271875,1.86501171875,5.8130546875,5.6628984375,4.47991015625,6.0157578125,8.9495390625,7.0586796875,3.2836953125,0.946414062500001,2.20211328125,3.8988359375,2.3210859375,-0.789140625,-5.96966015625,9.17878515625,7.15834765625,-5.68563671875,-13.7983125,-17.0563125,-14.15073828125,-0.652734375,-13.66746484375,-20.2834453125
1.7404296875,3.97909375,-0.0500078125000005,-1.7799609375,6.5690546875,11.7921484375,9.54371875,2.45301171875,5.6110546875,8.2968984375,6.96591015625,7.7357578125,7.1785390625,7.9326796875,5.4656953125,3.5694140625,0.79811328125,3.4328359375,4.0940859375,1.854859375,-4.48266015625,8.32678515625,7.52734765625,-4.91363671875,-12.5693125,-16.3823125,-15.21473828125,-2.254734375,-16.20746484375,-22.9284453125
2.9644296875,5.68509375,1.3379921875,-1.4769609375,8.1300546875,14.2971484375,11.72971875,3.05501171875,6.1540546875,11.5558984375,9.41191015625,9.1027578125,6.4265390625,9.9506796875,8.2956953125,6.1334140625,-0.83088671875,3.9088359375,6.7890859375,4.573859375,-3.28566015625,8.31278515625,8.79934765625,-3.34363671875,-10.5283125,-14.9613125,-14.76273828125,-3.186734375,-17.13646484375,-23.3714453125
4.3594296875,7.40109375,2.8399921875,-0.6869609375,9.9890546875,16.4921484375,13.28871875,3.71601171875,7.4510546875,14.9438984375,11.55491015625,10.0017578125,6.6135390625,12.8916796875,11.4116953125,8.3434140625,-1.76588671875,5.3858359375,10.0400859375,7.105859375,-2.24066015625,9.21478515625,10.86234765625,-1.14663671875,-7.8703125,-12.8213125,-12.82273828125,-3.169734375,-16.18746484375,-21.6234453125
5.6444296875,8.84009375,4.2729921875,0.2200390625,11.6180546875,18.0791484375,13.90771875,4.39201171875,9.0620546875,17.7758984375,13.14091015625,10.4057578125,7.2545390625,16.0236796875,14.2826953125,10.0114140625,-1.51588671875,7.4518359375,13.1910859375,9.240859375,-1.08566015625,10.57278515625,13.28634765625,1.38836328125,-4.7663125,-10.0603125,-9.69873828125,-2.090734375,-13.40746484375,-17.9094453125
6.5224296875,9.75309375,5.4389921875,0.698039062499999,12.4270546875,18.7711484375,13.45871875,4.97301171875,10.1850546875,19.3358984375,13.95991015625,10.3557578125,7.6585390625,18.2796796875,16.3136953125,11.0564140625,-0.28188671875,9.2878359375,15.4540859375,10.813859375,0.345339843750001,11.53378515625,15.44534765625,3.86436328125,-1.4233125,-6.9003125,-5.90573828125,-0.0507343749999998,-9.14746484375,-12.6124453125
6.7904296875,9.99409375,6.1749921875,0.245039062499999,11.9640546875,18.3721484375,12.08971875,5.36801171875,9.9510546875,19.0978984375,13.89991015625,9.9617578125,7.2275390625,18.6326796875,17.0276953125,11.5174140625,1.20811328125,9.9588359375,16.1650859375,11.729859375,2.03233984375,11.26378515625,16.74734765625,5.87036328125,1.9146875,-3.6093125,-2.03073828125,2.623265625,-3.96546484375,-6.2474453125
6.4114296875,9.57409375,6.4089921875,-1.3949609375,10.0880546875,16.8521484375,10.20671875,5.55901171875,7.7890546875,16.9168984375,13.01891015625,9.3957578125,5.6935390625,16.4996796875,16.2566953125,11.5604140625,2.23811328125,8.8068359375,15.0300859375,12.022859375,3.83633984375,9.34978515625,16.82834765625,7.11736328125,5.0476875,-0.3593125,1.43726171875,5.437265625,1.48953515625,0.5705546875
5.5304296875,8.67809375,6.1879921875,-4.1469609375,7.0500546875,14.4051484375,8.34871875,5.59801171875,3.6780546875,13.1228984375,11.55691015625,8.8767578125,3.1715390625,11.9816796875,14.2336953125,11.4434140625,2.64011328125,5.7168359375,12.2490859375,11.878859375,5.65933984375,5.96778515625,15.64334765625,7.52836328125,7.9096875,2.8796875,4.21726171875,7.836265625,6.60753515625,7.1855546875
4.4394296875,7.61109375,5.6799921875,-7.6419609375,3.4390546875,11.4441484375,6.98971875,5.58201171875,-1.7949453125,8.4678984375,9.88391015625,8.6227578125,0.0505390625000004,5.8376796875,11.5356953125,11.4464140625,2.94811328125,1.1498359375,8.4570859375,11.588859375,7.54633984375,1.74478515625,13.42534765625,7.24136328125,10.5736875,6.2866875,6.25126171875,9.354265625,10.90353515625,13.0115546875
3.4864296875,6.70909375,5.1439921875,-11.3479609375,0.0100546875000003,8.5081484375,6.39271875,5.62601171875,-7.6169453125,3.9278984375,8.38391015625,8.7827578125,-3.1914609375,-0.7883203125,8.8826953125,11.7534140625,4.01011328125,-4.0691640625,4.5080859375,11.440859375,9.63433984375,-2.58021484375,10.56434765625,6.51836328125,13.1536875,10.0056875,7.63526171875,9.717265625,14.05453515625,17.6425546875
2.9844296875,6.25009375,4.8949921875,-14.7189609375,-2.5579453125,6.1071484375,6.56871875,5.82801171875,-12.6889453125,0.415898437499999,7.33991015625,9.3757578125,-6.1114609375,-6.7193203125,6.8906953125,12.3904140625,6.33511328125,-9.0501640625,1.1930859375,11.587859375,11.98433984375,-6.47421484375,7.46334765625,5.62536328125,15.6626875,13.9356875,8.50426171875,8.868265625,15.87853515625,20.8925546875
3.1254296875,6.39909375,5.2379921875,-17.3169609375,-3.8509453125,4.5761484375,7.34571875,6.25101171875,-16.1679453125,-1.4671015625,6.87291015625,10.2927578125,-8.3464609375,-11.0463203125,5.8946953125,13.2324140625,9.64011328125,-13.0811640625,-0.979914062499999,12.002859375,14.45033984375,-9.73421484375,4.43934765625,4.74336328125,17.9396875,17.6776875,8.93626171875,6.927265625,16.30153515625,22.7365546875
3.9524296875,7.17109375,6.3559921875,-18.8549609375,-3.7829453125,4.0121484375,8.47871875,6.94501171875,-17.6429453125,-1.5751015625,6.94691015625,11.3697578125,-9.6144609375,-13.2793203125,5.8966953125,14.0894140625,12.94311328125,-15.7431640625,-1.8789140625,12.537859375,16.69333984375,-12.40321484375,1.72634765625,3.95136328125,19.6906875,20.6746875,8.94126171875,4.145265625,15.37553515625,23.2005546875
5.3554296875,8.43309375,8.2039921875,-19.2209609375,-2.5399453125,4.3161484375,9.73371875,7.95401171875,-17.1329453125,-0.1941015625,7.40891015625,12.4587578125,-9.7314609375,-13.3653203125,6.6386953125,14.7884140625,15.14311328125,-16.8971640625,-1.6989140625,13.020859375,18.32033984375,-14.55421484375,-0.488652343749999,3.26636328125,20.6066875,22.4546875,8.49826171875,0.889265625,13.32553515625,22.3055546875
7.0914296875,9.92909375,10.4559921875,-18.5019609375,-0.480945312499999,5.2591484375,10.92771875,9.26501171875,-14.9819453125,2.0838984375,8.03791015625,13.4497578125,-8.6454609375,-11.6123203125,7.7226953125,15.2024140625,15.62411328125,-16.6071640625,-0.831914062499999,13.295859375,19.01033984375,-16.10521484375,-2.04265234375,2.66636328125,20.4736875,22.7976875,7.60926171875,-2.368734375,10.57453515625,20.0995546875
8.8164296875,11.33009375,12.5729921875,-16.9839609375,1.9320546875,6.5281484375,11.90871875,10.72001171875,-11.7449453125,4.5608984375,8.56591015625,14.2107578125,-6.4744609375,-8.5693203125,8.7336953125,15.2214140625,14.46811328125,-15.0311640625,0.282085937500001,13.190859375,18.56633984375,-16.76721484375,-2.81965234375,2.09036328125,19.2026875,21.7216875,6.30226171875,-5.091734375,7.67753515625,16.7245546875
10.1464296875,12.29309375,13.9619921875,-15.0719609375,4.2150546875,7.7631484375,12.51571875,11.99001171875,-8.0669453125,6.6188984375,8.72191015625,14.5307578125,-3.5144609375,-4.8683203125,9.3116953125,14.7114140625,12.24111328125,-12.3511640625,1.2860859375,12.482859375,16.90333984375,-16.14021484375,-2.77465234375,1.43736328125,16.8096875,19.3446875,4.62326171875,-6.777734375,5.16653515625,12.4635546875
10.7504296875,12.52409375,14.1539921875,-13.1379609375,5.9470546875,8.5931484375,12.54871875,12.67801171875,-4.5459453125,7.8528984375,8.27091015625,14.1267578125,-0.213460937499999,-1.0843203125,9.1936953125,13.5184140625,9.56611328125,-8.7831640625,1.9550859375,10.931859375,14.03633984375,-13.93821484375,-1.94565234375,0.58136328125,13.3756875,15.7636875,2.60226171875,-7.115734375,3.36453515625,7.6935546875
10.4314296875,11.84009375,12.9399921875,-11.4079609375,6.8570546875,8.6851484375,11.79871875,12.45901171875,-1.6409453125,8.1028984375,7.07291015625,12.7237578125,2.8995390625,2.3416796875,8.2426953125,11.5274140625,6.82511328125,-4.6471640625,2.1920859375,8.388859375,10.10833984375,-10.19821484375,-0.494652343749999,-0.57963671875,9.0536875,11.0506875,0.259261718749999,-6.135734375,2.26053515625,2.7655546875
9.1744296875,10.22309375,10.4269921875,-9.9439609375,6.8610546875,7.8321484375,10.13071875,11.18801171875,0.371054687500001,7.4088984375,5.13391015625,10.1947578125,5.3625390625,5.0976796875,6.4756953125,8.7504140625,4.07911328125,-0.409164062500002,1.9820859375,4.917859375,5.42533984375,-5.38221484375,1.26834765625,-2.06663671875,4.1086875,5.3666875,-2.37873828125,-4.289734375,1.51253515625,-2.1214453125
7.1504296875,7.84009375,7.0159921875,-8.6919609375,6.0680546875,6.0341484375,7.56771875,8.93701171875,1.4300546875,5.9558984375,2.63591015625,6.6747578125,6.9555390625,6.9746796875,4.0836953125,5.3824140625,1.19311328125,3.3678359375,1.3720859375,0.874859375,0.456339843750001,-0.28721484375,2.91534765625,-3.78363671875,-1.0333125,-0.9263125,-5.21873828125,-2.354734375,0.60053515625,-6.9464453125
4.6764296875,5.01609375,3.2969921875,-7.5489609375,4.7420546875,3.5581484375,4.32571875,5.97501171875,1.7070546875,4.0278984375,-0.0950898437499994,2.5797578125,7.7805390625,7.8646796875,1.4106953125,1.7814140625,-2.01488671875,6.1678359375,0.462085937500001,-3.138140625,-4.23766015625,4.16678515625,4.04034765625,-5.52663671875,-5.8333125,-7.2583125,-8.05873828125,-1.169734375,-0.906464843749999,-11.7354453125
2.1404296875,2.15809375,-0.1110078125,-6.4199609375,3.2310546875,0.868148437499999,0.76771875,2.69401171875,1.5440546875,1.9518984375,-2.68208984375,-1.5172421875,8.1565390625,7.7806796875,-1.1233046875,-1.6415859375,-5.67388671875,7.6648359375,-0.599914062499999,-6.465140625,-8.17466015625,7.16778515625,4.39634765625,-7.05363671875,-9.7763125,-12.9963125,-10.59573828125,-1.308734375,-3.11746484375,-16.3614453125
-0.118570312499999,-0.364906250000001,-2.7500078125,-5.2829609375,1.8330546875,-1.5598515625,-2.70528125,-0.528988281250001,1.2720546875,0.00389843750000018,-4.84108984375,-5.0952421875,8.3785390625,6.8516796875,-3.1543046875,-4.5675859375,-9.78788671875,7.7648359375,-1.6789140625,-8.650140625,-11.13166015625,8.17778515625,3.94834765625,-8.18063671875,-12.5493125,-17.6253125,-12.52173828125,-2.894734375,-5.74146484375,-20.4114453125
-1.9045703125,-2.33890625,-4.4750078125,-4.2149609375,0.676054687500001,-3.4548515625,-5.76528125,-3.44398828125,1.0070546875,-1.6811015625,-6.49908984375,-7.8752421875,8.5115390625,5.2916796875,-4.5033046875,-6.8835859375,-14.14088671875,6.5628359375,-2.7019140625,-9.634140625,-13.20666015625,7.02778515625,2.82934765625,-8.84263671875,-14.1503125,-20.8563125,-13.63873828125,-5.589734375,-8.19946484375,-23.2704453125
-3.1905703125,-3.76390625,-5.4770078125,-3.3399609375,-0.304945312499999,-4.8288515625,-8.24428125,-5.93498828125,0.611054687500001,-3.1221015625,-7.80908984375,-9.8732421875,8.3955390625,3.3546796875,-5.2333046875,-8.6775859375,-18.18888671875,4.2898359375,-3.6719140625,-9.747140625,-14.70066015625,3.96578515625,1.27534765625,-9.09263671875,-14.8333125,-22.6063125,-13.93373828125,-8.752734375,-9.85446484375,-24.3664453125
-4.0595703125,-4.81190625,-6.1430078125,-2.7389609375,-1.2769453125,-5.8958515625,-10.13928125,-7.93598828125,-0.1569453125,-4.4211015625,-9.02708984375,-11.3012421875,7.8535390625,1.3016796875,-5.5913046875,-10.1285859375,-21.07588671875,1.3058359375,-4.6029140625,-9.516140625,-15.86866015625,-0.36421484375,-0.42065234375,-9.02963671875,-14.9333125,-22.9023125,-13.54573828125,-11.653734375,-10.24146484375,-23.4464453125
-4.6005703125,-5.66990625,-6.8230078125,-2.3899609375,-2.3509453125,-6.8638515625,-11.51828125,-9.36498828125,-1.4029453125,-5.6391015625,-10.32008984375,-12.3862421875,6.9285390625,-0.6023203125,-5.8573046875,-11.3415859375,-21.88488671875,-1.8921640625,-5.4489140625,-9.390140625,-16.70866015625,-5.05521484375,-1.95065234375,-8.72763671875,-14.6543125,-21.8003125,-12.67873828125,-13.672734375,-9.21546484375,-20.7044453125
-4.8305703125,-6.37790625,-7.6260078125,-2.1779609375,-3.4469453125,-7.7668515625,-12.39428125,-10.11998828125,-2.9469453125,-6.7081015625,-11.61108984375,-13.2102421875,5.9665390625,-2.0993203125,-6.1893046875,-12.2455859375,-20.06788671875,-4.6971640625,-6.0849140625,-9.540140625,-16.91666015625,-9.16421484375,-3.03865234375,-8.22263671875,-13.9773125,-19.3873125,-11.50473828125,-14.443734375,-6.97146484375,-16.7144453125
-4.6825703125,-6.77090625,-8.3790078125,-1.9439609375,-4.2619453125,-8.3988515625,-12.66628125,-10.12998828125,-4.3529453125,-7.4181015625,-12.55708984375,-13.6612421875,5.4885390625,-2.9883203125,-6.5573046875,-12.6005859375,-15.81088671875,-6.5331640625,-6.3719140625,-9.808140625,-16.05566015625,-11.94421484375,-3.49565234375,-7.53963671875,-12.7153125,-15.8563125,-10.10873828125,-13.908734375,-3.92546484375,-12.1904453125
-4.0585703125,-6.58390625,-8.7500078125,-1.5629609375,-4.3839453125,-8.4138515625,-12.16328125,-9.40598828125,-5.1169453125,-7.5131015625,-12.69708984375,-13.5242421875,5.8855390625,-3.2103203125,-6.7823046875,-12.1305859375,-10.06988671875,-7.0781640625,-6.2679140625,-9.839140625,-13.83066015625,-13.05421484375,-3.27165234375,-6.73963671875,-10.6803125,-11.5743125,-8.48273828125,-12.284734375,-0.54546484375,-7.7274453125
-2.9275703125,-5.61990625,-8.4430078125,-1.0319609375,-3.5079453125,-7.5108515625,-10.76828125,-8.08698828125,-4.9629453125,-6.8171015625,-11.68008984375,-12.6272421875,7.0855390625,-2.9403203125,-6.6543046875,-10.6715859375,-4.25988671875,-6.4811640625,-5.9169140625,-9.290140625,-10.31566015625,-12.69121484375,-2.51665234375,-5.92863671875,-7.8523125,-7.0853125,-6.56773828125,-9.969734375,2.79353515625,-3.6484453125
-1.3785703125,-3.87590625,-7.3260078125,-0.5199609375,-1.6189453125,-5.6018515625,-8.50928125,-6.44198828125,-4.0559453125,-5.3381015625,-9.43408984375,-10.9622421875,8.3885390625,-2.5893203125,-6.0223046875,-8.2615859375,0.23111328125,-5.4311640625,-5.6169140625,-8.004140625,-6.00466015625,-11.61021484375,-1.59665234375,-5.21863671875,-4.4493125,-3.0113125,-4.29773828125,-7.414734375,5.87453515625,-0.00744531249999936
0.3894296875,-1.56190625,-5.4700078125,-0.315960937500001,0.966054687500002,-2.8558515625,-5.57328125,-4.78498828125,-2.9499453125,-3.2511015625,-6.19108984375,-8.7042421875,8.6715390625,-2.6563203125,-4.8283046875,-5.1235859375,2.50311328125,-4.9241640625,-5.6659140625,-6.044140625,-1.64966015625,-10.87221484375,-0.969652343749999,-4.64563671875,-0.8653125,0.113687500000001,-1.62573828125,-4.962734375,8.65653515625,3.3035546875
2.1634296875,0.992093749999999,-3.0950078125,-0.660960937500001,3.7520546875,0.384148437499999,-2.26328125,-3.35098828125,-2.2789453125,-0.7931015625,-2.36208984375,-6.1252421875,6.9905390625,-3.4473203125,-3.0743046875,-1.5655859375,2.41311328125,-5.7651640625,-6.1239140625,-3.583140625,2.03733984375,-11.32121484375,-0.924652343749999,-4.07463671875,2.4916875,2.0066875,1.47726171875,-2.729734375,11.25453515625,6.4335546875
3.7944296875,3.45009375,-0.4810078125,-1.5709609375,6.2660546875,3.7451484375,1.07871875,-2.20498828125,-2.3779453125,1.8568984375,1.63191015625,-3.4902421875,3.2555390625,-4.8403203125,-0.774304687499999,2.1264140625,0.588113281250001,-8.0291640625,-6.6609140625,-0.772140625,4.65633984375,-12.99521484375,-1.34365234375,-3.18863671875,5.3696875,2.7366875,5.01526171875,-0.589734375,13.85553515625,9.4675546875
5.2264296875,5.57609375,2.0829921875,-2.7829609375,8.2110546875,6.9181484375,4.13371875,-1.26798828125,-3.0899453125,4.6208984375,5.47091015625,-0.978242187499998,-1.4974609375,-6.2443203125,2.0396953125,5.7314140625,-1.85788671875,-10.8581640625,-6.6059140625,2.313859375,6.22633984375,-14.93621484375,-1.67365234375,-1.58663671875,7.7436875,2.6686875,8.91326171875,1.695265625,16.57053515625,12.3565546875
6.4584296875,7.25809375,4.3389921875,-3.8659609375,9.4880546875,9.6841484375,6.63471875,-0.394988281250001,-3.8749453125,7.4598984375,8.92791015625,1.3187578125,-5.5434609375,-6.8333203125,5.2636953125,9.0674140625,-3.79988671875,-12.8011640625,-5.2429140625,5.622859375,7.08233984375,-15.62421484375,-1.15365234375,1.02136328125,9.7596875,2.3006875,12.96626171875,4.297265625,19.31153515625,14.9085546875
7.4844296875,8.47309375,6.0639921875,-4.4339609375,10.1360546875,11.8641484375,8.36471875,0.549011718749998,-4.1019453125,10.2648984375,11.79791015625,3.3457578125,-7.3704609375,-5.9243203125,8.6406953125,11.9234140625,-4.56688671875,-12.5221640625,-2.1919140625,9.012859375,7.63233984375,-13.81621484375,0.81334765625,4.62836328125,11.5766875,2.0516875,16.82226171875,7.203265625,21.77753515625,16.8435546875
8.2494296875,9.22209375,7.0899921875,-4.3259609375,10.2440546875,13.2631484375,9.15571875,1.63101171875,-3.3619453125,12.7868984375,13.83091015625,5.0237578125,-6.4634609375,-3.3033203125,11.7486953125,14.0234140625,-4.17388671875,-9.4611640625,2.3210859375,12.174859375,8.14433984375,-9.24821484375,4.35234765625,8.84236328125,13.2276875,2.1176875,20.02826171875,10.199265625,23.56853515625,17.8775546875
8.6484296875,9.47309375,7.3039921875,-3.6609609375,9.8720546875,13.6601484375,8.90871875,2.80501171875,-1.6589453125,14.6448984375,14.74191015625,6.2207578125,-3.4874609375,0.671679687499999,14.0616953125,15.0634140625,-3.20688671875,-4.0881640625,7.4670859375,14.653859375,8.63233984375,-2.77521484375,9.00934765625,12.94736328125,14.5566875,2.4376875,22.14626171875,12.934265625,24.33553515625,17.7965546875
8.5574296875,9.14009375,6.6389921875,-2.7419609375,9.0180546875,12.8431484375,7.62071875,3.89601171875,0.610054687500002,15.4168984375,14.27691015625,6.7487578125,0.177539062500001,5.1936796875,15.0686953125,14.7814140625,-2.37788671875,2.3358359375,12.0690859375,15.945859375,8.88333984375,4.05278515625,13.89434765625,16.09836328125,15.2486875,2.7636875,22.87326171875,15.033265625,23.91253515625,16.5245546875
7.8564296875,8.08409375,5.0579921875,-1.8889609375,7.6400546875,10.7031484375,5.37471875,4.64401171875,2.8470546875,14.7658984375,12.29791015625,6.3987578125,3.1745390625,9.2786796875,14.3826953125,13.0284140625,-2.05388671875,8.2948359375,14.9840859375,15.615859375,8.54133984375,9.66978515625,17.99834765625,17.55536328125,14.9276875,2.7726875,22.13426171875,16.224265625,22.36753515625,14.1775546875
6.4754296875,6.18209375,2.5699921875,-1.2769609375,5.7240546875,7.3281484375,2.32271875,4.80501171875,4.5120546875,12.5618984375,8.86491015625,5.0237578125,4.7675390625,12.0706796875,11.8276953125,9.8224140625,-2.06388671875,12.5888359375,15.4460859375,13.403859375,7.24333984375,13.06378515625,20.52634765625,16.89236328125,13.2816875,2.1796875,20.09826171875,16.424265625,19.97553515625,11.0745546875
4.4504296875,3.45209375,-0.693007812499999,-0.879960937500001,3.3590546875,3.0581484375,-1.28828125,4.26001171875,5.3200546875,8.9698984375,4.28991015625,2.6467578125,5.0235390625,13.0806796875,7.5166953125,5.4004140625,-1.95788671875,14.7198359375,13.2760859375,9.306859375,4.78133984375,14.05278515625,21.12034765625,14.12936328125,10.2026875,0.830687500000001,17.12326171875,15.751265625,17.12553515625,7.6805546875
1.9914296875,0.16009375,-4.3820078125,-0.4949609375,0.816054687500001,-1.5188515625,-5.07228125,3.08901171875,5.3210546875,4.4848984375,-0.85108984375,-0.435242187499998,4.6015390625,12.3206796875,1.9346953125,0.2484140625,-1.50788671875,14.9828359375,8.9450859375,3.654859375,1.25133984375,13.21478515625,19.92234765625,9.74436328125,5.8896875,-1.2633125,13.66326171875,14.445265625,14.21353515625,4.4845546875
-0.497570312500001,-3.17190625,-7.9240078125,0.1830390625,-1.4569453125,-5.6708515625,-8.50528125,1.59401171875,4.8600546875,-0.1301015625,-5.78708984375,-3.6552421875,4.3295390625,10.2866796875,-4.0703046875,-4.9405859375,-1.03388671875,14.2268359375,3.4510859375,-2.858140625,-2.89866015625,11.57978515625,17.49734765625,4.58036328125,0.851687500000001,-3.9203125,10.17626171875,12.788265625,11.56253515625,1.8835546875
-2.5065703125,-5.91190625,-10.6590078125,1.4570390625,-2.9369453125,-8.6918515625,-11.01928125,0.234011718750001,4.4460546875,-4.0331015625,-9.72008984375,-6.3342421875,4.7955390625,7.7766796875,-9.4483046875,-9.4125859375,-1.24088671875,13.4158359375,-1.9539140625,-9.238140625,-6.96866015625,10.17978515625,14.64034765625,-0.36463671875,-4.1893125,-6.8413125,7.05226171875,11.040265625,9.37353515625,0.1035546875
-3.6015703125,-7.53490625,-12.0640078125,3.4950390625,-3.2159453125,-10.1158515625,-12.17828125,-0.552988281249998,4.5270546875,-6.5531015625,-12.02808984375,-7.9282421875,6.1125390625,5.6076796875,-13.2223046875,-12.5455859375,-2.73088671875,13.1768359375,-6.1179140625,-14.406140625,-10.25566015625,9.61978515625,12.10334765625,-4.17763671875,-8.4863125,-9.6593125,4.55926171875,9.401265625,7.70953515625,-0.8124453125
-3.5815703125,-7.79590625,-11.9450078125,6.2220390625,-2.1869453125,-9.8438515625,-11.80728125,-0.531988281250001,5.2550546875,-7.4051015625,-12.43608984375,-8.2282421875,7.8965390625,4.3326796875,-14.7653046875,-13.9855859375,-5.53588671875,13.5478359375,-8.3249140625,-17.468140625,-12.29166015625,9.83478515625,10.32934765625,-6.25763671875,-11.4443125,-11.9963125,2.81826171875,7.993265625,6.52053515625,-0.9904453125
-2.5265703125,-6.77690625,-10.4760078125,9.3030390625,-0.0979453124999985,-8.1448515625,-10.03028125,0.267011718749998,6.3940546875,-6.7431015625,-11.05408984375,-7.3802421875,9.4605390625,4.0876796875,-13.9593046875,-13.6895859375,-8.96488671875,14.0348359375,-8.4669140625,-17.959140625,-12.95066015625,10.14278515625,9.33234765625,-6.42263671875,-12.7303125,-13.4793125,1.83026171875,6.861265625,5.70953515625,-0.6694453125
-0.7195703125,-4.81990625,-8.0850078125,12.2430390625,2.5540546875,-5.5098515625,-7.21028125,1.63401171875,7.4450546875,-5.0441015625,-8.29408984375,-5.7512421875,10.1285390625,4.6206796875,-11.1843046875,-11.8665859375,-11.84188671875,13.9168359375,-7.0029140625,-15.940140625,-12.37766015625,9.60978515625,8.78334765625,-4.90963671875,-12.2943125,-13.7863125,1.52926171875,5.996265625,5.21553515625,-0.1084453125
1.4644296875,-2.38290625,-5.2580078125,14.5480390625,5.1960546875,-2.4768515625,-3.82828125,3.30501171875,7.8860546875,-2.9001015625,-4.72308984375,-3.7282421875,9.5205390625,5.4416796875,-7.1633046875,-8.8935859375,-12.99588671875,12.6388359375,-4.7349140625,-11.952140625,-10.83066015625,7.56778515625,8.23234765625,-2.26963671875,-10.3293125,-12.7073125,1.82426171875,5.347265625,5.03253515625,0.5095546875
3.6304296875,0.08909375,-2.3920078125,15.8480390625,7.3160546875,0.481148437499998,-0.394281249999999,5.03101171875,7.3830546875,-0.8411015625,-0.923089843750001,-1.6022421875,7.6835390625,5.9966796875,-2.7753046875,-5.2495859375,-11.82388671875,10.0678359375,-2.5309140625,-6.856140625,-8.56166015625,4.01378515625,7.29634765625,0.78336328125,-7.2123125,-10.2393125,2.60426171875,4.825265625,5.16753515625,1.1305546875
5.3894296875,2.23209375,0.2279921875,15.9490390625,8.5210546875,2.9761484375,2.60971875,6.57301171875,5.8500546875,0.7388984375,2.56891015625,0.436757812500002,4.9975390625,5.7756796875,1.1296953125,-1.4765859375,-8.63688671875,6.4928359375,-1.0939140625,-1.631140625,-5.79866015625,-0.37621484375,5.75234765625,3.53536328125,-3.4373125,-6.6453125,3.70726171875,4.317265625,5.57253515625,1.8355546875
6.4024296875,3.77809375,2.3719921875,14.8350390625,8.5470546875,4.6871484375,4.73771875,7.70801171875,3.4060546875,1.5798984375,5.27691015625,2.2317578125,1.9255390625,4.3736796875,3.8396953125,1.8634140625,-4.59388671875,2.3908359375,-0.871914062499999,2.825859375,-2.78466015625,-4.65121484375,3.52634765625,5.39436328125,0.4456875,-2.4173125,4.89926171875,3.721265625,6.12953515625,2.7985546875
6.4504296875,4.55009375,3.8089921875,12.6410390625,7.2770546875,5.3621484375,5.64271875,8.28101171875,0.255054687500001,1.5008984375,6.80191015625,3.6207578125,-1.2144609375,1.5376796875,4.8876953125,4.2614140625,-1.17988671875,-1.8561640625,-2.0499140625,5.860859375,0.18333984375,-8.13121484375,0.65634765625,5.98036328125,3.9236875,1.8386875,5.89526171875,2.993265625,6.68953515625,4.1875546875
5.5134296875,4.49109375,4.3359921875,9.6350390625,4.7820546875,4.8721484375,5.18271875,8.25401171875,-3.3939453125,0.3988984375,6.89891015625,4.4707578125,-4.3304609375,-2.7273203125,4.1256953125,5.3914140625,0.537113281250001,-6.0671640625,-4.5709140625,7.153859375,2.79933984375,-10.70621484375,-2.72265234375,5.18636328125,6.6346875,5.5996875,6.45026171875,2.154265625,7.12853515625,6.0475546875
3.8134296875,3.67909375,3.8709921875,6.1970390625,1.3800546875,3.2941484375,3.53571875,7.74101171875,-7.3299453125,-1.7001015625,5.57791015625,4.7597578125,-7.4674609375,-8.0563203125,1.7856953125,5.2374140625,0.47111328125,-10.1611640625,-8.1249140625,6.778859375,4.87033984375,-12.70521484375,-6.34965234375,3.20436328125,8.4706875,8.6036875,6.48126171875,1.290265625,7.38853515625,8.2045546875
1.7714296875,2.33809375,2.5629921875,2.7980390625,-2.3439453125,0.964148437499999,1.20771875,7.00401171875,-11.2589453125,-4.5441015625,3.18291015625,4.6427578125,-10.6344609375,-13.6783203125,-1.5403046875,4.1474140625,-0.434886718749999,-13.9581640625,-12.1339140625,5.182859375,6.43233984375,-14.49421484375,-9.79965234375,0.51736328125,9.5996875,10.9146875,6.13826171875,0.541265625,7.50153515625,10.3005546875
-0.1035703125,0.799093749999999,0.825992187499999,-0.0769609375000009,-5.6409453125,-1.5598515625,-1.11128125,6.39801171875,-14.7479453125,-7.6151015625,0.349910156250001,4.4197578125,-13.7054609375,-18.5483203125,-5.0273046875,2.7404140625,-0.75288671875,-17.0881640625,-15.8219140625,3.076859375,7.73933984375,-16.16221484375,-12.51265234375,-2.20163671875,10.3566875,12.8146875,5.75726171875,0.0932656250000004,7.56953515625,11.9385546875
-1.3935703125,-0.56090625,-0.732007812500001,-2.0839609375,-7.8299453125,-3.6718515625,-2.77828125,6.23201171875,-17.3159453125,-10.2391015625,-2.15808984375,4.4187578125,-16.4414609375,-21.6433203125,-7.8523046875,1.6804140625,0.604113281250001,-19.0831640625,-18.3959140625,1.221859375,9.10033984375,-17.45721484375,-13.94065234375,-4.26263671875,11.0586875,14.5666875,5.68526171875,0.124265625,7.70153515625,12.8675546875
-1.9115703125,-1.41390625,-1.5050078125,-3.1439609375,-8.5559453125,-4.9318515625,-3.40028125,6.64501171875,-18.6069453125,-11.8001015625,-3.71008984375,4.8657578125,-18.5734609375,-22.2983203125,-9.4353046875,1.4384140625,3.75511328125,-19.5511640625,-19.2759140625,0.188859375,10.66633984375,-17.94721484375,-13.73865234375,-5.17463671875,11.8386875,16.2196875,6.09726171875,0.723265625,7.95753515625,13.0975546875
-1.7305703125,-1.57290625,-1.1140078125,-3.4359609375,-7.8999453125,-5.2048515625,-2.92728125,7.56401171875,-18.5189453125,-11.9551015625,-4.01008984375,5.8007578125,-19.8644609375,-20.4253203125,-9.5993046875,2.1254140625,7.84411328125,-18.3281640625,-18.2649140625,0.207859375,12.30833984375,-17.24721484375,-11.89765234375,-4.78763671875,12.6016875,17.5756875,6.90526171875,1.826265625,8.31653515625,12.8685546875
-1.1025703125,-1.05090625,0.4289921875,-3.2319609375,-6.2979453125,-4.6568515625,-1.61728125,8.78401171875,-17.1989453125,-10.7481015625,-3.17808984375,7.0767578125,-20.1264609375,-16.5053203125,-8.5903046875,3.4924140625,11.60811328125,-15.5251640625,-15.5839140625,1.136859375,13.67533984375,-15.19021484375,-8.75465234375,-3.34463671875,13.1026875,18.3266875,7.81226171875,3.206265625,8.67653515625,12.4865546875
-0.3345703125,-0.0589062500000015,2.7019921875,-2.6929609375,-4.3299453125,-3.6538515625,0.0747187500000006,10.05701171875,-14.9549453125,-8.5851015625,-1.68908984375,8.4077578125,-19.2294609375,-11.4113203125,-6.9473046875,5.0374140625,14.09411328125,-11.4981640625,-11.8069140625,2.521859375,14.35833984375,-11.91221484375,-4.91765234375,-1.40063671875,13.0826875,18.2426875,8.42926171875,4.525265625,8.86353515625,12.1085546875
0.2994296875,1.04409375,5.0119921875,-1.7829609375,-2.5389453125,-2.6468515625,1.62771875,11.12101171875,-12.1729453125,-6.1111015625,-0.214089843749999,9.4267578125,-17.1304609375,-6.1403203125,-5.3293046875,6.1704140625,15.01211328125,-6.7731640625,-7.7169140625,3.731859375,14.04833984375,-7.83921484375,-1.13065234375,0.34036328125,12.3616875,17.2756875,8.40526171875,5.426265625,8.63553515625,11.6175546875
0.586429687500001,1.83809375,6.6229921875,-0.3409609375,-1.3129453125,-2.0668515625,2.56971875,11.68501171875,-9.2359453125,-4.0281015625,0.57291015625,9.7527578125,-13.9104609375,-1.5713203125,-4.3363046875,6.3704140625,14.60111328125,-1.9421640625,-4.1429140625,4.141859375,12.62133984375,-3.57521484375,1.90034765625,1.23336328125,10.8536875,15.5286875,7.52226171875,5.636265625,7.74653515625,10.6705546875
0.3834296875,1.94409375,6.9849921875,1.7450390625,-0.8459453125,-2.2448515625,2.57571875,11.45101171875,-6.4509453125,-2.8981015625,0.18891015625,9.0757578125,-9.7994609375,1.6996796875,-4.3713046875,5.3134140625,13.21611328125,2.4408359375,-1.7679140625,3.340859375,10.13933984375,0.27278515625,3.71134765625,0.88836328125,8.5406875,13.1506875,5.78726171875,5.058265625,6.05253515625,8.9195546875
-0.3605703125,1.14109375,5.9069921875,4.3710390625,-1.1359453125,-3.3298515625,1.55671875,10.20501171875,-3.9999453125,-2.9891015625,-1.49808984375,7.2727578125,-5.1884609375,3.4156796875,-5.5463046875,2.9724140625,10.99911328125,5.9248359375,-0.955914062499999,1.273859375,6.82833984375,3.23178515625,4.19834765625,-0.69963671875,5.4836875,10.2716875,3.45526171875,3.819265625,3.63553515625,6.2665546875
-1.5575703125,-0.526906250000001,3.5989921875,7.1660390625,-2.0139453125,-5.2368515625,-0.297281249999999,7.92301171875,-1.9559453125,-4.2131015625,-4.21308984375,4.5047578125,-0.604460937499999,3.6416796875,-7.6463046875,-0.340585937499998,7.83811328125,8.2238359375,-1.6649140625,-1.736140625,3.05533984375,5.04178515625,3.60534765625,-3.13863671875,1.8736875,7.0226875,0.97926171875,2.228265625,0.836535156250001,2.9955546875
-2.9775703125,-2.73790625,0.5869921875,9.6160390625,-3.1939453125,-7.6418515625,-2.56828125,4.86201171875,-0.328945312499998,-6.1661015625,-7.36908984375,1.2307578125,3.3975390625,2.6906796875,-10.1953046875,-4.0365859375,3.62111328125,9.2568359375,-3.4819140625,-5.114140625,-0.690660156249999,5.66578515625,2.37934765625,-5.77063671875,-1.9103125,3.6326875,-1.14773828125,0.680265625,-1.83146484375,-0.292445312499999
-4.3065703125,-5.00790625,-2.4970078125,11.3060390625,-4.3389453125,-10.0668515625,-4.78628125,1.54501171875,0.915054687500001,-8.2801015625,-10.29608984375,-1.9292421875,6.4145390625,1.0436796875,-12.6263046875,-7.4465859375,-1.42588671875,9.1828359375,-5.7759140625,-8.237140625,-3.86766015625,5.29578515625,1.03034765625,-7.89163671875,-5.3343125,0.506687500000002,-2.57273828125,-0.475734375,-3.84746484375,-2.9134453125
-5.2835703125,-6.90690625,-5.1460078125,12.1200390625,-5.1599453125,-12.0308515625,-6.63228125,-1.39498828125,1.8470546875,-10.0331015625,-12.50908984375,-4.4202421875,8.3785390625,-0.7723203125,-14.4963046875,-10.0625859375,-6.55188671875,8.3988359375,-7.9159140625,-10.628140625,-6.00466015625,4.33978515625,0.00434765625000111,-8.98463671875,-7.8343125,-1.7943125,-3.20073828125,-1.036734375,-4.85146484375,-4.3654453125
-5.8365703125,-8.23390625,-7.1370078125,12.2350390625,-5.5289453125,-13.2508515625,-8.07328125,-3.48998828125,2.5300546875,-11.1431015625,-13.88508984375,-5.9732421875,9.5725390625,-2.3133203125,-15.6453046875,-11.7075859375,-10.62088671875,7.4388359375,-9.4599140625,-12.089140625,-6.83566015625,3.34078515625,-0.418652343749999,-8.87663671875,-9.0063125,-2.7183125,-3.18373828125,-1.003734375,-4.74546484375,-4.5184453125
-6.1345703125,-9.06390625,-8.5270078125,11.9690390625,-5.5479453125,-13.7608515625,-9.32528125,-4.65798828125,2.9500546875,-11.6541015625,-14.66208984375,-6.6922421875,10.4495390625,-3.3583203125,-16.2103046875,-12.5625859375,-12.57688671875,6.7728359375,-10.2769140625,-12.729140625,-6.42166015625,2.79178515625,-0.20265234375,-7.78263671875,-8.7813125,-1.9983125,-2.83273828125,-0.567734375,-3.72046484375,-3.6214453125
-6.4955703125,-9.63890625,-9.5260078125,11.5830390625,-5.4819453125,-13.8698515625,-10.68028125,-5.21498828125,3.0100546875,-11.8611015625,-15.25908984375,-6.9682421875,11.3365390625,-3.9603203125,-16.5113046875,-13.0285859375,-11.99188671875,6.5988359375,-10.5319140625,-12.870140625,-5.15166015625,2.92278515625,0.434347656250001,-6.21163671875,-7.4883125,0.131687500000002,-2.49573828125,-0.0577343749999999,-2.18146484375,-2.1554453125
-7.1895703125,-10.17090625,-10.3210078125,11.2020390625,-5.5929453125,-13.9608515625,-12.27628125,-5.64598828125,2.6020546875,-12.1081015625,-16.01008984375,-7.2542421875,12.2185390625,-4.3713203125,-16.8363046875,-13.4905859375,-9.37288671875,6.7378359375,-10.5679140625,-12.858140625,-3.61466015625,3.56078515625,1.11834765625,-4.76363671875,-5.7413125,2.9406875,-2.46673828125,0.152265625,-0.653464843749999,-0.619445312499999
-8.2545703125,-10.67890625,-10.9490078125,10.8260390625,-5.9729453125,-14.2358515625,-13.95528125,-6.31198828125,1.6860546875,-12.5581015625,-16.93108984375,-7.8182421875,12.7335390625,-4.8943203125,-17.2463046875,-14.0855859375,-5.94288671875,6.7118359375,-10.7179140625,-12.863140625,-2.34566015625,4.14578515625,1.45034765625,-3.88963671875,-4.1773125,5.4906875,-2.92073828125,-0.263734375,0.356535156250001,0.6335546875
-9.4335703125,-10.96590625,-11.2790078125,10.3990390625,-6.4839453125,-14.5778515625,-15.28628125,-7.27498828125,0.313054687500001,-13.0691015625,-17.66108984375,-8.6072421875,12.3335390625,-5.7333203125,-17.5073046875,-14.6035859375,-2.98488671875,5.9508359375,-11.1699140625,-12.778140625,-1.59966015625,3.90378515625,1.13234765625,-3.73263671875,-3.1753125,7.0706875,-3.88173828125,-1.475734375,0.48653515625,1.4595546875
-10.2805703125,-10.74490625,-11.0950078125,9.8750390625,-6.8149453125,-14.6038515625,-15.75928125,-8.29598828125,-1.3939453125,-13.2511015625,-17.61208984375,-9.3012421875,10.5355390625,-6.9393203125,-17.1963046875,-14.5825859375,-1.15688671875,4.0488359375,-11.9289140625,-12.280140625,-1.27166015625,2.16678515625,0.0343476562500005,-4.12363671875,-2.7283125,7.5066875,-5.21473828125,-3.437734375,-0.34746484375,1.9065546875
-10.3765703125,-9.83490625,-10.2400078125,9.2520390625,-6.6409453125,-13.8898515625,-15.03828125,-8.97498828125,-3.2649453125,-12.6731015625,-16.26808984375,-9.4962421875,7.1375390625,-8.4443203125,-15.9463046875,-13.5705859375,-0.25888671875,0.935835937499998,-12.8799140625,-11.040140625,-1.02866015625,-1.29721484375,-1.78865234375,-4.73463671875,-2.5273125,7.1866875,-6.67773828125,-5.894734375,-1.92046484375,2.1205546875
-9.5395703125,-8.27790625,-8.7290078125,8.5710390625,-5.7769453125,-12.2148515625,-13.12828125,-8.94398828125,-5.1149453125,-11.1121015625,-13.47708984375,-8.9262421875,2.3215390625,-10.1433203125,-13.6823046875,-11.3945859375,0.422113281250001,-3.0971640625,-13.8979140625,-8.962140625,-0.542660156249999,-6.10121484375,-4.16565234375,-5.27963671875,-2.2033125,6.7946875,-8.03873828125,-8.498734375,-3.80446484375,2.2165546875
-7.9225703125,-6.32690625,-6.7700078125,7.8930390625,-4.2709453125,-9.6928515625,-10.35928125,-8.04298828125,-6.7769453125,-8.7091015625,-9.57008984375,-7.5762421875,-3.3834609375,-11.9493203125,-10.7263046875,-8.2835859375,1.52911328125,-7.5051640625,-14.9229140625,-6.320140625,0.30433984375,-11.35721484375,-6.90865234375,-5.66063671875,-1.5543125,6.9256875,-9.17873828125,-10.955734375,-5.59646484375,2.1795546875
-5.9345703125,-4.31390625,-4.6910078125,7.2980390625,-2.3809453125,-6.7198515625,-7.22528125,-6.36098828125,-8.1359453125,-5.9301015625,-5.26308984375,-5.6562421875,-9.2764609375,-13.7943203125,-7.6903046875,-4.7925859375,3.22211328125,-11.6931640625,-15.9479140625,-3.680140625,1.39333984375,-16.04821484375,-9.87065234375,-5.98363671875,-0.6523125,7.7816875,-10.13473828125,-13.101734375,-7.09346484375,1.8785546875
-4.0625703125,-2.53090625,-2.8290078125,6.8830390625,-0.472945312499998,-3.7928515625,-4.19128125,-4.17598828125,-9.1269453125,-3.3851015625,-1.39108984375,-3.4992421875,-14.6874609375,-15.5923203125,-5.2513046875,-1.5905859375,5.13311328125,-15.1851640625,-16.9579140625,-1.670140625,2.46733984375,-19.42121484375,-12.89765234375,-6.44363671875,0.1986875,9.1056875,-11.01573828125,-14.875734375,-8.30746484375,1.1805546875
-2.7005703125,-1.16990625,-1.4490078125,6.7130390625,1.0840546875,-1.3608515625,-1.58928125,-1.84998828125,-9.7579453125,-1.6101015625,1.36991015625,-1.4582421875,-19.1174609375,-17.1883203125,-3.9133046875,0.750414062500001,6.59611328125,-17.7111640625,-17.8599140625,-0.721140625,3.26633984375,-21.18921484375,-15.72765234375,-7.19063671875,0.6296875,10.3436875,-11.88873828125,-16.231734375,-9.32746484375,0.0825546875000001
-2.0665703125,-0.340906250000002,-0.7010078125,6.7370390625,1.9580546875,0.246148437499999,0.36771875,0.22201171875,-10.1389453125,-0.9221015625,2.67291015625,0.136757812500003,-22.2704609375,-18.3343203125,-3.8633046875,1.8904140625,6.97311328125,-19.1671640625,-18.4629140625,-0.945140625000001,3.60533984375,-21.49621484375,-17.94565234375,-8.22663671875,0.396687500000001,10.9436875,-12.69173828125,-17.074734375,-10.15846484375,-1.2514453125
-2.2085703125,-0.0939062499999999,-0.613007812499999,6.7270390625,1.8870546875,0.807148437499999,1.50771875,1.65601171875,-10.4789453125,-1.3641015625,2.51291015625,1.0117578125,-24.0154609375,-18.7183203125,-4.9403046875,1.7474140625,5.96811328125,-19.5341640625,-18.5169140625,-2.145140625,3.39433984375,-20.72121484375,-19.04565234375,-9.38963671875,-0.5063125,10.6316875,-13.23273828125,-17.239734375,-10.65346484375,-2.5474453125
-3.0455703125,-0.43290625,-1.0960078125,6.3540390625,0.759054687500001,0.239148437499999,1.66771875,2.17801171875,-10.9799453125,-2.7251015625,1.13991015625,0.991757812500001,-24.3344609375,-18.0313203125,-6.7173046875,0.4824140625,3.84111328125,-18.8141640625,-17.7819140625,-3.918140625,2.64533984375,-19.23621484375,-18.58265234375,-10.39863671875,-1.8423125,9.5286875,-13.26073828125,-16.537734375,-10.54546484375,-3.5094453125
-4.4045703125,-1.28690625,-1.9620078125,5.3430390625,-1.3069453125,-1.3608515625,0.73271875,1.74501171875,-11.7029453125,-4.6061015625,-1.04708984375,0.0777578125000016,-23.3384609375,-16.0723203125,-8.6343046875,-1.5455859375,1.38411328125,-17.0391640625,-16.1099140625,-5.786140625,1.47933984375,-17.27221484375,-16.34865234375,-10.94763671875,-3.2563125,8.0506875,-12.57173828125,-14.847734375,-9.59946484375,-3.9014453125
-6.0415703125,-2.48190625,-2.9600078125,3.6120390625,-3.9409453125,-3.6848515625,-1.25228125,0.587011718749999,-12.5199453125,-6.5351015625,-3.58408984375,-1.5052421875,-21.3044609375,-12.8733203125,-10.1683046875,-3.8415859375,-0.401886718749999,-14.3591640625,-13.5329140625,-7.329140625,0.104339843750001,-14.93921484375,-12.52465234375,-10.81763671875,-4.4353125,6.6546875,-11.13073828125,-12.218734375,-7.77546484375,-3.6094453125
-7.6745703125,-3.75390625,-3.8440078125,1.3350390625,-6.6259453125,-6.2638515625,-3.99228125,-0.886988281250002,-13.1809453125,-8.1021015625,-6.01308984375,-3.3512421875,-18.6854609375,-8.7823203125,-10.9713046875,-5.8865859375,-0.825886718749999,-11.1091640625,-10.3069140625,-8.285140625,-1.23666015625,-12.36721484375,-7.71965234375,-9.97463671875,-5.2193125,5.5946875,-9.14173828125,-8.919734375,-5.32846484375,-2.7004453125
-9.0245703125,-4.83390625,-4.4550078125,-1.0899609375,-8.8579453125,-8.5978515625,-6.97928125,-2.25798828125,-13.4219453125,-9.0641015625,-7.95208984375,-4.9992421875,-16.0114609375,-4.4313203125,-10.9663046875,-7.2775859375,0.0871132812499997,-7.7761640625,-6.8999140625,-8.597140625,-2.32666015625,-9.79421484375,-2.82065234375,-8.60163671875,-5.6273125,4.8296875,-7.00673828125,-5.380734375,-2.74846484375,-1.4294453125
-9.8705703125,-5.55690625,-4.7720078125,-3.1409609375,-10.2939453125,-10.2998515625,-9.63228125,-3.25098828125,-13.0529453125,-9.3871015625,-9.17108984375,-6.0982421875,-13.6994609375,-0.5823203125,-10.3383046875,-7.8385859375,1.57511328125,-4.8411640625,-3.8839140625,-8.387140625,-3.03466015625,-7.51521484375,1.28434765625,-7.06763671875,-5.7853125,4.1316875,-5.19473828125,-2.055734375,-0.571464843749999,-0.2014453125
-10.1195703125,-5.91590625,-4.8880078125,-4.3519609375,-10.8429453125,-11.1958515625,-11.47828125,-3.82298828125,-12.0189453125,-9.2171015625,-9.63808984375,-6.5292421875,-11.8724609375,2.0936796875,-9.4393046875,-7.6555859375,2.55211328125,-2.5991640625,-1.7839140625,-7.904140625,-3.34866015625,-5.72821484375,3.96534765625,-5.83063671875,-5.8373125,3.2766875,-4.08773828125,0.693265625,0.80253515625,0.5365546875
-9.8455703125,-6.04390625,-4.9380078125,-4.4919609375,-10.6819453125,-11.3498515625,-12.30928125,-4.16298828125,-10.4599453125,-8.8121015625,-9.52308984375,-6.4362421875,-10.3344609375,3.2116796875,-8.6433046875,-7.0405859375,2.16211328125,-1.0831640625,-0.921914062499999,-7.453140625,-3.41566015625,-4.42321484375,4.98534765625,-5.31463671875,-5.8863125,2.1536875,-3.87573828125,2.643265625,1.22353515625,0.4505546875
-9.3045703125,-6.16590625,-5.0590078125,-3.6719609375,-10.1829453125,-11.0178515625,-12.25528125,-4.60298828125,-8.7039453125,-8.4791015625,-9.15508984375,-6.1792421875,-8.7444609375,2.7596796875,-8.2383046875,-6.4395859375,0.104113281250001,-0.140164062500002,-1.3269140625,-7.319140625,-3.53466015625,-3.38921484375,4.49034765625,-5.77463671875,-6.0153125,0.746687500000001,-4.51273828125,3.713265625,0.79753515625,-0.5004453125
-8.8755703125,-6.54190625,-5.3980078125,-2.2939609375,-9.8059453125,-10.5688515625,-11.74828125,-5.46798828125,-7.1809453125,-8.5111015625,-8.94908984375,-6.2212421875,-6.9064609375,1.0436796875,-8.3913046875,-6.3245859375,-3.41688671875,0.391835937499998,-2.7419140625,-7.683140625,-4.08166015625,-2.36621484375,2.92334765625,-7.19463671875,-6.3243125,-0.927312499999999,-5.73473828125,3.955265625,-0.153464843749999,-1.9634453125
-8.9435703125,-7.40490625,-6.1290078125,-0.900960937500001,-9.9649453125,-10.3948515625,-11.37328125,-6.94598828125,-6.2969453125,-9.1471015625,-9.30308984375,-6.9532421875,-5.0024609375,-1.4663203125,-9.1693046875,-7.0575859375,-7.97288671875,0.539835937499998,-4.7409140625,-8.571140625,-5.33466015625,-1.24821484375,0.86134765625,-9.26263671875,-6.9143125,-2.8133125,-7.13273828125,3.547265625,-1.20846484375,-3.2934453125
-9.7715703125,-8.87990625,-7.4260078125,0.0100390624999998,-10.9259453125,-10.8268515625,-11.64628125,-9.03398828125,-6.3239453125,-10.5261015625,-10.47108984375,-8.5252421875,-3.5914609375,-4.3123203125,-10.5543046875,-8.7555859375,-13.13288671875,0.162835937499999,-6.8959140625,-9.846140625,-7.28566015625,-0.21521484375,-1.17365234375,-11.45363671875,-7.8083125,-4.7333125,-8.29273828125,2.758265625,-1.99446484375,-3.8674453125
-11.3975703125,-10.91290625,-9.3650078125,0.142039062499999,-12.7229453125,-12.0378515625,-12.80828125,-11.53398828125,-7.3289453125,-12.6251015625,-12.46208984375,-10.7502421875,-3.3464609375,-7.1843203125,-12.4443046875,-11.2125859375,-18.45088671875,-0.946164062500001,-8.9209140625,-11.257140625,-9.57566015625,0.33778515625,-2.87065234375,-13.19963671875,-8.8773125,-6.3193125,-8.93673828125,1.856265625,-2.33246484375,-3.4344453125
-13.6075703125,-13.26090625,-11.8260078125,-0.528960937500001,-15.1279453125,-13.9608515625,-14.73228125,-14.08198828125,-9.1419453125,-15.2351015625,-15.00408984375,-13.1592421875,-4.6624609375,-9.9453203125,-14.6383046875,-13.9545859375,-23.28488671875,-2.8891640625,-10.7209140625,-12.520140625,-11.63166015625,0.0597851562500002,-4.17365234375,-14.11463671875,-9.8733125,-7.1033125,-9.03773828125,1.009265625,-2.29346484375,-2.2674453125
-16.0025703125,-15.55890625,-14.4690078125,-1.8039609375,-17.7109453125,-16.2768515625,-16.96228125,-16.23098828125,-11.4139453125,-17.9861015625,-17.61508984375,-15.1862421875,-7.4154609375,-12.5853203125,-16.8593046875,-16.3985859375,-26.69788671875,-5.5621640625,-12.3469140625,-13.424140625,-12.96066015625,-1.12421484375,-5.23965234375,-14.14663671875,-10.5613125,-6.7513125,-8.83673828125,0.205265625,-2.15346484375,-1.0084453125
-18.1185703125,-17.42890625,-16.8090078125,-3.4119609375,-19.9919453125,-18.5078515625,-18.87828125,-17.59898828125,-13.7619453125,-20.4421015625,-19.74808984375,-16.4062421875,-11.0464609375,-15.1263203125,-18.7953046875,-18.0655859375,-27.65688671875,-8.6741640625,-13.8959140625,-13.910140625,-13.40166015625,-2.99921484375,-6.36265234375,-13.60363671875,-10.8663125,-5.2973125,-8.75273828125,-0.749734375,-2.27046484375,-0.3124453125
-19.5395703125,-18.57190625,-18.3730078125,-5.1319609375,-21.5859453125,-20.1768515625,-19.90728125,-17.99998828125,-15.9169453125,-22.2031015625,-20.94408984375,-16.6652421875,-14.8724609375,-17.5363203125,-20.1603046875,-18.7065859375,-25.53388671875,-11.8791640625,-15.4039140625,-14.072140625,-13.15166015625,-5.24921484375,-7.86665234375,-12.99463671875,-10.8923125,-3.2073125,-9.20373828125,-2.132734375,-2.94046484375,-0.5304453125
-19.9735703125,-18.81490625,-18.8580078125,-6.8079609375,-22.2739453125,-20.9358515625,-19.72728125,-17.47598828125,-17.7499453125,-22.9701015625,-20.95008984375,-16.0712421875,-18.3774609375,-19.6703203125,-20.7403046875,-18.3275859375,-20.62588671875,-14.8801640625,-16.7829140625,-14.068140625,-12.57066015625,-7.66121484375,-9.94965234375,-12.76863671875,-10.8323125,-1.1883125,-10.39573828125,-4.127734375,-4.26246484375,-1.5874453125
-19.3105703125,-18.14790625,-18.2360078125,-8.2949609375,-21.9939453125,-20.6398515625,-18.37728125,-16.24898828125,-19.2029453125,-22.5921015625,-19.77508984375,-14.9012421875,-21.3204609375,-21.2983203125,-20.4263046875,-17.1175859375,-14.26588671875,-17.4651640625,-17.8209140625,-13.989140625,-11.92566015625,-10.15521484375,-12.53465234375,-13.08363671875,-10.8093125,0.1246875,-12.20173828125,-6.668734375,-6.06946484375,-3.0954453125
-17.6865703125,-16.73990625,-16.7590078125,-9.4279609375,-20.8259453125,-19.3738515625,-16.24928125,-14.66298828125,-20.2279453125,-21.1111015625,-17.68908984375,-13.4912421875,-23.6834609375,-22.2063203125,-19.2503046875,-15.3715859375,-8.33388671875,-19.4951640625,-18.2739140625,-13.813140625,-11.26166015625,-12.68521484375,-15.22565234375,-13.73263671875,-10.7913125,0.447687500000001,-14.18073828125,-9.400734375,-7.98846484375,-4.5684453125
-15.5115703125,-14.92590625,-14.8890078125,-10.0729609375,-18.9999453125,-17.4358515625,-13.96328125,-13.12298828125,-20.8129453125,-18.8111015625,-15.17508984375,-12.1812421875,-25.5724609375,-22.3443203125,-17.4273046875,-13.4245859375,-4.42788671875,-20.9041640625,-17.9999140625,-13.441140625,-10.49166015625,-15.15521484375,-17.43565234375,-14.27063671875,-10.6163125,-0.0723124999999989,-15.74973828125,-11.791734375,-9.57346484375,-5.5994453125
-13.3815703125,-13.13590625,-13.1540078125,-10.2119609375,-16.8799453125,-15.2728515625,-12.14828125,-11.98598828125,-21.0289453125,-16.1981015625,-12.81108984375,-11.2572421875,-27.1564609375,-21.9073203125,-15.3383046875,-11.6025859375,-3.22188671875,-21.7161640625,-17.0529140625,-12.792140625,-9.57466015625,-17.40221484375,-18.60465234375,-14.25363671875,-10.1123125,-0.9843125,-16.38873828125,-13.317734375,-10.45446484375,-5.9274453125
-11.8725703125,-11.77090625,-11.9740078125,-9.9829609375,-14.8999453125,-13.3538515625,-11.21428125,-11.42298828125,-21.0479453125,-13.8781015625,-11.08908984375,-10.8792421875,-28.5914609375,-21.2673203125,-13.4343046875,-10.1535859375,-4.34288671875,-22.0401640625,-15.6659140625,-11.837140625,-8.60566015625,-19.23421484375,-18.41265234375,-13.45163671875,-9.1913125,-1.7463125,-15.80173828125,-13.623734375,-10.41146484375,-5.4054453125
-11.2905703125,-11.05290625,-11.5130078125,-9.6629609375,-13.4509453125,-12.0158515625,-11.19028125,-11.34398828125,-21.0839453125,-12.3541015625,-10.24408984375,-11.0112421875,-29.9274609375,-20.8033203125,-12.0483046875,-9.1655859375,-6.73088671875,-21.9811640625,-14.1299140625,-10.588140625,-7.75466015625,-20.43221484375,-16.89465234375,-11.90763671875,-7.8573125,-1.9033125,-13.96973828125,-12.628734375,-9.38646484375,-3.9864453125
-11.5305703125,-10.92390625,-11.6160078125,-9.5699609375,-12.7729453125,-11.3598515625,-11.72328125,-11.43998828125,-21.3239453125,-11.8271015625,-10.14508984375,-11.4032421875,-31.0124609375,-20.6933203125,-11.2353046875,-8.5085859375,-9.18788671875,-21.5551640625,-12.6419140625,-9.057140625,-7.09466015625,-20.75921484375,-14.41865234375,-9.84463671875,-6.1453125,-1.1833125,-11.11973828125,-10.553734375,-7.47946484375,-1.7624453125
-12.1155703125,-11.06890625,-11.8740078125,-9.9329609375,-12.8699453125,-11.2228515625,-12.23828125,-11.32098828125,-21.8319453125,-12.1071015625,-10.35608984375,-11.6582421875,-31.5094609375,-20.8033203125,-10.7323046875,-7.8745859375,-10.83588671875,-20.6641640625,-11.2159140625,-7.255140625,-6.51266015625,-20.01221484375,-11.52965234375,-7.51763671875,-4.0833125,0.445687500000002,-7.64373828125,-7.864734375,-4.94746484375,0.9835546875
-12.4355703125,-11.04890625,-11.7820078125,-10.7869609375,-13.5069453125,-11.2568515625,-12.18828125,-10.65698828125,-22.4869453125,-12.7041015625,-10.33108984375,-11.3832421875,-31.0534609375,-20.7443203125,-10.1113046875,-6.9245859375,-11.33088671875,-19.1811640625,-9.7249140625,-5.231140625,-5.78066015625,-18.14621484375,-8.72665234375,-5.09963671875,-1.7413125,2.7506875,-3.99873828125,-5.128734375,-2.17046484375,3.7875546875
-12.0335703125,-10.49090625,-10.9300078125,-11.9439609375,-14.3009453125,-11.0868515625,-11.28028125,-9.28398828125,-23.0009453125,-13.0691015625,-9.68208984375,-10.3612421875,-29.4424609375,-20.0593203125,-9.0223046875,-5.4715859375,-10.82888671875,-17.0781640625,-8.0219140625,-3.131140625,-4.74566015625,-15.36221484375,-6.30465234375,-2.68063671875,0.6986875,5.2616875,-0.60573828125,-2.834734375,0.43453515625,6.1275546875
-10.8145703125,-9.23190625,-9.1520078125,-13.0769609375,-14.8759453125,-10.4898515625,-9.55328125,-7.27498828125,-23.0219453125,-12.8431015625,-8.36208984375,-8.6492421875,-26.7444609375,-18.4513203125,-7.4093046875,-3.6055859375,-9.78488671875,-14.4871640625,-6.0559140625,-1.218140625,-3.45766015625,-12.09121484375,-4.32665234375,-0.31463671875,2.9376875,7.4136875,2.23526171875,-1.232734375,2.53653515625,7.6185546875
-9.0465703125,-7.38190625,-6.5940078125,-13.8209609375,-14.9779453125,-9.4918515625,-7.33428125,-4.92798828125,-22.2539453125,-11.9891015625,-6.67508984375,-6.5642421875,-23.2374609375,-15.9123203125,-5.5403046875,-1.6765859375,-8.68288671875,-11.6451640625,-3.9099140625,0.203859374999999,-2.13666015625,-8.85421484375,-2.68865234375,1.93636328125,4.6636875,8.7696875,4.41126171875,-0.291734375,3.99153515625,8.1815546875
-7.1815703125,-5.26990625,-3.6840078125,-13.8669609375,-14.5069453125,-8.3198515625,-5.08228125,-2.68798828125,-20.5099453125,-10.7121015625,-5.09408984375,-4.5712421875,-19.2654609375,-12.6853203125,-3.8593046875,-0.143585937499999,-7.76688671875,-8.7641640625,-1.7329140625,0.944859374999999,-1.01566015625,-6.05321484375,-1.21165234375,4.01536328125,5.7026875,9.1876875,6.00026171875,0.246265625,4.87753515625,8.0725546875
-5.6315703125,-3.32690625,-1.0230078125,-13.0239609375,-13.4629453125,-7.2478515625,-3.21728125,-1.02898828125,-17.7279453125,-9.2711015625,-4.00908984375,-3.1232421875,-15.1294609375,-9.1183203125,-2.7273046875,0.621414062500001,-6.92588671875,-5.9141640625,0.368085937500001,1.047859375,-0.20766015625,-3.80421484375,0.302347656250001,5.91336328125,6.1036875,8.8246875,7.21826171875,0.706265625,5.41453515625,7.7505546875
-4.6165703125,-1.93290625,0.7849921875,-11.2879609375,-11.9079453125,-6.4378515625,-1.99128125,-0.359988281250001,-13.9999453125,-7.8131015625,-3.55008984375,-2.5152421875,-11.0444609375,-5.4943203125,-2.2253046875,0.474414062500001,-5.85288671875,-3.0051640625,2.3850859375,0.784859374999999,0.31433984375,-1.90421484375,2.00834765625,7.68636328125,6.0996875,7.9996875,8.31726171875,1.319265625,5.83553515625,7.6275546875
-4.1295703125,-1.29090625,1.3199921875,-8.8669609375,-9.9539453125,-5.8708515625,-1.42628125,-0.93498828125,-9.6069453125,-6.3341015625,-3.56908984375,-2.7902421875,-7.1714609375,-1.9683203125,-2.1263046875,-0.462585937499998,-4.40488671875,0.100835937499998,4.3780859375,0.529859374999999,0.639339843750001,0.000785156250000085,3.96134765625,9.41436328125,5.9826875,7.0126875,9.46326171875,2.130265625,6.26553515625,7.8575546875
-3.9845703125,-1.36890625,0.5029921875,-6.1239609375,-7.7469453125,-5.3568515625,-1.34428125,-2.72898828125,-4.9819453125,-4.7371015625,-3.75908984375,-3.7232421875,-3.6504609375,1.3986796875,-2.0253046875,-1.8605859375,-2.85888671875,3.4318359375,6.3850859375,0.589859375,0.83933984375,2.15078515625,6.10134765625,11.13836328125,5.9796875,6.0576875,10.67726171875,3.026265625,6.68353515625,8.2825546875
-3.9045703125,-1.92690625,-1.3520078125,-3.4469609375,-5.4329453125,-4.6348515625,-1.44728125,-5.34498828125,-0.593945312499999,-2.9411015625,-3.80508984375,-4.8922421875,-0.642460937499999,4.5596796875,-1.5563046875,-3.3085859375,-1.79188671875,6.8018359375,8.3510859375,1.085859375,0.925339843750001,4.46178515625,8.28034765625,12.80436328125,6.1836875,5.2116875,11.85026171875,3.833265625,6.97453515625,8.5785546875
-3.6315703125,-2.59890625,-3.6110078125,-1.1259609375,-3.1329453125,-3.4928515625,-1.43528125,-8.06998828125,3.1740546875,-0.962101562500001,-3.50208984375,-5.8312421875,1.6785390625,7.4036796875,-0.5553046875,-4.4465859375,-1.65588671875,9.8418359375,10.1070859375,1.931859375,0.847339843750001,6.53378515625,10.28734765625,14.25536328125,6.5466875,4.4636875,12.79726171875,4.413265625,7.00253515625,8.4615546875
-3.0405703125,-3.01890625,-5.5170078125,0.721039062499999,-0.943945312499999,-1.8748515625,-1.11328125,-10.12198828125,6.0940546875,1.0658984375,-2.80708984375,-6.2142421875,3.1835390625,9.7366796875,0.870695312500001,-5.0655859375,-2.42188671875,12.1538359375,11.4140859375,2.878859375,0.51033984375,7.86478515625,11.85934765625,15.25536328125,6.9056875,3.7286875,13.31526171875,4.700265625,6.66053515625,7.8405546875
-2.1935703125,-2.95690625,-6.4590078125,2.1610390625,1.0550546875,0.0911484374999976,-0.471281249999999,-10.96198828125,8.1050546875,2.9248984375,-1.82508984375,-5.9982421875,3.8935390625,11.3236796875,2.3996953125,-5.1605859375,-3.59888671875,13.4778359375,12.0400859375,3.615859375,-0.18566015625,8.12178515625,12.72734765625,15.55436328125,7.0266875,2.8546875,13.22326171875,4.705265625,5.89853515625,6.8285546875
-1.3105703125,-2.40790625,-6.2060078125,3.3770390625,2.7950546875,2.1371484375,0.313718750000001,-10.53198828125,9.2800546875,4.3968984375,-0.75408984375,-5.4442421875,4.0305390625,11.9576796875,3.6136953125,-4.9035859375,-4.59288671875,13.7618359375,11.8170859375,3.865859375,-1.29966015625,7.30178515625,12.68534765625,14.95436328125,6.6726875,1.6596875,12.39926171875,4.502265625,4.75553515625,5.6595546875
-0.657570312500001,-1.58290625,-5.0030078125,4.5490390625,4.2160546875,3.9591484375,0.964718750000001,-9.25498828125,9.7520546875,5.3478984375,0.195910156249999,-4.9792421875,3.9315390625,11.5146796875,4.1816953125,-4.5335859375,-5.13488671875,13.1058359375,10.6920859375,3.478859375,-2.79966015625,5.69778515625,11.66734765625,13.39236328125,5.6906875,0.0286875000000002,10.82226171875,4.197265625,3.35853515625,4.5555546875
-0.3955703125,-0.76590625,-3.4110078125,5.7270390625,5.2600546875,5.3331484375,1.27771875,-7.79398828125,9.6340546875,5.7898984375,0.91791015625,-4.9292421875,3.8495390625,10.0016796875,4.0186953125,-4.2025859375,-5.44588671875,11.6708359375,8.7600859375,2.513859375,-4.49966015625,3.76378515625,9.77034765625,11.01636328125,4.1236875,-1.9753125,8.62626171875,3.891265625,1.90753515625,3.6405546875
-0.4545703125,-0.12490625,-1.9820078125,6.8110390625,5.9250546875,6.2331484375,1.27871875,-6.65098828125,8.9990546875,5.9278984375,1.50191015625,-5.2512421875,3.8175390625,7.6236796875,3.3956953125,-3.8295859375,-6.02388671875,9.6538359375,6.3220859375,1.296859375,-6.01166015625,1.98778515625,7.27734765625,8.22736328125,2.2856875,-4.0473125,6.12626171875,3.656265625,0.634535156250001,2.9395546875
-0.5175703125,0.415093749999999,-0.959007812499999,7.6500390625,6.3300546875,6.8681484375,1.26671875,-5.87298828125,7.9710546875,6.1288984375,2.24791015625,-5.4642421875,3.6605390625,4.8246796875,2.8786953125,-3.0855859375,-7.18488671875,7.3278359375,3.8950859375,0.397859374999999,-6.78066015625,0.80878515625,4.63034765625,5.64536328125,0.726687500000001,-5.7023125,3.79026171875,3.551265625,-0.249464843749999,2.4505546875
-0.153570312499999,1.12309375,-0.187007812500001,8.1600390625,6.7160546875,7.5941484375,1.68071875,-5.06298828125,6.7880546875,6.7978984375,3.53391015625,-4.8672421875,3.1545390625,2.2186796875,3.1116953125,-1.5525859375,-8.69388671875,5.0598359375,2.1250859375,0.441859375,-6.26266015625,0.50878515625,2.34534765625,3.93036328125,0.0576875000000001,-6.4413125,2.09826171875,3.612265625,-0.63046484375,2.1925546875
0.942429687500001,2.26609375,0.7049921875,8.3520390625,7.3260546875,8.7021484375,2.85571875,-3.71498828125,5.7420546875,8.1698984375,5.57391015625,-2.9382421875,2.1695390625,0.3856796875,4.4946953125,1.0104140625,-9.76488671875,3.2128359375,1.5640859375,1.809859375,-4.20666015625,1.07478515625,0.828347656250001,3.53136328125,0.676687500000001,-5.9733125,1.33426171875,3.807265625,-0.57446484375,2.1855546875
2.7324296875,3.88109375,1.9939921875,8.2770390625,8.2270546875,10.1951484375,4.77971875,-1.61498828125,5.0240546875,10.1438984375,8.21291015625,0.313757812500002,0.729539062500001,-0.3993203125,6.9286953125,4.4214140625,-9.44588671875,1.9648359375,2.4060859375,4.403859375,-0.854660156249999,2.11478515625,0.193347656250001,4.47236328125,2.5506875,-4.3473125,1.44526171875,3.992265625,-0.33646484375,2.3755546875
4.7904296875,5.66609375,3.6189921875,7.9480390625,9.2270546875,11.7251484375,7.01871875,0.96901171875,4.6060546875,12.2468984375,10.88991015625,4.2637578125,-1.0254609375,-0.292320312499999,9.7866953125,8.0444140625,-7.13288671875,1.2148359375,4.3440859375,7.624859375,3.06833984375,2.98478515625,0.216347656250001,6.32136328125,5.1806875,-1.9383125,2.08126171875,3.958265625,-0.262464843749999,2.6075546875
6.4694296875,7.07609375,5.1789921875,7.3070390625,9.9280546875,12.7151484375,8.86671875,3.40501171875,4.2710546875,13.7918984375,12.82291015625,7.9067578125,-2.8854609375,0.200679687499999,12.1406953125,10.9954140625,-2.93288671875,0.656835937499999,6.6450859375,10.611859375,6.62733984375,3.11178515625,0.455347656250002,8.38036328125,7.7996875,0.714687500000001,2.80426171875,3.530265625,-0.613464843749999,2.6795546875
7.1694296875,7.58409375,6.1529921875,6.2390390625,9.9020546875,12.6281484375,9.66171875,5.01401171875,3.7330546875,14.1388984375,13.33591015625,10.2847578125,-4.6174609375,0.473679687500001,13.1606953125,12.5214140625,2.29411328125,-0.00516406250000223,8.4430859375,12.576859375,9.05033984375,2.34578515625,0.46134765625,9.98136328125,9.7126875,3.1206875,3.33426171875,2.667265625,-1.43746484375,2.4655546875
6.5924296875,6.94009375,6.1939921875,4.6230390625,8.8610546875,11.2131484375,9.07571875,5.39001171875,2.7690546875,12.9398984375,12.15191015625,10.8787578125,-6.0214609375,0.1086796875,12.4466953125,12.3304140625,7.26011328125,-0.860164062500003,9.0890859375,13.092859375,10.02533984375,1.07778515625,-0.0476523437499985,10.72836328125,10.5786875,5.0226875,3.67626171875,1.481265625,-2.54546484375,1.9985546875
4.8334296875,5.27409375,5.2969921875,2.4130390625,6.7590546875,8.6001484375,7.22071875,4.56301171875,1.3200546875,10.2448984375,9.49191015625,9.7797578125,-6.9714609375,-0.9843203125,10.1556953125,10.6874140625,10.79711328125,-1.7561640625,8.3880859375,12.178859375,9.77433984375,0.0157851562499998,-1.09565234375,10.56736328125,10.4996875,6.4456875,4.04126171875,0.194265625,-3.60346484375,1.4755546875
2.3064296875,3.00809375,3.7599921875,-0.288960937500001,3.7720546875,5.2221484375,4.51471875,2.95101171875,-0.504945312499999,6.4568984375,5.94191015625,7.5477578125,-7.4494609375,-2.5863203125,6.8506953125,8.2124140625,12.36211328125,-2.4311640625,6.6170859375,10.183859375,8.86133984375,-0.25021484375,-2.47965234375,9.68336328125,9.8616875,7.5976875,4.63826171875,-0.944734375,-4.29246484375,1.1485546875
-0.467570312499999,0.65009375,2.0039921875,-3.2429609375,0.2090546875,1.6041484375,1.44971875,1.12201171875,-2.5029453125,2.1588984375,2.17391015625,4.8907578125,-7.5384609375,-4.3283203125,3.2146953125,5.5394140625,12.19211328125,-2.7021640625,4.3590859375,7.568859375,7.85733984375,0.37078515625,-3.88265234375,8.33236328125,9.0696875,8.6836875,5.46326171875,-1.747734375,-4.44546484375,1.1825546875
-3.0605703125,-1.40190625,0.3759921875,-6.1409609375,-3.5899453125,-1.8278515625,-1.60628125,-0.484988281250001,-4.4799453125,-2.0511015625,-1.29308984375,2.3607578125,-7.3804609375,-5.8383203125,-0.1983046875,3.0404140625,11.08811328125,-2.5671640625,2.2580859375,4.736859375,7.06433984375,1.41778515625,-5.02165234375,6.73236328125,8.3366875,9.7466875,6.25026171875,-2.138734375,-4.11246484375,1.5575546875
-5.2215703125,-2.96690625,-0.9490078125,-8.6939609375,-7.2649453125,-4.8008515625,-4.45128125,-1.71498828125,-6.2649453125,-5.6571015625,-4.18108984375,0.220757812500002,-7.1034609375,-6.8103203125,-3.0533046875,0.782414062500001,9.97911328125,-2.1491640625,0.828085937500001,1.994859375,6.45433984375,2.17078515625,-5.71365234375,5.06236328125,7.6566875,10.6516875,6.61326171875,-2.164734375,-3.52746484375,2.0775546875
-6.8375703125,-4.05990625,-1.9510078125,-10.6549609375,-10.4049453125,-7.1348515625,-6.95428125,-2.65398828125,-7.6409453125,-8.2401015625,-6.36108984375,-1.4822421875,-6.7604609375,-6.9903203125,-5.1613046875,-1.3095859375,9.52411328125,-1.5501640625,0.373085937500001,-0.370140625000001,5.84233984375,2.14078515625,-5.86265234375,3.53436328125,6.9326875,11.1966875,6.29126171875,-1.955734375,-2.99246484375,2.4735546875
-7.8315703125,-4.78090625,-2.6690078125,-11.8399609375,-12.5569453125,-8.6608515625,-8.91828125,-3.47298828125,-8.3199453125,-9.4801015625,-7.71608984375,-2.7602421875,-6.3314609375,-6.1863203125,-6.3603046875,-3.2245859375,9.85611328125,-0.737164062500002,0.990085937500001,-2.037140625,5.10633984375,1.38878515625,-5.41865234375,2.42736328125,6.1386875,11.2566875,5.34526171875,-1.669734375,-2.74546484375,2.5465546875
-8.1175703125,-5.17190625,-3.0830078125,-12.1519609375,-13.3359453125,-9.2118515625,-10.04328125,-4.29398828125,-8.0429453125,-9.2031015625,-8.08308984375,-3.5772421875,-5.7734609375,-4.3313203125,-6.4683046875,-4.7565859375,10.52211328125,0.411835937499998,2.5880859375,-2.696140625,4.28133984375,0.45778515625,-4.38365234375,2.01436328125,5.3766875,10.8196875,4.16026171875,-1.429734375,-2.86346484375,2.2855546875
-7.6205703125,-5.16190625,-3.0770078125,-11.6129609375,-12.5779453125,-8.6908515625,-10.01628125,-5.10298828125,-6.7309453125,-7.4591015625,-7.32108984375,-3.8422421875,-5.0794609375,-1.5803203125,-5.3473046875,-5.5675859375,10.66611328125,1.9678359375,4.9060859375,-2.177140625,3.51033984375,-0.00221484375000003,-2.83665234375,2.43436328125,4.7996875,9.9586875,3.25626171875,-1.265734375,-3.22146484375,1.8755546875
-6.3395703125,-4.60190625,-2.4880078125,-10.3649609375,-10.4239453125,-7.1348515625,-8.67428125,-5.72498828125,-4.5549453125,-4.5411015625,-5.42308984375,-3.4752421875,-4.2704609375,1.6666796875,-3.0323046875,-5.3725859375,9.44211328125,3.8368359375,7.5310859375,-0.567140625,2.93433984375,0.39878515625,-0.95565234375,3.57836328125,4.4866875,8.7836875,3.04126171875,-1.086734375,-3.53746484375,1.5995546875
-4.3975703125,-3.37090625,-1.2050078125,-8.6339609375,-7.2829453125,-4.7228515625,-6.11428125,-5.89098828125,-1.8739453125,-0.930101562500001,-2.59008984375,-2.4862421875,-3.3514609375,4.8656796875,0.186695312499999,-4.1165859375,6.52211328125,5.7728359375,9.9560859375,1.756859375,2.61033984375,1.67178515625,0.995347656250001,5.10736328125,4.3526875,7.4226875,3.61626171875,-0.713734375,-3.49946484375,1.6525546875
-2.0765703125,-1.49090625,0.7279921875,-6.6909609375,-3.7239453125,-1.7558515625,-2.71128125,-5.38598828125,0.899054687500001,2.8258984375,0.77491015625,-1.0052421875,-2.2734609375,7.4976796875,3.7756953125,-2.0665859375,2.41611328125,7.4978359375,11.6750859375,4.186859375,2.46333984375,3.57578515625,2.69634765625,6.54436328125,4.1656875,6.0026875,4.72926171875,0.0122656250000004,-2.93446484375,2.0245546875
0.223429687499999,0.81009375,3.0729921875,-4.7909609375,-0.3489453125,1.3841484375,0.97371875,-4.19398828125,3.4120546875,6.2258984375,4.13591015625,0.719757812500003,-0.9714609375,9.2266796875,7.0596953125,0.233414062500001,-1.56688671875,8.8128359375,12.2980859375,6.029859375,2.28433984375,5.80378515625,3.82134765625,7.43036328125,3.6346875,4.5986875,5.89126171875,1.134265625,-1.90546484375,2.4965546875
2.0894296875,3.13709375,5.4309921875,-3.1079609375,2.3570546875,4.2981484375,4.34971875,-2.51198828125,5.4570546875,8.8978984375,6.95091015625,2.3957578125,0.5415390625,9.9726796875,9.3996953125,2.1254140625,-3.78588671875,9.6238359375,11.6700859375,6.709859375,1.79833984375,8.07078515625,4.14334765625,7.45236328125,2.5336875,3.1896875,6.58326171875,2.561265625,-0.68646484375,2.7705546875
3.2414296875,5.06409375,7.3809921875,-1.6779609375,4.1320546875,6.6481484375,6.97771875,-0.631988281249999,6.9860546875,10.6438984375,8.80191015625,3.7737578125,2.0695390625,9.8726796875,10.3766953125,3.0794140625,-3.05988671875,9.8828359375,9.9400859375,5.964859375,0.80433984375,10.08378515625,3.62234765625,6.54136328125,0.8076875,1.6586875,6.47726171875,4.129265625,0.368535156250001,2.6065546875
3.6304296875,6.32309375,8.6319921875,-0.4209609375,4.9930546875,8.2431484375,8.69471875,1.19701171875,8.0350546875,11.4518984375,9.51991015625,4.7227578125,3.2135390625,9.1656796875,9.9316953125,2.9034140625,0.59911328125,9.5378359375,7.5650859375,3.946859375,-0.709660156249999,11.51078515625,2.43234765625,4.89736328125,-1.3643125,-0.1543125,5.56226171875,5.692265625,0.97653515625,1.8925546875
3.4364296875,6.88509375,9.1209921875,0.7700390625,5.1920546875,9.0701484375,9.61171875,2.82501171875,8.6300546875,11.4668984375,9.22091015625,5.2407578125,3.5115390625,8.0946796875,8.4086953125,1.8194140625,5.79711328125,8.5628359375,5.2050859375,1.203859375,-2.53066015625,12.06278515625,0.921347656250001,2.95336328125,-3.6053125,-2.3443125,4.13926171875,7.177265625,1.03253515625,0.6575546875
2.9744296875,6.91809375,8.9919921875,1.9690390625,5.1230546875,9.2671484375,9.98071875,4.17301171875,8.7870546875,10.9448984375,8.24291015625,5.4077578125,2.7525390625,6.8836796875,6.4476953125,0.365414062500001,10.38411328125,7.0878359375,3.5550859375,-1.463140625,-4.28766015625,11.69278515625,-0.443652343749999,1.27436328125,-5.4293125,-4.8653125,2.71326171875,8.575265625,0.64753515625,-0.9334453125
2.5794296875,6.65509375,8.4959921875,3.2100390625,5.1890546875,9.0591484375,10.00471875,5.18601171875,8.5960546875,10.2118984375,7.02991015625,5.3387578125,1.2325390625,5.7726796875,4.7876953125,-0.813585937499999,12.56711328125,5.5108359375,3.1510859375,-3.214140625,-5.56166015625,10.74078515625,-1.15665234375,0.42136328125,-6.3793125,-7.4983125,1.79926171875,9.891265625,0.10453515625,-2.5774453125
2.5074296875,6.29209375,7.8989921875,4.5110390625,5.6810546875,8.6951484375,9.76071875,5.81001171875,8.2710546875,9.6088984375,6.01091015625,5.1607578125,-0.2724609375,5.0416796875,4.0456953125,-1.1785859375,11.77711328125,4.4328359375,4.2200859375,-3.401140625,-5.98166015625,9.84178515625,-0.825652343749999,0.79336328125,-6.1393125,-9.8983125,1.73126171875,11.065265625,-0.27246484375,-3.8894453125
2.9034296875,5.97509375,7.4319921875,5.8880390625,6.7020546875,8.4011484375,9.25371875,6.01301171875,8.1000546875,9.4308984375,5.53991015625,5.0227578125,-0.883460937499999,4.9606796875,4.5596953125,-0.428585937499999,8.81711328125,4.4018359375,6.6280859375,-1.748140625,-5.29466015625,9.58778515625,0.64334765625,2.50536328125,-4.6023125,-11.6753125,2.53326171875,11.925265625,-0.27746484375,-4.5284453125
3.8104296875,5.82809375,7.2809921875,7.3460390625,8.1810546875,8.3701484375,8.55571875,5.84801171875,8.3180546875,9.8668984375,5.85691015625,5.1077578125,-0.1024609375,5.6886796875,6.3396953125,1.4704140625,5.29411328125,5.6038359375,9.9460859375,1.580859375,-3.40266015625,10.17878515625,2.94934765625,5.33136328125,-1.8863125,-12.4933125,3.91126171875,12.232265625,0.0885351562500003,-4.3494453125
5.1994296875,5.95609375,7.5649921875,8.8590390625,9.9610546875,8.7451484375,7.88071875,5.50401171875,9.0360546875,10.9518984375,7.06291015625,5.5847578125,1.9395390625,7.1896796875,9.1006953125,4.3144140625,2.78011328125,7.7218359375,13.5940859375,6.047859375,-0.417660156249999,11.32278515625,5.49534765625,8.76136328125,1.6666875,-12.1553125,5.38026171875,11.781265625,0.64453515625,-3.4834453125
6.9614296875,6.41609375,8.2939921875,10.3400390625,11.8650546875,9.5641484375,7.52771875,5.24801171875,10.2220546875,12.5468984375,9.06891015625,6.5187578125,4.5845390625,9.2186796875,12.3576953125,7.7084140625,2.10411328125,10.0648359375,16.9940859375,10.873859375,3.28633984375,12.42878515625,7.60534765625,12.11736328125,5.5176875,-10.6973125,6.44226171875,10.513265625,1.13053515625,-2.2944453125
8.8694296875,7.15109375,9.3329921875,11.5990390625,13.6890546875,10.6811484375,7.69471875,5.25901171875,11.7000546875,14.3318984375,11.53891015625,7.7837578125,6.9925390625,11.3576796875,15.5146953125,11.1164140625,3.06711328125,11.8488359375,19.6450859375,15.196859375,7.06633984375,12.90678515625,8.73634765625,14.70736328125,9.0096875,-8.4083125,6.73426171875,8.534265625,1.29753515625,-1.2534453125
10.5524296875,7.92809375,10.3619921875,12.3440390625,15.1490546875,11.7161484375,8.28171875,5.47601171875,13.1420546875,15.8088984375,13.87391015625,9.0317578125,8.4525390625,13.0826796875,17.9286953125,13.9214140625,4.64811328125,12.4668359375,21.1200859375,18.205859375,10.14233984375,12.38678515625,8.56734765625,15.95136328125,11.4896875,-5.7523125,6.08426171875,6.053265625,0.95153515625,-0.7834453125
11.5174296875,8.31909375,10.9069921875,12.2370390625,15.8380546875,12.0861484375,8.83071875,5.56801171875,14.1000546875,16.3468984375,15.29291015625,9.7717578125,8.5375390625,13.8306796875,18.9576953125,15.5094140625,5.58911328125,11.6138359375,21.0410859375,19.264859375,11.81333984375,10.78378515625,6.99334765625,15.44836328125,12.4456875,-3.2203125,4.50726171875,3.305265625,-0.0344648437499995,-1.1264453125
11.2504296875,7.79809375,10.4349921875,10.9850390625,15.2670546875,11.1621484375,8.66871875,5.07001171875,14.0920546875,15.2968984375,15.02191015625,9.5197578125,7.1295390625,13.1046796875,18.0446953125,15.3844140625,5.06311328125,9.2828359375,19.1110859375,18.012859375,11.67033984375,8.27478515625,4.06334765625,13.03036328125,11.6106875,-1.1733125,2.15126171875,0.481265625,-1.70146484375,-2.2714453125
9.3864296875,5.95509375,8.5429921875,8.4460390625,13.0050546875,8.4871484375,7.20771875,3.59001171875,12.7350546875,12.1958984375,12.56391015625,7.9767578125,4.4235390625,10.6176796875,14.8776953125,13.2924140625,3.12311328125,5.7228359375,15.2500859375,14.453859375,9.69733984375,5.25778515625,-0.046652343749999,8.80536328125,9.0206875,0.208687500000002,-0.74273828125,-2.276734375,-3.99346484375,-3.9854453125
5.8914296875,2.72509375,5.1669921875,4.7300390625,8.8980546875,4.0221484375,4.25571875,1.02301171875,9.9070546875,7.0148984375,7.93991015625,5.1727578125,0.9295390625,6.4536796875,9.5846953125,9.3284140625,0.68011328125,1.4158359375,9.7570859375,9.020859375,6.27433984375,2.29778515625,-4.99965234375,3.22136328125,5.0216875,0.918687500000001,-3.86473828125,-4.851734375,-6.73046484375,-5.9314453125
1.1854296875,-1.49390625,0.7049921875,0.283039062499999,3.2770546875,-1.7208515625,0.16571875,-2.32198828125,5.9000546875,0.329898437500001,1.79591015625,1.5057578125,-2.5814609375,1.1726796875,2.8496953125,4.0014140625,-0.98988671875,-2.9651640625,3.4070859375,2.570859375,2.08833984375,0.0107851562499999,-10.23165234375,-2.91363671875,0.2316875,1.0576875,-6.83973828125,-7.092734375,-9.59346484375,-7.7984453125
-3.8795703125,-5.91790625,-4.0280078125,-4.1229609375,-2.9809453125,-7.7258515625,-4.23328125,-5.76898828125,1.4390546875,-6.7181015625,-4.70908984375,-2.3452421875,-5.2564609375,-4.2463203125,-4.1603046875,-1.8325859375,-0.972886718749999,-6.6521640625,-2.6679140625,-3.745140625,-2.03066015625,-1.10921484375,-14.97065234375,-8.54563671875,-4.5743125,0.781687500000001,-9.25473828125,-8.796734375,-12.15846484375,-9.3894453125
-8.2485703125,-9.61490625,-8.0280078125,-7.5719609375,-8.6299453125,-12.7408515625,-7.90028125,-8.51898828125,-2.4949453125,-12.7081015625,-10.22308984375,-5.6152421875,-6.4154609375,-8.6383203125,-10.0893046875,-7.1515859375,0.74411328125,-8.9551640625,-7.2689140625,-8.763140625,-5.33466015625,-0.88021484375,-18.39765234375,-12.62063671875,-8.6303125,0.234687500000001,-10.73673828125,-9.751734375,-13.99646484375,-10.6374453125
-10.9955703125,-11.79690625,-10.4300078125,-9.3089609375,-12.4439453125,-15.6868515625,-9.93428125,-9.96698828125,-4.9929453125,-16.3871015625,-13.63008984375,-7.7002421875,-5.7834609375,-11.0073203125,-13.7993046875,-11.0565859375,3.25011328125,-9.4671640625,-9.5149140625,-11.635140625,-7.37466015625,0.49378515625,-19.92265234375,-14.41563671875,-11.3703125,-0.494312499999999,-11.05773828125,-9.840734375,-14.81946484375,-11.5654453125
-11.6415703125,-12.09390625,-10.8120078125,-9.0219609375,-13.6289453125,-16.0208515625,-9.90028125,-9.92498828125,-5.5289453125,-17.1001015625,-14.40608984375,-8.3572421875,-3.5804609375,-10.8643203125,-14.7403046875,-13.0445859375,5.21311328125,-8.2141640625,-9.1339140625,-12.082140625,-8.12666015625,2.48578515625,-19.39965234375,-13.78363671875,-12.5603125,-1.4043125,-10.22473828125,-9.112734375,-14.56746484375,-12.2084453125
-10.3035703125,-10.66290625,-9.3380078125,-6.9639609375,-12.1019453125,-13.9128515625,-7.99128125,-8.64498828125,-4.1139453125,-15.0201015625,-12.76708984375,-7.7852421875,-0.4774609375,-8.4053203125,-13.1283046875,-13.1625859375,5.53911328125,-5.6861640625,-6.5529140625,-10.451140625,-7.96766015625,4.41478515625,-17.17665234375,-11.18563671875,-12.3283125,-2.5723125,-8.47473828125,-7.771734375,-13.38846484375,-12.5294453125
-7.6295703125,-8.12590625,-6.6680078125,-3.8649609375,-8.5169453125,-10.1638515625,-4.96228125,-6.69298828125,-1.2679453125,-11.0801015625,-9.54108984375,-6.5512421875,2.5965390625,-4.4643203125,-9.8333046875,-11.9465859375,3.81611328125,-2.7091640625,-2.7489140625,-7.577140625,-7.50366015625,5.62978515625,-13.98165234375,-7.51963671875,-11.0833125,-4.1113125,-6.19473828125,-6.096734375,-11.55146484375,-12.3954453125
-4.5455703125,-5.33090625,-3.6940078125,-0.6659609375,-4.0429453125,-5.9168515625,-1.84028125,-4.75198828125,2.1580546875,-6.6321015625,-5.83408984375,-5.3702421875,4.7345390625,-0.2303203125,-6.0483046875,-10.1865859375,0.40411328125,-0.159164062500002,1.0740859375,-4.499140625,-7.31466015625,5.70178515625,-10.69665234375,-3.81063671875,-9.3423125,-6.0873125,-3.80273828125,-4.344734375,-9.35946484375,-11.6424453125
-1.9335703125,-3.05390625,-1.2180078125,1.8110390625,0.0320546875000005,-2.2608515625,0.43771875,-3.40098828125,5.2760546875,-2.9591015625,-2.64408984375,-4.8252421875,5.3985390625,3.1736796875,-2.8783046875,-8.6195859375,-3.73288671875,1.3748359375,3.8790859375,-2.134140625,-7.70466015625,4.60478515625,-8.08965234375,-0.90963671875,-7.5693125,-8.4193125,-1.64073828125,-2.691734375,-7.11246484375,-10.2044453125
-0.346570312500001,-1.77190625,0.2849921875,3.1290390625,2.7300546875,0.0881484374999992,1.32571875,-2.92698828125,7.4590546875,-0.8551015625,-0.576089843749999,-5.1582421875,4.6685390625,5.0726796875,-1.0053046875,-7.6955859375,-7.33788671875,1.8248359375,5.0910859375,-1.021140625,-8.59266015625,2.79778515625,-6.59365234375,0.68636328125,-6.0733125,-10.8293125,0.0712617187499998,-1.237734375,-5.09546484375,-8.2304453125
0.0994296875000007,-1.57390625,0.742992187500001,3.3010390625,3.6320546875,0.913148437499999,0.76771875,-3.27098828125,8.5000546875,-0.4501015625,0.215910156250001,-6.2322421875,3.2135390625,5.4046796875,-0.566304687499999,-7.5215859375,-9.28488671875,1.6118359375,4.7120859375,-1.254140625,-9.62066015625,1.08878515625,-6.24165234375,0.86836328125,-5.0313125,-12.9213125,1.22526171875,-0.0607343749999996,-3.57446484375,-6.1154453125
-0.3695703125,-2.24190625,0.3749921875,2.6510390625,2.8750546875,0.393148437499999,-0.896281249999999,-4.16498828125,8.5460546875,-1.3361015625,-0.0960898437500006,-7.6802421875,1.9595390625,4.5916796875,-1.2703046875,-7.9635859375,-9.05488671875,1.3498359375,3.1850859375,-2.601140625,-10.42466015625,0.30478515625,-6.77365234375,-0.18863671875,-4.5763125,-14.3783125,1.77826171875,0.724265625,-2.76846484375,-4.3874453125
-1.3935703125,-3.43490625,-0.498007812500001,1.5970390625,0.9560546875,-1.0988515625,-3.17228125,-5.33598828125,7.8760546875,-2.8841015625,-1.21808984375,-9.1352421875,1.6195390625,3.2296796875,-2.6463046875,-8.8135859375,-7.01788671875,1.4728359375,1.1320859375,-4.714140625,-10.87266015625,0.90278515625,-7.83565234375,-2.14863671875,-4.8593125,-15.1653125,1.72126171875,0.965265625,-2.78846484375,-3.5204453125
-2.6395703125,-4.84790625,-1.6150078125,0.4780390625,-1.5169453125,-3.1748515625,-5.61828125,-6.60698828125,6.7190546875,-4.5611015625,-2.87608984375,-10.3712421875,2.3505390625,1.7806796875,-4.2803046875,-9.8885859375,-4.29088671875,1.9908359375,-0.915914062499999,-7.264140625,-11.08766015625,2.72378515625,-9.12965234375,-4.61963671875,-5.9973125,-15.5383125,1.11426171875,0.540265625,-3.57546484375,-3.7564453125
-3.8625703125,-6.28790625,-2.8210078125,-0.520960937500001,-4.0229453125,-5.5048515625,-7.92528125,-7.85798828125,5.1670546875,-6.0861015625,-4.83708984375,-11.2982421875,3.7005390625,0.4136796875,-5.9173046875,-11.0145859375,-2.14588671875,2.4888359375,-2.6549140625,-9.950140625,-11.27566015625,4.99778515625,-10.46765234375,-7.18463671875,-7.9363125,-15.8673125,0.14026171875,-0.539734375,-4.87846484375,-5.0374453125
-4.8825703125,-7.62990625,-4.0080078125,-1.3669609375,-6.2329453125,-7.8228515625,-9.86828125,-8.94598828125,3.2020546875,-7.4191015625,-6.84408984375,-11.8542421875,4.8225390625,-0.975320312499999,-7.4183046875,-11.9595859375,-1.31888671875,2.3318359375,-3.9909140625,-12.435140625,-11.51766015625,6.58578515625,-11.76665234375,-9.43963671875,-10.3503125,-16.3793125,-0.89173828125,-2.063734375,-6.32946484375,-7.0524453125
-5.5655703125,-8.76590625,-5.0500078125,-2.1409609375,-8.0369453125,-9.9058515625,-11.24028125,-9.69998828125,0.794054687500001,-8.6271015625,-8.58608984375,-11.9262421875,4.8545390625,-2.5863203125,-8.6703046875,-12.4115859375,-1.63688671875,1.0088359375,-4.9279140625,-14.316140625,-11.70666015625,6.43478515625,-12.99265234375,-11.02463671875,-12.6793125,-17.0233125,-1.61873828125,-3.639734375,-7.56346484375,-9.3764453125
-5.8465703125,-9.59290625,-5.8010078125,-2.9379609375,-9.4919453125,-11.5768515625,-11.86428125,-9.97198828125,-1.9379453125,-9.7541015625,-9.74008984375,-11.3792421875,3.3425390625,-4.4933203125,-9.5213046875,-12.0665859375,-2.15888671875,-1.5531640625,-5.4559140625,-15.179140625,-11.62666015625,4.10678515625,-14.05265234375,-11.68763671875,-14.3223125,-17.5343125,-1.75573828125,-4.803734375,-8.35546484375,-11.5954453125
-5.7635703125,-10.05290625,-6.1630078125,-3.7829609375,-10.7119453125,-12.7138515625,-11.67328125,-9.72398828125,-4.6309453125,-10.7621015625,-10.08908984375,-10.1712421875,0.5215390625,-6.4873203125,-9.8023046875,-10.7745859375,-1.74188671875,-4.8231640625,-5.4979140625,-14.728140625,-11.09966015625,0.14778515625,-14.69865234375,-11.32863671875,-14.8703125,-17.6393125,-1.20073828125,-5.191734375,-8.68446484375,-13.4024453125
-5.4595703125,-10.16290625,-6.1590078125,-4.5989609375,-11.7659453125,-13.2728515625,-10.76528125,-9.09898828125,-6.7329453125,-11.5551015625,-9.61508984375,-8.4562421875,-2.7064609375,-8.1013203125,-9.3853046875,-8.6345859375,0.25911328125,-7.7971640625,-4.9459140625,-12.919140625,-10.09166015625,-3.99821484375,-14.54265234375,-10.01563671875,-14.2473125,-17.2533125,-0.05573828125,-4.695734375,-8.73146484375,-14.6394453125
-5.1195703125,-9.98990625,-5.9120078125,-5.2459609375,-12.6089453125,-13.2818515625,-9.38328125,-8.40598828125,-7.7229453125,-12.0301015625,-8.49508984375,-6.5732421875,-5.1374609375,-8.7893203125,-8.2343046875,-5.9785859375,3.55811328125,-9.3931640625,-3.7389140625,-9.993140625,-8.73966015625,-6.61521484375,-13.23165234375,-7.96563671875,-12.6923125,-16.5473125,1.44226171875,-3.507734375,-8.77346484375,-15.2674453125
-4.8555703125,-9.58990625,-5.5530078125,-5.5669609375,-13.0589453125,-12.8038515625,-7.81328125,-7.99398828125,-7.3289453125,-12.0771015625,-6.97908984375,-4.9262421875,-5.8144609375,-8.1593203125,-6.3983046875,-3.2205859375,7.04811328125,-8.9311640625,-1.9149140625,-6.379140625,-7.27066015625,-6.55121484375,-10.66265234375,-5.46663671875,-10.6063125,-15.8303125,3.06926171875,-2.001734375,-9.01646484375,-15.3004453125
-4.6325703125,-8.96990625,-5.1370078125,-5.4049609375,-12.8439453125,-11.8648515625,-6.27928125,-8.06498828125,-5.6049453125,-11.5561015625,-5.24308984375,-3.8052421875,-4.4634609375,-6.1133203125,-3.9813046875,-0.680585937499998,9.42411328125,-6.4131640625,0.404085937500001,-2.506140625,-5.86566015625,-3.75921484375,-7.08065234375,-2.77863671875,-8.3373125,-15.3113125,4.72426171875,-0.529734375,-9.43846484375,-14.7404453125
-4.2975703125,-8.10890625,-4.6400078125,-4.6439609375,-11.7309453125,-10.4598515625,-4.90028125,-8.57298828125,-2.8979453125,-10.3141015625,-3.30708984375,-3.2872421875,-1.6144609375,-2.8853203125,-1.1183046875,1.5204140625,9.90711328125,-2.4971640625,3.0380859375,1.324859375,-4.55866015625,0.77478515625,-3.03265234375,-0.0576367187500004,-6.0393125,-14.8983125,6.45226171875,0.738265625,-9.76546484375,-13.5734453125
-3.7095703125,-7.02390625,-4.0290078125,-3.2789609375,-9.6979453125,-8.6138515625,-3.71328125,-9.29898828125,0.258054687500001,-8.2971015625,-1.10808984375,-3.2432421875,1.6435390625,0.9946796875,1.9856953125,3.4284140625,8.55811328125,1.7968359375,5.7590859375,4.924859375,-3.23366015625,5.57478515625,0.78434765625,2.62436328125,-3.6593125,-14.1823125,8.34726171875,1.824265625,-9.59546484375,-11.8234453125
-2.8605703125,-5.83990625,-3.3500078125,-1.4739609375,-7.0079453125,-6.4698515625,-2.73128125,-10.01498828125,3.2750546875,-5.6801015625,1.35091015625,-3.4462421875,4.1285390625,4.8006796875,5.0056953125,5.1194140625,6.05511328125,5.4628359375,8.2580859375,8.109859375,-1.71466015625,9.34678515625,3.71034765625,5.19536328125,-1.0763125,-12.6613125,10.41726171875,2.823265625,-8.61546484375,-9.6004453125
-1.9085703125,-4.77590625,-2.7340078125,0.4620390625,-4.1309453125,-4.3008515625,-1.95928125,-10.59298828125,5.6790546875,-2.9031015625,3.87791015625,-3.6872421875,5.0535390625,7.7676796875,7.4966953125,6.5634140625,3.19211328125,7.8108359375,10.1430859375,10.602859375,0.114339843750001,11.41978515625,5.29434765625,7.48136328125,1.7106875,-10.0373125,12.50226171875,3.747265625,-6.77646484375,-7.1094453125
-1.0865703125,-4.03390625,-2.3130078125,2.1810390625,-1.5379453125,-2.4098515625,-1.36328125,-11.01498828125,7.2370546875,-0.545101562499999,6.11791015625,-3.8452421875,4.3085390625,9.3086796875,9.0046953125,7.5914140625,0.508113281250001,8.5858359375,10.9990859375,12.045859375,2.20133984375,11.80678515625,5.37334765625,9.16336328125,4.4626875,-6.4263125,14.26926171875,4.439265625,-4.34546484375,-4.6234453125
-0.573570312499999,-3.67090625,-2.1110078125,3.4300390625,0.512054687500001,-0.985851562500002,-0.829281249999999,-11.30298828125,7.9810546875,0.9298984375,7.69991015625,-3.9072421875,2.4355390625,9.2216796875,9.2566953125,7.9594140625,-1.77488671875,7.9208359375,10.5360859375,12.104859375,4.27733984375,10.95978515625,4.03034765625,9.84036328125,6.6976875,-2.3753125,15.28326171875,4.596265625,-1.83846484375,-2.4424453125
-0.401570312500001,-3.54090625,-2.0150078125,4.1350390625,2.0470546875,-0.00085156250000118,-0.189281249999999,-11.46098828125,8.1380546875,1.4028984375,8.40991015625,-3.9422421875,0.335539062500001,7.7876796875,8.3136953125,7.4614140625,-3.57588671875,6.1888359375,8.7390859375,10.611859375,5.87233984375,9.44878515625,1.50334765625,9.16536328125,7.8106875,1.3036875,15.11626171875,3.908265625,0.14953515625,-0.8544453125
-0.461570312499999,-3.38690625,-1.8400078125,4.4040390625,3.3190546875,0.767148437499998,0.67171875,-11.45698828125,8.0080546875,1.1718984375,8.27591015625,-4.0752421875,-1.1554609375,5.6796796875,6.5896953125,6.0294140625,-4.77688671875,3.8468359375,5.9480859375,7.683859375,6.44133984375,7.74678515625,-1.87965234375,7.02736328125,7.2836875,3.7746875,13.50226171875,2.256265625,1.13853515625,-0.0714453124999994
-0.5795703125,-2.99990625,-1.4550078125,4.4400390625,4.6110546875,1.5931484375,1.71971875,-11.26798828125,7.8450546875,0.806898437499999,7.53391015625,-4.4322421875,-1.6044609375,3.7026796875,4.7066953125,3.7804140625,-5.21588671875,1.3148359375,2.7860859375,3.752859375,5.57633984375,6.15278515625,-5.71665234375,3.65736328125,4.9056875,4.4206875,10.48426171875,-0.159734375,0.93853515625,-0.143445312499999
-0.615570312500001,-2.33090625,-0.857007812500001,4.4180390625,6.0370546875,2.6121484375,2.76371875,-10.94798828125,7.7490546875,0.854898437499999,6.51391015625,-5.0802421875,-1.0714609375,2.4676796875,3.2426953125,1.0184140625,-4.83888671875,-1.0741640625,-0.0389140624999991,-0.520140625,3.22033984375,4.81478515625,-9.54665234375,-0.39063671875,0.9386875,3.0326875,6.47826171875,-2.833734375,-0.28746484375,-0.9234453125
-0.5435703125,-1.52290625,-0.175007812500001,4.3980390625,7.4310546875,3.6891484375,3.53671875,-10.66098828125,7.6520546875,1.5438984375,5.47791015625,-5.9992421875,0.0595390625000007,2.1626796875,2.4896953125,-1.8415859375,-3.82988671875,-3.0541640625,-1.9939140625,-4.427140625,-0.248660156249999,3.82278515625,-12.89465234375,-4.40963671875,-3.9073125,-0.132312499999999,2.20326171875,-5.135734375,-2.09746484375,-2.1294453125
-0.4765703125,-0.87190625,0.367992187500001,4.3180390625,8.3860546875,4.4321484375,3.77771875,-10.60798828125,7.4030546875,2.6338984375,4.49291015625,-7.1102421875,1.3625390625,2.5156796875,2.3146953125,-4.4255859375,-2.57588671875,-4.3931640625,-2.9139140625,-7.441140625,-4.14566015625,3.30978515625,-15.34365234375,-7.79263671875,-8.7063125,-4.4533125,-1.54573828125,-6.562734375,-3.96846484375,-3.5024453125
-0.631570312500001,-0.74090625,0.5129921875,4.0560390625,8.4090546875,4.3371484375,3.27571875,-10.90198828125,6.8940546875,3.5008984375,3.37891015625,-8.3452421875,2.5845390625,2.9646796875,2.2056953125,-6.5555859375,-1.48988671875,-4.9081640625,-3.0629140625,-9.390140625,-7.76166015625,3.46178515625,-16.61865234375,-10.24063671875,-12.6683125,-9.1683125,-4.19673828125,-6.935734375,-5.52446484375,-4.9494453125
-1.2555703125,-1.44990625,0.0339921874999991,3.4910390625,7.1280546875,3.0011484375,1.88671875,-11.51498828125,6.1120546875,3.4058984375,1.80291015625,-9.6992421875,3.6415390625,2.9166796875,1.5026953125,-8.3085859375,-0.876886718749999,-4.5711640625,-3.0089140625,-10.487140625,-10.65066015625,4.38578515625,-16.68865234375,-11.82463671875,-15.4153125,-13.6143125,-5.60473828125,-6.438734375,-6.68846484375,-6.5744453125
-2.5115703125,-3.14090625,-1.1870078125,2.5520390625,4.4560546875,0.314148437499998,-0.42728125,-12.32198828125,5.0830546875,1.8448984375,-0.52408984375,-11.2112421875,4.4755390625,1.9906796875,-0.2663046875,-9.9125859375,-0.90688671875,-3.6121640625,-3.3619140625,-11.161140625,-12.73266015625,5.91078515625,-15.80365234375,-12.85563671875,-17.0003125,-17.3433125,-6.04473828125,-5.504734375,-7.64846484375,-8.5534453125
-4.3755703125,-5.67290625,-3.0870078125,1.2450390625,0.681054687500001,-3.4438515625,-3.54028125,-13.18398828125,3.8170546875,-1.1801015625,-3.61608984375,-12.8632421875,4.9415390625,0.1796796875,-3.1163046875,-11.5335859375,-1.60288671875,-2.4821640625,-4.4619140625,-11.771140625,-14.15366015625,7.54878515625,-14.41665234375,-13.62863671875,-17.6943125,-20.0873125,-5.98173828125,-4.587734375,-8.65146484375,-10.9024453125
-6.5855703125,-8.59390625,-5.3790078125,-0.318960937500001,-3.5829453125,-7.6428515625,-7.11428125,-13.98698828125,2.3170546875,-5.0991015625,-7.09408984375,-14.4702421875,4.8455390625,-2.1343203125,-6.5043046875,-13.0685859375,-2.76888671875,-1.6411640625,-6.1729140625,-12.372140625,-14.99066015625,8.73978515625,-13.00265234375,-14.19863671875,-17.6853125,-21.6373125,-5.75073828125,-3.960734375,-9.76246484375,-13.2794453125
-8.6995703125,-11.22690625,-7.5860078125,-1.9619609375,-7.5769453125,-11.4888515625,-10.61328125,-14.65598828125,0.601054687500001,-8.9671015625,-10.25808984375,-15.6442421875,4.0815390625,-4.3143203125,-9.4843046875,-14.0735859375,-3.94588671875,-1.3051640625,-7.8829140625,-12.663140625,-15.04166015625,9.21578515625,-11.88965234375,-14.30463671875,-16.9003125,-21.7633125,-5.36873828125,-3.648734375,-10.76546484375,-14.9854453125
-10.2575703125,-12.86590625,-9.1580078125,-3.5239609375,-10.6649453125,-14.2818515625,-13.42928125,-15.17598828125,-1.3189453125,-11.8231015625,-12.33408984375,-15.9032421875,2.6985390625,-5.7153203125,-11.0543046875,-13.9195859375,-4.51888671875,-1.3491640625,-8.7709140625,-12.182140625,-13.88166015625,9.17178515625,-11.21365234375,-13.51263671875,-15.0613125,-20.2583125,-4.59273828125,-3.507734375,-11.27846484375,-15.2164453125
-10.9705703125,-13.04990625,-9.6900078125,-4.9309609375,-12.5649453125,-15.6708515625,-15.10528125,-15.60198828125,-3.4669453125,-13.0781015625,-12.81108984375,-14.8962421875,0.853539062500001,-5.9563203125,-10.5703046875,-12.1155859375,-3.99588671875,-1.4521640625,-8.2119140625,-10.594140625,-11.14166015625,9.08478515625,-10.97665234375,-11.48763671875,-11.9183125,-17.0773125,-3.14273828125,-3.366734375,-11.00346484375,-13.4544453125
-10.8575703125,-11.79590625,-9.1380078125,-6.2039609375,-13.4119453125,-15.7758515625,-15.58328125,-16.01698828125,-5.8599453125,-12.7481015625,-11.70308984375,-12.6392421875,-1.2804609375,-5.0773203125,-8.0713046875,-8.6445859375,-2.29888671875,-1.3511640625,-6.1219140625,-7.905140625,-6.84266015625,9.33178515625,-11.08265234375,-8.23663671875,-7.5073125,-12.4713125,-0.93773828125,-3.124734375,-9.91446484375,-9.7824453125
-10.2445703125,-9.65890625,-7.9030078125,-7.4129609375,-13.6759453125,-15.1398515625,-15.30728125,-16.46698828125,-8.4319453125,-11.4511015625,-9.60808984375,-9.5972421875,-3.5654609375,-3.5233203125,-4.3263046875,-4.1025859375,0.140113281250001,-1.0261640625,-3.0389140625,-4.505140625,-1.54466015625,9.91578515625,-11.35865234375,-4.19163671875,-2.2703125,-7.0223125,1.80026171875,-2.769734375,-8.29646484375,-4.9344453125
-10.2445703125,-9.65890625,-7.9030078125,-7.4129609375,-13.6759453125,-15.1398515625,-15.30728125,-16.46698828125,-8.4319453125,-11.4511015625,-9.60808984375,-9.5972421875,-3.5654609375,-3.5233203125,-4.3263046875,-4.1025859375,0.140113281250001,-1.0261640625,-3.0389140625,-4.505140625,-1.54466015625,9.91578515625,-11.35865234375,-4.19163671875,-2.2703125,-7.0223125,1.80026171875,-2.769734375,-8.29646484375,-4.9344453125
