"Fp1","Fpz","Fp2","F7","F3","Fz","F4","F8","FC5","FC1","FC2","FC6","T7","C3","Cz","C4","T8","CP5","CP1","CP2","CP6","P7","P3","Pz","P4","P8","POz","O1","Oz","O2"
8.963390625,4.90083984375,-1.08626171875,6.47578515625,6.24043359375,4.47516015625,2.83887109375,3.8614140625,3.29395703125,-3.25128125,-1.34866796875,-3.68787109375,-0.0755429687499998,-0.525320312500001,-2.52708203125,-1.73914453125,-2.6513203125,1.89521484375,0.642847656250002,-1.02107421875,-1.3144453125,7.8252578125,2.08516796875,1.5341875,-1.57434375,5.09895703125,-1.3603984375,3.81108203125,1.51992578125,1.8374140625
1.655390625,-2.16116015625,-8.03926171875,5.64778515625,2.48643359375,0.927160156249999,0.0158710937500004,2.7634140625,1.83695703125,-5.13428125,-4.25466796875,-0.30787109375,-1.28254296875,-2.7193203125,-4.82108203125,-4.02514453125,-2.9043203125,0.532214843750001,-1.28615234375,-2.13507421875,-2.8314453125,5.6982578125,0.976167968750001,0.327187500000001,-2.10834375,2.36095703125,-1.0683984375,3.15008203125,1.53192578125,1.5614140625
-3.749609375,-7.27916015625,-13.55126171875,4.78478515625,-0.20856640625,-1.76183984375,-1.98412890625,1.9084140625,0.53195703125,-6.71728125,-6.08766796875,1.41412890625,-2.19554296875,-4.6063203125,-6.57508203125,-5.56114453125,-3.4303203125,-0.765785156249999,-2.84115234375,-2.98807421875,-4.0324453125,4.0582578125,-0.132832031249999,-0.550812499999999,-2.52134375,0.30295703125,-0.998398437500001,2.75708203125,1.44092578125,1.2894140625
-6.846609375,-10.11616015625,-17.17426171875,3.95678515625,-1.70656640625,-3.48383984375,-3.15312890625,1.3544140625,-0.46804296875,-7.94228125,-6.93066796875,1.23812890625,-2.69654296875,-6.1293203125,-7.82008203125,-6.41914453125,-4.3073203125,-1.97978515625,-4.04015234375,-3.61907421875,-4.9344453125,2.9972578125,-1.24983203125,-1.1828125,-2.90234375,-1.39204296875,-1.2323984375,2.55108203125,1.16092578125,0.9024140625
-7.693609375,-10.82716015625,-18.76826171875,3.28378515625,-2.16456640625,-4.35683984375,-3.69412890625,1.0654140625,-1.00404296875,-8.83128125,-7.21266796875,-0.61987109375,-2.75454296875,-7.2893203125,-8.75108203125,-6.92414453125,-5.5283203125,-3.07678515625,-5.00615234375,-4.17107421875,-5.6344453125,2.5062578125,-2.36083203125,-1.7808125,-3.41434375,-3.32204296875,-1.8113984375,2.31508203125,0.605925781250001,0.231414062500001
-6.739609375,-9.94016015625,-18.53326171875,2.89278515625,-1.93256640625,-4.64983984375,-3.88612890625,0.9234140625,-0.99004296875,-9.47728125,-7.44066796875,-3.53987109375,-2.43554296875,-8.1183203125,-9.60708203125,-7.46014453125,-6.9713203125,-3.98778515625,-5.88615234375,-4.82007421875,-6.2284453125,2.5162578125,-3.39383203125,-2.5548125,-4.19834375,-5.97204296875,-2.7043984375,1.82908203125,-0.248074218749999,-0.845585937499999
-4.696609375,-8.18416015625,-16.96226171875,2.83978515625,-1.43656640625,-4.69383984375,-3.99012890625,0.7804140625,-0.48204296875,-10.03728125,-7.97266796875,-6.61687109375,-1.88354296875,-8.6873203125,-10.57908203125,-8.29314453125,-8.4083203125,-4.66178515625,-6.78915234375,-5.70207421875,-6.7744453125,2.8692578125,-4.25383203125,-3.6178125,-5.31434375,-9.36204296875,-3.8313984375,0.98108203125,-1.34707421875,-2.3475859375
-2.366609375,-6.28616015625,-14.71726171875,3.04378515625,-1.07556640625,-4.80883984375,-4.21612890625,0.5274140625,0.29195703125,-10.72128125,-8.92466796875,-8.88487109375,-1.28254296875,-9.1323203125,-11.77808203125,-9.48814453125,-9.5423203125,-5.14378515625,-7.79415234375,-6.88307421875,-7.3084453125,3.2672578125,-4.92883203125,-4.9748125,-6.74334375,-12.95704296875,-5.1233984375,-0.19891796875,-2.58807421875,-4.1685859375
-0.471609375,-4.80916015625,-12.49326171875,3.28078515625,-1.14156640625,-5.22983984375,-4.70212890625,0.1224140625,0.98195703125,-11.73728125,-10.21066796875,-9.63687109375,-0.82954296875,-9.6343203125,-13.23608203125,-10.92914453125,-10.0873203125,-5.59778515625,-8.95715234375,-8.35307421875,-7.8724453125,3.2992578125,-5.54083203125,-6.5618125,-8.42234375,-15.85604296875,-6.5703984375,-1.57991796875,-3.87307421875,-6.1185859375
0.475390625,-4.07016015625,-10.91226171875,3.27178515625,-1.76456640625,-6.05383984375,-5.48412890625,-0.4035859375,1.22995703125,-13.20028125,-11.63366796875,-8.72087109375,-0.68854296875,-10.3583203125,-14.89108203125,-12.41214453125,-9.8673203125,-6.23678515625,-10.30515234375,-10.02907421875,-8.5294453125,2.5832578125,-6.31283203125,-8.2868125,-10.26834375,-17.16904296875,-8.2083984375,-3.02691796875,-5.14907421875,-7.9705859375
0.243390625,-4.16716015625,-10.43626171875,2.82478515625,-2.89856640625,-7.21683984375,-6.49112890625,-0.9615859375,0.83295703125,-15.04828125,-12.97666796875,-6.64587109375,-0.92654296875,-11.3693203125,-16.58908203125,-13.73214453125,-8.9233203125,-7.19678515625,-11.79815234375,-11.76107421875,-9.3334453125,0.9762578125,-7.43883203125,-10.0518125,-12.18334375,-16.41404296875,-10.0663984375,-4.46791796875,-6.40407421875,-9.5225859375
-1.076609375,-5.02916015625,-11.25126171875,1.94578515625,-4.34156640625,-8.50683984375,-7.56412890625,-1.4215859375,-0.15504296875,-17.01528125,-14.04966796875,-4.38087109375,-1.44854296875,-12.5863203125,-18.08808203125,-14.73614453125,-7.5333203125,-8.42778515625,-13.29615234375,-13.33707421875,-10.2674453125,-1.2757421875,-8.92483203125,-11.7288125,-14.02034375,-13.75404296875,-12.0733984375,-5.87691796875,-7.62707421875,-10.6405859375
-3.094609375,-6.43516015625,-13.15726171875,0.84778515625,-5.78356640625,-9.62483984375,-8.49412890625,-1.6485859375,-1.43204296875,-18.68128125,-14.70066796875,-2.90587109375,-1.98854296875,-13.7743203125,-19.10008203125,-15.30914453125,-6.1183203125,-9.66078515625,-14.55715234375,-14.51907421875,-11.1944453125,-3.5727421875,-10.51683203125,-13.1398125,-15.56434375,-9.98304296875,-14.0293984375,-7.21191796875,-8.77307421875,-11.2825859375
-5.193609375,-8.00716015625,-15.53426171875,-0.14621484375,-6.88956640625,-10.26983984375,-9.07112890625,-1.5495859375,-2.58504296875,-19.62728125,-14.82566796875,-2.75787109375,-2.20754296875,-14.6283203125,-19.37808203125,-15.37014453125,-5.0733203125,-10.52378515625,-15.32015234375,-15.12707421875,-11.8804453125,-5.2257421875,-11.79783203125,-14.0848125,-16.58834375,-6.28004296875,-15.6633984375,-8.37491796875,-9.76007421875,-11.5045859375
-6.666609375,-9.24016015625,-17.46326171875,-0.73321484375,-7.39156640625,-10.23783984375,-9.14512890625,-1.1085859375,-3.26704296875,-19.59728125,-14.41166796875,-3.81887109375,-1.86154296875,-14.9063203125,-18.82708203125,-14.91014453125,-4.6113203125,-10.74478515625,-15.43315234375,-15.12907421875,-12.1024453125,-5.8287421875,-12.42983203125,-14.4328125,-16.96334375,-3.81104296875,-16.7723984375,-9.27691796875,-10.53607421875,-11.4665859375
-6.907609375,-9.61216015625,-18.01926171875,-0.74121484375,-7.16056640625,-9.48183984375,-8.68012890625,-0.3845859375,-3.30904296875,-18.61028125,-13.54966796875,-5.40587109375,-0.93854296875,-14.5433203125,-17.56808203125,-14.03114453125,-4.7243203125,-10.30178515625,-14.93615234375,-14.65807421875,-11.7634453125,-5.4777421875,-12.35583203125,-14.1998125,-16.73634375,-3.32604296875,-17.3213984375,-9.90891796875,-11.10607421875,-11.3915859375
-5.620609375,-8.75216015625,-16.62526171875,-0.17221484375,-6.22456640625,-8.11583984375,-7.76212890625,0.5184140625,-2.73104296875,-16.92828125,-12.40966796875,-6.61087109375,0.34145703125,-13.6553203125,-15.88208203125,-12.92914453125,-5.2223203125,-9.41478515625,-14.03315234375,-13.93907421875,-10.9564453125,-4.6797421875,-11.80883203125,-13.5438125,-16.11034375,-4.86904296875,-17.4203984375,-10.33691796875,-11.51207421875,-11.4715859375
-2.949609375,-6.59616015625,-13.33326171875,0.83378515625,-4.72856640625,-6.35983984375,-6.55212890625,1.4884140625,-1.65404296875,-14.92728125,-11.17666796875,-6.69687109375,1.64445703125,-12.4393203125,-14.07908203125,-11.82714453125,-5.8453203125,-8.39078515625,-12.95915234375,-13.17307421875,-9.9484453125,-4.0017421875,-11.13383203125,-12.6798125,-15.35734375,-7.72904296875,-17.2163984375,-10.63991796875,-11.76707421875,-11.7675859375
0.518390625,-3.46616015625,-8.86226171875,2.08878515625,-2.88656640625,-4.47983984375,-5.23812890625,2.4304140625,-0.22604296875,-12.95228125,-10.00266796875,-5.43887109375,2.67545703125,-11.0753203125,-12.39008203125,-10.89314453125,-6.3873203125,-7.45478515625,-11.87515234375,-12.47707421875,-9.0984453125,-3.7307421875,-10.57683203125,-11.7998125,-14.72834375,-10.73404296875,-16.8043984375,-10.85591796875,-11.84207421875,-12.1845859375
3.953390625,0.000839843750000124,-4.34326171875,3.44178515625,-0.94756640625,-2.72683984375,-4.00512890625,3.2974140625,1.41795703125,-11.23028125,-8.99966796875,-3.22087109375,3.28945703125,-9.6763203125,-10.93508203125,-10.20714453125,-6.7653203125,-6.67778515625,-10.84615234375,-11.89607421875,-8.7344453125,-3.7667421875,-10.17683203125,-11.0448125,-14.39534375,-12.77404296875,-16.2253984375,-10.98091796875,-11.71107421875,-12.5475859375
6.586390625,3.07183984375,-0.858261718750001,4.80378515625,0.84343359375,-1.28583984375,-3.00012890625,4.0814140625,3.14195703125,-9.84828125,-8.22666796875,-0.82887109375,3.51545703125,-8.3003203125,-9.74808203125,-9.74614453125,-6.9923203125,-6.00878515625,-9.87215234375,-11.43407421875,-8.9874453125,-3.7927421875,-9.79983203125,-10.4908125,-14.41234375,-13.28304296875,-15.5033984375,-10.96691796875,-11.37807421875,-12.6985859375
8.006390625,5.20283984375,0.981738281249999,6.10978515625,2.29743359375,-0.24483984375,-2.27912890625,4.7974140625,4.78395703125,-8.77328125,-7.67066796875,0.94912890625,3.52145703125,-6.9733203125,-8.79108203125,-9.40114453125,-7.0933203125,-5.35778515625,-8.93315234375,-11.06107421875,-9.7024453125,-3.5477421875,-9.25283203125,-10.1378125,-14.68034375,-12.41304296875,-14.6653984375,-10.71891796875,-10.86907421875,-12.5495859375
8.263390625,6.21683984375,1.20173828125,7.27478515625,3.31443359375,0.42116015625,-1.79312890625,5.4404140625,6.17895703125,-7.90528125,-7.24366796875,1.66312890625,3.52845703125,-5.7243203125,-7.98308203125,-9.03014453125,-7.0583203125,-4.66878515625,-8.01815234375,-10.72207421875,-10.5164453125,-2.9897421875,-8.42083203125,-9.9118125,-14.98334375,-10.81904296875,-13.7573984375,-10.11791796875,-10.20807421875,-12.0955859375
7.760390625,6.26783984375,0.30473828125,8.19078515625,3.87543359375,0.81116015625,-1.44612890625,5.9614140625,7.19795703125,-7.16028125,-6.84266796875,1.31712890625,3.71845703125,-4.6173203125,-7.24708203125,-8.56414453125,-6.8723203125,-3.95578515625,-7.15715234375,-10.36807421875,-11.0864453125,-2.2707421875,-7.35083203125,-9.6988125,-15.09434375,-9.25604296875,-12.8353984375,-9.11191796875,-9.42807421875,-11.4035859375
6.997390625,5.69583984375,-1.03426171875,8.77378515625,4.02843359375,1.03216015625,-1.16412890625,6.2824140625,7.79995703125,-6.52128125,-6.40866796875,0.26312890625,4.14845703125,-3.7523203125,-6.56008203125,-8.06914453125,-6.5583203125,-3.29278515625,-6.42615234375,-9.99407421875,-11.2784453125,-1.5977421875,-6.23483203125,-9.4028125,-14.88534375,-8.24004296875,-11.9573984375,-7.80691796875,-8.60207421875,-10.5975859375
6.377390625,4.90683984375,-2.21226171875,9.02978515625,3.88443359375,1.17816015625,-0.91212890625,6.3394140625,8.06095703125,-6.02628125,-5.94466796875,-1.02587109375,4.75045703125,-3.2013203125,-5.94308203125,-7.70414453125,-6.1763203125,-2.73478515625,-5.89615234375,-9.63307421875,-11.1734453125,-1.0837421875,-5.28383203125,-8.9588125,-14.34834375,-7.91404296875,-11.1403984375,-6.46791796875,-7.82207421875,-9.7985859375
6.149390625,4.31883984375,-2.77926171875,9.09078515625,3.62943359375,1.34016015625,-0.64812890625,6.1474140625,8.15795703125,-5.69228125,-5.46566796875,-2.16987109375,5.39745703125,-2.9333203125,-5.40908203125,-7.59014453125,-5.7723203125,-2.25078515625,-5.54515234375,-9.29407421875,-10.9074453125,-0.6737421875,-4.56983203125,-8.3098125,-13.53834375,-8.13404296875,-10.3273984375,-5.41591796875,-7.14507421875,-9.0635859375
6.458390625,4.31883984375,-2.42026171875,9.18378515625,3.51343359375,1.62716015625,-0.28712890625,5.8294140625,8.33095703125,-5.44228125,-4.94666796875,-3.00687109375,5.99945703125,-2.7893203125,-4.92308203125,-7.68214453125,-5.3513203125,-1.70678515625,-5.23215234375,-8.91207421875,-10.5144453125,-0.2087421875,-3.96283203125,-7.3968125,-12.51134375,-8.64104296875,-9.4073984375,-4.87691796875,-6.54807421875,-8.3675859375
7.405390625,5.17883984375,-0.957261718750001,9.51978515625,3.77343359375,2.13716015625,0.26587109375,5.5954140625,8.78995703125,-5.12128125,-4.33366796875,-3.55787109375,6.54145703125,-2.5603203125,-4.42208203125,-7.77414453125,-4.8883203125,-0.974785156249999,-4.76315234375,-8.36207421875,-9.8934453125,0.4002578125,-3.22783203125,-6.2008125,-11.31434375,-9.22604296875,-8.2993984375,-4.89391796875,-5.95507421875,-7.6375859375
9.019390625,6.96183984375,1.60973828125,10.17478515625,4.53543359375,2.90216015625,1.04487109375,5.6594140625,9.61795703125,-4.58128125,-3.60066796875,-3.85587109375,7.06545703125,-2.1053203125,-3.87308203125,-7.61114453125,-4.3653203125,-0.066785156249999,-4.02615234375,-7.54307421875,-8.9164453125,0.9972578125,-2.21983203125,-4.8028125,-10.01134375,-9.78704296875,-7.0423984375,-5.31791796875,-5.30007421875,-6.8295859375
11.178390625,9.45083984375,5.00673828125,11.02978515625,5.74543359375,3.83216015625,1.96287109375,6.1234140625,10.71495703125,-3.78428125,-2.80066796875,-3.78187109375,7.60045703125,-1.4373203125,-3.32408203125,-7.06014453125,-3.8103203125,0.79321484375,-3.07415234375,-6.47007421875,-7.5914453125,1.1732578125,-1.04183203125,-3.4118125,-8.71634375,-10.25304296875,-5.8123984375,-5.90191796875,-4.58607421875,-5.9765859375
13.540390625,12.14883984375,8.65173828125,11.83378515625,7.14943359375,4.71516015625,2.81387109375,6.9054140625,11.81695703125,-2.85028125,-2.09266796875,-3.09287109375,8.11845703125,-0.731320312500001,-2.89208203125,-6.21014453125,-3.3153203125,1.24921484375,-2.12615234375,-5.29907421875,-6.1594453125,0.4942578125,-0.0258320312499984,-2.3048125,-7.59234375,-10.45904296875,-4.8543984375,-6.41091796875,-3.88807421875,-5.1755859375
15.571390625,14.37083984375,11.70773828125,12.33578515625,8.36243359375,5.28716015625,3.34187109375,7.7404140625,12.59595703125,-2.02628125,-1.68466796875,-1.66987109375,8.52245703125,-0.243320312500002,-2.70608203125,-5.33814453125,-3.0203203125,1.01221484375,-1.46015234375,-4.26407421875,-5.0324453125,-1.1517421875,0.462167968750001,-1.7068125,-6.79834375,-10.09404296875,-4.3403984375,-6.69991796875,-3.30007421875,-4.5315859375
16.692390625,15.45783984375,13.31873828125,12.40878515625,8.99743359375,5.33716015625,3.37687109375,8.2814140625,12.78595703125,-1.57928125,-1.73166796875,0.23112890625,8.68945703125,-0.177320312500001,-2.81408203125,-4.74814453125,-3.0383203125,0.0682148437500008,-1.25215234375,-3.55507421875,-4.5654453125,-3.3397421875,0.270167968750001,-1.6508125,-6.38634375,-8.82304296875,-4.2403984375,-6.70191796875,-2.85407421875,-4.0725859375
16.519390625,15.05583984375,12.95173828125,12.08678515625,8.84043359375,4.81316015625,2.93587109375,8.2664140625,12.29295703125,-1.67828125,-2.22966796875,1.99012890625,8.54045703125,-0.5613203125,-3.13008203125,-4.58614453125,-3.3543203125,-1.24378515625,-1.47015234375,-3.20907421875,-4.8124453125,-5.2177421875,-0.393832031249999,-1.9368125,-6.22034375,-6.51704296875,-4.3133984375,-6.36791796875,-2.47107421875,-3.7135859375
15.062390625,13.31183984375,10.69773828125,11.53278515625,7.94843359375,3.85516015625,2.21687109375,7.6574140625,11.22895703125,-2.30228125,-3.00066796875,2.96712890625,8.09545703125,-1.2343203125,-3.46508203125,-4.77214453125,-3.7643203125,-2.35778515625,-1.88415234375,-3.10507421875,-5.4424453125,-5.9167421875,-1.05683203125,-2.2258125,-6.01334375,-3.41604296875,-4.2203984375,-5.65591796875,-2.00707421875,-3.2995859375
12.758390625,10.81983984375,7.30473828125,10.92878515625,6.62443359375,2.73716015625,1.47387109375,6.6714140625,9.85995703125,-3.26028125,-3.78666796875,2.91712890625,7.46845703125,-1.9383203125,-3.64008203125,-5.08514453125,-3.9373203125,-2.76378515625,-2.20315234375,-3.05807421875,-5.9204453125,-5.0197421875,-1.24583203125,-2.2288125,-5.49034375,-0.0870429687499996,-3.7213984375,-4.57591796875,-1.36807421875,-2.7075859375
10.305390625,8.37683984375,3.90073828125,10.35478515625,5.26243359375,1.73816015625,0.87387109375,5.6544140625,8.47895703125,-4.28628125,-4.38566796875,2.14412890625,6.80945703125,-2.4593203125,-3.59208203125,-5.31214453125,-3.5733203125,-2.26378515625,-2.22715234375,-2.93307421875,-5.8164453125,-2.7857421875,-0.744832031249999,-1.8488125,-4.55734375,2.78595703125,-2.7983984375,-3.24691796875,-0.59007421875,-1.9305859375
8.391390625,6.66983984375,1.54673828125,9.73478515625,4.17943359375,1.03316015625,0.440871093750001,4.8974140625,7.29195703125,-5.14828125,-4.73066796875,1.26512890625,6.23145703125,-2.7113203125,-3.38508203125,-5.35914453125,-2.5933203125,-1.06578515625,-1.92915234375,-2.69907421875,-5.0164453125,-0.0317421875,0.301167968750002,-1.1938125,-3.36034375,4.63895703125,-1.6593984375,-1.90491796875,0.15292578125,-1.0835859375
7.467390625,6.07083984375,0.86573828125,8.91078515625,3.52643359375,0.66816015625,0.11187109375,4.5164140625,6.37495703125,-5.71128125,-4.86666796875,0.78312890625,5.75945703125,-2.7203203125,-3.13408203125,-5.25314453125,-1.2143203125,0.331214843750001,-1.42115234375,-2.40307421875,-3.7244453125,2.2442578125,1.48416796875,-0.4758125,-2.19534375,5.16495703125,-0.6213984375,-0.84791796875,0.639925781250001,-0.353585937499999
7.648390625,6.57883984375,1.89773828125,7.80278515625,3.29143359375,0.592160156249999,-0.18012890625,4.4694140625,5.72895703125,-5.94028125,-4.85966796875,0.76712890625,5.33445703125,-2.5553203125,-2.91308203125,-5.08714453125,0.1246796875,1.36421484375,-0.869152343749999,-2.10607421875,-2.3174453125,3.2902578125,2.33616796875,0.103187500000001,-1.35934375,4.34895703125,0.0156015624999988,-0.34391796875,0.695925781250001,0.0714140625000006
8.735390625,7.89583984375,4.19973828125,6.53778515625,3.37743359375,0.72016015625,-0.44512890625,4.6474140625,5.36695703125,-5.86828125,-4.72866796875,0.86412890625,4.86245703125,-2.2663203125,-2.70708203125,-4.93814453125,0.948679687499999,1.64221484375,-0.415152343749998,-1.85507421875,-1.1764453125,2.8662578125,2.53316796875,0.420187500000001,-1.03334375,2.45995703125,0.0606015625000005,-0.543917968750001,0.267925781250001,0.0564140625000009
10.326390625,9.57683984375,7.05273828125,5.42978515625,3.66743359375,0.96516015625,-0.63812890625,4.9524140625,5.33695703125,-5.56028125,-4.42866796875,0.60412890625,4.29445703125,-1.8693203125,-2.45308203125,-4.82814453125,0.9526796875,1.07521484375,-0.145152343749999,-1.68107421875,-0.578445312499999,1.2722578125,2.00316796875,0.4271875,-1.23634375,-0.00104296875000021,-0.533398437500001,-1.41791796875,-0.56307421875,-0.427585937499999
11.948390625,11.16483984375,9.67173828125,4.82178515625,4.05243359375,1.25016015625,-0.69912890625,5.3114140625,5.66295703125,-5.11028125,-3.91866796875,-0.22187109375,3.67045703125,-1.3963203125,-2.11808203125,-4.73914453125,0.1336796875,-0.136785156249999,-0.098152343749998,-1.62907421875,-0.653445312499999,-0.8537421875,0.916167968750001,0.1261875,-1.85334375,-2.40804296875,-1.6783984375,-2.76091796875,-1.60507421875,-1.2785859375
13.185390625,12.27183984375,11.37573828125,4.88578515625,4.41243359375,1.47816015625,-0.62412890625,5.6494140625,6.24895703125,-4.66328125,-3.26166796875,-1.39887109375,3.10045703125,-0.953320312500001,-1.78108203125,-4.66814453125,-1.2413203125,-1.63678515625,-0.310152343749998,-1.76107421875,-1.3924453125,-2.8297421875,-0.434832031249999,-0.4748125,-2.71034375,-4.18104296875,-3.2003984375,-4.25591796875,-2.61707421875,-2.2965859375
13.749390625,12.63383984375,11.72373828125,5.51978515625,4.60243359375,1.53416015625,-0.49712890625,5.8694140625,6.85895703125,-4.42428125,-2.66966796875,-2.40987109375,2.69945703125,-0.739320312500001,-1.64308203125,-4.67214453125,-2.7743203125,-3.07578515625,-0.842152343749999,-2.13207421875,-2.6534453125,-4.1697421875,-1.78683203125,-1.3758125,-3.65134375,-4.98504296875,-4.9053984375,-5.59091796875,-3.40607421875,-3.2765859375
13.527390625,12.15783984375,10.63073828125,6.38378515625,4.46943359375,1.30016015625,-0.45412890625,5.8644140625,7.19395703125,-4.61528125,-2.43466796875,-2.75687109375,2.53945703125,-0.972320312500001,-1.93608203125,-4.84514453125,-4.1073203125,-4.21178515625,-1.75015234375,-2.76107421875,-4.1704453125,-4.6907421875,-3.00083203125,-2.5668125,-4.57434375,-4.84704296875,-6.6353984375,-6.58791796875,-3.89307421875,-4.0935859375
12.603390625,10.98983984375,8.45673828125,7.06478515625,3.92343359375,0.70816015625,-0.59612890625,5.5804140625,7.03995703125,-5.37428125,-2.77166796875,-2.24487109375,2.64245703125,-1.7623203125,-2.79208203125,-5.23714453125,-4.9963203125,-4.92978515625,-3.02815234375,-3.59707421875,-5.5694453125,-4.4857421875,-4.05083203125,-3.9888125,-5.41634375,-4.15004296875,-8.2813984375,-7.28491796875,-4.14807421875,-4.7315859375
11.293390625,9.53483984375,5.98073828125,7.28578515625,3.01243359375,-0.19183984375,-0.92312890625,5.0804140625,6.38995703125,-6.66428125,-3.68466796875,-1.07187109375,3.00345703125,-3.0123203125,-4.14808203125,-5.80314453125,-5.2963203125,-5.20578515625,-4.55115234375,-4.51807421875,-6.4464453125,-3.8277421875,-4.93783203125,-5.4968125,-6.11334375,-3.43604296875,-9.7513984375,-7.89291796875,-4.32907421875,-5.2355859375
10.110390625,8.36983984375,4.21273828125,7.04878515625,1.94243359375,-1.21583984375,-1.34612890625,4.5464140625,5.45995703125,-8.24728125,-4.94566796875,0.28112890625,3.60345703125,-4.4243203125,-5.76108203125,-6.41714453125,-4.9263203125,-5.06978515625,-6.07015234375,-5.36107421875,-6.5144453125,-3.0507421875,-5.61083203125,-6.8738125,-6.59334375,-3.10604296875,-10.9163984375,-8.62391796875,-4.56507421875,-5.6185859375
9.592390625,8.02383984375,4.00773828125,6.60078515625,1.00943359375,-2.10383984375,-1.75012890625,4.1744140625,4.56695703125,-9.77528125,-6.21266796875,1.25812890625,4.38945703125,-5.6063203125,-7.29908203125,-6.93714453125,-3.8953203125,-4.60078515625,-7.28515234375,-5.97007421875,-5.7744453125,-2.4437421875,-5.95683203125,-7.8838125,-6.81034375,-3.13404296875,-11.6043984375,-9.48091796875,-4.84207421875,-5.8005859375
10.046390625,8.73183984375,5.63773828125,6.25178515625,0.46543359375,-2.63283984375,-2.06812890625,4.0454140625,3.95495703125,-10.92528125,-7.18566796875,1.40512890625,5.25645703125,-6.2373203125,-8.46808203125,-7.27514453125,-2.3663203125,-3.92378515625,-7.95415234375,-6.25507421875,-4.5854453125,-2.1557421875,-5.86583203125,-8.3528125,-6.77834375,-3.05104296875,-11.6433984375,-10.17791796875,-4.97407421875,-5.6285859375
11.392390625,10.30083984375,8.62273828125,6.17778515625,0.41343359375,-2.71183984375,-2.30312890625,4.0824140625,3.69195703125,-11.51028125,-7.72266796875,0.52012890625,6.04845703125,-6.1863203125,-9.09908203125,-7.40614453125,-0.6883203125,-3.20478515625,-7.98515234375,-6.20307421875,-3.5244453125,-2.1607421875,-5.31683203125,-8.2298125,-6.56234375,-2.23804296875,-10.9493984375,-10.26891796875,-4.69907421875,-4.9725859375
13.234390625,12.21383984375,11.95973828125,6.35078515625,0.79343359375,-2.39383984375,-2.49712890625,4.1424140625,3.68295703125,-11.51528125,-7.83866796875,-1.22887109375,6.61145703125,-5.5473203125,-9.17608203125,-7.33314453125,0.6726796875,-2.59378515625,-7.45615234375,-5.85407421875,-3.0794453125,-2.2817421875,-4.39483203125,-7.5838125,-6.22134375,-0.36604296875,-9.5693984375,-9.40991796875,-3.83807421875,-3.8215859375
15.117390625,13.92383984375,14.64373828125,6.61778515625,1.45843359375,-1.81883984375,-2.65312890625,4.1614140625,3.79095703125,-11.04928125,-7.62566796875,-3.22587109375,6.85645703125,-4.5543203125,-8.77908203125,-7.03114453125,1.3166796875,-2.15478515625,-6.54515234375,-5.23107421875,-3.3334453125,-2.2757421875,-3.22983203125,-6.5338125,-5.73134375,2.35495703125,-7.6433984375,-7.57091796875,-2.40507421875,-2.2985859375
16.752390625,15.14583984375,16.15373828125,6.83978515625,2.26743359375,-1.12583984375,-2.68912890625,4.2054140625,3.93595703125,-10.26128125,-7.16566796875,-4.55787109375,6.82145703125,-3.4453203125,-8.02408203125,-6.42714453125,1.0906796875,-1.81978515625,-5.41715234375,-4.31407421875,-3.8984453125,-1.9527421875,-1.90283203125,-5.1678125,-4.94934375,5.28495703125,-5.3103984375,-5.06991796875,-0.59007421875,-0.5815859375
18.085390625,15.92683984375,16.59573828125,6.97578515625,3.13643359375,-0.40783984375,-2.46412890625,4.3964140625,4.13595703125,-9.28428125,-6.49466796875,-4.39587109375,6.65045703125,-2.3653203125,-7.01808203125,-5.45814453125,0.153679687499999,-1.42978515625,-4.16315234375,-3.06807421875,-4.1324453125,-1.2487421875,-0.422832031249999,-3.5158125,-3.68534375,7.68695703125,-2.6503984375,-2.41891796875,1.33492578125,1.1804140625
19.188390625,16.50583984375,16.50173828125,7.06978515625,4.01843359375,0.29516015625,-1.88112890625,4.7954140625,4.45795703125,-8.21828125,-5.64266796875,-2.43787109375,6.53445703125,-1.3583203125,-5.87408203125,-4.15214453125,-1.1143203125,-0.828785156249999,-2.81815234375,-1.51807421875,-3.5404453125,-0.2107421875,1.21416796875,-1.6008125,-1.85034375,9.05195703125,0.274601562499999,-0.10891796875,3.12792578125,2.8824140625
20.120390625,17.08383984375,16.47073828125,7.18478515625,4.87543359375,0.96616015625,-0.97012890625,5.3344140625,4.96595703125,-7.12828125,-4.66066796875,0.91012890625,6.62845703125,-0.413320312500001,-4.70808203125,-2.66614453125,-2.2873203125,0.0572148437500006,-1.41915234375,0.190925781249998,-2.0474453125,1.0932578125,2.95216796875,0.497187500000001,0.427656249999998,9.24195703125,3.3386015625,1.55308203125,4.64392578125,4.4184140625
20.845390625,17.71583984375,16.88273828125,7.33878515625,5.67843359375,1.61816015625,0.13287109375,5.8474140625,5.67095703125,-6.03728125,-3.59966796875,4.73112890625,7.00945703125,0.5036796875,-3.60608203125,-1.21114453125,-3.0403203125,1.21521484375,-0.0261523437499989,1.83492578125,-0.0114453124999994,2.6382578125,4.66616796875,2.6401875,2.81865625,8.43495703125,6.3006015625,2.50308203125,5.83692578125,5.6564140625
21.264390625,18.33683984375,17.79273828125,7.51978515625,6.43843359375,2.31616015625,1.29187109375,6.1854140625,6.52295703125,-4.90928125,-2.45066796875,8.00212890625,7.66045703125,1.4336796875,-2.56308203125,0.063855468749999,-3.2133203125,2.57121484375,1.29184765625,3.21392578125,2.0355546875,4.3722578125,6.20916796875,4.6691875,4.92965625,6.96195703125,8.8486015625,2.83608203125,6.70792578125,6.4474140625
21.305390625,18.85383984375,18.97573828125,7.73578515625,7.21343359375,3.19416015625,2.45987109375,6.3264140625,7.42995703125,-3.67428125,-1.12166796875,9.95312890625,8.47845703125,2.4036796875,-1.48708203125,1.14285546875,-2.7853203125,3.98521484375,2.48584765625,4.24492578125,3.6925546875,6.0662578125,7.45116796875,6.4501875,6.46565625,5.11795703125,10.6886015625,2.68308203125,7.23292578125,6.6524140625
20.990390625,19.18983984375,20.04773828125,8.05778515625,8.06443359375,4.39116015625,3.66787109375,6.3974140625,8.29495703125,-2.28928125,0.49333203125,10.22912890625,9.28745703125,3.3986796875,-0.270082031249999,2.10185546875,-1.8423203125,5.22921484375,3.51384765625,4.96892578125,4.8295546875,7.2622578125,8.28916796875,7.8751875,7.31265625,3.11895703125,11.6326015625,2.12008203125,7.32992578125,6.1734140625
20.398390625,19.25083984375,20.56173828125,8.56678515625,8.98943359375,5.94316015625,4.93787109375,6.5624140625,9.02595703125,-0.79828125,2.39833203125,8.91312890625,9.87245703125,4.3556796875,1.11691796875,3.00185546875,-0.560320312500001,6.02121484375,4.33884765625,5.47892578125,5.4895546875,7.4172578125,8.65316796875,8.8611875,7.50965625,1.19595703125,11.6556015625,1.20708203125,6.90592578125,5.0024140625
19.556390625,18.88183984375,20.09873828125,9.26878515625,9.87943359375,7.68916015625,6.19187109375,6.8804140625,9.55695703125,0.64971875,4.42933203125,6.48512890625,10.05045703125,5.1856796875,2.58091796875,3.80885546875,0.7956796875,6.15321484375,4.93884765625,5.83592578125,5.6835546875,6.2342578125,8.55516796875,9.3721875,7.17165625,-0.29904296875,10.9156015625,0.0930820312499998,5.97492578125,3.2744140625
18.379390625,17.87583984375,18.37873828125,10.06078515625,10.55443359375,9.30616015625,7.25987109375,7.2584140625,9.86295703125,1.86171875,6.29233203125,3.73712890625,9.75145703125,5.8296796875,3.94291796875,4.41585546875,1.9046796875,5.65221484375,5.32484765625,6.04892578125,5.3025546875,3.9392578125,8.13116796875,9.4591875,6.42965625,-0.97504296875,9.7306015625,-0.93891796875,4.71992578125,1.2914140625
16.736390625,16.09083984375,15.40973828125,10.78478515625,10.84843359375,10.44916015625,7.95887109375,7.5264140625,9.97595703125,2.68271875,7.69033203125,1.58012890625,9.08545703125,6.2866796875,5.02291796875,4.72085546875,2.4956796875,4.83521484375,5.54884765625,6.10992578125,4.2305546875,1.2632578125,7.63216796875,9.2581875,5.42165625,-0.66904296875,8.4986015625,-1.57991796875,3.43892578125,-0.550585937499999
14.569390625,13.58783984375,11.57873828125,11.30978515625,10.69943359375,10.91316015625,8.20987109375,7.5714140625,9.96995703125,3.07571875,8.45633203125,0.72012890625,8.33145703125,6.6156796875,5.71491796875,4.70985546875,2.4736796875,4.18521484375,5.68484765625,6.04392578125,2.5465546875,-0.9007421875,7.31816796875,8.9441875,4.30965625,0.32195703125,7.5676015625,-1.67791796875,2.40292578125,-1.9035859375
11.997390625,10.69183984375,7.60573828125,11.56578515625,10.19043359375,10.72516015625,8.10287109375,7.3984140625,9.91795703125,3.14171875,8.62733203125,1.34812890625,7.84345703125,6.9106796875,6.03291796875,4.48485546875,1.9826796875,4.09821484375,5.79984765625,5.92192578125,0.6365546875,-1.9597421875,7.31716796875,8.6621875,3.27865625,1.28695703125,7.1226015625,-1.34991796875,1.73692578125,-2.5995859375
9.337390625,7.93483984375,4.33173828125,11.53278515625,9.52743359375,10.12816015625,7.84987109375,7.1044140625,9.85795703125,3.10071875,8.42233203125,3.07612890625,7.89045703125,7.2576796875,6.10591796875,4.20985546875,1.3426796875,4.67021484375,5.93984765625,5.83492578125,-0.939445312499998,-1.8637421875,7.55716796875,8.4781875,2.49465625,1.43195703125,7.1316015625,-0.93691796875,1.39492578125,-2.6855859375
7.082390625,5.89683984375,2.46673828125,11.21978515625,8.98143359375,9.48816015625,7.67787109375,6.8084140625,9.77595703125,3.23071875,8.13833203125,5.19212890625,8.50845703125,7.7106796875,6.13191796875,4.04485546875,0.862679687499999,5.64321484375,6.12284765625,5.85492578125,-1.7244453125,-1.0307421875,7.81916796875,8.3781875,2.04365625,0.31495703125,7.3976015625,-0.82191796875,1.23892578125,-2.3685859375
5.801390625,5.04583984375,2.39273828125,10.65578515625,8.80443359375,9.17016015625,7.72487109375,6.5814140625,9.61795703125,3.77171875,8.05733203125,7.05412890625,9.45945703125,8.2706796875,6.31791796875,4.10385546875,0.6786796875,6.55421484375,6.35384765625,6.02592578125,-1.5814453125,-0.0367421875,7.88216796875,8.3071875,1.92565625,-1.90004296875,7.6786015625,-1.22091796875,1.15692578125,-1.8755859375
5.970390625,5.60583984375,4.07473828125,9.87978515625,9.15543359375,9.42516015625,8.01787109375,6.4014140625,9.29795703125,4.83971875,8.36633203125,8.33712890625,10.32745703125,8.8896796875,6.81791796875,4.46385546875,0.7076796875,6.98921484375,6.63984765625,6.38092578125,-0.710445312499999,0.6842578125,7.67316796875,8.2211875,2.10865625,-4.47004296875,7.8206015625,-2.05291796875,1.14592578125,-1.3215859375
7.719390625,7.42783984375,7.03973828125,8.92178515625,10.02843359375,10.29616015625,8.49487109375,6.1744140625,8.69795703125,6.34171875,9.12033203125,9.00412890625,10.71345703125,9.4616796875,7.67691796875,5.16185546875,0.7586796875,6.75821484375,6.98484765625,6.94292578125,0.5275546875,0.9802578125,7.28016796875,8.1261875,2.57865625,-6.39604296875,7.8116015625,-2.96691796875,1.31392578125,-0.6525859375
10.575390625,9.88183984375,10.38773828125,7.76978515625,11.17743359375,11.53916015625,8.99887109375,5.7964140625,7.68395703125,7.94471875,10.17633203125,9.12712890625,10.39845703125,9.8046796875,8.75391796875,6.14585546875,0.6936796875,5.92121484375,7.33384765625,7.66692578125,1.8045546875,0.9122578125,6.83016796875,8.0241875,3.32665625,-6.88404296875,7.7236015625,-3.54791796875,1.77792578125,0.2694140625
13.346390625,11.84483984375,12.85473828125,6.37478515625,12.08043359375,12.59216015625,9.23587109375,5.2064140625,6.12695703125,9.08971875,11.14833203125,8.73112890625,9.39345703125,9.6386796875,9.66591796875,7.17585546875,0.5376796875,4.64321484375,7.48884765625,8.35192578125,2.9045546875,0.5822578125,6.30216796875,7.8091875,4.23565625,-5.74204296875,7.5586015625,-3.56691796875,2.51392578125,1.4824140625
14.319390625,11.92083984375,13.00473828125,4.68978515625,12.02743359375,12.65516015625,8.77087109375,4.4194140625,3.95095703125,9.11071875,11.44033203125,7.77112890625,7.86745703125,8.6226796875,9.82691796875,7.79085546875,0.456679687499999,3.03221484375,7.06484765625,8.58992578125,3.6535546875,0.0122578125,5.43616796875,7.1811875,4.96665625,-3.46804296875,7.1116015625,-3.14491796875,3.26292578125,2.7674140625
11.858390625,8.94283984375,9.66973828125,2.76178515625,10.36843359375,10.96316015625,7.13787109375,3.5064140625,1.20395703125,7.45571875,10.42333203125,6.20912890625,6.06545703125,6.4796796875,8.63291796875,7.40785546875,0.6276796875,1.07821484375,5.59884765625,7.84992578125,3.8065546875,-0.8537421875,3.84916796875,5.7021875,4.96965625,-0.99304296875,5.9826015625,-2.70891796875,3.58492578125,3.6454140625
5.308390625,2.65983984375,2.62073828125,0.81278515625,6.88743359375,7.20516015625,4.09987109375,2.5974140625,-1.86304296875,3.98671875,7.76033203125,4.13112890625,4.24745703125,3.1946796875,5.76591796875,5.59885546875,1.0776796875,-1.24478515625,2.79984765625,5.74592578125,3.0625546875,-2.0457421875,1.28716796875,3.0361875,3.71765625,0.778957031250001,3.7886015625,-2.76091796875,3.06392578125,3.5914140625
-4.249609375,-5.75316015625,-6.85326171875,-0.76521484375,2.09543359375,1.89016015625,-0.0701289062499999,1.8644140625,-4.78004296875,-0.79528125,3.71333203125,1.82112890625,2.67445703125,-0.820320312500001,1.48291796875,2.40185546875,1.6216796875,-3.80478515625,-1.16715234375,2.33492578125,1.2985546875,-3.4547421875,-2.10783203125,-0.7488125,1.07465625,1.35195703125,0.4776015625,-3.58991796875,1.56892578125,2.3704140625
-14.067609375,-13.85016015625,-16.03426171875,-1.57421484375,-2.81156640625,-3.66283984375,-4.51712890625,1.4844140625,-6.97704296875,-5.78728125,-0.80366796875,-0.25487109375,1.57445703125,-4.7553203125,-3.33308203125,-1.53414453125,1.9436796875,-6.21278515625,-5.57415234375,-1.74407421875,-1.1664453125,-4.7967421875,-5.73783203125,-5.0248125,-2.45834375,0.775957031250001,-3.4723984375,-5.08191796875,-0.588074218749999,0.2594140625
-20.889609375,-18.92316015625,-21.85726171875,-1.46121484375,-6.43656640625,-7.84183984375,-8.08812890625,1.5394140625,-8.02704296875,-9.69028125,-4.56166796875,-1.60487109375,1.08245703125,-7.6753203125,-7.47108203125,-5.14614453125,1.7856796875,-7.93278515625,-9.35115234375,-5.47907421875,-3.5724453125,-5.7057421875,-8.75683203125,-8.7818125,-5.86934375,-0.46204296875,-7.1723984375,-6.77991796875,-2.74707421875,-2.0075859375
-22.632609375,-19.39816015625,-22.49126171875,-0.67421484375,-7.86756640625,-9.53183984375,-9.88012890625,1.9284140625,-7.88004296875,-11.59728125,-6.60766796875,-1.95887109375,1.17745703125,-8.9503203125,-9.94908203125,-7.44914453125,1.0996796875,-8.55578515625,-11.56715234375,-7.95507421875,-5.0934453125,-5.9127421875,-10.44983203125,-11.0778125,-8.12434375,-1.68204296875,-9.7183984375,-8.12591796875,-4.21607421875,-3.6055859375
-19.457609375,-15.68316015625,-18.34726171875,0.23978515625,-7.12456640625,-8.65583984375,-9.70312890625,2.3704140625,-6.90204296875,-11.39528125,-6.71966796875,-1.44787109375,1.67745703125,-8.5553203125,-10.46708203125,-8.01614453125,0.0816796874999994,-8.05178515625,-11.86215234375,-8.78507421875,-5.3164453125,-5.3917421875,-10.55083203125,-11.4778125,-8.68634375,-2.27304296875,-10.6053984375,-8.69691796875,-4.58707421875,-4.0245859375
-13.539609375,-9.88716015625,-11.80426171875,0.71578515625,-5.07556640625,-6.12483984375,-8.12812890625,2.5204140625,-5.69204296875,-9.73228125,-5.44266796875,-0.55887109375,2.31145703125,-7.0523203125,-9.46608203125,-7.12314453125,-0.900320312500001,-6.80578515625,-10.55615234375,-8.21107421875,-4.4444453125,-4.3737421875,-9.29583203125,-10.1948125,-7.71534375,-1.88304296875,-9.8813984375,-8.31291796875,-3.87007421875,-3.2615859375
-7.810609375,-4.65716015625,-5.89426171875,0.45478515625,-2.92556640625,-3.30183984375,-6.12512890625,2.1324140625,-4.80604296875,-7.61128125,-3.71166796875,0.11112890625,2.82145703125,-5.2733203125,-7.80008203125,-5.50714453125,-1.4553203125,-5.43478515625,-8.41715234375,-6.87207421875,-3.0784453125,-3.2437421875,-7.24683203125,-7.9018125,-5.86434375,-0.52504296875,-8.0173984375,-7.01291796875,-2.40107421875,-1.7175859375
-4.566609375,-1.95216015625,-2.86626171875,-0.49021484375,-1.64956640625,-1.34483984375,-4.57112890625,1.1714140625,-4.55004296875,-5.91028125,-2.37266796875,0.14112890625,3.03345703125,-3.9423203125,-6.26908203125,-3.94414453125,-1.3463203125,-4.50078515625,-6.27615234375,-5.42307421875,-1.8134453125,-2.3777421875,-5.02083203125,-5.3818125,-3.87434375,1.41395703125,-5.6373984375,-5.01991796875,-0.64607421875,0.0584140625000007
-4.689609375,-2.40616015625,-3.41926171875,-1.83521484375,-1.66256640625,-0.811839843750001,-3.93712890625,-0.1655859375,-4.92904296875,-5.08228125,-1.86266796875,-0.53887109375,2.88745703125,-3.4123203125,-5.31808203125,-2.92114453125,-0.6333203125,-4.29478515625,-4.71615234375,-4.26507421875,-0.927445312499999,-1.9957421875,-3.10283203125,-3.2338125,-2.25834375,3.26495703125,-3.2783984375,-2.71691796875,0.966925781250001,1.6054140625
-7.670609375,-5.41116015625,-6.80226171875,-3.25821484375,-2.81556640625,-1.62183984375,-4.21712890625,-1.5335859375,-5.71804296875,-5.12028125,-2.15166796875,-1.63587109375,2.44745703125,-3.6113203125,-4.98108203125,-2.51614453125,0.3296796875,-4.75378515625,-3.93415234375,-3.47207421875,-0.346445312499998,-2.0907421875,-1.73883203125,-1.7188125,-1.18234375,4.32295703125,-1.2633984375,-0.564917968750001,2.16092578125,2.6634140625
-12.177609375,-9.66516015625,-11.47226171875,-4.55421484375,-4.59256640625,-3.26983984375,-5.06912890625,-2.5915859375,-6.59704296875,-5.70028125,-2.87766796875,-2.66387109375,1.89945703125,-4.1563203125,-5.01008203125,-2.49414453125,1.0636796875,-5.52378515625,-3.76615234375,-2.88607421875,0.173554687500001,-2.4397421875,-0.933832031249999,-0.779812499999999,-0.532343750000001,4.19295703125,0.312601562499999,1.04308203125,2.84492578125,3.1794140625
-16.788609375,-13.83416015625,-15.90826171875,-5.66421484375,-6.37756640625,-5.12383984375,-6.02712890625,-3.1425859375,-7.27604296875,-6.39328125,-3.56866796875,-3.19887109375,1.49945703125,-4.5683203125,-5.07308203125,-2.50814453125,1.2236796875,-6.12778515625,-3.83715234375,-2.28307421875,0.805554687500001,-2.7087421875,-0.505832031249999,-0.1608125,-0.070343750000001,3.03895703125,1.5246015625,1.93908203125,3.10392578125,3.2714140625
-20.538609375,-17.05516015625,-19.18426171875,-6.60721484375,-7.68856640625,-6.66983984375,-6.71412890625,-3.2065859375,-7.58004296875,-6.84328125,-3.85466796875,-3.11687109375,1.47145703125,-4.4883203125,-4.91308203125,-2.31014453125,0.7816796875,-6.16878515625,-3.76515234375,-1.52007421875,1.5115546875,-2.5797421875,-0.188832031249999,0.4221875,0.41565625,1.52195703125,2.5016015625,2.23508203125,3.13292578125,3.1474140625
-23.113609375,-19.11116015625,-21.15526171875,-7.40321484375,-8.30356640625,-7.63583984375,-6.95412890625,-2.9745859375,-7.47004296875,-6.87328125,-3.58766796875,-2.62187109375,1.90245703125,-3.8183203125,-4.42508203125,-1.84114453125,0.0356796874999992,-5.48578515625,-3.32315234375,-0.585074218750002,2.0765546875,-1.8517421875,0.256167968750001,1.1381875,1.02865625,0.42895703125,3.3386015625,2.23708203125,3.14092578125,3.0214140625
-24.666609375,-20.23316015625,-22.20926171875,-8.01821484375,-8.26156640625,-7.97683984375,-6.75612890625,-2.6815859375,-7.02104296875,-6.47828125,-2.82766796875,-2.05087109375,2.69945703125,-2.7203203125,-3.62508203125,-1.19114453125,-0.5663203125,-4.19178515625,-2.49115234375,0.433925781249998,2.2885546875,-0.5107421875,0.961167968750001,2.0071875,1.76165625,0.23995703125,4.0506015625,2.25508203125,3.25792578125,3.0294140625
-25.424609375,-20.72116015625,-22.77026171875,-8.35921484375,-7.75356640625,-7.78683984375,-6.22312890625,-2.4745859375,-6.36204296875,-5.76228125,-1.77266796875,-1.56587109375,3.65745703125,-1.4913203125,-2.59808203125,-0.484144531250001,-0.6753203125,-2.59878515625,-1.42115234375,1.42492578125,2.0985546875,1.2322578125,1.90216796875,2.9271875,2.54465625,0.903957031250001,4.5836015625,2.43008203125,3.47392578125,3.1814140625
-25.387609375,-20.65116015625,-22.90326171875,-8.29721484375,-6.99156640625,-7.20383984375,-5.47512890625,-2.3405859375,-5.62204296875,-4.86428125,-0.66666796875,-1.01887109375,4.55745703125,-0.4313203125,-1.47008203125,0.197855468749999,-0.222320312500001,-1.09178515625,-0.348152343749998,2.29092578125,1.6675546875,2.9512578125,2.90516796875,3.7441875,3.27965625,1.92595703125,4.8436015625,2.68008203125,3.65692578125,3.3594140625
-24.339609375,-19.87116015625,-22.26226171875,-7.72421484375,-6.14456640625,-6.38183984375,-4.63012890625,-2.1545859375,-4.91504296875,-3.93328125,0.24033203125,-0.14587109375,5.24145703125,0.264679687499999,-0.40908203125,0.801855468749999,0.588679687499999,-0.000785156249999197,0.493847656250001,2.94792578125,1.2695546875,4.1262578125,3.69716796875,4.2931875,3.84965625,2.65195703125,4.7476015625,2.78908203125,3.63292578125,3.3744140625
-22.121609375,-18.22716015625,-20.42126171875,-6.62821484375,-5.32856640625,-5.49383984375,-3.80712890625,-1.8015859375,-4.34304296875,-3.11528125,0.752332031250001,1.09612890625,5.63445703125,0.538679687499998,0.386917968750002,1.27185546875,1.4526796875,0.504214843750001,0.943847656250002,3.31092578125,1.1515546875,4.3572578125,4.02216796875,4.4581875,4.13365625,2.57595703125,4.2666015625,2.58408203125,3.31792578125,3.0764140625
-18.932609375,-15.80516015625,-17.30526171875,-5.15021484375,-4.63456640625,-4.72283984375,-3.12112890625,-1.2775859375,-3.99704296875,-2.54828125,0.77933203125,2.37212890625,5.73645703125,0.463679687499999,0.755917968750001,1.53585546875,2.1546796875,0.46621484375,0.968847656250002,3.30292578125,1.4185546875,3.5922578125,3.77116796875,4.2171875,4.04365625,1.56595703125,3.4766015625,2.08508203125,2.80392578125,2.4694140625
-15.414609375,-13.03816015625,-13.43226171875,-3.56021484375,-4.15656640625,-4.23583984375,-2.66912890625,-0.6965859375,-3.93804296875,-2.32928125,0.37833203125,3.17512890625,5.62845703125,0.1836796875,0.633917968750001,1.53785546875,2.6476796875,0.119214843750001,0.661847656250002,2.89692578125,1.9685546875,2.1972578125,3.05916796875,3.6601875,3.55265625,-0.0550429687499996,2.5576015625,1.51808203125,2.33392578125,1.7424140625
-12.478609375,-10.62716015625,-9.80426171875,-2.17821484375,-3.99556640625,-4.15183984375,-2.54212890625,-0.2305859375,-4.17104296875,-2.50928125,-0.302667968749999,3.21812890625,5.44445703125,-0.1723203125,0.0569179687500014,1.25385546875,2.9646796875,-0.23878515625,0.163847656250001,2.12292578125,2.4955546875,0.7772578125,2.14716796875,2.9281875,2.68865625,-1.63304296875,1.7066015625,1.17708203125,2.14792578125,1.1724140625
-10.954609375,-9.28816015625,-7.49926171875,-1.28121484375,-4.25156640625,-4.53783984375,-2.83412890625,-0.0395859374999998,-4.65804296875,-3.10828125,-1.12866796875,2.66012890625,5.30245703125,-0.582320312500001,-0.897082031249999,0.669855468749999,3.0866796875,-0.431785156249999,-0.446152343749999,1.04092578125,2.5805546875,-0.1557421875,1.26516796875,2.0861875,1.49865625,-2.48604296875,0.9976015625,1.19608203125,2.30492578125,0.951414062500001
-11.277609375,-9.47116015625,-7.19926171875,-1.04321484375,-4.98956640625,-5.41683984375,-3.61412890625,-0.2525859375,-5.35804296875,-4.13628125,-2.06666796875,1.96712890625,5.21745703125,-1.1513203125,-2.18608203125,-0.240144531250001,2.8916796875,-0.51778515625,-1.22715234375,-0.328074218750002,1.8815546875,-0.4727421875,0.438167968750001,1.0291875,0.0146562499999998,-2.25804296875,0.2866015625,1.40108203125,2.59292578125,1.0434140625
-13.339609375,-11.18216015625,-8.92326171875,-1.50621484375,-6.19656640625,-6.75483984375,-4.87412890625,-0.9495859375,-6.24504296875,-5.58628125,-3.18166796875,1.50612890625,5.07045703125,-2.0493203125,-3.81408203125,-1.52014453125,2.2096796875,-0.756785156249999,-2.34915234375,-2.00507421875,0.291554687500001,-0.4407421875,-0.525832031249998,-0.4798125,-1.76834375,-1.11404296875,-0.748398437500001,1.34008203125,2.60292578125,1.1664140625
-16.576609375,-14.02916015625,-12.09426171875,-2.55921484375,-7.77456640625,-8.44083984375,-6.50112890625,-2.1465859375,-7.29304296875,-7.38828125,-4.55466796875,1.21912890625,4.67245703125,-3.3923203125,-5.78108203125,-3.18714453125,0.9576796875,-1.42978515625,-3.96915234375,-4.00707421875,-1.9974453125,-0.4597421875,-1.87983203125,-2.6398125,-3.86734375,0.35495703125,-2.4223984375,0.52608203125,1.93792578125,0.917414062500001
-20.188609375,-17.39716015625,-15.81426171875,-3.95521484375,-9.54556640625,-10.27683984375,-8.28712890625,-3.7635859375,-8.42904296875,-9.37428125,-6.16266796875,0.62412890625,3.90545703125,-5.1273203125,-7.99008203125,-5.16114453125,-0.759320312500001,-2.62578515625,-6.09215234375,-6.24407421875,-4.5884453125,-0.7287421875,-3.69383203125,-5.4118125,-6.23634375,1.45195703125,-4.8063984375,-1.24091796875,0.448925781250001,-0.0125859374999999
-23.342609375,-20.59116015625,-19.14126171875,-5.35621484375,-11.26056640625,-11.98083984375,-9.95512890625,-5.6065859375,-9.49804296875,-11.26628125,-7.81366796875,-0.83687109375,2.83045703125,-6.9893203125,-10.19808203125,-7.21314453125,-2.6133203125,-4.13278515625,-8.47915234375,-8.46807421875,-7.0064453125,-1.1167421875,-5.71883203125,-8.4198125,-8.67734375,1.71695703125,-7.5773984375,-3.67591796875,-1.64107421875,-1.6515859375
-25.297609375,-22.91616015625,-21.25126171875,-6.40521484375,-12.61456640625,-13.22483984375,-11.19712890625,-7.3555859375,-10.27604296875,-12.72528125,-9.16766796875,-3.35287109375,1.70345703125,-8.5673203125,-12.02808203125,-8.98214453125,-4.1553203125,-5.52078515625,-10.68615234375,-10.29907421875,-8.7934453125,-1.3077421875,-7.45383203125,-11.0248125,-10.78034375,1.06395703125,-10.0833984375,-6.07691796875,-3.78907421875,-3.6875859375
-25.496609375,-23.75716015625,-21.55426171875,-6.80321484375,-13.28156640625,-13.69783984375,-11.73512890625,-8.5885859375,-10.52804296875,-13.44328125,-9.85766796875,-6.46987109375,0.86045703125,-9.4623203125,-13.08208203125,-10.07314453125,-4.9743203125,-6.34178515625,-12.23315234375,-11.33907421875,-9.5454453125,-1.0867421875,-8.39383203125,-12.5658125,-12.01034375,-0.31704296875,-11.5913984375,-7.65591796875,-5.35607421875,-5.5805859375
-23.718609375,-22.75316015625,-19.83126171875,-6.39621484375,-13.01456640625,-13.20383984375,-11.40412890625,-8.8795859375,-10.10404296875,-13.24228125,-9.64266796875,-9.17687109375,0.54145703125,-9.4643203125,-13.09308203125,-10.19914453125,-4.8623203125,-6.35278515625,-12.78815234375,-11.33307421875,-8.9854453125,-0.5347421875,-8.28183203125,-12.6258125,-11.91534375,-2.14004296875,-11.5903984375,-7.92391796875,-5.87807421875,-6.7995859375
-20.241609375,-20.00116015625,-16.37726171875,-5.25521484375,-11.77956640625,-11.76083984375,-10.24312890625,-7.9945859375,-9.02204296875,-12.15728125,-8.52166796875,-10.32587109375,0.74845703125,-8.6503203125,-12.05208203125,-9.29114453125,-3.8793203125,-5.62978515625,-12.30315234375,-10.29207421875,-7.0874453125,-0.00474218750000005,-7.23483203125,-11.2098125,-10.37234375,-4.11604296875,-10.0223984375,-6.92191796875,-5.25807421875,-7.0475859375
-15.858609375,-16.12716015625,-11.99526171875,-3.70121484375,-9.83156640625,-9.65283984375,-8.52912890625,-6.0695859375,-7.50604296875,-10.45328125,-6.76466796875,-9.22087109375,1.22445703125,-7.3593203125,-10.24908203125,-7.56214453125,-2.3283203125,-4.53878515625,-11.01915234375,-8.52907421875,-4.2244453125,0.0632578125,-5.69183203125,-8.7668125,-7.72734375,-5.91004296875,-7.3153984375,-5.18591796875,-3.81507421875,-6.3875859375
-11.647609375,-12.12616015625,-7.75726171875,-2.21321484375,-7.68056640625,-7.36083984375,-6.73712890625,-3.6505859375,-5.93104296875,-8.57628125,-4.84166796875,-6.05287109375,1.56445703125,-6.0593203125,-8.20408203125,-5.47614453125,-0.663320312500001,-3.59778515625,-9.38215234375,-6.56807421875,-1.1834453125,-0.6377421875,-4.24483203125,-6.0438125,-4.73834375,-7.12104296875,-4.2423984375,-3.49791796875,-2.16307421875,-5.2135859375
-8.593609375,-9.01816015625,-4.62326171875,-1.26421484375,-5.92356640625,-5.42583984375,-5.40612890625,-1.5135859375,-4.68804296875,-7.02728125,-3.28066796875,-1.94087109375,1.40345703125,-5.1733203125,-6.50508203125,-3.63614453125,0.636679687499999,-3.26578515625,-7.88515234375,-4.97507421875,1.0475546875,-2.1237421875,-3.41783203125,-3.8328125,-2.30634375,-7.38404296875,-1.6433984375,-2.54591796875,-0.96507421875,-4.0715859375
-7.225609375,-7.46516015625,-3.11026171875,-1.15621484375,-5.02456640625,-4.26783984375,-4.94412890625,-0.3555859375,-4.04904296875,-6.19328125,-2.47966796875,1.50812890625,0.61045703125,-4.9363203125,-5.59808203125,-2.58914453125,1.2156796875,-3.73378515625,-6.90915234375,-4.14807421875,1.7055546875,-4.0717421875,-3.47383203125,-2.6908125,-1.10834375,-6.59004296875,-0.116398437500001,-2.62291796875,-0.64607421875,-3.4165859375
-7.476609375,-7.54116015625,-3.16226171875,-1.93521484375,-5.12456640625,-4.05383984375,-5.44712890625,-0.4965859375,-4.05904296875,-6.19928125,-2.55166796875,2.90812890625,-0.61054296875,-5.3053203125,-5.61008203125,-2.60114453125,0.9736796875,-4.81478515625,-6.58015234375,-4.17007421875,0.646554687500002,-5.8847421875,-4.28183203125,-2.7278125,-1.30634375,-5.00804296875,0.190601562499999,-3.50391796875,-1.19207421875,-3.3915859375
-8.803609375,-8.78316015625,-4.27926171875,-3.38021484375,-5.98156640625,-4.64483984375,-6.64212890625,-1.7525859375,-4.52004296875,-6.84128125,-3.27266796875,1.71912890625,-1.77654296875,-5.9783203125,-6.29708203125,-3.53414453125,0.0866796874999993,-5.99578515625,-6.73215234375,-4.77807421875,-1.5584453125,-6.8677421875,-5.34283203125,-3.5808125,-2.50134375,-3.18104296875,-0.392398437500001,-4.55791796875,-2.16207421875,-3.7815859375
-10.500609375,-10.47916015625,-5.83726171875,-5.08621484375,-7.09156640625,-5.65583984375,-8.01612890625,-3.5455859375,-5.06704296875,-7.67028125,-4.18366796875,-1.52187109375,-2.35254296875,-6.5203203125,-7.15408203125,-4.90514453125,-1.1053203125,-6.65178515625,-6.99115234375,-5.49207421875,-3.9394453125,-6.4887421875,-5.97783203125,-4.5948125,-3.95934375,-1.62504296875,-1.2493984375,-5.05591796875,-2.91007421875,-4.1525859375
-12.045609375,-12.03316015625,-7.39326171875,-6.61921484375,-7.92456640625,-6.61283984375,-9.05412890625,-5.2075859375,-5.32904296875,-8.19028125,-4.79466796875,-5.44387109375,-2.03354296875,-6.5473203125,-7.64408203125,-6.10314453125,-2.3083203125,-6.33978515625,-6.96515234375,-5.83307421875,-5.6534453125,-4.6157421875,-5.63983203125,-5.1358125,-4.97834375,-0.57104296875,-1.7733984375,-4.52391796875,-2.92007421875,-4.1135859375
-13.275609375,-13.17816015625,-8.83326171875,-7.68321484375,-8.15456640625,-7.12883984375,-9.44712890625,-6.2905859375,-5.09904296875,-8.07528125,-4.78666796875,-8.44087109375,-0.94354296875,-5.8883203125,-7.42208203125,-6.65514453125,-3.3853203125,-5.00378515625,-6.41915234375,-5.52507421875,-6.3564453125,-1.6047421875,-4.17283203125,-4.8708125,-5.17534375,0.0559570312500002,-1.6253984375,-2.95391796875,-2.04207421875,-3.5215859375
-14.311609375,-13.94816015625,-10.26626171875,-8.20921484375,-7.76456640625,-7.02883984375,-9.15912890625,-6.6915859375,-4.40404296875,-7.28028125,-4.11466796875,-9.34287109375,0.38245703125,-4.6353203125,-6.46208203125,-6.39114453125,-4.3263203125,-2.98778515625,-5.37015234375,-4.60207421875,-6.2024453125,1.8192578125,-1.90683203125,-3.8748125,-4.56334375,0.43295703125,-0.8453984375,-0.77591796875,-0.535074218749999,-2.5365859375
-15.317609375,-14.49416015625,-11.79126171875,-8.30921484375,-6.98056640625,-6.37583984375,-8.36512890625,-6.5705859375,-3.45104296875,-6.02228125,-2.98166796875,-7.90487109375,1.23445703125,-3.0993203125,-5.03308203125,-5.47714453125,-5.0873203125,-0.869785156249999,-4.06115234375,-3.34807421875,-5.5794453125,4.8272578125,0.488167968750001,-2.5398125,-3.44734375,0.647957031250001,0.220601562499999,1.35908203125,1.08892578125,-1.5025859375
-16.305609375,-14.90716015625,-13.32226171875,-8.15921484375,-6.11656640625,-5.40083984375,-7.34112890625,-6.1485859375,-2.49904296875,-4.64828125,-1.72366796875,-4.86887109375,1.06145703125,-1.6763203125,-3.56208203125,-4.29514453125,-5.4933203125,0.771214843750001,-2.85315234375,-2.16707421875,-4.8194453125,6.7562578125,2.27016796875,-1.3728125,-2.24834375,0.65595703125,1.0986015625,2.85508203125,2.30692578125,-0.758585937499999
-17.118609375,-15.15816015625,-14.58126171875,-7.90921484375,-5.42356640625,-4.41383984375,-6.35512890625,-5.5675859375,-1.76004296875,-3.48828125,-0.65966796875,-1.57287109375,-0.25254296875,-0.717320312500001,-2.44708203125,-3.25114453125,-5.2793203125,1.54821484375,-2.08315234375,-1.40707421875,-4.0684453125,7.2512578125,2.91116796875,-0.789812499999999,-1.33434375,0.39295703125,1.3766015625,3.35908203125,2.78392578125,-0.492585937499999
-17.538609375,-15.14016015625,-15.22026171875,-7.64521484375,-5.01556640625,-3.69183984375,-5.59912890625,-4.8695859375,-1.37904296875,-2.75728125,0.0143320312500013,0.68812890625,-2.32254296875,-0.416320312500001,-1.90808203125,-2.59714453125,-4.2763203125,1.35021484375,-1.94515234375,-1.23407421875,-3.3134453125,6.2972578125,2.26316796875,-0.9858125,-0.90534375,-0.11804296875,0.842601562499999,2.82008203125,2.46692578125,-0.6905859375
-17.398609375,-14.75416015625,-14.99426171875,-7.39421484375,-4.88256640625,-3.40583984375,-5.16812890625,-4.0495859375,-1.44004296875,-2.52728125,0.252332031250001,1.18712890625,-4.44754296875,-0.783320312500001,-1.95508203125,-2.35214453125,-2.5913203125,0.32221484375,-2.44815234375,-1.59007421875,-2.4744453125,4.1522578125,0.566167968750001,-1.9068125,-0.945343750000001,-0.74304296875,-0.4553984375,1.44808203125,1.55392578125,-1.1845859375
-16.676609375,-14.00716015625,-13.90126171875,-7.15721484375,-4.96856640625,-3.60383984375,-5.08912890625,-3.1385859375,-1.97404296875,-2.76828125,0.108332031250001,-0.0668710937500001,-5.94154296875,-1.6793203125,-2.45408203125,-2.36114453125,-0.6253203125,-1.22478515625,-3.44115234375,-2.25207421875,-1.5124453125,1.2652578125,-1.68183203125,-3.3138125,-1.26834375,-1.26804296875,-2.2363984375,-0.370917968750001,0.379925781250001,-1.7495859375
-15.577609375,-13.08816015625,-12.29226171875,-6.97421484375,-5.25556640625,-4.25183984375,-5.35112890625,-2.2635859375,-2.94704296875,-3.41128125,-0.344667968749999,-2.50787109375,-6.44154296875,-2.8983203125,-3.24708203125,-2.45614453125,1.0876796875,-2.93778515625,-4.70415234375,-2.96607421875,-0.497445312499999,-1.7987421875,-3.92983203125,-4.8998125,-1.63134375,-1.43704296875,-4.0963984375,-2.17991796875,-0.71707421875,-2.1815859375
-14.606609375,-12.40816015625,-10.89226171875,-6.98321484375,-5.80556640625,-5.29883984375,-5.93612890625,-1.6585859375,-4.25404296875,-4.38828125,-1.07466796875,-5.32287109375,-6.01854296875,-4.2413203125,-4.22808203125,-2.58014453125,2.1176796875,-4.51378515625,-6.02615234375,-3.57607421875,0.3705546875,-4.4317421875,-5.74183203125,-6.3858125,-1.86334375,-1.00204296875,-5.6403984375,-3.55491796875,-1.49607421875,-2.3475859375
-14.500609375,-12.54416015625,-10.65726171875,-7.39421484375,-6.72956640625,-6.70483984375,-6.81912890625,-1.5925859375,-5.71404296875,-5.61728125,-2.07266796875,-7.71787109375,-5.08454296875,-5.5563203125,-5.33608203125,-2.81314453125,2.3096796875,-5.74478515625,-7.24415234375,-4.05907421875,0.834554687500001,-6.0597421875,-6.87983203125,-7.5858125,-1.93934375,0.15395703125,-6.6003984375,-4.19491796875,-1.85507421875,-2.1925859375
-15.944609375,-14.00616015625,-12.38526171875,-8.34021484375,-8.08856640625,-8.39783984375,-7.92812890625,-2.2285859375,-7.11104296875,-6.95928125,-3.28466796875,-9.07787109375,-4.14954296875,-6.7203203125,-6.48408203125,-3.27214453125,1.8186796875,-6.51578515625,-8.23115234375,-4.47507421875,0.714554687500002,-6.2767421875,-7.29483203125,-8.4068125,-1.95134375,1.87995703125,-6.8743984375,-3.97991796875,-1.81507421875,-1.7395859375
-19.150609375,-16.90316015625,-16.24426171875,-9.71821484375,-9.78056640625,-10.19283984375,-9.10812890625,-3.5005859375,-8.24804296875,-8.20328125,-4.54966796875,-9.09187109375,-3.60054296875,-7.6253203125,-7.50208203125,-3.96614453125,1.0186796875,-6.79378515625,-8.87415234375,-4.86407421875,0.0285546875000016,-5.0197421875,-7.07683203125,-8.8248125,-2.02834375,3.75595703125,-6.5103984375,-3.01791796875,-1.47907421875,-1.0795859375
-23.592609375,-20.72416015625,-21.49326171875,-11.14721484375,-11.49656640625,-11.77183984375,-10.11912890625,-5.0845859375,-9.00904296875,-9.09928125,-5.60766796875,-7.83987109375,-3.57954296875,-8.1813203125,-8.14708203125,-4.73714453125,0.341679687499999,-6.63678515625,-9.08415234375,-5.19507421875,-0.993445312499999,-2.7287421875,-6.42783203125,-8.8568125,-2.23834375,5.28295703125,-5.6673984375,-1.64791796875,-1.00007421875,-0.364585937499999
-28.092609375,-24.41816015625,-26.65526171875,-12.10421484375,-12.79856640625,-12.74283984375,-10.70012890625,-6.5025859375,-9.37104296875,-9.43528125,-6.18166796875,-5.77087109375,-4.00654296875,-8.3353203125,-8.19408203125,-5.31714453125,0.0996796874999992,-6.21578515625,-8.82415234375,-5.37407421875,-1.9994453125,-0.3157421875,-5.62783203125,-8.5518125,-2.53434375,6.12495703125,-4.5773984375,-0.37791796875,-0.562074218749999,0.2374140625
-31.240609375,-26.77716015625,-30.06226171875,-12.13721484375,-13.27056640625,-12.77583984375,-10.66712890625,-7.2785859375,-9.35504296875,-9.10328125,-6.08266796875,-3.53587109375,-4.66954296875,-8.0973203125,-7.54108203125,-5.45714453125,0.3586796875,-5.78078515625,-8.14115234375,-5.28507421875,-2.6614453125,1.1442578125,-4.95783203125,-7.9788125,-2.76134375,6.21995703125,-3.4943984375,0.29508203125,-0.31807421875,0.6104140625
-31.923609375,-26.91116015625,-30.50426171875,-11.06121484375,-12.67056640625,-11.73983984375,-9.97812890625,-7.1105859375,-8.97504296875,-8.11728125,-5.27466796875,-1.73487109375,-5.33254296875,-7.5123203125,-6.25508203125,-5.04114453125,0.942679687499999,-5.55378515625,-7.14515234375,-4.84207421875,-2.7614453125,0.9262578125,-4.58283203125,-7.1978125,-2.71234375,5.67595703125,-2.6203984375,0.115082031249999,-0.32107421875,0.7384140625
-29.723609375,-24.57816015625,-27.67326171875,-9.03521484375,-11.01856640625,-9.76083984375,-8.72512890625,-5.9825859375,-8.22404296875,-6.60428125,-3.88466796875,-0.71087109375,-5.79954296875,-6.6233203125,-4.53408203125,-4.11414453125,1.5496796875,-5.58878515625,-5.96115234375,-4.02307421875,-2.2304453125,-0.9427421875,-4.45783203125,-6.2288125,-2.23434375,4.62795703125,-2.0353984375,-0.78091796875,-0.474074218749999,0.723414062500001
-25.048609375,-20.25816015625,-22.24626171875,-6.51021484375,-8.60756640625,-7.19183984375,-7.08812890625,-4.1805859375,-7.13104296875,-4.76728125,-2.16366796875,-0.50687109375,-5.94654296875,-5.4583203125,-2.64008203125,-2.85314453125,1.9266796875,-5.72378515625,-4.68615234375,-2.88107421875,-1.1504453125,-3.6637421875,-4.35583203125,-5.0558125,-1.32534375,3.17795703125,-1.6743984375,-1.90591796875,-0.56807421875,0.7264140625
-18.958609375,-14.96816015625,-15.61126171875,-4.06221484375,-5.90856640625,-4.49383984375,-5.29012890625,-2.1805859375,-5.80804296875,-2.85728125,-0.424667968749999,-0.92487109375,-5.73854296875,-4.0723203125,-0.830082031249999,-1.50614453125,1.9796796875,-5.68478515625,-3.40415234375,-1.54907421875,0.250554687500001,-6.0927421875,-4.02283203125,-3.6828125,-0.175343750000001,1.47695703125,-1.3833984375,-2.66291796875,-0.39507421875,0.875414062500001
-12.778609375,-9.88016015625,-9.35226171875,-2.19221484375,-3.41956640625,-2.08183984375,-3.57012890625,-0.4535859375,-4.45304296875,-1.12128125,1.04033203125,-1.62087109375,-5.22554296875,-2.5853203125,0.700917968750002,-0.323144531250001,1.7836796875,-5.28178515625,-2.20415234375,-0.201074218750001,1.6375546875,-7.3397421875,-3.35283203125,-2.1808125,0.90265625,-0.18104296875,-1.0063984375,-2.65191796875,0.12892578125,1.1994140625
-7.641609375,-5.90516015625,-4.68726171875,-1.17021484375,-1.49656640625,-0.19583984375,-2.12512890625,0.7094140625,-3.28104296875,0.25771875,2.05233203125,-2.19387109375,-4.52354296875,-1.1753203125,1.87391796875,0.52985546875,1.5006796875,-4.52778515625,-1.17615234375,0.997925781249998,2.6725546875,-7.1627421875,-2.44683203125,-0.6878125,1.62665625,-1.35604296875,-0.466398437500001,-1.86491796875,0.91092578125,1.6254140625
-4.162609375,-3.40016015625,-2.09626171875,-0.98421484375,-0.24856640625,1.13516015625,-1.06812890625,1.2744140625,-2.43604296875,1.20971875,2.61133203125,-2.29187109375,-3.76554296875,-0.0113203125000005,2.73891796875,1.03385546875,1.2776796875,-3.61178515625,-0.381152343749999,1.93692578125,3.1345546875,-5.9547421875,-1.53283203125,0.641187500000001,1.88565625,-1.58904296875,0.2126015625,-0.66691796875,1.71792578125,2.0394140625
-2.346609375,-2.17516015625,-1.27526171875,-1.37521484375,0.43543359375,2.02416015625,-0.41012890625,1.4184140625,-1.92904296875,1.77371875,2.85133203125,-1.77987109375,-3.03954296875,0.800679687499999,3.39591796875,1.29185546875,1.1646796875,-2.75278515625,0.158847656250002,2.56092578125,2.9915546875,-4.4007421875,-0.826832031249999,1.6721875,1.77265625,-0.62704296875,0.924601562499999,0.419082031249999,2.26792578125,2.3274140625
-1.760609375,-1.73416015625,-1.42026171875,-1.95921484375,0.76843359375,2.60816015625,-0.0991289062499998,1.3854140625,-1.65704296875,2.02071875,2.93633203125,-0.85887109375,-2.37254296875,1.2406796875,3.88391796875,1.43685546875,1.1036796875,-2.07478515625,0.443847656250002,2.84292578125,2.3795546875,-3.0867421875,-0.444832031249999,2.3071875,1.48165625,1.37795703125,1.5196015625,0.97108203125,2.33592578125,2.3934140625
-1.840609375,-1.59016015625,-1.67326171875,-2.39821484375,0.92243359375,2.94016015625,-0.0581289062499999,1.3404140625,-1.48404296875,1.98971875,2.96633203125,-0.02387109375,-1.74154296875,1.3556796875,4.13791796875,1.53485546875,1.0016796875,-1.56578515625,0.483847656250001,2.76992578125,1.5415546875,-2.2857421875,-0.378832031249999,2.5021875,1.17865625,3.84695703125,1.8706015625,0.87708203125,1.83692578125,2.1534140625
-2.152609375,-1.47416015625,-1.51526171875,-2.53321484375,0.97043359375,3.00016015625,-0.18912890625,1.2994140625,-1.32704296875,1.68771875,2.96833203125,0.20412890625,-1.11054296875,1.2526796875,4.04991796875,1.57485546875,0.830679687499999,-1.13178515625,0.320847656250001,2.37392578125,0.738554687500001,-1.9677421875,-0.530832031249999,2.2981875,0.932656249999999,5.98295703125,1.9336015625,0.371082031249999,0.87892578125,1.5714140625
-2.506609375,-1.38016015625,-0.94826171875,-2.40421484375,0.90943359375,2.76516015625,-0.36912890625,1.1674140625,-1.17504296875,1.16671875,2.95233203125,-0.36287109375,-0.45454296875,1.0896796875,3.59191796875,1.52385546875,0.673679687499999,-0.673785156249999,0.0618476562500021,1.77492578125,0.174554687500001,-1.9107421875,-0.745832031249999,1.8491875,0.74265625,7.10595703125,1.7996015625,-0.0829179687500003,-0.23107421875,0.723414062500001
-2.913609375,-1.47416015625,-0.39126171875,-2.16821484375,0.72143359375,2.29416015625,-0.45612890625,0.8404140625,-1.05804296875,0.586718749999999,2.97133203125,-1.39787109375,0.23745703125,1.0366796875,2.89391796875,1.40085546875,0.653679687499999,-0.130785156249999,-0.131152343749999,1.20492578125,-0.0474453124999989,-1.7977421875,-0.835832031249999,1.4051875,0.609656249999999,6.92795703125,1.6876015625,-0.000917968750000497,-1.04507421875,-0.151585937499999
-3.481609375,-1.96316015625,-0.405261718749999,-2.01121484375,0.39743359375,1.72616015625,-0.33812890625,0.2734140625,-1.00004296875,0.20071875,3.10833203125,-2.20887109375,0.95945703125,1.2256796875,2.21491796875,1.30085546875,0.8086796875,0.53021484375,-0.0911523437499984,0.939925781249999,0.0975546875000006,-1.2687421875,-0.610832031249999,1.2371875,0.612656249999999,5.60695703125,1.8766015625,0.91208203125,-1.11307421875,-0.685585937499999
-4.340609375,-2.97916015625,-1.38326171875,-2.10521484375,-0.0785664062499999,1.20016015625,0.00587109375000017,-0.5035859375,-1.01204296875,0.21971875,3.41933203125,-2.15587109375,1.67545703125,1.6776796875,1.81691796875,1.36585546875,1.0236796875,1.32021484375,0.275847656250001,1.18292578125,0.608554687500002,-0.00874218750000005,0.0701679687500008,1.5351875,0.91565625,3.59295703125,2.5926015625,2.64708203125,-0.15107421875,-0.502585937499999
-5.623609375,-4.56716015625,-3.41026171875,-2.61421484375,-0.77456640625,0.73616015625,0.45087109375,-1.4315859375,-1.12804296875,0.653718749999999,3.84633203125,-1.04787109375,2.29245703125,2.2486796875,1.81291796875,1.70285546875,1.0886796875,2.20221484375,0.933847656250002,1.95092578125,1.4865546875,2.0982578125,1.22116796875,2.3241875,1.68965625,1.42195703125,3.9056015625,4.91208203125,1.81592578125,0.598414062500001
-7.488609375,-6.74716015625,-6.31726171875,-3.68621484375,-1.81456640625,0.196160156249999,0.73887109375,-2.4515859375,-1.40604296875,1.23771875,4.19533203125,0.75512890625,2.65045703125,2.6526796875,2.08191796875,2.30185546875,0.849679687499999,3.03121484375,1.69284765625,3.02792578125,2.6905546875,4.8282578125,2.67316796875,3.4351875,2.98765625,-0.41904296875,5.6906015625,7.24108203125,4.43092578125,2.5134140625
-10.069609375,-9.51716015625,-9.80626171875,-5.38721484375,-3.30256640625,-0.63883984375,0.573871093750001,-3.5105859375,-1.90904296875,1.55271875,4.21533203125,2.55412890625,2.58145703125,2.5856796875,2.33091796875,3.00985546875,0.352679687499999,3.57021484375,2.28084765625,4.05392578125,4.0845546875,7.6292578125,4.10216796875,4.5671875,4.65965625,-1.51404296875,7.6586015625,9.16108203125,7.10392578125,4.8334140625
-13.345609375,-12.75316015625,-13.52126171875,-7.60421484375,-5.18156640625,-1.89383984375,-0.20412890625,-4.5285859375,-2.63704296875,1.29971875,3.76433203125,3.67712890625,2.00745703125,1.9136796875,2.28691796875,3.60285546875,-0.1113203125,3.59121484375,2.49084765625,4.70392578125,5.4205546875,9.8132578125,5.15816796875,5.4281875,6.36965625,-1.52604296875,9.4536015625,10.31408203125,9.22192578125,6.9844140625
-16.999609375,-16.07816015625,-17.02926171875,-9.98921484375,-7.14356640625,-3.43383984375,-1.47312890625,-5.3895859375,-3.48704296875,0.55371875,2.94433203125,3.75612890625,1.02445703125,0.800679687499999,1.90491796875,3.90285546875,-0.1323203125,3.02721484375,2.31384765625,4.86592578125,6.4055546875,10.8542578125,5.62816796875,5.8771875,7.73065625,-0.27504296875,10.7556015625,10.53008203125,10.35392578125,8.4514140625
-20.415609375,-18.89216015625,-19.84526171875,-12.02721484375,-8.68256640625,-4.84583984375,-2.84512890625,-5.9465859375,-4.26604296875,-0.17428125,2.11133203125,2.81612890625,-0.10454296875,-0.317320312500001,1.43791796875,3.88285546875,0.5796796875,2.06721484375,1.97684765625,4.70092578125,6.8045546875,10.6242578125,5.54716796875,5.9761875,8.45565625,2.12695703125,11.3616015625,9.83408203125,10.38392578125,8.9574140625
-22.876609375,-20.58716015625,-21.53426171875,-13.21321484375,-9.31656640625,-5.60683984375,-3.82812890625,-6.0775859375,-4.75304296875,-0.156281249999999,1.71433203125,1.20012890625,-1.06054296875,-0.932320312500001,1.30391796875,3.66685546875,2.0106796875,1.10921484375,1.83084765625,4.54292578125,6.5285546875,9.4162578125,5.16116796875,5.9261875,8.46165625,5.21495703125,11.2086015625,8.41708203125,9.48592578125,8.5124140625
-23.860609375,-20.80316015625,-21.85826171875,-13.26821484375,-8.83956640625,-5.34683984375,-4.04412890625,-5.7475859375,-4.79804296875,1.17371875,2.07433203125,-0.57587109375,-1.62354296875,-0.7133203125,1.84591796875,3.46485546875,3.8326796875,0.571214843750001,2.15684765625,4.69992578125,5.6815546875,7.6962578125,4.77716796875,5.9241875,7.87065625,8.26895703125,10.3646015625,6.54608203125,7.99492578125,7.3424140625
-23.249609375,-19.57216015625,-20.86426171875,-12.26721484375,-7.44056640625,-4.06383984375,-3.38712890625,-5.0195859375,-4.39504296875,3.88771875,3.19833203125,-1.95787109375,-1.79154296875,0.322679687499999,3.11091796875,3.46585546875,5.5846796875,0.657214843750001,2.99584765625,5.27392578125,4.5475546875,5.7742578125,4.56916796875,6.0291875,6.93365625,10.53695703125,8.9746015625,4.47408203125,6.23492578125,5.7714140625
-21.368609375,-17.30016015625,-18.88426171875,-10.58921484375,-5.64356640625,-2.15883984375,-2.05712890625,-4.0365859375,-3.69404296875,7.46971875,4.74533203125,-2.47987109375,-1.78554296875,1.8036796875,4.77891796875,3.73385546875,6.8846796875,1.21821484375,4.10084765625,6.10792578125,3.5175546875,3.6502578125,4.46716796875,6.1221875,5.91365625,11.46195703125,7.2206015625,2.38508203125,4.42492578125,4.1104140625
-18.842609375,-14.62016015625,-16.43526171875,-8.75721484375,-4.07656640625,-0.28383984375,-0.49112890625,-2.9865859375,-2.94304296875,11.00371875,6.15733203125,-1.90287109375,-1.93754296875,3.1786796875,6.28291796875,4.16185546875,7.5536796875,1.82021484375,5.05084765625,6.85592578125,2.9265546875,1.1982578125,4.22116796875,5.9801875,4.99265625,10.84695703125,5.3016015625,0.43808203125,2.70792578125,2.6054140625
-16.374609375,-12.18316015625,-14.07926171875,-7.23521484375,-3.20756640625,0.935160156249999,0.81387109375,-2.0925859375,-2.38004296875,13.55771875,6.90033203125,-0.37587109375,-2.50554296875,3.9736796875,7.06291796875,4.50885546875,7.5966796875,2.00521484375,5.45884765625,7.13892578125,2.8915546875,-1.4997421875,3.58616796875,5.4091875,4.23565625,8.92695703125,3.4456015625,-1.13791796875,1.23292578125,1.4184140625
-14.516609375,-10.46416015625,-12.26426171875,-6.28721484375,-3.16756640625,1.15816015625,1.49287109375,-1.5955859375,-2.13204296875,14.56071875,6.69133203125,1.51412890625,-3.50454296875,3.9976796875,6.81191796875,4.51685546875,7.1066796875,1.55021484375,5.15584765625,6.69792578125,3.2255546875,-3.9887421875,2.50616796875,4.3651875,3.59765625,6.30895703125,1.8876015625,-2.04491796875,0.18692578125,0.632414062500001
-13.522609375,-9.64716015625,-11.20926171875,-5.92321484375,-3.73256640625,0.44916015625,1.44587109375,-1.6855859375,-2.17304296875,13.99871875,5.60033203125,2.90212890625,-4.65854296875,3.3856796875,5.59491796875,4.03685546875,6.1556796875,0.562214843750001,4.24184765625,5.47892578125,3.5065546875,-5.6007421875,1.14216796875,2.9671875,2.98565625,3.77995703125,0.8056015625,-2.04191796875,-0.290074218749999,0.2354140625
-13.302609375,-9.62516015625,-10.86326171875,-5.93921484375,-4.46756640625,-0.78983984375,0.84387109375,-2.3855859375,-2.34004296875,12.35271875,3.98333203125,3.04012890625,-5.52054296875,2.4746796875,3.79291796875,3.10885546875,4.7696796875,-0.631785156249999,2.98784765625,3.65492578125,3.2885546875,-5.8267421875,-0.225832031249999,1.4291875,2.30865625,1.99895703125,0.2186015625,-1.15991796875,-0.232074218749999,0.106414062500001
-13.478609375,-10.05916015625,-10.91526171875,-6.01621484375,-4.91056640625,-2.00583984375,0.0428710937500001,-3.4945859375,-2.41404296875,10.34971875,2.32333203125,1.71012890625,-5.69154296875,1.6256796875,1.93591796875,1.97785546875,3.0066796875,-1.67978515625,1.70684765625,1.57692578125,2.3705546875,-4.6087421875,-1.33783203125,-0.0128124999999999,1.55365625,1.23395703125,-0.0363984375000008,0.214082031249999,0.0959257812500001,0.0464140625000002
-13.487609375,-10.44116015625,-10.84726171875,-5.84821484375,-4.73756640625,-2.68983984375,-0.52812890625,-4.6225859375,-2.20804296875,8.69371875,1.07533203125,-0.58487109375,-5.01854296875,1.1086796875,0.543917968750002,1.03585546875,1.1036796875,-2.32778515625,0.672847656250001,-0.288074218750001,0.975554687500001,-2.3647421875,-2.00983203125,-1.1408125,0.839656249999999,1.28095703125,-0.1973984375,1.47908203125,0.326925781250001,-0.1185859375
-12.749609375,-10.21216015625,-10.07926171875,-5.23721484375,-3.83656640625,-2.52783984375,-0.50712890625,-5.3355859375,-1.65404296875,7.87371875,0.552332031250002,-2.81587109375,-3.66654296875,1.0656796875,-8.20312499989484e-05,0.688855468749999,-0.4783203125,-2.42078515625,0.117847656250001,-1.45807421875,-0.291445312499999,0.2382578125,-2.11583203125,-1.7498125,0.414656249999998,1.63695703125,-0.3903984375,2.13608203125,0.211925781250001,-0.412585937499999
-10.866609375,-8.94916015625,-8.18626171875,-4.14521484375,-2.32156640625,-1.47283984375,0.27187109375,-5.3395859375,-0.84004296875,8.07971875,0.867332031250001,-3.91387109375,-2.05854296875,1.5216796875,0.460917968750001,1.17985546875,-1.1873203125,-1.86878515625,0.209847656250002,-1.57107421875,-0.734445312499999,2.5772578125,-1.56683203125,-1.6728125,0.56265625,1.83495703125,-0.5123984375,2.06008203125,-0.20907421875,-0.6745859375
-7.806609375,-6.56716015625,-5.11926171875,-2.71121484375,-0.48456640625,0.25316015625,1.69587109375,-4.6075859375,0.0219570312499999,9.19171875,1.90233203125,-3.29087109375,-0.71054296875,2.3986796875,1.82191796875,2.44285546875,-0.669320312500001,-0.65078515625,1.00984765625,-0.515074218750001,0.0545546875000014,4.2582578125,-0.346832031249999,-0.840812499999999,1.44565625,1.74395703125,-0.286398437500001,1.54008203125,-0.626074218749999,-0.640585937499999
-3.985609375,-3.40416015625,-1.28526171875,-1.22621484375,1.29743359375,2.25216015625,3.41187109375,-3.3905859375,0.67995703125,10.84771875,3.36733203125,-1.11887109375,-0.0355429687499998,3.5416796875,3.75191796875,4.12785546875,1.0066796875,1.13621484375,2.41084765625,1.51392578125,1.9815546875,5.1512578125,1.41116796875,0.6491875,3.00565625,1.65695703125,0.543601562499999,1.07008203125,-0.64807421875,-0.101585937499999
-0.161609375,-0.11516015625,2.57873828125,-0.0402148437500003,2.69443359375,4.10316015625,4.98687109375,-2.0875859375,0.96095703125,12.56571875,4.89733203125,1.79012890625,-0.20954296875,4.7496796875,5.81991796875,5.77485546875,3.3456796875,3.22321484375,4.13284765625,4.07092578125,4.5065546875,5.3112578125,3.40316796875,2.5321875,4.97465625,2.10295703125,2.0176015625,1.05408203125,-0.0270742187499993,0.9864140625
2.829390625,2.55183984375,5.66173828125,0.58678515625,3.52343359375,5.50116015625,6.06987109375,-1.0445859375,0.85195703125,13.90471875,6.17233203125,4.40012890625,-1.12654296875,5.8156796875,7.62991796875,7.03685546875,5.6596796875,5.18321484375,5.79084765625,6.60692578125,6.9145546875,4.8962578125,5.22216796875,4.4531875,6.98565625,3.47795703125,3.9026015625,1.62808203125,1.22392578125,2.4884140625
4.375390625,4.02083984375,7.36273828125,0.60578515625,3.78043359375,6.31416015625,6.49687109375,-0.4185859375,0.49595703125,14.57771875,6.97833203125,5.93012890625,-2.45954296875,6.5576796875,8.89691796875,7.79185546875,7.3546796875,6.54721484375,7.01884765625,8.61192578125,8.6125546875,4.1372578125,6.50816796875,6.0681875,8.68465625,5.72595703125,5.7946015625,2.66908203125,2.85592578125,4.1414140625
4.297390625,4.07283984375,7.49173828125,0.21478515625,3.60543359375,6.53516015625,6.29887109375,-0.1855859375,0.11795703125,14.50671875,7.22633203125,6.13712890625,-3.78954296875,6.8746796875,9.47491796875,8.10085546875,8.1216796875,6.98621484375,7.59384765625,9.73192578125,9.3035546875,3.3302578125,7.08916796875,7.1371875,9.80765625,8.26895703125,7.3026015625,3.92608203125,4.50292578125,5.6424140625
2.863390625,2.89483984375,6.30273828125,-0.26921484375,3.20343359375,6.22816015625,5.65887109375,-0.2275859375,-0.0800429687500002,13.81571875,6.95433203125,5.29412890625,-4.74254296875,6.7826796875,9.36091796875,8.10085546875,7.9646796875,6.48721484375,7.51884765625,9.82892578125,9.0175546875,2.7832578125,7.03316796875,7.5771875,10.20365625,10.25595703125,8.2026015625,5.14608203125,5.82092578125,6.7344140625
0.588390625,0.91983984375,4.30573828125,-0.62821484375,2.73943359375,5.48316015625,4.82187109375,-0.4375859375,-0.00704296874999999,12.76671875,6.31833203125,3.93812890625,-5.12154296875,6.4176796875,8.70191796875,7.90385546875,7.1226796875,5.35621484375,6.99784765625,9.01192578125,8.0345546875,2.7032578125,6.58016796875,7.4481875,9.85765625,10.97795703125,8.4846015625,6.11808203125,6.58092578125,7.2784140625
-2.113609375,-1.47116015625,1.92373828125,-0.94321484375,2.23643359375,4.39016015625,3.97987109375,-0.7865859375,0.25895703125,11.64171875,5.53433203125,2.59312890625,-4.99054296875,5.9546796875,7.76191796875,7.58285546875,5.9516796875,4.04421484375,6.32484765625,7.59892578125,6.7595546875,3.0702578125,5.99216796875,6.9151875,8.90265625,10.22395703125,8.3076015625,6.68008203125,6.71092578125,7.2884140625
-5.199609375,-4.20716015625,-0.79926171875,-1.65221484375,1.51543359375,3.00416015625,3.18487109375,-1.3505859375,0.47195703125,10.62371875,4.79433203125,1.58912890625,-4.67454296875,5.4986796875,6.83491796875,7.19085546875,4.8226796875,2.90821484375,5.73684765625,6.02592578125,5.5925546875,3.6392578125,5.43816796875,6.1841875,7.61665625,8.37895703125,7.9086015625,6.74508203125,6.30392578125,6.9224140625
-8.962609375,-7.49716015625,-4.16826171875,-3.33621484375,0.27843359375,1.35316015625,2.34687109375,-2.2785859375,0.30195703125,9.73671875,4.20033203125,1.02212890625,-4.63954296875,5.0316796875,6.14291796875,6.79285546875,4.0206796875,2.09521484375,5.33884765625,4.71492578125,4.8065546875,4.0922578125,4.97416796875,5.4501875,6.35465625,6.23995703125,7.5076015625,6.35308203125,5.57692578125,6.4174140625
-13.568609375,-11.47316015625,-8.38026171875,-6.28021484375,-1.66256640625,-0.48783984375,1.34787109375,-3.6675859375,-0.46804296875,8.89771875,3.75733203125,0.79212890625,-5.23654296875,4.4666796875,5.76491796875,6.46385546875,3.6786796875,1.60821484375,5.10784765625,3.94392578125,4.4725546875,4.2552578125,4.60016796875,4.8531875,5.45365625,4.63195703125,7.2396015625,5.68308203125,4.79992578125,5.9854140625
-18.408609375,-15.65316015625,-12.87726171875,-10.02321484375,-4.10456640625,-2.26383984375,0.21787109375,-5.3775859375,-1.73704296875,8.04571875,3.43333203125,0.70112890625,-6.44754296875,3.7736796875,5.62191796875,6.24885546875,3.7366796875,1.45021484375,4.95884765625,3.76992578125,4.4595546875,4.2042578125,4.32716796875,4.4441875,5.10565625,4.03595703125,7.1206015625,4.98608203125,4.19592578125,5.7274140625
-21.754609375,-18.64916015625,-16.01726171875,-13.24221484375,-6.33556640625,-3.49683984375,-0.74712890625,-6.9265859375,-2.99604296875,7.24071875,3.23333203125,0.56212890625,-7.80254296875,3.0936796875,5.54791796875,6.15185546875,3.9826796875,1.72521484375,4.81384765625,4.03592578125,4.5465546875,4.1662578125,4.20016796875,4.1741875,5.29465625,4.39195703125,7.0516015625,4.46608203125,3.85792578125,5.5934140625
-21.279609375,-18.55016015625,-15.58226171875,-14.23321484375,-7.37256640625,-3.63683984375,-1.05512890625,-7.6145859375,-3.51304296875,6.65071875,3.20433203125,0.32912890625,-8.58454296875,2.7056796875,5.37991796875,6.13385546875,4.1506796875,2.57321484375,4.63584765625,4.44792578125,4.5705546875,4.2922578125,4.26316796875,3.9271875,5.81765625,5.19495703125,6.8776015625,4.19608203125,3.73392578125,5.4394140625
-15.417609375,-14.01716015625,-10.09226171875,-11.83521484375,-6.50156640625,-2.40183984375,-0.29712890625,-6.8835859375,-2.74204296875,6.42371875,3.36833203125,0.15512890625,-8.26654296875,2.8706796875,5.01691796875,6.14085546875,4.0646796875,3.99621484375,4.41984765625,4.70592578125,4.5465546875,4.5122578125,4.50716796875,3.5851875,6.40165625,5.80395703125,6.4646015625,4.11508203125,3.67692578125,5.1354140625
-4.759609375,-5.45316015625,-0.123261718749999,-6.26921484375,-3.80456640625,-0.0838398437500003,1.51487109375,-4.7135859375,-0.71904296875,6.53271875,3.62233203125,0.30812890625,-6.88854296875,3.6206796875,4.42491796875,6.11785546875,3.7476796875,5.72121484375,4.17284765625,4.61892578125,4.6375546875,4.5942578125,4.83416796875,3.0941875,6.82565625,5.76395703125,5.7696015625,4.10108203125,3.54592578125,4.6424140625
7.667390625,4.72683984375,11.46473828125,0.75978515625,-0.24556640625,2.46216015625,3.83887109375,-1.7485859375,1.85795703125,6.74371875,3.74333203125,0.98812890625,-5.08554296875,4.6836796875,3.62091796875,6.02685546875,3.4336796875,7.23521484375,3.90184765625,4.16592578125,5.0055546875,4.3452578125,5.07616796875,2.4971875,6.99865625,4.99295703125,4.8576015625,4.07008203125,3.27192578125,4.0214140625
17.732390625,13.16983984375,20.79973828125,6.86878515625,2.81843359375,4.23116015625,5.85287109375,0.9794140625,3.96995703125,6.75671875,3.51433203125,2.16112890625,-3.72254296875,5.6186796875,2.67991796875,5.86885546875,3.4376796875,8.01721484375,3.62584765625,3.46892578125,5.6585546875,3.7752578125,5.06816796875,1.9121875,6.95865625,3.76095703125,3.8626015625,4.02108203125,2.87692578125,3.3844140625
22.333390625,17.34083984375,25.00773828125,10.19578515625,4.37043359375,4.62816015625,6.92687109375,2.5764140625,4.82995703125,6.42371875,2.90333203125,3.53212890625,-3.39454296875,6.0656796875,1.76491796875,5.70285546875,3.9756796875,7.81521484375,3.40184765625,2.74392578125,6.4235546875,3.0932578125,4.72316796875,1.4851875,6.81965625,2.51995703125,2.9456015625,4.03608203125,2.44292578125,2.8524140625
20.927390625,16.76783984375,23.60573828125,10.21778515625,4.22443359375,3.78916015625,6.94887109375,2.7164140625,4.26095703125,5.87471875,2.13233203125,4.65912890625,-4.13854296875,5.9306796875,1.12291796875,5.63785546875,5.0266796875,6.77221484375,3.30884765625,2.22892578125,7.0735546875,2.5652578125,4.06916796875,1.3271875,6.71965625,1.67495703125,2.2356015625,4.20808203125,2.05392578125,2.5244140625
15.509390625,12.99783984375,18.45873828125,7.74078515625,2.97743359375,2.45416015625,6.30787109375,1.7134140625,2.70495703125,5.43871875,1.58533203125,5.12212890625,-5.51854296875,5.3896796875,1.00591796875,5.79385546875,6.3326796875,5.33821484375,3.40884765625,2.12092578125,7.4835546875,2.3732578125,3.23316796875,1.4731875,6.76165625,1.42195703125,1.8066015625,4.57108203125,1.76092578125,2.4564140625
9.286390625,8.52583984375,12.53273828125,4.23578515625,1.56843359375,1.50416015625,5.61187109375,0.2564140625,0.91495703125,5.44271875,1.59833203125,4.72912890625,-6.94354296875,4.7636796875,1.55491796875,6.24085546875,7.5096796875,4.04121484375,3.70684765625,2.51092578125,7.6805546875,2.5412578125,2.39016796875,1.8681875,6.96465625,1.74995703125,1.6526015625,5.05308203125,1.55292578125,2.6364140625
5.021390625,5.48583984375,8.38973828125,1.06578515625,0.77643359375,1.50316015625,5.33387109375,-0.9895859375,-0.42304296875,6.01971875,2.28433203125,3.63412890625,-7.98154296875,4.3496796875,2.71491796875,6.94885546875,8.1956796875,3.26421484375,4.14884765625,3.33292578125,7.7315546875,2.9422578125,1.71916796875,2.3941875,7.23965625,2.55195703125,1.6866015625,5.47108203125,1.36092578125,2.9654140625
3.983390625,4.84083984375,7.23173828125,-0.99521484375,0.93043359375,2.47516015625,5.61987109375,-1.6655859375,-0.94604296875,7.04671875,3.48133203125,2.31712890625,-8.49554296875,4.3006796875,4.23391796875,7.77285546875,8.1406796875,3.14021484375,4.64084765625,4.37192578125,7.6165546875,3.3502578125,1.34516796875,2.9141875,7.42765625,3.74295703125,1.7716015625,5.57708203125,1.09092578125,3.2744140625
5.843390625,6.31583984375,8.81373828125,-1.81921484375,1.90443359375,3.99616015625,6.29987109375,-1.7665859375,-0.66704296875,8.23171875,4.84233203125,1.38812890625,-8.59154296875,4.5896796875,5.74791796875,8.51185546875,7.2656796875,3.57021484375,5.09384765625,5.34292578125,7.2225546875,3.5242578125,1.31116796875,3.3211875,7.39565625,5.25295703125,1.7956015625,5.16808203125,0.68392578125,3.3944140625
9.282390625,8.89083984375,11.98473828125,-1.70421484375,3.31143359375,5.48516015625,7.05887109375,-1.5115859375,0.12195703125,9.26971875,6.01333203125,1.29812890625,-8.44954296875,5.0546796875,6.93691796875,9.01685546875,5.6946796875,4.32621484375,5.46184765625,6.02492578125,6.4875546875,3.2882578125,1.58416796875,3.5821875,7.14165625,6.94995703125,1.7526015625,4.22808203125,0.18992578125,3.2624140625
12.809390625,11.46483984375,15.40973828125,-1.07921484375,4.72943359375,6.49916015625,7.64787109375,-1.1475859375,1.01495703125,9.97971875,6.78733203125,2.13912890625,-8.18054296875,5.5206796875,7.65591796875,9.28785546875,3.7676796875,5.17821484375,5.76784765625,6.36692578125,5.5635546875,2.6062578125,2.09316796875,3.7451875,6.84065625,8.57795703125,1.7856015625,3.04508203125,-0.19907421875,2.9824140625
15.384390625,13.32683984375,18.11173828125,-0.29721484375,5.86043359375,6.90616015625,7.98487109375,-0.8125859375,1.65695703125,10.34871875,7.16033203125,3.60812890625,-7.77354296875,5.8796796875,7.95691796875,9.47785546875,1.9726796875,5.95321484375,6.07684765625,6.49292578125,4.8375546875,1.6062578125,2.75816796875,3.9091875,6.76165625,9.75995703125,2.1106015625,2.15808203125,-0.22507421875,2.7694140625
16.661390625,14.28883984375,19.67273828125,0.44378515625,6.56643359375,6.86116015625,8.12687109375,-0.5235859375,1.85495703125,10.47671875,7.25833203125,5.15912890625,-7.14654296875,6.1096796875,8.00291796875,9.77785546875,0.775679687499999,6.51821484375,6.42084765625,6.58992578125,4.7465546875,0.5642578125,3.48516796875,4.1371875,7.10065625,10.06595703125,2.8666015625,2.11108203125,0.272925781250001,2.7984140625
16.880390625,14.54683984375,20.16773828125,1.05678515625,6.82143359375,6.64916015625,8.17487109375,-0.2485859375,1.61695703125,10.46871875,7.21133203125,6.22512890625,-6.24254296875,6.2226796875,7.94091796875,10.26585546875,0.423679687499999,6.76521484375,6.73884765625,6.75792578125,5.5185546875,-0.1787421875,4.15016796875,4.4001875,7.84565625,9.13895703125,3.9626015625,3.13208203125,1.20292578125,3.0754140625
16.538390625,14.41183984375,19.90873828125,1.47978515625,6.65343359375,6.50216015625,8.19487109375,-0.0165859374999997,1.09795703125,10.37171875,7.07133203125,6.39912890625,-5.09654296875,6.2086796875,7.82291796875,10.83385546875,0.8436796875,6.63221484375,6.88884765625,6.92592578125,7.0035546875,-0.3317421875,4.60216796875,4.5681875,8.75065625,6.87895703125,5.0626015625,4.94808203125,2.20692578125,3.4314140625
16.032390625,14.07483984375,19.19173828125,1.60178515625,6.09643359375,6.45816015625,8.18187109375,0.0474140625000001,0.48595703125,10.15771875,6.79033203125,5.54612890625,-3.83854296875,6.0186796875,7.60691796875,11.20785546875,1.6906796875,6.13721484375,6.71584765625,6.87392578125,8.6765546875,0.1992578125,4.69816796875,4.4561875,9.42765625,3.61195703125,5.6996015625,6.85908203125,2.80192578125,3.6264140625
15.461390625,13.50583984375,18.13773828125,1.28478515625,5.17043359375,6.34916015625,8.03487109375,-0.2365859375,-0.11204296875,9.75871875,6.26133203125,3.82812890625,-2.67054296875,5.5716796875,7.18891796875,11.05385546875,2.5356796875,5.37621484375,6.12384765625,6.33592578125,9.8275546875,1.2372578125,4.32416796875,3.8791875,9.47865625,0.08195703125,5.4476015625,8.02608203125,2.58192578125,3.4654140625
14.653390625,12.53683984375,16.72373828125,0.44578515625,3.91743359375,5.90416015625,7.58987109375,-0.9855859375,-0.71704296875,9.11971875,5.39133203125,1.64912890625,-1.81254296875,4.7936796875,6.46891796875,10.13185546875,3.0536796875,4.46821484375,5.10984765625,5.14292578125,9.8455546875,2.3732578125,3.42616796875,2.7141875,8.63065625,-2.80404296875,4.0826015625,7.84308203125,1.39492578125,2.8534140625
13.359390625,11.04983984375,14.92173828125,-0.86221484375,2.45743359375,4.92816015625,6.72787109375,-2.1565859375,-1.41204296875,8.23971875,4.20033203125,-0.48687109375,-1.42554296875,3.6896796875,5.41891796875,8.44285546875,3.1336796875,3.51021484375,3.78184765625,3.34492578125,8.5055546875,3.1282578125,2.05516796875,0.9801875,6.85065625,-4.37004296875,1.6866015625,6.21208203125,-0.57307421875,1.8264140625
11.478390625,9.13083984375,12.81973828125,-2.41021484375,1.01043359375,3.42816015625,5.48687109375,-3.5295859375,-2.24204296875,7.20471875,2.85233203125,-2.16087109375,-1.54854296875,2.3896796875,4.14091796875,6.27585546875,2.8646796875,2.58021484375,2.35084765625,1.25292578125,6.1025546875,3.1662578125,0.401167968750001,-1.1048125,4.40165625,-4.48204296875,-1.3403984375,3.61308203125,-2.84407421875,0.553414062500001
9.172390625,7.07183984375,10.65173828125,-3.84721484375,-0.15956640625,1.63116015625,4.08887109375,-4.7895859375,-3.13704296875,6.15671875,1.59933203125,-3.17287109375,-2.07154296875,1.1206796875,2.83591796875,4.10385546875,2.4186796875,1.76521484375,1.07884765625,-0.660074218750001,3.3285546875,2.4422578125,-1.23383203125,-3.1538125,1.79065625,-3.57904296875,-4.3763984375,0.916082031249999,-4.80907421875,-0.6895859375
6.857390625,5.25983984375,8.73773828125,-4.80521484375,-0.85456640625,-0.13383984375,2.84687109375,-5.6595859375,-3.93204296875,5.23571875,0.636332031250001,-3.57587109375,-2.77454296875,0.107679687499999,1.69691796875,2.36885546875,1.9216796875,1.16821484375,0.186847656250002,-1.96207421875,0.936554687500001,1.2132578125,-2.55483203125,-4.7588125,-0.43034375,-2.41904296875,-6.7863984375,-0.99391796875,-5.96207421875,-1.6095859375
5.056390625,4.03883984375,7.39973828125,-5.04221484375,-1.04056640625,-1.58783984375,2.01687109375,-6.0375859375,-4.45804296875,4.50971875,-0.00766796874999898,-3.60887109375,-3.40454296875,-0.539320312500001,0.820917968750001,1.30185546875,1.3536796875,0.883214843750001,-0.235152343749998,-2.47007421875,-0.618445312499999,-0.0907421875,-3.38783203125,-5.6668125,-1.90334375,-1.69204296875,-8.1483984375,-1.58991796875,-6.09707421875,-2.0175859375
4.210390625,3.61883984375,6.86773828125,-4.55521484375,-0.84556640625,-2.59383984375,1.68987109375,-6.0335859375,-4.63704296875,3.95071875,-0.47666796875,-3.57787109375,-3.77454296875,-0.8593203125,0.181917968750001,0.86685546875,0.570679687499999,0.94721484375,-0.256152343749999,-2.32807421875,-1.3534453125,-1.0557421875,-3.74083203125,-5.8878125,-2.61134375,-1.69204296875,-8.3993984375,-0.886917968750001,-5.36207421875,-1.9065859375
4.502390625,4.03083984375,7.21073828125,-3.57421484375,-0.50156640625,-3.15583984375,1.76087109375,-5.8935859375,-4.52004296875,3.46571875,-0.987667968749999,-3.70187109375,-3.82354296875,-0.994320312500001,-0.317082031249999,0.845855468749999,-0.5823203125,1.30521484375,-0.066152343749998,-1.91007421875,-1.6404453125,-1.4407421875,-3.76283203125,-5.6738125,-2.83134375,-2.21004296875,-7.8253984375,0.61708203125,-4.16907421875,-1.4505859375
5.786390625,5.12983984375,8.31973828125,-2.46021484375,-0.25156640625,-3.36283984375,1.97587109375,-5.8425859375,-4.26404296875,2.94571875,-1.70466796875,-3.96487109375,-3.62754296875,-1.1003203125,-0.773082031249999,0.958855468749999,-2.0963203125,1.80321484375,0.118847656250001,-1.60607421875,-1.9014453125,-1.2377421875,-3.64883203125,-5.3708125,-2.92534375,-2.71204296875,-6.8943984375,2.19408203125,-3.00607421875,-0.9155859375
7.625390625,6.62083984375,9.92873828125,-1.55021484375,-0.28956640625,-3.34983984375,2.02587109375,-5.9695859375,-4.07004296875,2.30471875,-2.66466796875,-4.09387109375,-3.34554296875,-1.2793203125,-1.23308203125,0.973855468749999,-3.7123203125,2.24121484375,0.150847656250001,-1.61307421875,-2.3104453125,-0.6127421875,-3.52583203125,-5.2298125,-3.10134375,-2.68104296875,-6.0153984375,3.22008203125,-2.23507421875,-0.524585937499999
9.407390625,8.10383984375,11.64073828125,-1.08221484375,-0.72556640625,-3.29183984375,1.66387109375,-6.2245859375,-4.12204296875,1.49271875,-3.77666796875,-3.75487109375,-3.14554296875,-1.5503203125,-1.68708203125,0.761855468749999,-4.9783203125,2.44321484375,0.0108476562500019,-1.85407421875,-2.6854453125,0.2282578125,-3.39583203125,-5.2658125,-3.29134375,-1.91904296875,-5.3483984375,3.44808203125,-1.95307421875,-0.345585937499999
10.510390625,9.13583984375,12.97073828125,-1.15821484375,-1.56856640625,-3.38183984375,0.79087109375,-6.4995859375,-4.52804296875,0.506718750000001,-4.87066796875,-2.85787109375,-3.14254296875,-1.8713203125,-2.09208203125,0.310855468749999,-5.4583203125,2.33221484375,-0.197152343749998,-2.04607421875,-2.6524453125,1.1432578125,-3.14883203125,-5.2698125,-3.22934375,-0.64804296875,-4.7693984375,3.10308203125,-1.98807421875,-0.2695859375
10.505390625,9.33783984375,13.45073828125,-1.74921484375,-2.71356640625,-3.75883984375,-0.48912890625,-6.6975859375,-5.25504296875,-0.59328125,-5.76266796875,-1.73987109375,-3.38554296875,-2.1723203125,-2.39908203125,-0.28014453125,-4.9663203125,1.94221484375,-0.335152343749998,-1.88107421875,-1.9284453125,2.0622578125,-2.66483203125,-4.9588125,-2.66134375,0.61995703125,-4.0253984375,2.72008203125,-2.03507421875,-0.0955859374999992
9.322390625,8.53483984375,12.79673828125,-2.69021484375,-3.93556640625,-4.40783984375,-1.88712890625,-6.7565859375,-6.10804296875,-1.65228125,-6.29466796875,-1.02187109375,-3.84854296875,-2.3773203125,-2.56108203125,-0.84514453125,-3.6753203125,1.38921484375,-0.314152343749999,-1.20907421875,-0.534445312499999,2.9072578125,-1.92183203125,-4.1818125,-1.54834375,1.33495703125,-2.9513984375,2.81608203125,-1.85007421875,0.3104140625
7.304390625,6.87483984375,11.09473828125,-3.72221484375,-4.91856640625,-5.12283984375,-3.00212890625,-6.6415859375,-6.76904296875,-2.43428125,-6.34466796875,-1.26987109375,-4.41954296875,-2.4113203125,-2.51008203125,-1.19214453125,-2.0403203125,0.824214843750001,-0.128152343749999,-0.119074218750001,1.1995546875,3.5222578125,-1.04483203125,-3.0298125,-0.12934375,1.16095703125,-1.6193984375,3.58608203125,-1.39507421875,0.9114140625
5.126390625,4.87283984375,8.87673828125,-4.55321484375,-5.32356640625,-5.55183984375,-3.44312890625,-6.3345859375,-6.91204296875,-2.65728125,-5.83766796875,-2.65587109375,-4.89854296875,-2.2013203125,-2.14708203125,-1.15314453125,-0.581320312500001,0.400214843750001,0.187847656250002,1.11992578125,2.8035546875,3.7012578125,-0.257832031249999,-1.7898125,1.18365625,0.11095703125,-0.3103984375,4.80408203125,-0.838074218749999,1.4994140625
3.606390625,3.29183984375,7.02273828125,-4.92921484375,-4.89656640625,-5.32883984375,-2.96212890625,-5.8145859375,-6.33204296875,-2.08428125,-4.74466796875,-4.82587109375,-5.07154296875,-1.6943203125,-1.36508203125,-0.60714453125,0.349679687499999,0.241214843750001,0.613847656250002,2.21892578125,3.9025546875,3.2982578125,0.237167968750001,-0.760812499999999,2.02765625,-1.48404296875,0.6546015625,5.95808203125,-0.450074218749999,1.8044140625
3.424390625,2.87283984375,6.44873828125,-4.70521484375,-3.56756640625,-4.24383984375,-1.54212890625,-5.0595859375,-5.01904296875,-0.62028125,-3.09866796875,-7.00187109375,-4.80754296875,-0.868320312500001,-0.0970820312499985,0.49185546875,0.684679687499999,0.43121484375,1.18184765625,3.03392578125,4.3795546875,2.3302578125,0.375167968750001,-0.0738124999999998,2.27565625,-3.12704296875,1.1156015625,6.54608203125,-0.426074218749999,1.6564140625
4.836390625,3.99083984375,7.65373828125,-3.91121484375,-1.52956640625,-2.36383984375,0.57587109375,-4.0775859375,-3.16904296875,1.59771875,-1.01866796875,-8.27587109375,-4.15054296875,0.256679687499998,1.62191796875,2.08885546875,0.5766796875,0.994214843750001,1.96284765625,3.61692578125,4.3695546875,0.9922578125,0.281167968750001,0.378187500000001,2.08765625,-4.32504296875,1.1776015625,6.35708203125,-0.76307421875,1.0974140625
7.485390625,6.40183984375,10.37073828125,-2.77721484375,0.77343359375,-0.0738398437500001,2.93387109375,-2.9495859375,-1.13904296875,4.18071875,1.24833203125,-7.98387109375,-3.30554296875,1.6076796875,3.62091796875,3.97385546875,0.2506796875,1.87421484375,3.00284765625,4.12892578125,4.1085546875,-0.4257421875,0.209167968750001,0.836187500000001,1.78965625,-4.68904296875,1.1456015625,5.57708203125,-1.24107421875,0.377414062500001
10.450390625,9.24083984375,13.53973828125,-1.67521484375,2.72543359375,2.01716015625,4.95387109375,-1.8405859375,0.64895703125,6.54871875,3.31933203125,-5.99687109375,-2.55154296875,3.0336796875,5.58491796875,5.77885546875,-0.134320312500001,2.90521484375,4.24584765625,4.67792578125,3.7455546875,-1.6707421875,0.386167968750001,1.4841875,1.67665625,-4.00404296875,1.3226015625,4.64708203125,-1.55107421875,-0.162585937499999
12.573390625,11.32783984375,15.71573828125,-0.99621484375,3.71043359375,3.26816015625,6.08487109375,-0.9575859375,1.80295703125,8.08371875,4.73133203125,-2.80587109375,-2.11454296875,4.2876796875,7.09991796875,7.03685546875,-0.5213203125,3.81321484375,5.48184765625,5.20692578125,3.2695546875,-2.6417421875,0.860167968750001,2.2931875,1.85465625,-2.30104296875,1.8096015625,3.96408203125,-1.47207421875,-0.271585937499999
12.945390625,11.69883984375,15.74973828125,-1.00921484375,3.33443359375,3.24816015625,5.98987109375,-0.4885859375,2.07595703125,8.34671875,5.08833203125,0.62512890625,-2.08154296875,5.0626796875,7.78991796875,7.35585546875,-0.895320312500001,4.28121484375,6.39784765625,5.49992578125,2.5915546875,-3.3917421875,1.45416796875,3.0311875,2.23665625,0.10795703125,2.4426015625,3.64508203125,-1.01107421875,0.0874140625000006
11.363390625,10.11383984375,13.41173828125,-1.75621484375,1.63343359375,1.93216015625,4.71087109375,-0.5225859375,1.45295703125,7.26871875,4.25333203125,3.20512890625,-2.36354296875,5.1166796875,7.47491796875,6.59985546875,-1.2113203125,4.09721484375,6.70584765625,5.32192578125,1.6765546875,-4.0287421875,1.86616796875,3.4191875,2.63165625,2.67695703125,2.9166015625,3.50408203125,-0.39007421875,0.741414062500001
8.510390625,7.25583984375,9.59573828125,-3.00821484375,-0.85256640625,-0.23183984375,2.69787109375,-1.0015859375,0.20095703125,5.22571875,2.47033203125,4.12812890625,-2.74754296875,4.4326796875,6.29891796875,4.98785546875,-1.3953203125,3.29121484375,6.30584765625,4.58092578125,0.617554687500002,-4.5947421875,1.85716796875,3.3041875,2.87365625,4.77295703125,2.9936015625,3.24008203125,0.0849257812500008,1.4124140625
5.704390625,4.43883984375,5.94573828125,-4.30921484375,-3.21556640625,-2.44783984375,0.67387109375,-1.7085859375,-1.18004296875,2.94871875,0.325332031250001,3.23012890625,-2.99654296875,3.2916796875,4.71091796875,3.02785546875,-1.3993203125,2.17121484375,5.36984765625,3.42792578125,-0.376445312499999,-5.0017421875,1.41016796875,2.7631875,2.90865625,5.85195703125,2.6816015625,2.69208203125,0.21592578125,1.8654140625
4.304390625,2.99083984375,4.09473828125,-5.12021484375,-4.50856640625,-3.85083984375,-0.62212890625,-2.3245859375,-2.11104296875,1.27271875,-1.43766796875,1.10412890625,-2.98354296875,2.2106796875,3.31991796875,1.34485546875,-1.2183203125,1.22421484375,4.31384765625,2.23792578125,-1.0344453125,-5.0907421875,0.757167968750001,2.0741875,2.81865625,5.61095703125,2.2416015625,1.99608203125,0.0449257812500008,2.0204140625
5.097390625,3.66583984375,4.94273828125,-5.01821484375,-4.10856640625,-3.81283984375,-0.67512890625,-2.5315859375,-2.14604296875,0.85871875,-2.16566796875,-1.12087109375,-2.75954296875,1.7496796875,2.68991796875,0.48285546875,-0.833320312500001,0.91021484375,3.64284765625,1.47192578125,-1.0744453125,-4.7507421875,0.278167968750001,1.6021875,2.78265625,4.07095703125,2.0586015625,1.52308203125,-0.16607421875,1.9764140625
7.999390625,6.37883984375,8.34373828125,-3.85421484375,-1.95656640625,-2.15683984375,0.650871093750001,-2.1095859375,-1.14004296875,1.96671875,-1.51566796875,-2.26287109375,-2.53154296875,2.2666796875,3.15191796875,0.746855468749999,-0.1673203125,1.46321484375,3.75284765625,1.49192578125,-0.271445312499999,-4.0297421875,0.298167968750001,1.6451875,2.99665625,1.57895703125,2.4216015625,1.63208203125,-0.0980742187499999,1.9334140625
12.185390625,10.33983984375,13.28373828125,-1.79821484375,1.42043359375,0.797160156249999,3.07587109375,-0.9965859375,0.69895703125,4.38571875,0.428332031250001,-1.59287109375,-2.55654296875,3.7506796875,4.68991796875,2.11785546875,0.8666796875,2.77621484375,4.74884765625,2.38792578125,1.4365546875,-3.1497421875,0.908167968750001,2.3081875,3.55665625,-1.28904296875,3.3506015625,2.39708203125,0.40292578125,2.0574140625
16.522390625,14.45983984375,18.39673828125,0.71878515625,5.12043359375,4.35316015625,5.99387109375,0.6944140625,2.89395703125,7.52671875,3.19033203125,0.88512890625,-2.99754296875,5.8126796875,6.95391796875,4.26585546875,2.2406796875,4.44421484375,6.39684765625,3.92792578125,3.8435546875,-2.4187421875,1.91216796875,3.4541875,4.40165625,-3.89004296875,4.5886015625,3.52808203125,1.21692578125,2.3714140625
20.027390625,17.78683984375,22.49273828125,3.15278515625,8.21343359375,7.67416015625,8.67187109375,2.6794140625,4.87395703125,10.63471875,6.07033203125,4.51012890625,-3.84154296875,7.8556796875,9.39391796875,6.65485546875,3.7296796875,5.92721484375,8.23184765625,5.63992578125,6.4645546875,-2.1147421875,2.93716796875,4.7771875,5.32665625,-5.67304296875,5.7456015625,4.53608203125,2.02092578125,2.7614140625
22.145390625,19.80183984375,24.89273828125,5.00178515625,10.07443359375,10.06616015625,10.49087109375,4.5584140625,6.16095703125,13.04771875,8.39133203125,8.32412890625,-4.90654296875,9.3186796875,11.46191796875,8.71285546875,4.9566796875,6.76621484375,9.74884765625,7.00392578125,8.6295546875,-2.3837421875,3.61616796875,5.9361875,6.07165625,-6.29704296875,6.5076015625,5.02908203125,2.47992578125,3.0594140625
22.785390625,20.44883984375,25.47773828125,5.95678515625,10.56043359375,11.19516015625,11.12887109375,5.9104140625,6.51195703125,14.39671875,9.71133203125,11.45612890625,-5.94954296875,9.8956796875,12.78691796875,9.98685546875,5.5356796875,6.73821484375,10.60784765625,7.65692578125,9.6915546875,-3.1837421875,3.76316796875,6.7091875,6.43065625,-5.69004296875,6.7886015625,4.90108203125,2.42792578125,3.1524140625
22.186390625,20.01483984375,24.55873828125,5.97278515625,9.99843359375,11.17516015625,10.62787109375,6.4374140625,5.98895703125,14.69471875,9.94733203125,13.33412890625,-6.77054296875,9.6366796875,13.28091796875,10.26085546875,5.2456796875,5.94421484375,10.75684765625,7.53592578125,9.2745546875,-4.2667421875,3.45116796875,7.0741875,6.32865625,-4.05904296875,6.7516015625,4.33008203125,1.95192578125,3.0584140625
20.756390625,18.95383984375,22.68773828125,5.26878515625,9.00043359375,10.49116015625,9.35987109375,6.0834140625,4.91595703125,14.30371875,9.38633203125,13.71112890625,-7.26054296875,8.9106796875,13.15891796875,9.61485546875,4.1636796875,4.77521484375,10.45784765625,6.90292578125,7.4715546875,-5.2287421875,2.99416796875,7.2221875,5.88165625,-1.84704296875,6.7056015625,3.62808203125,1.33092578125,2.9084140625
18.956390625,17.75883984375,20.49673828125,4.22978515625,8.22643359375,9.79416015625,7.90087109375,5.0704140625,3.76495703125,13.78771875,8.56233203125,12.60612890625,-7.35854296875,8.2666796875,12.86591796875,8.39885546875,2.6696796875,3.77621484375,10.18084765625,6.23392578125,4.8605546875,-5.6347421875,2.82616796875,7.4761875,5.35865625,0.39395703125,6.9576015625,3.08908203125,0.911925781250001,2.8774140625
17.236390625,16.84883984375,18.56773828125,3.28178515625,8.14743359375,9.64516015625,6.82387109375,3.8064140625,2.99495703125,13.69971875,8.04533203125,10.26112890625,-7.01554296875,8.2076796875,12.89491796875,7.10385546875,1.2866796875,3.42121484375,10.40184765625,6.00192578125,2.2755546875,-5.1957421875,3.30616796875,8.1441875,5.07065625,2.17895703125,7.6726015625,2.91408203125,0.96392578125,3.0834140625
15.964390625,16.46883984375,17.31873828125,2.76578515625,8.88643359375,10.30116015625,6.48687109375,2.7164140625,2.89695703125,14.35371875,8.20833203125,7.11912890625,-6.20954296875,8.9806796875,13.57691796875,6.16885546875,0.431679687499999,3.90221484375,11.37884765625,6.44692578125,0.445554687500001,-3.8837421875,4.53916796875,9.3541875,5.21665625,3.25795703125,8.8136015625,3.21308203125,1.58492578125,3.5274140625
15.358390625,16.64183984375,16.91273828125,2.82978515625,10.20043359375,11.64116015625,6.91687109375,2.0614140625,3.49795703125,15.70071875,9.09433203125,3.81112890625,-5.00754296875,10.4776796875,14.93791796875,5.81685546875,0.235679687499999,5.05821484375,13.03084765625,7.48392578125,-0.280445312499999,-1.9407421875,6.31716796875,10.9871875,5.79465625,3.67395703125,10.1756015625,4.00508203125,2.66492578125,4.1054140625
15.425390625,17.20383984375,17.23773828125,3.40078515625,11.61343359375,13.25816015625,7.86387109375,1.8784140625,4.56395703125,17.35371875,10.44633203125,1.09612890625,-3.60354296875,12.3016796875,16.70391796875,6.03285546875,0.548679687499999,6.48421484375,14.99184765625,8.78192578125,0.0335546875000006,0.2492578125,8.21316796875,12.7291875,6.64865625,3.66495703125,11.4946015625,5.21308203125,3.94492578125,4.6834140625
15.956390625,17.87583984375,17.93373828125,4.22978515625,12.62843359375,14.66416015625,8.95187109375,2.0374140625,5.70295703125,18.76171875,11.86033203125,-0.29787109375,-2.25554296875,13.9366796875,18.44491796875,6.65285546875,1.0886796875,7.75321484375,16.78784765625,9.96392578125,1.0755546875,2.3192578125,9.78916796875,14.2261875,7.59065625,3.47695703125,12.5566015625,6.65808203125,5.11692578125,5.1684140625
16.556390625,18.31483984375,18.48073828125,5.00378515625,12.91643359375,15.48216015625,9.83987109375,2.3844140625,6.51395703125,19.42371875,12.96633203125,0.0681289062500001,-1.18254296875,14.9326796875,19.74391796875,7.48585546875,1.5996796875,8.60021484375,18.02284765625,10.78592578125,2.4865546875,3.9982578125,10.75916796875,15.2281875,8.49665625,3.21595703125,13.2426015625,8.05408203125,5.93992578125,5.5444140625
16.752390625,18.17383984375,18.34973828125,5.44678515625,12.38343359375,15.54116015625,10.32087109375,2.8224140625,6.72295703125,19.06171875,13.54033203125,2.11212890625,-0.48254296875,15.0246796875,20.33491796875,8.37885546875,1.9536796875,8.95621484375,18.47584765625,11.19792578125,3.9825546875,5.0662578125,11.04016796875,15.6521875,9.31765625,2.85695703125,13.5176015625,9.05808203125,6.30492578125,5.8444140625
16.165390625,17.22283984375,17.21873828125,5.38878515625,11.14643359375,14.87916015625,10.34287109375,3.3104140625,6.24595703125,17.68971875,13.53633203125,5.16912890625,-0.14354296875,14.1726796875,20.15691796875,9.22785546875,2.1746796875,8.86021484375,18.11284765625,11.28192578125,5.3705546875,5.2952578125,10.68016796875,15.5551875,10.03665625,2.38695703125,13.3786015625,9.36108203125,6.22592578125,6.1104140625
14.668390625,15.46683984375,15.12473828125,4.79478515625,9.45243359375,13.67416015625,9.98787109375,3.7804140625,5.17895703125,15.57471875,13.04533203125,8.19512890625,-0.10154296875,12.5496796875,19.33091796875,9.93885546875,2.3846796875,8.36521484375,17.04384765625,11.14392578125,6.5025546875,4.5182578125,9.76916796875,15.0641875,10.60565625,1.93195703125,12.8216015625,8.80408203125,5.78992578125,6.3514140625
12.428390625,13.18883984375,12.46773828125,3.76878515625,7.59743359375,12.17116015625,9.40087109375,4.0834140625,3.75195703125,13.13871875,12.21933203125,10.11112890625,-0.28254296875,10.4896796875,18.07791796875,10.38385546875,2.6816796875,7.50921484375,15.48984765625,10.81292578125,7.2395546875,2.8392578125,8.41716796875,14.3121875,10.92365625,1.69495703125,11.8506015625,7.46508203125,5.08492578125,6.5114140625
9.811390625,10.87283984375,9.84873828125,2.51078515625,5.86743359375,10.62416015625,8.72987109375,3.9744140625,2.24695703125,10.83071875,11.21233203125,10.10212890625,-0.60254296875,8.4146796875,16.63291796875,10.40685546875,3.0236796875,6.37121484375,13.73484765625,10.20792578125,7.4485546875,0.7892578125,6.78916796875,13.4011875,10.84965625,1.75495703125,10.5006015625,5.64608203125,4.17492578125,6.4664140625
7.220390625,9.04483984375,7.84973828125,1.22878515625,4.49943359375,9.23916015625,8.10487109375,3.1914140625,0.90695703125,9.00671875,10.15633203125,7.76112890625,-0.95354296875,6.7346796875,15.19591796875,9.88585546875,3.2126796875,5.11221484375,12.07684765625,9.18692578125,7.0585546875,-0.8037421875,5.11716796875,12.4051875,10.26465625,1.90995703125,8.8536015625,3.74808203125,3.09592578125,6.0684140625
4.936390625,8.08783984375,6.83273828125,0.0527851562499997,3.63443359375,8.13816015625,7.62387109375,1.5724140625,-0.13804296875,7.83971875,9.15133203125,3.12612890625,-1.22854296875,5.7286796875,13.89691796875,8.79685546875,3.0296796875,3.93021484375,10.73784765625,7.63992578125,6.1175546875,-1.2137421875,3.63216796875,11.3731875,9.14465625,1.77195703125,7.0216015625,2.10808203125,1.87692578125,5.2284140625
3.039390625,8.06183984375,6.79573828125,-0.99921484375,3.25343359375,7.31816015625,7.32287109375,-0.8315859375,-0.90104296875,7.27471875,8.23933203125,-3.32887109375,-1.37654296875,5.4186796875,12.77491796875,7.24685546875,2.3936796875,2.93921484375,9.77484765625,5.58892578125,4.7785546875,-0.2407421875,2.43716796875,10.3301875,7.58465625,1.07795703125,5.1016015625,0.85608203125,0.554925781250001,3.9774140625
1.396390625,8.63183984375,7.36173828125,-1.98421484375,3.15243359375,6.65316015625,7.13787109375,-3.7165859375,-1.51204296875,7.04471875,7.38633203125,-10.75687109375,-1.44154296875,5.5296796875,11.75691796875,5.44185546875,1.4426796875,2.09021484375,9.04384765625,3.21192578125,3.2375546875,1.6362578125,1.43716796875,9.2721875,5.77265625,-0.0550429687499996,3.1426015625,-0.12291796875,-0.83207421875,2.4764140625
1.396390625,8.63183984375,7.36173828125,-1.98421484375,3.15243359375,6.65316015625,7.13787109375,-3.7165859375,-1.51204296875,7.04471875,7.38633203125,-10.75687109375,-1.44154296875,5.5296796875,11.75691796875,5.44185546875,1.4426796875,2.09021484375,9.04384765625,3.21192578125,3.2375546875,1.6362578125,1.43716796875,9.2721875,5.77265625,-0.0550429687499996,3.1426015625,-0.12291796875,-0.83207421875,2.4764140625
