"Fp1","Fpz","Fp2","F7","F3","Fz","F4","F8","FC5","FC1","FC2","FC6","T7","C3","Cz","C4","T8","CP5","CP1","CP2","CP6","P7","P3","Pz","P4","P8","POz","O1","Oz","O2"
1.30557421875,4.48059375,-5.498703125,-6.77609765625,-5.90262890625,-4.37169921875,-3.6535625,-11.08734375,-7.15901171875,-4.774203125,-0.92566015625,-9.73523046875,-12.6339140625,-6.66268359375,-0.92919921875,10.21940234375,-8.73900390625,-10.8274296875,-4.08581640625,0.89146484375,0.0909843750000001,-11.2278125,-8.43340625,-2.07392578125,-1.0862109375,0.90546875,-7.78022265625,-7.429953125,-7.22430078125,-6.58775
0.75057421875,4.38959375,-5.472703125,-8.97409765625,-7.26462890625,-4.62369921875,-1.9065625,-14.58834375,-9.54901171875,-6.035203125,-3.39066015625,-11.91023046875,-12.2409140625,-8.59568359375,-3.73019921875,-2.31859765625,-4.85400390625,-12.8584296875,-6.37581640625,-4.90353515625,-3.195015625,-12.8508125,-10.53640625,-5.25292578125,-5.3772109375,0.46546875,-9.08622265625,-8.549953125,-8.57230078125,-7.69775
0.52057421875,4.20559375,-5.792703125,-9.97509765625,-7.96262890625,-5.13869921875,-2.5085625,-13.97734375,-10.91401171875,-6.943203125,-5.58566015625,-12.49723046875,-12.0649140625,-10.18468359375,-6.13919921875,-11.15159765625,-1.91200390625,-14.5184296875,-8.48881640625,-9.51253515625,-5.779015625,-14.2048125,-12.37640625,-8.30592578125,-8.8502109375,0.0714687499999997,-10.62922265625,-9.152953125,-9.39530078125,-8.39275
0.59657421875,4.03159375,-6.283703125,-9.51309765625,-7.74562890625,-5.66769921875,-5.0355625,-9.54934375,-10.97301171875,-7.281203125,-7.24166015625,-11.46623046875,-11.8879140625,-11.25568359375,-7.98619921875,-16.11459765625,0.000996093749999538,-15.5714296875,-10.37081640625,-12.74953515625,-7.488015625,-14.9618125,-13.81040625,-11.15092578125,-11.3732109375,-0.50553125,-12.28022265625,-8.966953125,-9.47130078125,-8.54775
0.87157421875,3.99759375,-6.647703125,-7.71309765625,-6.58562890625,-5.84769921875,-8.1105625,-3.18434375,-9.79701171875,-6.970203125,-8.06666015625,-9.47923046875,-11.3519140625,-11.77068359375,-9.19419921875,-17.91159765625,0.93199609375,-15.8994296875,-12.05281640625,-14.70753515625,-8.316015625,-14.8428125,-14.77940625,-13.71892578125,-13.0032109375,-1.50253125,-13.80422265625,-7.886953125,-8.74730078125,-8.18275
1.14857421875,4.11559375,-6.697703125,-5.14309765625,-4.80462890625,-5.47969921875,-10.1925625,2.58265625,-7.89201171875,-6.226203125,-7.93066015625,-7.65223046875,-10.1959140625,-11.91368359375,-9.86219921875,-17.52859765625,0.928996093749999,-15.6294296875,-13.68081640625,-15.68753515625,-8.466015625,-13.8518125,-15.39540625,-16.01092578125,-13.9422109375,-2.99453125,-15.01922265625,-6.133953125,-7.46030078125,-7.52375
1.13057421875,4.19759375,-6.511703125,-2.61209765625,-2.99062890625,-4.69069921875,-10.4145625,5.75065625,-6.01501171875,-5.522203125,-7.02766015625,-6.96423046875,-8.4099140625,-12.00268359375,-10.26919921875,-15.85459765625,0.0449960937499996,-15.0934296875,-15.41781640625,-16.09253515625,-8.325015625,-12.3188125,-15.86940625,-18.05192578125,-14.4662109375,-4.84853125,-15.86522265625,-4.218953125,-6.06030078125,-6.93775
0.60057421875,3.97359375,-6.349703125,-0.74409765625,-1.67962890625,-3.81469921875,-8.9095625,5.71365625,-4.71701171875,-5.299203125,-5.79766015625,-7.69023046875,-6.1819140625,-12.20968359375,-10.68419921875,-13.54059765625,-1.56300390625,-14.5514296875,-17.20481640625,-16.23653515625,-8.319015625,-10.6508125,-16.27940625,-19.73692578125,-14.7692109375,-6.82953125,-16.29722265625,-2.626953125,-4.93330078125,-6.70575
-0.33842578125,3.32759375,-6.420703125,0.39490234375,-1.03962890625,-3.12369921875,-6.5205625,3.34465625,-3.96601171875,-5.637203125,-4.67366015625,-9.29723046875,-3.7169140625,-12.32468359375,-11.14119921875,-11.00759765625,-3.57200390625,-13.9444296875,-18.61281640625,-16.18053515625,-8.690015625,-9.0168125,-16.38040625,-20.71892578125,-14.8332109375,-8.73053125,-16.14122265625,-1.490953125,-4.14030078125,-6.81775
-1.28442578125,2.38359375,-6.760703125,1.22490234375,-0.83862890625,-2.70469921875,-4.2755625,0.29865625,-3.23401171875,-6.208203125,-3.90466015625,-10.88423046875,-1.2219140625,-11.87868359375,-11.42519921875,-8.56459765625,-5.54800390625,-12.9704296875,-19.00081640625,-15.76853515625,-9.397015625,-7.3348125,-15.73340625,-20.55192578125,-14.4872109375,-10.43053125,-15.17122265625,-0.598953125,-3.47030078125,-7.01875
-1.87742578125,1.33759375,-7.341703125,2.14990234375,-0.78162890625,-2.58769921875,-3.0165625,-2.03434375,-2.04901171875,-6.606203125,-3.61666015625,-11.79723046875,0.9250859375,-10.57768359375,-11.33519921875,-6.58759765625,-7.11400390625,-11.4814296875,-17.97681640625,-14.88153515625,-10.213015625,-5.6088125,-14.11240625,-19.06192578125,-13.6512109375,-11.84853125,-13.40022265625,0.220046875,-2.78830078125,-7.10975
-2.07842578125,0.24859375,-8.203703125,3.08190234375,-0.84862890625,-2.91869921875,-3.2205625,-3.22534375,-0.51301171875,-6.706203125,-3.93566015625,-11.95423046875,2.0790859375,-8.66468359375,-10.94319921875,-5.55859765625,-8.10300390625,-9.8014296875,-15.74981640625,-13.66853515625,-10.930015625,-4.2368125,-11.83640625,-16.60592578125,-12.5302109375,-12.85753125,-11.28722265625,0.753046875,-2.32430078125,-7.18575
-2.09242578125,-0.940406250000001,-9.409703125,3.44790234375,-1.29562890625,-3.89069921875,-4.8565625,-3.71734375,0.69898828125,-6.697203125,-4.93466015625,-11.65123046875,1.6180859375,-6.82868359375,-10.54519921875,-5.83659765625,-8.56200390625,-8.5994296875,-13.02681640625,-12.47453515625,-11.429015625,-3.8718125,-9.64240625,-13.90692578125,-11.5012109375,-13.23653125,-9.53922265625,0.497046875,-2.53230078125,-7.53075
-2.04242578125,-2.13040625,-10.789703125,2.70190234375,-2.27762890625,-5.42669921875,-7.3025625,-4.13034375,0.87898828125,-6.746203125,-6.38866015625,-11.06323046875,-0.5009140625,-5.68268359375,-10.29819921875,-7.27659765625,-8.59600390625,-8.3424296875,-10.49381640625,-11.48353515625,-11.552015625,-4.8548125,-8.14440625,-11.53292578125,-10.7382109375,-12.70553125,-8.58622265625,-0.804953125,-3.57730078125,-8.20375
-1.75542578125,-2.83740625,-11.759703125,0.90990234375,-3.45862890625,-6.92669921875,-9.4445625,-4.54634375,-0.0990117187500004,-6.629203125,-7.60866015625,-9.91323046875,-3.3979140625,-5.23368359375,-9.87919921875,-9.00259765625,-8.19700390625,-8.8034296875,-8.27881640625,-10.39753515625,-10.931015625,-6.7088125,-7.28740625,-9.41792578125,-9.9002109375,-11.03453125,-8.13622265625,-2.678953125,-4.89530078125,-8.68375
-0.80542578125,-2.27040625,-11.464703125,-1.07509765625,-3.99562890625,-7.39569921875,-10.0575625,-4.34434375,-1.54201171875,-5.704203125,-7.61666015625,-7.70223046875,-5.5169140625,-4.78668359375,-8.52319921875,-9.64559765625,-7.21600390625,-9.0454296875,-5.87081640625,-8.46453515625,-9.047015625,-8.1588125,-6.29440625,-6.86692578125,-8.1952109375,-8.20053125,-7.22422265625,-3.933953125,-5.29230078125,-7.97375
1.22357421875,0.234593749999999,-9.243703125,-2.00209765625,-2.99462890625,-5.96569921875,-8.3415625,-2.70134375,-2.29401171875,-3.309203125,-5.64566015625,-4.31523046875,-5.4139140625,-3.40568359375,-5.49619921875,-7.99259765625,-5.50600390625,-7.9534296875,-2.54681640625,-4.94153515625,-5.578015625,-7.7568125,-4.17440625,-3.07292578125,-4.8772109375,-4.51953125,-4.80722265625,-3.268953125,-3.60530078125,-5.16975
4.39757421875,4.70459375,-5.134703125,-0.98109765625,-0.13762890625,-2.48569921875,-4.3545625,0.62765625,-1.45001171875,0.680796875,-1.67566015625,-0.445230468749999,-2.5989140625,-0.59868359375,-0.69119921875,-3.71559765625,-3.11500390625,-4.9884296875,1.97618359375,0.31646484375,-0.792015625,-4.7638125,-0.47340625,2.18807421875,0.1497890625,-0.65653125,-0.523222656250001,-0.113953125,0.47169921875,-0.16675
8.17457421875,10.27759375,-0.0427031250000001,1.86690234375,3.94437109375,2.23730078125,0.9064375,4.85265625,0.98898828125,5.545796875,3.39633984375,2.60976953125,2.0750859375,3.22331640625,5.09280078125,2.33340234375,-0.37000390625,-0.6474296875,7.15518359375,6.54146484375,4.329984375,0.2711875,4.25959375,8.18807421875,6.0357890625,2.55446875,4.87577734375,4.829046875,5.96969921875,6.00525
11.49757421875,15.45159375,4.585296875,5.34090234375,7.85937109375,6.73730078125,5.8994375,8.40965625,4.00398828125,9.927796875,8.10233984375,3.67776953125,6.7370859375,6.86131640625,10.41480078125,8.49940234375,2.21299609375,3.6775703125,11.77418359375,12.30446484375,8.447984375,5.6321875,8.63259375,13.47507421875,11.2827890625,4.40146875,9.75477734375,9.758046875,10.96069921875,11.50625
13.30757421875,18.74159375,7.421296875,7.76690234375,10.11237109375,9.57030078125,9.2164375,9.81465625,6.10698828125,12.471796875,11.10133984375,2.49976953125,9.3760859375,8.95031640625,13.86780078125,13.11740234375,4.13599609375,6.3785703125,14.55618359375,16.17146484375,10.504984375,9.2441875,11.10759375,16.59307421875,14.4657890625,4.59246875,12.38577734375,12.611046875,13.48169921875,14.52425
13.12357421875,19.37059375,7.876296875,7.94290234375,9.87837109375,9.98230078125,10.1754375,8.53765625,6.20898828125,12.504796875,11.76633984375,0.03676953125,8.8030859375,8.72031640625,14.74380078125,15.20840234375,5.16399609375,6.4575703125,14.83618359375,17.38746484375,10.271984375,9.7101875,10.83259375,16.84107421875,14.9447890625,3.39246875,11.85377734375,12.128046875,12.53169921875,14.17025
11.26857421875,17.57159375,6.313296875,5.78690234375,7.40737109375,8.21330078125,9.0044375,5.30965625,4.22198828125,10.361796875,10.36833984375,-1.99623046875,5.1940859375,6.41831640625,13.31980078125,14.75040234375,5.46999609375,4.0125703125,12.89718359375,16.16646484375,8.441984375,6.9761875,8.08159375,14.61307421875,13.1307890625,1.52146875,8.51977734375,8.492046875,8.56769921875,10.88825
8.62957421875,14.39459375,3.788296875,2.33090234375,3.86737109375,5.29630078125,6.5844375,1.73465625,1.05498828125,7.171796875,7.81133984375,-2.14923046875,-0.0579140625000001,3.16331640625,10.62480078125,12.48740234375,5.57499609375,0.1385703125,9.79218359375,13.49346484375,6.210984375,2.2521875,4.08559375,11.14907421875,10.1847890625,-0.14553125,3.81677734375,3.200046875,3.24169921875,6.19425
6.20357421875,11.17759375,1.506296875,-0.87109765625,0.74337109375,2.52130078125,3.9834375,-0.45234375,-1.90901171875,4.278796875,5.17233984375,-0.12723046875,-5.0459140625,0.36931640625,7.91580078125,9.49940234375,6.07399609375,-3.6324296875,6.82518359375,10.60846484375,4.641984375,-2.6388125,0.40759375,7.91107421875,7.3987890625,-0.93553125,-0.457222656250001,-1.695953125,-1.41330078125,1.94225
4.72257421875,9.01159375,0.336296874999999,-2.49909765625,-0.83262890625,0.89830078125,2.0564375,-0.0983437500000002,-3.47901171875,2.675796875,3.30833984375,3.08876953125,-8.1529140625,-0.88868359375,6.17280078125,6.79340234375,7.28699609375,-5.9694296875,5.02518359375,8.50746484375,4.222984375,-6.0538125,-1.70840625,5.97907421875,5.6647890625,-0.60853125,-2.88022265625,-4.485953125,-3.83030078125,-0.43275
4.44957421875,8.40859375,0.567296875,-2.01109765625,-0.49662890625,0.84130078125,1.2464375,2.92565625,-3.14401171875,2.693796875,2.66633984375,5.94476953125,-8.5859140625,-0.24168359375,5.82680078125,5.07440234375,9.01799609375,-6.1944296875,4.85318359375,7.66746484375,4.826984375,-7.0718125,-1.71440625,5.74207421875,5.2457890625,0.614468749999999,-2.85422265625,-4.401953125,-3.41130078125,-0.34675
5.12057421875,9.19759375,1.892296875,0.19590234375,1.29537109375,2.12130078125,1.5224375,7.65465625,-1.23801171875,3.982796875,3.22133984375,7.25176953125,-6.5259140625,1.92731640625,6.71080078125,4.60840234375,10.58899609375,-4.4504296875,6.12918359375,7.97446484375,5.917984375,-5.7148125,0.16459375,6.88707421875,5.8327890625,2.19846875,-0.70622265625,-1.792953125,-0.61430078125,1.84425
6.06757421875,10.63859375,3.559296875,2.99590234375,3.49937109375,3.97930078125,2.3904375,12.39065625,1.21098828125,5.688796875,4.47733984375,6.68976953125,-2.9799140625,4.63831640625,8.12580078125,5.10940234375,11.15699609375,-1.6464296875,8.08918359375,8.77146484375,6.812984375,-2.8728125,3.03459375,8.53107421875,6.7137890625,3.51246875,2.44777734375,2.060046875,3.26469921875,5.03225
6.53357421875,11.72759375,4.644296875,5.04590234375,4.92137109375,5.41930078125,3.0604375,15.37765625,2.92998828125,6.774796875,5.60633984375,4.64876953125,0.5800859375,6.64331640625,9.07080078125,5.77040234375,10.14399609375,0.8445703125,9.58418359375,9.06046484375,6.894984375,0.0111875000000001,5.58259375,9.48207421875,7.0207890625,4.05146875,5.05077734375,5.406046875,6.52669921875,7.75325
6.00057421875,11.63259375,4.441296875,5.39790234375,4.74337109375,5.65530078125,2.8384375,15.48565625,2.98098828125,6.476796875,5.83333984375,1.72476953125,2.7580859375,6.88331640625,8.65780078125,5.65140234375,7.55299609375,1.7015703125,9.47118359375,7.91346484375,5.796984375,1.4831875,6.50259375,8.64207421875,6.0237890625,3.59446875,5.65477734375,6.672046875,7.68869921875,8.73625
4.40057421875,10.09059375,2.811296875,3.92290234375,2.93137109375,4.54430078125,1.5644375,12.63365625,1.19898828125,4.691796875,4.90233984375,-1.63423046875,2.7790859375,4.94831640625,6.57680078125,4.25840234375,4.02599609375,0.225570312499999,7.10118359375,4.95546484375,3.546984375,0.6751875,5.00059375,5.46507421875,3.4377890625,2.23246875,3.49777734375,5.073046875,6.07269921875,7.40425
2.12557421875,7.53259375,0.290296875,1.33890234375,0.26737109375,2.70630078125,-0.2045625,7.81865625,-1.75701171875,2.066796875,3.27233984375,-5.06723046875,0.8000859375,1.25831640625,3.30780078125,1.88040234375,0.59199609375,-3.3424296875,2.63118359375,0.61346484375,0.574984375,-2.3388125,1.12559375,0.225074218750001,-0.4352109375,0.27546875,-1.16722265625,0.916046875,2.06369921875,4.07525
-0.115425781249999,4.86959375,-2.143703125,-1.16309765625,-2.02662890625,1.21830078125,-1.4395625,2.75665625,-4.72301171875,-0.307203125,1.88033984375,-7.95323046875,-2.1999140625,-3.10368359375,-0.0861992187500005,-0.59659765625,-1.73400390625,-7.9134296875,-3.00281640625,-4.04453515625,-2.447015625,-6.5878125,-4.24240625,-6.05292578125,-4.8002109375,-1.88253125,-7.17622265625,-4.553953125,-3.08330078125,-0.22175
-1.56142578125,3.07859375,-3.525703125,-2.44609765625,-2.84162890625,1.09030078125,-1.1585625,-0.79634375,-6.52401171875,-1.381203125,1.64133984375,-9.28123046875,-4.8759140625,-6.82668359375,-2.44019921875,-2.21359765625,-2.36400390625,-12.0074296875,-8.41781640625,-7.75953515625,-4.845015625,-10.6118125,-9.70640625,-11.94592578125,-8.6422109375,-3.84953125,-12.89622265625,-9.635953125,-7.76330078125,-4.17175
-1.74042578125,2.79359375,-3.332703125,-1.87709765625,-1.63062890625,2.79330078125,1.0214375,-1.72334375,-6.41101171875,-0.583203125,2.98733984375,-8.04923046875,-6.1139140625,-8.82668359375,-2.97619921875,-2.41759765625,-1.35800390625,-14.3304296875,-12.26881640625,-9.56953515625,-6.152015625,-13.0458125,-13.83240625,-16.09192578125,-11.0672109375,-5.28553125,-16.81522265625,-12.806953125,-10.61530078125,-6.64475
-0.700425781249999,4.04259375,-1.725703125,0.44790234375,1.37637109375,6.01130078125,4.5804375,0.0986562499999998,-4.31001171875,1.948796875,5.62033984375,-4.05523046875,-5.5259140625,-8.62968359375,-1.62719921875,-1.28659765625,0.62399609375,-14.2834296875,-13.72081640625,-9.17653515625,-6.235015625,-13.1758125,-15.65140625,-17.64792578125,-11.5982109375,-5.96253125,-18.06522265625,-13.276953125,-10.99730078125,-7.06675
1.00357421875,6.20959375,0.489296875,3.74590234375,5.23437109375,9.69030078125,8.1964375,3.89765625,-0.84201171875,5.373796875,8.57233984375,1.55276953125,-3.6569140625,-6.54368359375,0.89980078125,0.53540234375,2.61599609375,-12.2004296875,-12.76481640625,-7.05053515625,-5.323015625,-11.2468125,-15.01840625,-16.59092578125,-10.3382109375,-5.85153125,-16.70322265625,-11.291953125,-9.21030078125,-5.62375
2.54557421875,8.25459375,2.196296875,6.82990234375,8.60937109375,12.40930078125,10.3104375,8.31965625,2.89298828125,8.426796875,10.58933984375,6.53376953125,-1.7519140625,-3.55368359375,3.40480078125,2.18440234375,3.74599609375,-9.1894296875,-10.19281640625,-4.21653515625,-3.910015625,-8.3448125,-12.63640625,-13.70592578125,-7.9142109375,-5.14953125,-13.62922265625,-8.019953125,-6.35630078125,-3.17775
3.13157421875,9.13459375,2.460296875,8.55890234375,10.28037109375,12.98730078125,9.8804375,11.80965625,5.68798828125,9.910796875,10.72133984375,8.62476953125,-1.1239140625,-0.91768359375,4.71780078125,3.02240234375,3.54799609375,-6.6244296875,-7.20281640625,-1.79653515625,-2.541015625,-5.8798125,-9.68940625,-10.21792578125,-5.1962109375,-4.19753125,-10.15022265625,-5.019953125,-3.84130078125,-0.89475
2.28357421875,8.25959375,0.957296875,8.27690234375,9.62837109375,11.02030078125,6.8994375,13.03965625,6.66898828125,9.193796875,8.76333984375,6.75576953125,-2.4219140625,0.37831640625,4.22180078125,2.90040234375,2.09399609375,-5.4994296875,-4.83881640625,-0.52353515625,-1.586015625,-4.8858125,-7.26040625,-7.23392578125,-2.9552109375,-3.31053125,-7.38922265625,-3.523953125,-2.72530078125,0.29025
0.0615742187500001,5.75859375,-1.891703125,6.08790234375,6.87937109375,7.05630078125,2.3704375,11.43165625,5.61598828125,6.456796875,5.30933984375,1.64076953125,-5.2109140625,0.02531640625,2.09680078125,2.04340234375,-0.0600039062500004,-5.9984296875,-3.55981640625,-0.50653515625,-1.149015625,-5.5268125,-5.85840625,-5.30092578125,-1.6092109375,-2.66853125,-5.84922265625,-3.892953125,-3.24730078125,0.10225
-2.88642578125,2.43359375,-5.118703125,2.82290234375,2.99337109375,2.34930078125,-2.2035625,7.54365625,3.05698828125,2.602796875,1.42433984375,-4.54023046875,-8.1499140625,-1.51768359375,-0.81319921875,0.753402343749999,-2.08600390625,-7.4614296875,-3.14781640625,-1.29653515625,-1.131015625,-7.0448125,-5.28140625,-4.27392578125,-1.1472109375,-2.29553125,-5.30022265625,-5.506953125,-4.76130078125,-0.96275
-5.54642578125,-0.567406250000001,-7.617703125,-0.27209765625,-0.68962890625,-1.62169921875,-5.4375625,2.97765625,0.0839882812499999,-1.076203125,-1.75366015625,-9.14523046875,-9.6569140625,-3.24268359375,-3.35119921875,-0.69959765625,-3.19900390625,-8.7494296875,-2.90281640625,-2.10953515625,-1.310015625,-8.1708125,-4.81540625,-3.48592578125,-1.1742109375,-2.09753125,-4.99322265625,-7.101953125,-6.06130078125,-1.87875
-6.95242578125,-2.18140625,-8.517703125,-1.99509765625,-2.90062890625,-3.61869921875,-6.4725625,-0.27434375,-2.04501171875,-3.313203125,-3.28966015625,-10.26923046875,-8.6629140625,-4.00768359375,-4.42619921875,-1.90859765625,-2.96500390625,-8.7604296875,-1.97881640625,-2.08353515625,-1.370015625,-7.7338125,-3.62440625,-2.08692578125,-1.0362109375,-1.89553125,-4.05222265625,-7.358953125,-5.92830078125,-1.55075
-6.54342578125,-1.79940625,-7.450703125,-1.62509765625,-2.86162890625,-3.00269921875,-5.1015625,-0.76434375,-2.39401171875,-3.266203125,-2.61766015625,-7.56823046875,-5.0949140625,-3.02168359375,-3.35419921875,-2.19759765625,-1.47000390625,-6.9184296875,0.229183593749999,-0.54753515625,-0.943015625,-5.2028125,-1.18340625,0.553074218750001,-0.0622109375000002,-1.46853125,-1.91422265625,-5.509953125,-3.70730078125,0.64125
-4.35642578125,0.493593749999999,-4.681703125,0.76890234375,-0.60062890625,0.0243007812499998,-1.7415625,1.67465625,-0.76901171875,-0.853203125,0.26033984375,-2.32423046875,0.0660859374999996,-0.24568359375,-0.14819921875,-0.87359765625,0.715996093749999,-3.4734296875,3.74418359375,2.66246484375,0.222984375,-0.9938125,2.37559375,4.46707421875,2.0877890625,-0.64253125,1.32177734375,-1.751953125,0.28969921875,4.42925
-1.05142578125,3.90459375,-1.077703125,4.27790234375,2.98037109375,4.39630078125,2.6504375,5.81165625,2.12198828125,3.120796875,4.62533984375,3.26476953125,5.1050859375,3.47731640625,4.36780078125,2.25040234375,2.81199609375,0.5055703125,7.86018359375,6.99346484375,2.053984375,3.5961875,6.17759375,8.93007421875,5.1147890625,0.58146875,4.79777734375,2.716046875,4.75869921875,8.61325
2.23457421875,7.19659375,2.162296875,7.45090234375,6.42037109375,8.52530078125,6.7664375,9.66165625,4.93098828125,7.209796875,9.14533984375,7.12876953125,8.1980859375,6.75531640625,8.78980078125,6.53040234375,4.17099609375,3.5475703125,11.36518359375,11.28246484375,4.104984375,6.8621875,8.92659375,12.69407421875,8.1057890625,1.97246875,7.22677734375,6.149046875,7.91169921875,11.50625
4.30457421875,9.18559375,3.976296875,8.92390234375,8.32337109375,10.91930078125,9.3114375,11.54565625,6.32498828125,9.932796875,12.34633984375,8.15576953125,8.1640859375,8.32531640625,11.71280078125,10.71040234375,4.54099609375,4.4765703125,13.12818359375,14.25446484375,5.786984375,7.4641875,9.55459375,14.57807421875,9.9527890625,3.13846875,7.53977734375,7.068046875,8.32869921875,11.75425
4.49257421875,9.28059375,3.910296875,8.07990234375,8.00537109375,10.82430078125,9.4774375,10.94765625,5.68498828125,10.443796875,13.24033984375,6.50076953125,5.0290859375,7.73631640625,12.38080078125,13.52840234375,4.11099609375,3.0555703125,12.72318359375,15.15446484375,6.712984375,5.1421875,7.84859375,14.11607421875,9.9737890625,3.72546875,5.53677734375,5.040046875,5.74469921875,9.09625
3.06057421875,7.77559375,2.348296875,5.38590234375,5.82237109375,8.56630078125,7.3414375,8.63765625,3.45398828125,8.922796875,11.79733984375,3.39576953125,0.1240859375,5.61831640625,11.06580078125,14.33640234375,3.36299609375,0.198570312499999,10.74618359375,14.16346484375,6.954984375,0.9611875,4.69859375,11.86907421875,8.3487890625,3.65446875,2.13177734375,0.997046875,1.30569921875,4.62925
1.08857421875,5.74059375,0.370296875,2.16490234375,3.00337109375,5.42430078125,3.9644375,6.10465625,0.90398828125,6.495796875,9.00433984375,0.63576953125,-4.4119140625,3.40231640625,8.96780078125,13.41640234375,2.84999609375,-2.4194296875,8.61018359375,12.34946484375,7.027984375,-3.0958125,1.77559375,9.23907421875,6.1087890625,3.28446875,-0.973222656250001,-3.102953125,-2.85730078125,0.39025
-0.0814257812499997,4.49659375,-0.736703125,-0.09009765625,1.03937109375,3.04330078125,1.0024375,4.72665625,-0.55801171875,4.668796875,6.41633984375,-0.13023046875,-6.5539140625,2.58731640625,7.62380078125,11.79640234375,2.98299609375,-3.1894296875,7.86518359375,11.13146484375,7.581984375,-5.0518125,0.76759375,7.79907421875,4.6367890625,3.31246875,-2.08122265625,-5.170953125,-4.62530078125,-1.59875
0.47257421875,4.92059375,-0.123703125,-0.47809765625,0.93037109375,2.62130078125,-0.0885625000000001,5.15865625,-0.14601171875,4.558796875,5.36433984375,1.87676953125,-5.3509140625,3.94031640625,8.11080078125,10.62040234375,3.93099609375,-1.4224296875,9.37418359375,11.50546484375,8.959984375,-3.9168125,2.50459375,8.49107421875,4.9257890625,4.38846875,-0.37322265625,-4.019953125,-2.95230078125,-0.36975
2.81257421875,6.95359375,2.177296875,0.88990234375,2.69537109375,4.31530078125,1.1584375,7.15665625,1.93298828125,6.330796875,6.24933984375,6.13176953125,-1.3909140625,7.07931640625,10.46680078125,10.43040234375,5.60299609375,2.2675703125,12.81518359375,13.47146484375,10.904984375,-0.1878125,6.49559375,11.10907421875,7.0127890625,6.64146875,3.64377734375,0.038046875,1.57669921875,3.48225
6.09957421875,9.62959375,5.277296875,3.05590234375,5.45337109375,7.25330078125,3.9844375,9.77165625,4.67298828125,9.194796875,8.40633984375,10.93576953125,3.5160859375,10.71031640625,13.72180078125,10.88540234375,7.69499609375,6.2945703125,16.84718359375,16.05846484375,12.659984375,4.4531875,11.17559375,14.44607421875,9.9697890625,9.45546875,8.38977734375,5.394046875,7.05869921875,8.11625
9.00757421875,11.62159375,7.927296875,4.80890234375,7.97437109375,10.11830078125,6.9484375,11.78965625,6.86398828125,11.920796875,10.61633984375,14.13576953125,7.2810859375,13.32931640625,16.48280078125,11.13940234375,9.71199609375,8.9485703125,19.81918359375,17.92246484375,13.405984375,8.0201875,14.69959375,16.96207421875,12.4417890625,11.72046875,12.02877734375,9.983046875,11.25769921875,11.41025
10.37457421875,11.94559375,9.144296875,5.30690234375,9.30037109375,11.86330078125,8.8194375,12.23265625,7.66798828125,13.476796875,11.86533984375,14.11576953125,8.5260859375,13.91331640625,17.66280078125,10.52440234375,11.03599609375,9.1895703125,20.53518359375,18.06446484375,12.701984375,9.1301875,15.78059375,17.54207421875,13.3617890625,12.43246875,13.30977734375,12.236046875,12.64269921875,11.97525
9.74957421875,10.41459375,8.607296875,4.36090234375,9.05637109375,12.09930078125,9.1924375,10.76565625,6.86398828125,13.385796875,11.79033984375,10.57676953125,7.0450859375,12.22231640625,16.86480078125,8.97240234375,11.08999609375,6.9615703125,18.64718359375,16.20746484375,10.647984375,7.4371875,14.09559375,15.87307421875,12.3777890625,11.26446875,11.98277734375,11.616046875,10.92169921875,9.67225
7.49557421875,7.62859375,6.656296875,2.34990234375,7.41437109375,11.02930078125,8.4534375,7.84665625,4.75198828125,11.723796875,10.62633984375,4.74276953125,3.6320859375,8.68431640625,14.32980078125,6.91740234375,9.60999609375,2.9975703125,14.57518359375,12.71346484375,7.734984375,3.5381875,10.17559375,12.36707421875,9.8437890625,8.74846875,8.68077734375,8.610046875,6.93669921875,5.48725
4.47657421875,4.61359375,4.035296875,-0.05309765625,4.88437109375,9.15730078125,7.2924375,4.52765625,1.92398828125,8.920796875,8.85533984375,-1.18923046875,-0.4619140625,4.10831640625,10.65880078125,4.90340234375,6.83099609375,-1.6074296875,9.19218359375,8.27446484375,4.591984375,-1.4148125,5.02859375,7.83907421875,6.5227890625,5.95146875,4.49777734375,4.357046875,2.15969921875,0.97025
1.63457421875,2.34259375,1.558296875,-2.10909765625,2.13737109375,7.01930078125,6.2184375,1.99365625,-0.88901171875,5.579796875,6.90333984375,-5.09623046875,-4.0369140625,-0.56368359375,6.55480078125,3.25740234375,3.42999609375,-5.7714296875,3.49018359375,3.64146484375,1.780984375,-6.1148125,-0.23440625,3.18007421875,3.2397890625,3.87746875,0.553777343749999,0.210046875,-1.89230078125,-2.42375
-0.28442578125,1.39359375,-0.158703125,-3.13509765625,-0.11462890625,5.06930078125,5.3784375,1.05965625,-2.90401171875,2.368796875,5.03433984375,-5.93323046875,-6.2099140625,-4.41568359375,2.68880078125,2.02040234375,0.239996093749999,-8.6274296875,-1.62581640625,-0.51753515625,-0.317015625,-9.4068125,-4.64640625,-0.86292578125,0.6387890625,2.93646875,-2.30722265625,-2.657953125,-4.11230078125,-3.81775
-0.881425781249999,1.79859375,-0.861703125,-2.62809765625,-1.23962890625,3.64130078125,4.6564375,1.81565625,-3.42901171875,-0.0712031249999996,3.39333984375,-4.11123046875,-6.4949140625,-6.71568359375,-0.39119921875,1.05740234375,-2.10600390625,-9.6504296875,-5.48481640625,-3.70753515625,-1.576015625,-10.5318125,-7.52740625,-3.81192578125,-0.9542109375,2.79046875,-3.68722265625,-3.539953125,-4.06830078125,-3.12775
-0.23542578125,3.08759375,-0.716703125,-0.46409765625,-0.88362890625,2.91230078125,3.8574375,3.58965625,-2.13601171875,-1.305203125,2.05833984375,-1.08123046875,-4.8669140625,-7.10668359375,-2.37419921875,0.19140234375,-3.41400390625,-8.7814296875,-7.77181640625,-5.70753515625,-2.155015625,-9.3688125,-8.61140625,-5.56392578125,-1.6032109375,2.61046875,-3.71122265625,-2.420953125,-2.10230078125,-1.03575
1.08257421875,4.46859375,-0.239703125,2.93090234375,0.81737109375,2.83130078125,2.8714375,5.23265625,0.67898828125,-1.293203125,1.04033984375,1.48676953125,-1.8629140625,-5.79168359375,-3.29119921875,-0.72159765625,-3.95400390625,-6.5304296875,-8.62981640625,-6.65853515625,-2.470015625,-6.5648125,-8.15440625,-6.41492578125,-1.7342109375,1.56946875,-3.01122265625,-0.0419531249999999,0.74669921875,1.23725
2.24357421875,5.12259375,-0.0707031250000001,6.60290234375,3.19537109375,3.10430078125,1.7554375,5.61665625,4.09598828125,-0.453203125,0.28033984375,2.40476953125,1.4450859375,-3.53668359375,-3.50419921875,-1.74359765625,-4.25500390625,-3.9004296875,-8.59781640625,-7.00153515625,-3.034015625,-3.3928125,-6.89140625,-6.94692578125,-1.9532109375,-0.68453125,-2.51022265625,2.311046875,3.06169921875,2.37525
2.53257421875,4.54259375,-0.678703125,9.40390234375,5.29037109375,3.32830078125,0.7384375,4.11165625,6.92698828125,0.526796875,-0.30166015625,1.25576953125,3.8010859375,-1.36968359375,-3.50019921875,-2.83759765625,-4.76300390625,-2.0164296875,-8.32981640625,-7.23153515625,-4.193015625,-1.2328125,-5.72440625,-7.71392578125,-2.7352109375,-3.82653125,-2.98922265625,3.356046875,3.62069921875,1.52325
1.65057421875,2.76859375,-2.130703125,10.47290234375,6.29337109375,3.23430078125,0.1254375,0.86965625,8.24698828125,1.055796875,-0.72966015625,-1.58623046875,4.3550859375,-0.10168359375,-3.60919921875,-3.84159765625,-5.56000390625,-1.5864296875,-8.21581640625,-7.58153515625,-5.876015625,-0.9058125,-5.25140625,-8.88092578125,-4.1202109375,-6.97553125,-4.63322265625,2.469046875,1.99269921875,-1.27275
-0.21442578125,0.366593749999999,-4.061703125,9.59590234375,5.93937109375,2.85930078125,0.1494375,-3.16934375,7.79098828125,0.943796875,-0.92666015625,-5.04923046875,3.1140859375,0.0453164062499996,-3.81819921875,-4.48659765625,-6.33500390625,-2.5274296875,-8.15181640625,-7.85253515625,-7.531015625,-2.2548125,-5.43340625,-10.06492578125,-5.6142109375,-9.07353125,-6.86322265625,0.0470468750000002,-1.20130078125,-5.02475
-2.47442578125,-1.83340625,-5.857703125,7.25290234375,4.59837109375,2.50830078125,0.8434375,-6.51834375,6.00498828125,0.447796875,-0.76866015625,-7.62123046875,0.930085937499999,-0.53268359375,-3.82919921875,-4.47159765625,-6.63000390625,-4.0324296875,-7.64581640625,-7.54053515625,-8.351015625,-4.2598125,-5.64940625,-10.51892578125,-6.4052109375,-9.33353125,-8.61722265625,-2.689953125,-4.59230078125,-8.25475
-4.37942578125,-3.10240625,-6.947703125,4.35690234375,3.04437109375,2.54930078125,1.9944375,-7.63334375,3.77298828125,0.0627968750000003,-0.20166015625,-7.90623046875,-0.9869140625,-1.12368359375,-3.28219921875,-3.61459765625,-6.15700390625,-5.0164296875,-6.17981640625,-6.19153515625,-7.680015625,-5.6258125,-5.11440625,-9.56992578125,-5.7842109375,-7.57953125,-8.92622265625,-4.358953125,-6.75930078125,-9.71875
-5.32542578125,-3.08640625,-7.019703125,1.85190234375,2.08837109375,3.22030078125,3.2434375,-5.56934375,2.01098828125,0.256796875,0.71633984375,-5.35323046875,-1.6849140625,-1.06868359375,-1.97019921875,-1.97259765625,-4.93900390625,-4.6614296875,-3.54681640625,-3.70553515625,-5.368015625,-5.4498125,-3.33240625,-6.98992578125,-3.5322109375,-4.33553125,-7.40122265625,-4.102953125,-6.90730078125,-8.96875
-5.07642578125,-1.85340625,-6.045703125,0.42190234375,2.29337109375,4.57830078125,4.3034375,-0.51934375,1.38498828125,1.314796875,1.89333984375,-0.71323046875,-0.8479140625,0.0213164062499995,0.11780078125,0.16040234375,-3.23000390625,-2.7134296875,0.058183593749999,-0.38253515625,-1.831015625,-3.5668125,-0.31540625,-3.08592578125,-0.0162109374999999,-0.59153125,-4.35222265625,-1.915953125,-5.10930078125,-6.43375
-3.74042578125,0.257593749999999,-4.175703125,0.39190234375,3.85237109375,6.54930078125,5.1624375,6.09365625,2.21098828125,3.296796875,3.30933984375,4.21276953125,1.2070859375,2.22531640625,2.86280078125,2.41740234375,-1.30000390625,0.532570312499999,4.17218359375,3.26946484375,2.163984375,-0.4878125,3.49859375,1.48507421875,4.0167890625,2.62746875,-0.53022265625,1.508046875,-2.09530078125,-3.05175
-1.59642578125,2.82559375,-1.667703125,1.72590234375,6.55537109375,8.94430078125,6.0934375,12.06265625,4.44798828125,6.030796875,5.01233984375,7.50776953125,3.7570859375,5.32231640625,6.05880078125,4.52940234375,0.68799609375,4.4175703125,8.24618359375,6.76146484375,5.810984375,2.9041875,7.44259375,5.97707421875,7.7707890625,4.66746875,3.21477734375,5.158046875,1.15469921875,0.20625
0.97257421875,5.41159375,1.094296875,4.02690234375,9.80337109375,11.42830078125,7.4314375,15.21165625,7.64998828125,9.076796875,6.99633984375,8.18476953125,5.9470859375,8.79131640625,9.36980078125,6.40840234375,2.64999609375,8.1095703125,11.73718359375,9.73346484375,8.509984375,5.6391875,10.80059375,9.72007421875,10.6327890625,5.41846875,6.16477734375,8.064046875,3.74869921875,2.63925
3.42157421875,7.54059375,3.593296875,6.54790234375,12.70837109375,13.52330078125,9.2924375,14.25165625,10.96798828125,11.769796875,9.08233984375,6.64176953125,7.0520859375,11.87631640625,12.30380078125,8.13140234375,4.47599609375,10.7875703125,14.17918359375,11.96146484375,9.983984375,6.9211875,12.95759375,12.23007421875,12.2777890625,5.25046875,7.83677734375,9.530046875,5.08269921875,3.89625
5.09857421875,8.74659375,5.290296875,8.36390234375,14.35137109375,14.71830078125,11.4054375,9.43165625,13.33898828125,13.394796875,10.92133984375,4.30376953125,6.7230859375,13.79931640625,14.31480078125,9.83140234375,5.97599609375,11.8645703125,15.28318359375,13.34746484375,10.293984375,6.3731875,13.57659375,13.29607421875,12.6877890625,4.78646875,8.07177734375,9.303046875,4.97069921875,3.96425
5.51957421875,8.74359375,5.847296875,8.72490234375,14.11737109375,14.64430078125,13.1574375,2.64465625,13.89998828125,13.452796875,12.08433984375,2.78176953125,5.1770859375,14.07331640625,15.00480078125,11.49140234375,6.96599609375,11.2295703125,15.06818359375,13.91546484375,9.752984375,4.2491875,12.75159375,13.06207421875,12.1237890625,4.63546875,7.10777734375,7.671046875,3.71669921875,3.16025
4.63257421875,7.59759375,5.304296875,7.41990234375,11.97537109375,13.22030078125,13.8184375,-3.21634375,12.39798828125,11.872796875,12.19633984375,3.09176953125,3.1770859375,12.74431640625,14.29080078125,12.77840234375,7.40499609375,9.3465703125,13.90018359375,13.77646484375,8.780984375,1.4391875,11.02359375,11.98907421875,11.0117890625,5.11446875,5.55677734375,5.412046875,2.05969921875,2.05825
2.82157421875,5.74559375,4.082296875,4.89990234375,8.52237109375,10.73730078125,12.9044375,-5.55034375,9.33498828125,9.069796875,11.10733984375,5.23376953125,1.7370859375,10.39831640625,12.45880078125,13.11840234375,7.42999609375,7.0945703125,12.37718359375,13.08746484375,7.738984375,-0.8378125,9.19859375,10.69107421875,9.7837890625,6.09946875,4.19377734375,3.527046875,0.91269921875,1.30125
0.69857421875,3.81859375,2.805296875,2.05590234375,4.75737109375,7.82030078125,10.5564375,-3.37334375,5.73798828125,5.805796875,9.07033984375,8.19476953125,1.6170859375,7.89631640625,10.08180078125,12.10740234375,7.21399609375,5.3815703125,11.07218359375,12.02846484375,6.846984375,-1.5588125,7.98759375,9.67507421875,8.7347890625,7.09546875,3.62377734375,2.812046875,0.96269921875,1.33725
-1.13642578125,2.36059375,2.010296875,-0.21909765625,1.64337109375,5.22130078125,7.6144375,2.11065625,2.66398828125,2.869796875,6.73833984375,10.31276953125,2.8780859375,5.93331640625,7.79380078125,9.94540234375,6.75599609375,4.6775703125,10.23118359375,10.77046484375,6.173984375,-0.4228125,7.63659375,9.08607421875,7.9577890625,7.54646875,3.94377734375,3.459046875,2.28769921875,2.18425
-2.32542578125,1.55459375,1.851296875,-1.48809765625,-0.35162890625,3.44930078125,5.1774375,8.07265625,0.66498828125,0.684796875,4.81833984375,9.96876953125,4.7310859375,4.61631640625,5.95480078125,7.39940234375,5.84299609375,4.7115703125,9.56418359375,9.35746484375,5.665984375,1.8971875,7.70359375,8.56707421875,7.3087890625,7.17446875,4.60077734375,4.866046875,4.19369921875,3.35125
-2.94742578125,1.11859375,1.956296875,-1.96509765625,-1.48462890625,2.43130078125,3.8284375,11.47765625,-0.48101171875,-0.948203125,3.53833984375,6.41276953125,5.8400859375,3.34731640625,4.37280078125,5.18240234375,4.26999609375,4.5235703125,8.26318359375,7.55046484375,5.163984375,3.9641875,7.18659375,7.33407421875,6.3957890625,6.10246875,4.55477734375,5.834046875,5.45469921875,3.99425
-3.50942578125,0.476593749999999,1.601296875,-2.30009765625,-2.52162890625,1.52030078125,3.1814375,10.58865625,-1.54801171875,-2.702203125,2.38633984375,0.30076953125,5.0150859375,1.17031640625,2.36180078125,3.28940234375,2.16499609375,2.9795703125,5.39918359375,4.86446484375,4.431984375,4.2651875,5.03259375,4.56007421875,4.7147890625,4.71646875,2.79277734375,5.161046875,4.93369921875,3.33125
-4.52742578125,-0.784406250000001,0.218296875,-2.98809765625,-4.10762890625,0.00530078124999989,2.2724375,5.76465625,-3.17901171875,-5.150203125,0.52633984375,-6.43123046875,1.9850859375,-2.50068359375,-0.72519921875,1.05740234375,0.10399609375,-0.4464296875,0.588183593749999,0.95046484375,3.263984375,2.1321875,0.86759375,-0.0229257812499997,2.0057890625,3.43246875,-0.983222656250001,2.434046875,2.34069921875,1.16925
-5.96042578125,-2.44840625,-2.052703125,-3.82309765625,-6.12662890625,-2.18769921875,0.5394375,-0.79734375,-5.20301171875,-8.113203125,-2.33366015625,-11.41823046875,-2.2159140625,-7.21868359375,-4.78519921875,-1.98259765625,-1.12500390625,-5.0804296875,-5.45781640625,-3.86053515625,1.686984375,-1.6738125,-4.48640625,-5.65192578125,-1.3472109375,2.56646875,-5.90622265625,-1.482953125,-1.35230078125,-1.76575
-7.05242578125,-3.62940625,-4.254703125,-3.88409765625,-7.57162890625,-4.19969921875,-1.4985625,-6.23734375,-6.54501171875,-10.491203125,-5.39466015625,-12.96423046875,-5.6249140625,-11.47868359375,-8.69219921875,-5.27759765625,-0.98500390625,-9.1754296875,-10.98681640625,-8.37253515625,0.079984375,-5.1958125,-9.18540625,-10.63492578125,-4.2692109375,2.32846875,-10.13822265625,-4.705953125,-4.24130078125,-4.04275
-6.83742578125,-3.31640625,-5.140703125,-2.17109765625,-7.16162890625,-4.72369921875,-2.5735625,-8.44434375,-5.91801171875,-10.886203125,-7.15966015625,-10.75723046875,-6.4119140625,-13.48668359375,-10.84719921875,-7.40059765625,0.420996093749999,-10.8374296875,-14.04381640625,-11.06153515625,-0.980015625,-6.3558125,-11.29140625,-13.16292578125,-5.5242109375,2.78446875,-11.80922265625,-5.369953125,-4.54130078125,-4.32175
-4.91542578125,-1.18140625,-4.062703125,1.52090234375,-4.34062890625,-3.02069921875,-1.7665625,-6.99734375,-2.84601171875,-8.625203125,-6.58466015625,-5.85623046875,-4.0109140625,-12.31468359375,-10.27819921875,-7.18559765625,2.31399609375,-9.2134296875,-13.64681640625,-11.07453515625,-1.123015625,-4.2458125,-9.94340625,-12.40792578125,-4.5492109375,3.75446875,-10.16022265625,-2.841953125,-1.75630078125,-2.27875
-1.88442578125,1.98059375,-1.553703125,6.18790234375,0.10837109375,0.33130078125,0.5724375,-3.20534375,1.77098828125,-4.445203125,-4.04166015625,-0.129230468749999,0.4100859375,-8.59868359375,-7.44619921875,-4.87559765625,3.58999609375,-5.1324296875,-10.47481640625,-8.93153515625,-0.569015625,0.2371875,-5.97940625,-9.15192578125,-1.9762109375,4.75046875,-6.13222265625,1.733046875,2.83869921875,1.01625
0.89457421875,4.56759375,0.874296875,10.00090234375,4.32437109375,3.59430078125,2.8714375,0.64965625,5.99498828125,-0.238203125,-1.27166015625,4.42676953125,4.5360859375,-4.26568359375,-4.11719921875,-2.19559765625,3.35599609375,-0.700429687500001,-6.52881640625,-6.33753515625,-0.131015625,4.8651875,-1.51540625,-5.41492578125,0.6247890625,5.11846875,-1.90722265625,6.004046875,6.83469921875,3.62925
2.02557421875,5.05159375,1.611296875,11.28690234375,6.39937109375,4.86030078125,3.2974375,2.41965625,7.90298828125,1.984796875,-0.30866015625,6.25576953125,6.2090859375,-1.41168359375,-2.31419921875,-1.24859765625,1.35299609375,1.9125703125,-3.94181640625,-5.14153515625,-0.730015625,7.3731875,1.28259375,-3.26992578125,1.6637890625,4.36046875,0.348777343749999,7.777046875,8.09269921875,3.91525
0.87557421875,2.87459375,-0.063703125,9.49690234375,5.48437109375,3.20230078125,0.9214375,1.05265625,6.70098828125,1.260796875,-2.17866015625,4.64176953125,4.6550859375,-1.07668359375,-3.07719921875,-3.08859765625,-1.93600390625,1.7315703125,-3.69881640625,-6.16153515625,-2.733015625,6.7671875,1.46259375,-3.59592578125,0.5217890625,2.43946875,-0.250222656250001,6.318046875,6.03369921875,1.56625
-1.97142578125,-1.19040625,-3.511703125,5.59990234375,2.30137109375,-0.74869921875,-3.6515625,-2.98634375,3.23298828125,-1.771203125,-6.23466015625,-0.0812304687499994,0.9090859375,-2.67668359375,-5.83119921875,-7.02859765625,-5.49500390625,-0.4814296875,-5.08481640625,-8.65753515625,-5.588015625,3.8641875,-0.20140625,-5.56692578125,-2.0302109375,-0.13353125,-2.81522265625,2.793046875,2.00169921875,-2.12875
-4.92742578125,-5.38040625,-7.034703125,1.65690234375,-1.22562890625,-5.11669921875,-8.5315625,-8.01834375,-0.42201171875,-5.196203125,-10.49066015625,-6.60723046875,-2.7589140625,-4.36668359375,-8.68519921875,-11.04559765625,-8.20700390625,-2.6784296875,-6.14081640625,-10.72153515625,-8.002015625,0.7961875,-1.69440625,-7.13592578125,-4.2272109375,-2.49653125,-5.19422265625,-0.374953125,-1.47530078125,-4.95175
-6.21642578125,-7.79640625,-8.748703125,-0.20009765625,-2.98162890625,-7.72869921875,-11.4835625,-11.99034375,-2.02601171875,-6.817203125,-12.67166015625,-13.05923046875,-4.0619140625,-4.10768359375,-9.45919921875,-12.85959765625,-9.29400390625,-2.6814296875,-4.80581640625,-10.33053515625,-8.587015625,-0.189812499999999,-0.93240625,-6.19092578125,-4.2472109375,-3.77853125,-5.18222265625,-0.850953125,-2.07830078125,-4.94975
-4.81242578125,-7.31240625,-7.548703125,1.14590234375,-1.76362890625,-7.19869921875,-11.0255625,-13.39934375,-0.35001171875,-5.284203125,-11.36566015625,-17.59423046875,-1.9099140625,-0.82468359375,-6.83719921875,-11.02259765625,-8.60900390625,0.596570312499999,-0.11281640625,-6.42453515625,-6.587015625,2.0201875,3.04659375,-1.73392578125,-1.1722109375,-3.43553125,-1.73122265625,2.325046875,1.04869921875,-1.48975
-0.97742578125,-4.11240625,-3.685703125,5.20890234375,2.09337109375,-3.62369921875,-7.1525625,-11.84334375,4.17798828125,-0.807203125,-6.73766015625,-18.96623046875,2.9960859375,4.93531640625,-1.10219921875,-5.57959765625,-6.63500390625,6.4995703125,7.19518359375,0.48646484375,-2.336015625,6.7811875,9.47659375,5.51807421875,4.5037890625,-1.45353125,4.43977734375,8.173046875,6.82469921875,4.37725
3.86957421875,0.393593749999999,1.350296875,10.11890234375,6.87337109375,1.45730078125,-1.3165625,-8.03234375,9.68398828125,4.919796875,-0.47666015625,-16.83423046875,8.5080859375,11.21031640625,5.94180078125,1.93940234375,-4.19900390625,12.9015703125,14.94318359375,8.48746484375,2.809984375,12.0091875,16.17859375,13.40807421875,11.0517890625,1.62746875,11.18277734375,14.248046875,12.78769921875,10.41825
7.83457421875,4.27859375,5.591296875,13.56490234375,10.38937109375,5.85230078125,4.2974375,-3.34234375,13.81198828125,9.566796875,5.03933984375,-11.78723046875,12.1700859375,15.61731640625,11.84680078125,9.21740234375,-2.06800390625,17.2855703125,20.59318359375,15.15846484375,7.093984375,15.3011875,20.66159375,19.38507421875,16.3177890625,4.90846875,16.01377734375,17.925046875,16.39369921875,14.33425
9.45057421875,6.05059375,7.589296875,13.95890234375,11.12937109375,7.82230078125,7.8424375,0.83565625,14.90598828125,11.342796875,7.91733984375,-5.13223046875,12.4950859375,16.59731640625,14.73580078125,14.24340234375,-0.64400390625,18.0485703125,22.51618359375,18.72646484375,9.229984375,15.2181875,21.40459375,21.76907421875,18.7537890625,7.47746875,17.37777734375,17.776046875,16.33369921875,14.87225
8.38757421875,5.35159375,7.063296875,11.21390234375,8.97537109375,6.85930078125,8.5824375,3.67365625,12.79998828125,9.814796875,7.57333984375,1.52376953125,9.6700859375,14.17931640625,14.14680078125,16.15240234375,0.12599609375,15.2845703125,20.73518359375,18.83646484375,9.024984375,12.0101875,18.58959375,20.50907421875,18.1067890625,8.77646875,15.35977734375,14.250046875,13.11469921875,12.34925
5.56757421875,3.00759375,4.877296875,6.70790234375,5.12937109375,3.72730078125,6.9924375,5.13365625,8.79198828125,5.945796875,4.77933984375,6.82076953125,5.3140859375,9.85231640625,11.05680078125,15.33140234375,0.65299609375,10.6305703125,16.76118359375,16.51046484375,7.367984375,7.3901875,13.89959375,17.02907421875,15.3947890625,8.79546875,11.47077734375,9.305046875,8.62569921875,8.33625
2.55857421875,0.447593749999999,2.433296875,2.46990234375,1.35037109375,-0.12669921875,4.2714375,5.71165625,4.86298828125,1.436796875,1.03633984375,10.09276953125,1.5210859375,5.68531640625,7.17380078125,12.87640234375,1.47499609375,6.3175703125,12.67618359375,13.42346484375,5.644984375,3.5381875,9.55659375,13.35007421875,12.2377890625,7.99146875,7.72477734375,5.256046875,4.99969921875,4.74125
0.614574218750001,-1.14940625,0.875296875,0.06690234375,-1.00062890625,-3.37369921875,1.6414375,5.91265625,2.59498828125,-2.198203125,-2.25966015625,11.40676953125,-0.2469140625,3.23131640625,3.98880078125,9.89940234375,2.95999609375,3.9935703125,10.03618359375,10.97646484375,4.937984375,1.9361875,7.16659375,10.99807421875,9.9807890625,6.97346875,5.56377734375,3.542046875,3.46969921875,2.83025
0.00757421875000031,-1.49440625,0.526296875,-0.18309765625,-1.62762890625,-5.41569921875,-0.2305625,5.83965625,2.37398828125,-4.329203125,-4.43066015625,11.18076953125,0.1530859375,2.76731640625,2.08780078125,7.08240234375,5.02199609375,3.9195703125,9.15018359375,9.66646484375,5.482984375,2.6481875,6.97059375,10.30407421875,9.0717890625,6.15646875,5.19577734375,4.073046875,3.81969921875,2.66625
0.0495742187500006,-1.23940625,0.821296875,0.73790234375,-1.33962890625,-6.52969921875,-1.4485625,5.18565625,3.29698828125,-5.352203125,-5.65966015625,9.70876953125,1.5920859375,3.26331640625,1.04180078125,4.60940234375,7.06199609375,4.9675703125,9.06618359375,9.02446484375,6.653984375,4.4271875,7.85859375,10.39407421875,8.9967890625,5.61846875,5.66977734375,5.457046875,4.68769921875,3.23625
-0.32442578125,-1.45340625,0.765296875,1.21990234375,-1.46162890625,-7.48369921875,-2.6525625,3.55565625,3.78598828125,-6.242203125,-6.63466015625,6.96876953125,2.3940859375,3.05131640625,-0.13119921875,2.39040234375,8.24999609375,5.3645703125,8.23718359375,8.08646484375,7.443984375,5.5341875,8.10259375,9.83607421875,8.7647890625,5.24046875,5.57277734375,5.954046875,4.50669921875,3.17025
-1.83142578125,-2.84840625,-0.373703125,0.0099023437500001,-2.96762890625,-8.87269921875,-4.4455625,0.91265625,2.53898828125,-7.808203125,-7.94266015625,2.86276953125,1.3310859375,0.82331640625,-2.22519921875,0.35640234375,8.02299609375,3.7615703125,5.46518359375,6.07946484375,7.104984375,4.7821875,6.38359375,7.53007421875,7.5887890625,4.96146875,3.93877734375,4.544046875,2.51469921875,1.63425
-4.39542578125,-5.27440625,-2.573703125,-3.06009765625,-5.85862890625,-10.64669921875,-6.8985625,-2.15934375,-0.74001171875,-10.140203125,-9.62866015625,-2.34523046875,-1.6689140625,-3.62768359375,-5.32419921875,-1.41259765625,6.45299609375,-0.00142968749999994,0.580183593749999,2.86546484375,5.530984375,2.1921875,2.50259375,3.30607421875,5.3367890625,4.88546875,0.792777343749999,1.500046875,-0.77530078125,-1.14975
-7.17142578125,-7.80740625,-5.086703125,-7.00409765625,-9.17562890625,-12.14069921875,-9.4435625,-4.60234375,-5.19801171875,-12.603203125,-11.21466015625,-7.79223046875,-5.5179140625,-9.32468359375,-8.80719921875,-2.80459765625,4.20599609375,-4.8604296875,-5.52181640625,-1.10253515625,3.164984375,-1.1028125,-2.59940625,-2.10392578125,2.4727890625,5.10346875,-2.97222265625,-1.860953125,-3.94030078125,-4.08075
-9.07142578125,-9.34540625,-6.955703125,-10.26109765625,-11.60562890625,-12.56569921875,-11.2545625,-5.48334375,-9.35101171875,-14.320203125,-12.12866015625,-12.24923046875,-8.6359140625,-14.68468359375,-11.82319921875,-3.93159765625,2.11299609375,-9.2094296875,-11.46681640625,-5.22253515625,0.572984375,-3.6188125,-7.48340625,-7.61392578125,-0.4212109375,5.43346875,-6.26122265625,-4.066953125,-5.59930078125,-5.96575
-9.50742578125,-9.35240625,-7.668703125,-11.60309765625,-12.28662890625,-11.61169921875,-11.8185625,-4.68234375,-11.92601171875,-14.806203125,-12.21466015625,-14.69923046875,-9.8829140625,-18.38668359375,-13.90219921875,-5.27059765625,0.66099609375,-11.8514296875,-16.19481640625,-9.23053515625,-1.984015625,-4.4588125,-11.06840625,-12.47492578125,-3.1662109375,5.31246875,-8.53122265625,-4.453953125,-5.34030078125,-6.38475
-8.84742578125,-8.24740625,-7.505703125,-10.81109765625,-11.32062890625,-9.76569921875,-11.3275625,-3.10434375,-12.54001171875,-14.332203125,-11.96166015625,-14.84423046875,-9.1959140625,-20.02268359375,-15.28219921875,-7.54459765625,-0.25600390625,-12.6414296875,-19.47881640625,-13.38453515625,-4.702015625,-3.8628125,-13.19240625,-16.65692578125,-6.1832109375,4.00646875,-10.14622265625,-3.599953125,-4.05930078125,-6.06675
-8.19942578125,-7.20140625,-7.362703125,-8.71709765625,-9.68562890625,-8.11669921875,-10.5865625,-2.16734375,-11.80601171875,-13.781203125,-12.26166015625,-13.24823046875,-7.6009140625,-20.16868359375,-16.73719921875,-11.32559765625,-1.21700390625,-12.4584296875,-21.88281640625,-18.20853515625,-8.019015625,-3.0478125,-14.56740625,-20.70892578125,-10.1802109375,1.03746875,-12.09022265625,-2.984953125,-3.46830078125,-6.49775
-8.67742578125,-7.45140625,-8.173703125,-6.65109765625,-8.62662890625,-7.74469921875,-10.4865625,-2.92134375,-10.82901171875,-14.085203125,-13.82566015625,-11.04723046875,-6.5859140625,-19.88268359375,-19.01519921875,-16.55759765625,-2.86300390625,-12.5744296875,-24.20581640625,-23.95653515625,-12.165015625,-3.4578125,-16.19640625,-25.19692578125,-15.5272109375,-3.42153125,-15.23222265625,-4.091953125,-5.09330078125,-8.98375
-10.69242578125,-9.55140625,-10.284703125,-5.63809765625,-8.87062890625,-9.03669921875,-11.4155625,-5.45534375,-10.44901171875,-15.577203125,-16.61566015625,-9.42823046875,-7.2199140625,-19.92768359375,-22.21119921875,-22.30859765625,-5.43900390625,-13.8084296875,-26.78881640625,-30.12753515625,-16.744015625,-5.8748125,-18.60340625,-30.07392578125,-21.7082109375,-8.43953125,-19.60322265625,-7.477953125,-9.30930078125,-13.72475
-13.64242578125,-12.98740625,-13.144703125,-5.82709765625,-10.13862890625,-11.33269921875,-12.9285625,-8.91734375,-10.68401171875,-17.647203125,-19.66066015625,-9.08723046875,-9.4929140625,-20.20968359375,-25.48819921875,-26.97559765625,-8.55000390625,-15.9584296875,-29.09381640625,-35.38053515625,-20.680015625,-9.8758125,-21.35140625,-34.38292578125,-27.2392109375,-12.59853125,-24.11822265625,-12.320953125,-14.96730078125,-19.46575
-16.10842578125,-16.31740625,-15.486703125,-6.41409765625,-11.20462890625,-13.14769921875,-13.8875625,-12.03234375,-10.66701171875,-18.899203125,-21.37866015625,-9.96223046875,-12.2589140625,-19.75768359375,-27.30219921875,-28.86359765625,-11.27200390625,-17.8234296875,-29.81881640625,-37.93253515625,-22.607015625,-13.9338125,-23.12340625,-36.50692578125,-30.1572109375,-14.55053125,-26.95822265625,-16.694953125,-19.83530078125,-23.96575
-16.44042578125,-17.80440625,-15.931703125,-6.07809765625,-10.50662890625,-12.86869921875,-13.0205625,-13.72734375,-9.12201171875,-17.794203125,-20.26866015625,-11.45523046875,-13.8219140625,-17.28268359375,-26.08019921875,-26.85359765625,-12.58300390625,-17.8124296875,-27.53681640625,-36.30253515625,-21.552015625,-16.1328125,-22.36540625,-34.89692578125,-28.8982109375,-13.61653125,-26.42722265625,-18.474953125,-21.66530078125,-25.09375
-13.59242578125,-16.26540625,-13.706703125,-3.75309765625,-7.01262890625,-9.60569921875,-9.6685625,-13.53834375,-5.15301171875,-13.455203125,-15.66866015625,-12.92723046875,-12.8409140625,-12.01168359375,-21.03019921875,-20.87159765625,-11.87700390625,-14.8464296875,-21.51981640625,-30.05153515625,-17.504015625,-15.1568125,-18.17640625,-28.91392578125,-23.1282109375,-10.13153125,-21.86422265625,-16.439953125,-19.34430078125,-21.96875
-7.81442578125,-11.72640625,-9.103703125,0.68090234375,-0.88962890625,-3.75369921875,-4.3325625,-11.63534375,1.05298828125,-6.263203125,-8.21666015625,-13.98123046875,-9.0659140625,-4.32168359375,-12.68419921875,-12.02259765625,-9.28900390625,-9.0474296875,-12.32581640625,-20.15153515625,-11.521015625,-11.0278125,-10.93240625,-19.32792578125,-14.0572109375,-5.33853125,-14.08822265625,-10.968953125,-13.51330078125,-15.49875
-0.69042578125,-5.50340625,-3.407703125,6.20290234375,6.42537109375,3.07630078125,1.3954375,-8.58034375,8.09198828125,2.137796875,0.22533984375,-14.23223046875,-3.5109140625,4.21631640625,-2.85219921875,-2.34859765625,-5.66100390625,-1.8094296875,-1.76381640625,-8.75153515625,-5.265015625,-5.1248125,-2.27840625,-8.15192578125,-4.0142109375,-0.82753125,-5.11622265625,-3.905953125,-6.25730078125,-7.96575
5.59157421875,0.394593749999999,1.695296875,11.12390234375,12.83637109375,8.75930078125,5.6174375,-5.07234375,13.91198828125,9.483796875,7.28633984375,-12.97223046875,2.0410859375,11.47331640625,6.06580078125,5.80740234375,-2.17400390625,4.8215703125,7.80518359375,1.60746484375,-0.231015625,0.5331875,5.58959375,2.15307421875,4.5477890625,2.18946875,2.75377734375,2.376046875,-0.04830078125,-1.86375
9.30457421875,4.23059375,4.916296875,13.97190234375,16.58137109375,11.69530078125,7.2034375,-1.84234375,16.83698828125,13.913796875,11.16633984375,-9.35123046875,5.9230859375,15.76531640625,12.12180078125,10.73040234375,0.14799609375,9.1335703125,14.49618359375,9.01146484375,2.888984375,4.3361875,10.94659375,9.71707421875,10.0837890625,3.37646875,7.98577734375,6.166046875,3.48169921875,1.31525
9.93757421875,5.33059375,5.921296875,14.26190234375,17.06637109375,11.58830078125,6.4214375,0.40665625,16.42998828125,14.827796875,11.51433984375,-3.09923046875,7.3610859375,16.65531640625,14.65580078125,12.13440234375,0.844996093749999,10.5515703125,17.69818359375,12.90246484375,4.380984375,5.8431875,13.30959375,13.98807421875,12.5007890625,3.25746875,10.40677734375,7.163046875,4.22969921875,1.67825
8.26857421875,4.25659375,5.341296875,12.69090234375,15.04937109375,9.46830078125,4.6464375,1.20865625,13.68198828125,13.048796875,9.49733984375,4.82476953125,6.7140859375,15.08431640625,14.43180078125,11.23540234375,0.14099609375,9.7915703125,18.17518359375,14.11246484375,5.165984375,5.8271875,13.49159375,15.73107421875,12.9317890625,2.76246875,11.04177734375,6.398046875,3.44069921875,0.62025
5.82157421875,2.29259375,4.262296875,10.64290234375,12.08537109375,6.95430078125,3.3664375,0.61965625,10.41998828125,10.215796875,6.97833984375,12.37176953125,5.0730859375,12.74031640625,13.00780078125,9.91840234375,-1.21000390625,8.3065703125,17.44518359375,14.17446484375,6.160984375,5.6371875,12.95059375,16.35707421875,12.9187890625,2.67046875,11.33777734375,5.430046875,2.81569921875,-0.11775
3.99857421875,0.628593749999999,3.570296875,9.31890234375,9.61937109375,5.28430078125,3.2434375,-0.71334375,8.27298828125,7.817796875,5.38533984375,17.32276953125,3.5340859375,11.08631640625,11.77180078125,9.54840234375,-2.26800390625,7.3935703125,16.85518359375,14.38946484375,7.750984375,6.3091875,12.88259375,17.02007421875,13.5267890625,3.28446875,12.27077734375,5.377046875,3.49169921875,0.56025
3.36957421875,-0.207406250000001,3.556296875,9.05490234375,8.29537109375,4.76230078125,3.9224375,-1.84434375,7.84898828125,6.503796875,5.08033984375,18.40476953125,2.6360859375,10.67431640625,11.30580078125,10.33340234375,-2.25900390625,7.5355703125,16.95218359375,15.22746484375,9.656984375,7.9771875,13.63159375,18.06407421875,14.8887890625,4.45146875,13.87477734375,6.363046875,5.48369921875,2.62025
3.54457421875,-0.389406250000001,3.988296875,9.24490234375,7.87237109375,4.90030078125,4.5834375,-1.99734375,8.58898828125,6.037796875,5.53333984375,15.90276953125,2.2670859375,11.10531640625,11.38880078125,11.58740234375,-0.83600390625,8.3245703125,17.46618359375,16.38146484375,11.244984375,9.9181875,14.72159375,19.08607421875,16.3947890625,5.82546875,15.41777734375,7.660046875,7.86269921875,5.11525
3.67357421875,-0.396406250000001,4.460296875,8.87590234375,7.65137109375,4.97630078125,4.6644375,-0.86534375,9.32998828125,5.761796875,5.97533984375,11.39276953125,1.9970859375,11.53531640625,11.44880078125,12.50440234375,1.81999609375,8.9335703125,17.76418359375,17.22946484375,12.007984375,11.1371875,15.36259375,19.42207421875,17.2777890625,7.13046875,15.99577734375,8.333046875,9.45269921875,6.88025
3.14757421875,-0.561406250000001,4.710296875,7.24290234375,7.03537109375,4.54930078125,4.1874375,1.37265625,9.09198828125,5.144796875,5.94833984375,6.84276953125,1.4960859375,11.29231640625,11.05380078125,12.75240234375,5.07699609375,8.7245703125,17.36418359375,17.31446484375,11.885984375,11.0211875,15.02459375,18.66107421875,17.1507890625,8.28946875,15.12177734375,7.899046875,9.56769921875,7.24325
1.95057421875,-0.883406250000001,4.712296875,4.35390234375,5.85337109375,3.63530078125,3.5534375,4.17665625,7.56398828125,4.052796875,5.45033984375,3.65676953125,0.7270859375,10.20231640625,10.11380078125,12.50440234375,8.09399609375,7.5735703125,16.16918359375,16.52946484375,11.232984375,9.6481875,13.70359375,16.84707421875,16.1557890625,9.37146875,12.94177734375,6.566046875,8.31869921875,6.31125
0.49457421875,-1.15040625,4.538296875,0.82190234375,4.31137109375,2.53030078125,3.1174375,6.74165625,5.06498828125,2.663796875,4.70633984375,2.22776953125,-0.1599140625,8.49431640625,8.75880078125,12.03440234375,10.13199609375,5.7875703125,14.36418359375,14.99046484375,10.485984375,7.6131875,11.78359375,14.34007421875,14.7097890625,10.43046875,10.03677734375,4.977046875,6.40369921875,4.74325
-0.74342578125,-1.19640625,4.189296875,-2.54509765625,2.74637109375,1.51730078125,2.9214375,8.13765625,2.18298828125,1.222796875,3.89033984375,2.10476953125,-1.0619140625,6.50831640625,7.12380078125,11.29240234375,10.79899609375,3.7735703125,12.17818359375,12.81046484375,9.814984375,5.5791875,9.70359375,11.51107421875,13.1047890625,11.34146875,7.03377734375,3.738046875,4.59169921875,3.25925
-1.47742578125,-1.05540625,3.570296875,-5.12609765625,1.41437109375,0.71430078125,2.7564375,7.60065625,-0.55101171875,-0.0952031249999996,3.02533984375,2.53576953125,-2.0269140625,4.48131640625,5.26580078125,9.88840234375,10.11699609375,1.8055703125,9.75518359375,10.03246484375,9.024984375,3.9551875,7.72959375,8.58807421875,11.3327890625,11.75846875,4.33677734375,3.120046875,3.33069921875,2.25625
-1.66442578125,-0.893406250000001,2.629296875,-6.63709765625,0.48037109375,0.15430078125,2.4284375,4.93265625,-2.75801171875,-1.134203125,2.14733984375,2.96576953125,-3.1259140625,2.58131640625,3.29280078125,7.49740234375,8.42899609375,0.0325703124999999,7.26118359375,6.79046484375,7.794984375,2.8651875,5.99659375,5.75007421875,9.2427890625,11.27646875,2.15177734375,3.100046875,2.70469921875,1.77025
-1.44242578125,-0.850406250000001,1.517296875,-7.05609765625,0.10537109375,-0.0406992187500002,1.9844375,0.74065625,-4.16901171875,-1.649203125,1.48533984375,3.18376953125,-4.2399140625,1.03831640625,1.52380078125,4.30640234375,6.23599609375,-1.3654296875,5.03418359375,3.49046484375,6.026984375,2.3401875,4.69959375,3.30007421875,6.8517890625,9.71646875,0.657777343749999,3.596046875,2.65069921875,1.69325
-1.02642578125,-0.933406250000001,0.572296875,-6.52009765625,0.43637109375,0.33430078125,1.6594375,-3.75734375,-4.60401171875,-1.369203125,1.40533984375,3.16976953125,-5.0269140625,0.14231640625,0.41380078125,1.06340234375,4.02199609375,-2.1384296875,3.52018359375,0.74846484375,3.988984375,2.4391875,4.12659375,1.66407421875,4.4797890625,7.30846875,0.0747773437499992,4.585046875,3.13169921875,1.96125
-0.65642578125,-1.11440625,0.0672968750000003,-5.29409765625,1.41737109375,1.31330078125,1.5794375,-7.31234375,-4.09801171875,-0.290203125,2.04833984375,2.88976953125,-5.1519140625,-0.00168359375000016,0.20080078125,-1.40159765625,2.09499609375,-2.1574296875,2.95118359375,-0.98153515625,2.128984375,3.1531875,4.41759375,1.08207421875,2.5517890625,4.61146875,0.492777343749999,5.980046875,4.06169921875,2.52925
-0.67142578125,-1.52640625,-0.0977031250000002,-3.83309765625,2.55637109375,2.46430078125,1.4404375,-9.26834375,-3.06701171875,1.038796875,2.94033984375,2.27376953125,-4.6259140625,0.24931640625,0.51280078125,-2.80959765625,0.51599609375,-1.6774296875,2.97918359375,-1.84553515625,0.700984375,4.1921875,5.24159375,1.25207421875,1.2207890625,2.21046875,1.60777734375,7.401046875,5.10469921875,3.17925
-1.59742578125,-2.55840625,-0.472703125,-2.77409765625,2.95137109375,2.88230078125,0.4894375,-9.85434375,-2.29601171875,1.548796875,2.98333984375,1.31576953125,-3.9309140625,0.07331640625,0.32680078125,-3.72959765625,-0.84000390625,-1.3844296875,2.64218359375,-2.67353515625,-0.460015625,4.9331875,5.72559375,1.25907421875,0.1627890625,0.40246875,2.65877734375,8.127046875,5.60169921875,3.42725
-3.99442578125,-4.68240625,-1.776703125,-2.71709765625,1.67237109375,1.59530078125,-2.0305625,-9.94934375,-2.63801171875,0.119796875,0.98333984375,0.0957695312500002,-3.7729140625,-1.44668359375,-1.57119921875,-5.24959765625,-2.12300390625,-2.0974296875,0.800183593749999,-4.56353515625,-1.821015625,4.6581875,4.82059375,-0.00892578124999943,-1.2372109375,-0.89353125,2.72777734375,7.379046875,4.83269921875,2.71125
-8.02642578125,-8.07340625,-4.399703125,-3.90809765625,-1.69262890625,-1.83369921875,-6.2505625,-10.46534375,-4.53801171875,-3.755203125,-3.55866015625,-1.29723046875,-4.6279140625,-4.76268359375,-5.84319921875,-8.19059765625,-3.37500390625,-4.2884296875,-3.19781640625,-8.16353515625,-3.750015625,2.9571875,1.89959375,-3.19592578125,-3.4042109375,-1.95653125,1.24577734375,4.771046875,2.44169921875,0.74525
-13.11942578125,-12.31840625,-8.049703125,-6.02809765625,-6.68462890625,-6.90569921875,-11.3115625,-11.72934375,-7.72401171875,-9.546203125,-9.92166015625,-2.85223046875,-6.3889140625,-9.50368359375,-12.04419921875,-12.39659765625,-4.50300390625,-7.7504296875,-9.03181640625,-13.12953515625,-6.146015625,0.0111875000000001,-2.80240625,-7.98692578125,-6.1732109375,-3.00053125,-1.64622265625,0.599046875,-1.27230078125,-2.22175
-18.06642578125,-16.45040625,-11.776703125,-8.30309765625,-12.05962890625,-12.27869921875,-15.6385625,-13.26234375,-11.30001171875,-15.778203125,-16.30866015625,-4.59223046875,-8.3569140625,-14.54568359375,-18.64619921875,-16.59059765625,-5.34200390625,-11.6134296875,-15.42681640625,-18.12153515625,-8.360015625,-3.4508125,-8.19140625,-13.12892578125,-8.7642109375,-4.00653125,-5.11022265625,-4.201953125,-5.40630078125,-5.45375
-21.52542578125,-19.31440625,-14.374703125,-9.82609765625,-16.26962890625,-16.29969921875,-17.6905625,-14.09134375,-14.12501171875,-20.613203125,-20.60566015625,-6.50223046875,-9.5439140625,-18.44168359375,-23.63019921875,-18.95659765625,-5.70800390625,-14.6734296875,-20.62881640625,-21.37653515625,-9.509015625,-6.4308125,-12.73240625,-16.95192578125,-10.1602109375,-4.74253125,-7.98322265625,-8.395953125,-8.79930078125,-8.03275
-22.52542578125,-20.03240625,-14.903703125,-9.87609765625,-18.04862890625,-17.68169921875,-16.7115625,-13.37834375,-15.22901171875,-22.559203125,-21.31066015625,-8.46823046875,-9.1269140625,-19.94468359375,-25.31119921875,-18.06659765625,-5.44600390625,-15.8334296875,-23.08381640625,-21.49353515625,-8.955015625,-8.0018125,-15.02340625,-18.08092578125,-9.6072109375,-4.92753125,-9.25122265625,-10.856953125,-10.46530078125,-9.21475
-20.74142578125,-18.33940625,-13.090703125,-8.10909765625,-16.83662890625,-15.97869921875,-13.0355625,-10.93934375,-14.06901171875,-20.995203125,-18.13466015625,-10.21923046875,-6.7949140625,-18.42268359375,-22.99419921875,-13.59959765625,-4.52200390625,-14.4624296875,-21.98581640625,-18.03253515625,-6.655015625,-7.5838125,-14.28840625,-15.97992578125,-6.9812109375,-4.43853125,-8.43722265625,-10.941953125,-9.94930078125,-8.68175
-16.58742578125,-14.69640625,-9.454703125,-4.67509765625,-12.94362890625,-11.71769921875,-7.8905625,-7.39334375,-10.67001171875,-16.361203125,-12.05666015625,-11.26423046875,-2.9029140625,-14.05668359375,-17.22819921875,-6.52359765625,-3.14500390625,-10.6354296875,-17.56281640625,-11.71753515625,-3.213015625,-5.1628125,-10.64940625,-11.15892578125,-2.8962109375,-3.43853125,-5.78122265625,-8.740953125,-7.52130078125,-6.67275
-11.16842578125,-10.18440625,-5.134703125,-0.26809765625,-7.47362890625,-6.22469921875,-2.9085625,-3.89834375,-5.69901171875,-10.020203125,-4.94466015625,-10.97123046875,1.6030859375,-7.84768359375,-9.64419921875,1.22540234375,-1.80600390625,-5.1964296875,-11.04281640625,-4.23453515625,0.323984375,-1.3968125,-5.14540625,-5.02192578125,1.4157890625,-2.39653125,-2.20922265625,-5.158953125,-4.15930078125,-3.96275
-5.98442578125,-6.17140625,-1.486703125,3.97490234375,-2.01662890625,-1.20469921875,0.4454375,-1.65834375,-0.36801171875,-3.835203125,1.09233984375,-8.87023046875,5.4650859375,-1.38468359375,-2.42019921875,7.39640234375,-1.12200390625,0.4305703125,-4.30081640625,2.30446484375,2.808984375,2.5061875,0.55159375,0.58307421875,4.4787890625,-1.92753125,0.941777343749999,-1.674953125,-1.26830078125,-1.66175
-2.38542578125,-3.80140625,0.458296875,6.85690234375,1.87537109375,1.85230078125,1.3884375,-1.39634375,3.92898828125,0.482796875,4.44533984375,-5.08123046875,7.5840859375,3.66231640625,2.48980078125,10.26940234375,-1.52400390625,4.7175703125,0.787183593749999,6.10846484375,3.392984375,5.2231875,4.71759375,4.02807421875,5.1327890625,-2.50953125,2.43777734375,0.252046875,-0.11130078125,-0.79875
-1.01942578125,-3.49440625,0.437296874999999,7.65190234375,3.29337109375,2.28030078125,0.1034375,-3.00234375,6.17298828125,2.058796875,4.61333984375,-0.477230468749999,7.5490859375,6.19231640625,4.13380078125,9.37740234375,-2.97100390625,6.6815703125,3.09218359375,6.44846484375,1.908984375,5.9421875,6.29659375,4.57107421875,3.1017890625,-4.18553125,1.72377734375,-0.0879531249999999,-1.18430078125,-1.81175
-1.59942578125,-4.74040625,-0.921703125,6.47090234375,2.36537109375,0.53830078125,-2.3935625,-5.52134375,6.16698828125,1.230796875,2.36533984375,3.64976953125,5.9250859375,6.15631640625,2.94780078125,5.71740234375,-4.91700390625,6.3405703125,2.71918359375,3.98346484375,-0.970015625,4.8131875,5.38459375,2.68807421875,-0.7692109375,-6.43153125,-0.750222656250001,-2.234953125,-3.88530078125,-4.25375
-3.10542578125,-6.35740625,-2.427703125,4.21590234375,0.16837109375,-2.01169921875,-4.7325625,-7.58934375,4.59498828125,-0.663203125,-0.66366015625,6.26976953125,4.0370859375,4.54031640625,0.48480078125,1.25840234375,-6.56800390625,4.6855703125,0.89518359375,0.44546484375,-3.977015625,2.8961875,3.14759375,-0.17492578125,-4.8222109375,-8.34253125,-3.72522265625,-4.770953125,-6.77030078125,-6.95075
-4.28742578125,-7.11740625,-2.952703125,2.08690234375,-1.86162890625,-3.80569921875,-5.7855625,-8.17134375,2.60298828125,-2.018203125,-2.79366015625,7.11176953125,3.2700859375,2.80531640625,-1.40519921875,-2.02359765625,-7.31700390625,3.1035703125,-0.726816406250001,-2.23553515625,-5.851015625,1.5641875,1.15859375,-2.35792578125,-7.3672109375,-9.09053125,-5.79122265625,-6.128953125,-8.34030078125,-8.61875
-4.29842578125,-6.41640625,-2.042703125,0.90490234375,-2.71462890625,-3.89569921875,-5.1485625,-7.19634375,1.15598828125,-1.855203125,-3.10266015625,6.57476953125,4.2550859375,2.07831640625,-1.53519921875,-3.04759765625,-7.08400390625,2.5755703125,-0.979816406250001,-2.88353515625,-5.959015625,1.6861875,0.51359375,-2.85292578125,-7.5172109375,-8.40253125,-6.16322265625,-5.512953125,-7.88730078125,-8.58875
-3.14042578125,-4.59840625,-0.158703125,0.67890234375,-2.32862890625,-2.42769921875,-3.3275625,-5.63534375,0.51398828125,-0.333203125,-1.81966015625,5.17176953125,6.4840859375,2.58031640625,0.0538007812499997,-2.01959765625,-6.32200390625,3.1535703125,0.220183593749999,-1.58653515625,-4.568015625,3.1161875,1.27359375,-1.76692578125,-5.6132109375,-6.73853125,-5.07522265625,-3.352953125,-5.87230078125,-7.16375
-1.61542578125,-2.71940625,1.623296875,0.68490234375,-1.52762890625,-0.49969921875,-1.4965625,-4.87534375,0.20198828125,1.410796875,-0.0956601562500001,3.03976953125,8.6080859375,3.62331640625,2.23980078125,-0.14359765625,-5.69000390625,4.0355703125,1.95018359375,0.49946484375,-2.629015625,4.8181875,2.55259375,-0.14292578125,-2.9622109375,-5.01753125,-3.55122265625,-0.991953125,-3.57630078125,-5.36475
-0.71442578125,-1.86140625,2.296296875,0.04090234375,-1.40362890625,0.53230078125,-0.8455625,-5.76734375,-0.52901171875,2.012796875,0.74833984375,-0.00923046874999933,9.2570859375,4.15631640625,3.58580078125,1.17440234375,-5.61100390625,4.1715703125,2.94418359375,1.92746484375,-1.224015625,5.5621875,3.17359375,0.76107421875,-1.0572109375,-4.06053125,-2.69422265625,0.188046875,-2.27530078125,-4.24075
-0.89242578125,-2.42940625,1.543296875,-1.62809765625,-2.55762890625,-0.11269921875,-1.8565625,-8.02534375,-2.07801171875,0.762796875,0.0303398437499998,-3.94623046875,7.8150859375,3.48431640625,3.23880078125,1.13940234375,-6.03400390625,2.9785703125,2.42318359375,1.80846484375,-1.017015625,4.6991875,2.43759375,0.24007421875,-0.7692109375,-4.13053125,-2.99722265625,-0.406953125,-2.49630078125,-4.23375
-1.80642578125,-3.92640625,-0.102703125,-3.92609765625,-4.71262890625,-2.21369921875,-4.0335625,-10.41934375,-4.17901171875,-1.969203125,-1.92366015625,-8.00723046875,4.6830859375,1.68331640625,1.38880078125,-0.0955976562500003,-6.52600390625,0.6755703125,0.526183593749999,0.22646484375,-2.016015625,2.5191875,0.49659375,-1.51492578125,-1.9982109375,-4.85753125,-4.10722265625,-2.315953125,-3.80730078125,-5.01175
-2.64642578125,-5.30440625,-1.633703125,-5.97609765625,-6.92762890625,-4.73469921875,-6.2425625,-11.60034375,-6.09201171875,-4.984203125,-4.07266015625,-10.75423046875,0.930085937499999,-0.52268359375,-0.94419921875,-1.75259765625,-6.60300390625,-1.9224296875,-1.87381640625,-1.98553515625,-3.712015625,-0.00181249999999977,-1.84240625,-3.67092578125,-3.9452109375,-5.55853125,-5.18022265625,-4.431953125,-5.21230078125,-5.82075
-2.69142578125,-5.63140625,-2.178703125,-7.00709765625,-8.21462890625,-6.46369921875,-7.3665625,-10.93034375,-7.10001171875,-6.971203125,-5.32266015625,-10.79823046875,-2.3649140625,-2.28068359375,-2.59719921875,-3.06659765625,-6.03400390625,-3.9514296875,-3.79081640625,-3.86653515625,-5.440015625,-1.8298125,-3.70240625,-5.36392578125,-5.7082109375,-5.69353125,-5.50122265625,-5.730953125,-5.83030078125,-6.04475
-1.69642578125,-4.61440625,-1.455703125,-6.82209765625,-8.09962890625,-6.64169921875,-6.8495625,-8.71934375,-6.94801171875,-7.198203125,-5.09766015625,-7.70623046875,-4.6359140625,-3.12568359375,-2.91619921875,-3.74059765625,-4.93500390625,-4.9954296875,-4.72681640625,-4.89453515625,-6.717015625,-2.4438125,-4.67140625,-6.23092578125,-6.8032109375,-5.14253125,-4.94522265625,-5.832953125,-5.38930078125,-5.59375
0.0215742187500005,-2.69640625,0.176296875,-5.86309765625,-6.81262890625,-5.24369921875,-4.8855625,-5.84434375,-5.95001171875,-5.778203125,-3.53666015625,-2.41523046875,-5.9279140625,-3.17168359375,-2.01819921875,-3.99359765625,-3.63000390625,-5.2154296875,-4.87681640625,-5.17153515625,-7.399015625,-2.0248125,-4.96840625,-6.52992578125,-7.3202109375,-4.20053125,-3.98622265625,-5.071953125,-4.28430078125,-4.89275
1.77757421875,-0.718406250000001,2.005296875,-4.88309765625,-5.04062890625,-2.84669921875,-2.2455625,-3.18634375,-4.74501171875,-3.459203125,-1.29466015625,3.13576953125,-6.5909140625,-2.90468359375,-0.58519921875,-4.27459765625,-2.44400390625,-5.1124296875,-4.87881640625,-5.22153515625,-7.624015625,-1.2258125,-5.16840625,-6.85192578125,-7.7022109375,-3.34753125,-3.33422265625,-4.151953125,-3.23130078125,-4.54575
2.89857421875,0.584593749999999,3.347296875,-4.48709765625,-3.50162890625,-0.28069921875,0.1164375,-1.35834375,-3.91001171875,-1.159203125,0.82833984375,6.90876953125,-6.8999140625,-2.81068359375,0.57880078125,-4.90359765625,-1.60400390625,-5.1504296875,-5.34181640625,-5.59653515625,-7.652015625,-0.7368125,-5.77940625,-7.68392578125,-8.3782109375,-2.99053125,-3.47722265625,-3.692953125,-2.81330078125,-4.92875
3.06657421875,0.927593749999999,3.798296875,-4.83109765625,-2.61262890625,1.71230078125,1.4634375,-0.75534375,-3.69601171875,0.437796875,2.21033984375,7.64676953125,-6.8829140625,-3.11868359375,0.92280078125,-5.87859765625,-1.27900390625,-5.5254296875,-6.51181640625,-6.57653515625,-7.713015625,-0.9638125,-6.96240625,-9.12692578125,-9.5042109375,-3.32253125,-4.45222265625,-3.982953125,-3.22930078125,-6.00075
2.36157421875,0.472593749999999,3.272296875,-5.66309765625,-2.42462890625,2.67030078125,1.4854375,-1.63534375,-4.03001171875,1.054796875,2.53933984375,5.28276953125,-6.4379140625,-3.78068359375,0.28680078125,-6.94659765625,-1.62700390625,-6.1754296875,-8.21681640625,-8.09653515625,-7.942015625,-1.9388125,-8.52540625,-10.89092578125,-10.9332109375,-4.33553125,-5.91122265625,-4.980953125,-4.31330078125,-7.39475
1.04557421875,-0.458406250000001,1.902296875,-6.57609765625,-2.73862890625,2.45130078125,0.2534375,-4.01234375,-4.69301171875,0.774796875,1.77833984375,0.80576953125,-5.5309140625,-4.59368359375,-1.15319921875,-7.83559765625,-2.73700390625,-6.9284296875,-10.02581640625,-9.84453515625,-8.377015625,-3.4078125,-10.06840625,-12.48992578125,-12.3612109375,-5.88553125,-7.34622265625,-6.435953125,-5.69730078125,-8.66275
-0.64142578125,-1.61940625,-0.0297031250000002,-7.23609765625,-3.25862890625,1.22530078125,-1.9195625,-7.43234375,-5.45301171875,-0.0782031249999997,0.0953398437499999,-4.21023046875,-4.2669140625,-5.29068359375,-3.01419921875,-8.44859765625,-4.47800390625,-7.5824296875,-11.43781640625,-11.40653515625,-8.951015625,-4.9458125,-11.14240625,-13.43792578125,-13.4492109375,-7.73253125,-8.28622265625,-7.967953125,-6.95230078125,-9.46375
-2.42442578125,-2.86040625,-2.098703125,-7.40509765625,-3.65362890625,-0.56769921875,-4.5515625,-10.90434375,-6.03001171875,-1.024203125,-2.13766015625,-8.16823046875,-2.7919140625,-5.54868359375,-4.77019921875,-8.84159765625,-6.40500390625,-7.8784296875,-11.98381640625,-12.33953515625,-9.488015625,-6.0268125,-11.32940625,-13.36092578125,-13.8692109375,-9.53653125,-8.37922265625,-9.098953125,-7.64730078125,-9.58375
-3.85442578125,-3.94640625,-3.731703125,-6.83509765625,-3.54562890625,-2.24569921875,-6.9615625,-13.16734375,-6.00201171875,-1.471203125,-4.30366015625,-9.88723046875,-1.1289140625,-4.96868359375,-5.80219921875,-9.02459765625,-7.82400390625,-7.4364296875,-11.26281640625,-12.20153515625,-9.693015625,-6.1098125,-10.27740625,-12.01292578125,-13.3022109375,-10.85853125,-7.39322265625,-9.301953125,-7.38030078125,-8.86575
-4.33042578125,-4.43940625,-4.288703125,-5.22209765625,-2.52462890625,-3.00669921875,-8.2725625,-13.20034375,-4.83901171875,-0.806203125,-5.56466015625,-8.84223046875,0.9000859375,-3.13068359375,-5.48619921875,-8.75359765625,-8.03500390625,-5.8024296875,-8.97881640625,-10.59253515625,-9.189015625,-4.7648125,-7.76140625,-9.26692578125,-11.4652109375,-11.22553125,-5.20522265625,-8.135953125,-5.83230078125,-7.15575
-3.34942578125,-3.82340625,-3.268703125,-2.34509765625,-0.28562890625,-2.18069921875,-7.6335625,-10.67934375,-2.13401171875,1.402796875,-5.10366015625,-5.24423046875,3.5920859375,0.20531640625,-3.40819921875,-7.54359765625,-6.68300390625,-2.6434296875,-5.06481640625,-7.30453515625,-7.630015625,-1.8518125,-3.79840625,-5.17092578125,-8.2452109375,-10.27253125,-1.86122265625,-5.435953125,-2.91130078125,-4.38375
-0.80742578125,-1.85640625,-0.618703125,1.66090234375,3.10237109375,0.39430078125,-4.6665625,-6.15834375,2.06198828125,5.090796875,-2.55366015625,-0.0292304687499998,7.0770859375,4.82731640625,0.33980078125,-4.97059765625,-4.02500390625,1.9545703125,0.12418359375,-2.54453515625,-4.905015625,2.3131875,1.19659375,-0.0899257812499998,-3.8792109375,-7.93953125,2.29677734375,-1.509953125,1.05069921875,-0.78775
2.78357421875,1.08659375,3.056296875,6.06890234375,6.98137109375,4.08730078125,0.1124375,-0.90834375,7.00798828125,9.469796875,1.62233984375,5.27876953125,10.9870859375,9.88331640625,4.96080078125,-1.08459765625,-0.94600390625,7.2565703125,5.68418359375,2.89346484375,-1.348015625,6.8681875,6.32259375,5.17307421875,0.9047890625,-4.62253125,6.50977734375,2.762046875,5.15569921875,2.88725
6.29457421875,3.96859375,6.553296875,9.62090234375,10.15837109375,7.55230078125,5.2474375,3.48365625,11.36298828125,13.139796875,6.11233984375,8.97376953125,14.3390859375,14.01431640625,9.07280078125,3.37740234375,1.37999609375,11.9515703125,10.29318359375,7.73246484375,2.242984375,10.5261875,10.34059375,9.45907421875,4.9857890625,-1.13353125,9.68477734375,6.073046875,8.07869921875,5.45925
8.32257421875,5.49159375,8.509296875,10.97190234375,11.34137109375,9.24830078125,8.8544375,5.62165625,13.66398828125,14.604796875,9.20933984375,9.83976953125,15.8650859375,15.85531640625,11.21180078125,7.16540234375,2.05099609375,14.6135703125,12.66818359375,10.64546484375,4.871984375,12.0181875,12.11059375,11.64007421875,7.2157890625,1.58646875,10.76877734375,7.158046875,8.57269921875,5.78625
7.85657421875,4.78459375,8.035296875,9.37890234375,9.78437109375,8.16830078125,9.4754375,4.79065625,13.02298828125,12.982796875,9.55733984375,7.79376953125,14.6860859375,14.69631640625,10.50780078125,9.01240234375,0.936996093749999,14.3795703125,12.16418359375,10.85746484375,5.791984375,10.7111875,11.13759375,11.15407421875,6.9497890625,2.86846875,9.28477734375,5.444046875,6.14769921875,3.42925
4.90957421875,1.94659375,5.190296875,5.21290234375,5.75937109375,4.38130078125,6.7934375,1.27865625,9.65598828125,8.512796875,6.78933984375,4.03576953125,10.9100859375,10.90731640625,7.13980078125,8.19640234375,-1.17100390625,11.4575703125,9.16318359375,8.55246484375,4.882984375,7.0601875,7.90959375,8.38207421875,4.4257890625,2.64646875,5.71077734375,1.499046875,1.50469921875,-0.91075
0.63257421875,-1.89040625,1.030296875,-0.05909765625,0.57037109375,-0.91469921875,1.7954375,-3.63634375,4.89198828125,2.555796875,1.74533984375,0.45976953125,5.7400859375,5.88631640625,2.33680078125,4.92040234375,-2.90900390625,7.1455703125,4.99518359375,4.86946484375,2.752984375,2.5571875,3.80159375,4.61307421875,0.7777890625,1.49746875,1.43277734375,-3.049953125,-3.60130078125,-5.52175
-3.16942578125,-5.02540625,-2.785703125,-4.44309765625,-3.90262890625,-5.82769921875,-3.6355625,-8.08334375,0.65198828125,-2.897203125,-3.79266015625,-1.28623046875,1.0220859375,1.54331640625,-2.05519921875,0.38740234375,-3.02200390625,3.3265703125,1.45818359375,1.49546484375,0.532984375,-0.8378125,0.57159375,1.59307421875,-2.3442109375,0.37646875,-1.74022265625,-6.125953125,-7.01530078125,-8.33875
-4.80942578125,-5.92140625,-4.633703125,-6.22209765625,-5.91862890625,-8.47569921875,-7.4275625,-10.22934375,-1.31101171875,-5.967203125,-7.69766015625,-0.49923046875,-1.5139140625,-0.42268359375,-4.23319921875,-3.49959765625,-1.02800390625,1.7135703125,0.141183593749999,0.0594648437500003,-0.550015625,-1.5018125,-0.29940625,0.866074218750001,-3.3802109375,0.16346875,-2.25922265625,-6.067953125,-7.05930078125,-7.80775
-3.35942578125,-3.84640625,-3.538703125,-4.64709765625,-4.56462890625,-7.70569921875,-8.0325625,-8.92834375,-0.10801171875,-5.572203125,-8.26166015625,2.46376953125,-0.9749140625,0.83031640625,-3.09019921875,-4.79759765625,2.52599609375,3.1415703125,1.83118359375,1.52746484375,0.320984375,1.1561875,1.81059375,3.16307421875,-1.4682109375,1.25246875,0.53077734375,-2.364953125,-3.23630078125,-3.56575
0.98257421875,0.818593749999999,0.429296875,-0.25909765625,-0.14262890625,-3.56769921875,-4.9865625,-4.23734375,3.90898828125,-1.835203125,-4.86666015625,6.48776953125,2.3050859375,4.93331640625,1.35180078125,-2.36759765625,6.35699609375,7.1885703125,6.18218359375,5.82046484375,3.170984375,6.3911875,6.36759375,8.06507421875,3.1597890625,3.38246875,6.05877734375,4.043046875,3.49969921875,3.32825
6.89757421875,6.70459375,6.171296875,5.27690234375,5.91737109375,2.68930078125,0.8944375,2.46465625,9.23498828125,3.972796875,1.73233984375,10.14676953125,6.8590859375,10.41431640625,7.90780078125,3.53740234375,9.08699609375,12.3025703125,11.81518359375,11.79246484375,7.160984375,12.3421875,11.82259375,14.10607421875,9.1947890625,5.79246875,12.64877734375,11.039046875,11.02869921875,10.74125
12.44857421875,12.01359375,12.002296875,9.83190234375,11.64037109375,9.12530078125,7.8474375,8.92265625,13.80298828125,9.969796875,9.69333984375,12.19276953125,10.6860859375,15.28631640625,14.68680078125,11.29940234375,9.86399609375,16.4355703125,16.85218359375,17.66146484375,10.911984375,16.7611875,16.20059375,19.34007421875,14.7357890625,7.60046875,18.13177734375,16.153046875,16.86269921875,16.27525
15.95257421875,15.26759375,16.332296875,11.71190234375,15.32537109375,13.91530078125,13.9174375,12.96965625,15.85798828125,14.428796875,16.82933984375,12.07376953125,12.1170859375,17.86431640625,19.83880078125,18.56240234375,8.67799609375,17.9305703125,19.67118359375,21.70846484375,13.102984375,17.9691875,17.91359375,22.13207421875,18.0647890625,8.18946875,20.72477734375,17.599046875,19.13769921875,18.22025
16.72457421875,15.88159375,18.240296875,10.37290234375,16.18137109375,16.02230078125,17.6854375,13.50165625,14.68098828125,16.414796875,21.39333984375,10.21676953125,10.5380859375,17.43031640625,22.22380078125,23.10440234375,6.28699609375,16.2215703125,19.52118359375,22.89646484375,13.022984375,15.5761875,16.41959375,21.78607421875,18.3097890625,7.40246875,19.76777734375,15.049046875,17.36769921875,16.23825
15.19157421875,14.24259375,17.666296875,6.54290234375,14.47137109375,15.43530078125,18.6074375,10.90665625,10.78098828125,15.963796875,22.55533984375,7.81176953125,6.6070859375,14.41031640625,21.67080078125,23.55440234375,3.82499609375,12.0005703125,16.69818359375,21.14146484375,10.806984375,10.5991875,12.38359375,18.71707421875,15.6697890625,5.48546875,15.93677734375,9.733046875,12.58269921875,11.41925
12.39557421875,11.30259375,15.204296875,1.74990234375,11.14737109375,12.91630078125,16.9374375,6.71265625,5.51198828125,13.789796875,20.46233984375,6.10076953125,1.8480859375,9.99631640625,18.77780078125,19.74240234375,2.24299609375,6.7695703125,12.23318359375,17.14546484375,7.240984375,4.9111875,7.25459375,14.09307421875,11.1367890625,2.88646875,10.80477734375,3.788046875,6.76769921875,5.71425
9.33457421875,7.99459375,11.707296875,-2.46709765625,7.25937109375,9.49230078125,13.4704375,2.70665625,0.38698828125,10.760796875,15.99933984375,5.62376953125,-2.1569140625,5.46831640625,14.45580078125,12.69240234375,1.82899609375,2.0645703125,7.29718359375,11.94646484375,3.300984375,0.3291875,2.51259375,9.17307421875,5.9397890625,0.0704687499999999,6.03277734375,-0.779953125,1.89169921875,1.03525
6.57057421875,4.86059375,7.952296875,-5.19109765625,3.51537109375,5.98230078125,9.2554375,0.0886562499999998,-3.52401171875,7.489796875,10.40533984375,5.96676953125,-4.4889140625,1.62831640625,9.51080078125,4.26640234375,2.08699609375,-1.2274296875,2.67818359375,6.45846484375,-0.265015625,-2.1588125,-1.00640625,4.73207421875,1.0347890625,-2.57353125,2.61777734375,-2.974953125,-0.94830078125,-1.52375
4.19757421875,2.03159375,4.477296875,-6.32609765625,0.18837109375,2.78530078125,5.2514375,-0.89734375,-5.85901171875,4.228796875,4.84133984375,6.19476953125,-5.1369140625,-1.37168359375,4.44280078125,-3.51459765625,2.08399609375,-3.0954296875,-1.40381640625,1.20446484375,-3.110015625,-2.6578125,-3.33040625,0.859074218750001,-3.1422109375,-4.73253125,0.604777343749999,-3.061953125,-1.81830078125,-1.96375
2.07257421875,-0.527406250000001,1.577296875,-6.33309765625,-2.67462890625,-0.0566992187500002,1.9904375,-0.76434375,-6.83101171875,1.051796875,0.0553398437499999,5.56876953125,-4.6919140625,-3.76968359375,-0.49219921875,-9.23559765625,1.06299609375,-4.1014296875,-5.09181640625,-3.68153515625,-5.221015625,-2.0328125,-5.04940625,-2.80492578125,-6.6162109375,-6.18453125,-0.66022265625,-2.145953125,-1.58030078125,-1.09775
0.15157421875,-2.75740625,-0.608703125,-5.74609765625,-4.96562890625,-2.61369921875,-0.5155625,-0.32834375,-6.84201171875,-1.873203125,-3.69266015625,3.96676953125,-3.8199140625,-5.76668359375,-5.07719921875,-12.52259765625,-1.10200390625,-4.8274296875,-8.50281640625,-8.21253515625,-6.766015625,-1.2598125,-6.75240625,-6.59592578125,-9.6122109375,-6.83453125,-1.94322265625,-1.388953125,-1.19530078125,0.0582500000000001
-1.31942578125,-4.42140625,-2.013703125,-4.81109765625,-6.40462890625,-4.82669921875,-2.5425625,-0.31234375,-6.14901171875,-4.160203125,-6.43566015625,1.76476953125,-2.8849140625,-7.25568359375,-8.95219921875,-13.88059765625,-3.85900390625,-5.4324296875,-11.43281640625,-12.26353515625,-7.958015625,-0.8768125,-8.56840625,-10.43892578125,-12.2682109375,-6.76853125,-3.60522265625,-1.389953125,-1.15930078125,0.83525
-1.93442578125,-5.23940625,-2.631703125,-3.47509765625,-6.65962890625,-6.43369921875,-4.2845625,-1.15534375,-4.77901171875,-5.308203125,-8.21966015625,-0.53123046875,-1.9269140625,-7.86568359375,-11.61919921875,-14.14059765625,-6.33000390625,-5.6004296875,-13.37281640625,-15.43653515625,-8.962015625,-0.8218125,-10.09440625,-13.77092578125,-14.4792109375,-6.25453125,-5.42922265625,-2.017953125,-1.36830078125,1.10525
-1.49242578125,-5.11040625,-2.544703125,-1.66209765625,-5.59862890625,-7.09969921875,-5.6295625,-2.96934375,-2.70701171875,-4.971203125,-8.98166015625,-2.54223046875,-0.8579140625,-7.23668359375,-12.64319921875,-13.90559765625,-7.79100390625,-4.8444296875,-13.78181640625,-17.17953515625,-9.816015625,-0.665812499999999,-10.67840625,-15.80592578125,-15.9422109375,-5.66053125,-6.84222265625,-2.695953125,-1.38830078125,1.11425
-0.23042578125,-4.26240625,-1.955703125,0.44490234375,-3.48462890625,-6.67769921875,-6.2495625,-5.54934375,-0.0790117187500003,-3.211203125,-8.64666015625,-4.03423046875,0.3600859375,-5.32668359375,-11.91419921875,-13.31559765625,-8.04000390625,-2.9114296875,-12.44081640625,-17.07053515625,-10.398015625,-0.0208124999999999,-9.85040625,-15.95592578125,-16.3252109375,-5.31553125,-7.30422265625,-2.878953125,-0.87630078125,1.15425
1.26357421875,-3.21140625,-1.183703125,2.33390234375,-0.98162890625,-5.42869921875,-5.9335625,-8.40134375,2.66798828125,-0.589203125,-7.36366015625,-4.87323046875,1.6680859375,-2.53768359375,-9.80119921875,-12.21159765625,-7.43500390625,-0.0364296875000001,-9.65381640625,-15.09953515625,-10.485015625,1.1481875,-7.64840625,-14.16392578125,-15.4722109375,-5.37053125,-6.64422265625,-2.436953125,0.10569921875,1.30125
2.32057421875,-2.57740625,-0.609703125,3.33190234375,1.02737109375,-4.04269921875,-4.9525625,-10.85234375,4.87098828125,1.967796875,-5.67866015625,-5.05123046875,2.9270859375,0.36631640625,-7.11319921875,-10.53459765625,-6.59800390625,3.0815703125,-6.19781640625,-11.79353515625,-9.907015625,2.4391875,-4.65740625,-10.97892578125,-13.5362109375,-5.72153125,-5.15322265625,-1.752953125,1.05769921875,1.35225
2.42357421875,-2.84240625,-0.561703125,2.90190234375,1.76337109375,-3.38169921875,-4.1025625,-12.29034375,5.84698828125,3.489796875,-4.43066015625,-4.71623046875,3.9520859375,2.54831640625,-4.82319921875,-8.62159765625,-5.97300390625,5.5745703125,-3.02481640625,-8.07553515625,-8.675015625,3.2121875,-1.76840625,-7.33892578125,-10.9522109375,-6.04053125,-3.42622265625,-1.499953125,1.29969921875,0.96125
1.37357421875,-4.13040625,-1.157703125,0.93590234375,0.89637109375,-4.03469921875,-4.2645625,-12.40034375,5.21498828125,3.390796875,-4.33566015625,-4.11923046875,4.5520859375,3.46631640625,-3.66319921875,-7.08159765625,-5.57400390625,6.8315703125,-0.85381640625,-4.87453515625,-6.966015625,2.9601875,0.25759375,-4.13992578125,-8.2352109375,-5.90553125,-2.02122265625,-2.204953125,0.39469921875,-0.0827499999999999
-0.53842578125,-6.06640625,-2.163703125,-2.05509765625,-1.23962890625,-5.92169921875,-5.7375625,-11.23734375,3.20398828125,1.775796875,-5.47866015625,-3.47023046875,4.6650859375,3.15231640625,-3.74319921875,-6.31659765625,-5.06200390625,6.8525703125,0.171183593749999,-2.67053515625,-4.979015625,1.6891875,1.18759375,-1.80892578125,-5.7002109375,-4.98553125,-1.12422265625,-3.826953125,-1.49830078125,-1.60575
-2.50142578125,-7.83340625,-2.985703125,-5.02009765625,-3.70062890625,-8.21969921875,-7.8465625,-9.06834375,0.72498828125,-0.536203125,-7.11966015625,-2.84523046875,4.5240859375,2.24131640625,-4.45119921875,-6.10459765625,-4.05300390625,6.3175703125,0.550183593749999,-1.25253515625,-2.784015625,0.0721875000000001,1.45959375,-0.11092578125,-3.2892109375,-3.19453125,-0.40822265625,-5.618953125,-3.55730078125,-2.96675
-3.50842578125,-8.47540625,-2.901703125,-6.75309765625,-5.31562890625,-9.72569921875,-9.2215625,-6.16934375,-0.96601171875,-2.374203125,-8.01666015625,-2.18923046875,4.6940859375,1.68531640625,-4.75719921875,-5.64159765625,-2.39000390625,6.2795703125,1.15318359375,0.11346484375,-0.312015625,-0.7998125,1.96559375,1.67107421875,-0.6542109375,-0.74753125,0.79177734375,-6.424953125,-4.61630078125,-3.29975
-2.88442578125,-7.36240625,-1.436703125,-6.46609765625,-5.24962890625,-9.48069921875,-8.5685625,-2.79334375,-0.88801171875,-2.810203125,-7.13966015625,-1.33323046875,5.7960859375,2.24831640625,-3.78819921875,-4.07659765625,-0.24600390625,7.5865703125,2.70818359375,2.17646484375,2.492984375,0.00918750000000035,3.52659375,4.25607421875,2.5317890625,1.90446875,3.05677734375,-5.303953125,-3.76630078125,-1.96975
-0.68542578125,-4.56340625,1.311296875,-4.21809765625,-3.45362890625,-7.33069921875,-5.4425625,0.72165625,1.10598828125,-1.660203125,-4.31966015625,0.0507695312500003,8.0230859375,4.04731640625,-1.36119921875,-1.13559765625,1.97399609375,10.3375703125,5.33318359375,5.18146484375,5.503984375,2.6921875,6.35959375,7.84907421875,6.2447890625,4.27046875,6.45977734375,-2.116953125,-0.88830078125,1.00325
2.33457421875,-0.881406250000001,4.649296875,-0.92409765625,-0.73062890625,-4.04469921875,-0.5055625,3.89965625,4.20198828125,0.427796875,-0.37866015625,2.39776953125,10.8010859375,6.44131640625,1.88680078125,2.67240234375,3.82499609375,13.7485703125,8.42818359375,8.68946484375,8.364984375,6.4921875,9.86659375,11.94707421875,10.0117890625,6.05046875,10.42877734375,2.318046875,3.21769921875,4.87125
5.10357421875,2.51059375,7.630296875,2.08590234375,1.67937109375,-0.89069921875,4.8334375,6.22665625,7.03498828125,2.375796875,3.36133984375,5.93876953125,12.9440859375,8.37731640625,4.89480078125,6.44040234375,5.00499609375,16.5275703125,11.00518359375,11.88546484375,10.657984375,10.0581875,12.93659375,15.60707421875,13.1357890625,7.27546875,14.02377734375,6.637046875,7.25869921875,8.52425
6.73357421875,4.62659375,9.521296875,3.69590234375,2.74337109375,1.05930078125,9.0994375,7.34265625,8.36998828125,3.308796875,5.83933984375,10.26676953125,13.2600859375,8.98031640625,6.79980078125,9.47940234375,5.45099609375,17.5705703125,12.25818359375,14.10446484375,12.152984375,12.1401875,14.55059375,17.98507421875,15.0887890625,8.25146875,16.43577734375,9.629046875,10.12069921875,11.03925
6.89057421875,5.08859375,10.104296875,3.46490234375,2.10337109375,1.40530078125,11.3324375,7.19065625,7.64698828125,2.980796875,6.71133984375,14.24576953125,11.2200859375,7.98931640625,7.35680078125,11.59940234375,5.33299609375,16.4935703125,11.96018359375,15.17346484375,12.905984375,12.1701875,14.27759375,18.74307421875,15.7507890625,9.32246875,17.35377734375,10.762046875,11.33969921875,12.06125
5.85057421875,4.15759375,9.612296875,1.65790234375,0.0963710937500002,0.41830078125,11.2574375,6.05765625,5.08698828125,1.729796875,6.25433984375,16.51576953125,7.2260859375,5.76531640625,6.86480078125,12.84740234375,4.97999609375,13.6925703125,10.43418359375,15.29946484375,13.104984375,10.3641875,12.34359375,18.06307421875,15.3317890625,10.58446875,16.95477734375,10.205046875,11.08569921875,11.76425
4.18057421875,2.41659375,8.437296875,-1.06009765625,-2.59162890625,-1.32669921875,9.1214375,4.48865625,1.39998828125,0.113796875,4.91733984375,16.28676953125,2.3570859375,2.95831640625,5.77080078125,13.09740234375,4.74799609375,9.9795703125,8.22918359375,14.70546484375,12.809984375,7.3781875,9.33059375,16.35407421875,14.0897890625,11.74046875,15.61377734375,8.470046875,9.79769921875,10.52925
2.34657421875,0.39759375,6.888296875,-3.99709765625,-5.30162890625,-3.28969921875,5.4864375,3.11665625,-2.61701171875,-1.438203125,3.01533984375,13.80976953125,-2.1719140625,0.16031640625,4.34880078125,11.98740234375,4.87499609375,6.1395703125,5.79818359375,13.39746484375,11.864984375,3.8831875,5.82459375,13.96907421875,12.1387890625,12.21246875,13.64677734375,6.039046875,7.85769921875,8.67925
0.57557421875,-1.55840625,5.185296875,-6.60709765625,-7.55062890625,-5.06269921875,1.2104375,2.44865625,-6.29501171875,-2.693203125,0.79733984375,10.20776953125,-5.4749140625,-2.24468359375,2.70280078125,9.34140234375,5.34999609375,2.7195703125,3.40518359375,11.28346484375,10.098984375,0.3871875,2.28059375,11.16107421875,9.5207890625,11.47846875,11.28377734375,3.280046875,5.55169921875,6.47225
-0.95642578125,-3.21140625,3.594296875,-8.47909765625,-8.99962890625,-6.27969921875,-2.5415625,2.71865625,-9.11601171875,-3.491203125,-1.30966015625,6.83176953125,-7.1789140625,-4.04368359375,0.96480078125,5.61540234375,5.89499609375,0.0465703125000001,1.20718359375,8.46546484375,7.638984375,-2.6908125,-0.93340625,8.18907421875,6.4257890625,9.45146875,8.79877734375,0.583046875,3.23669921875,4.27825
-1.98042578125,-4.31740625,2.488296875,-9.32609765625,-9.41062890625,-6.59369921875,-4.5585625,3.82565625,-10.72701171875,-3.657203125,-2.67366015625,4.58676953125,-7.3719140625,-5.14368359375,-0.59319921875,1.85740234375,6.08599609375,-1.6894296875,-0.685816406250001,5.35446484375,5.003984375,-4.9458125,-3.50340625,5.35307421875,3.2727890625,6.63346875,6.53977734375,-1.560953125,1.39769921875,2.62725
-2.24942578125,-4.68340625,2.198296875,-9.07209765625,-8.72962890625,-5.82569921875,-4.1645625,5.34965625,-11.06001171875,-3.094203125,-2.76666015625,3.64676953125,-6.4729140625,-5.60068359375,-1.68819921875,-0.84859765625,5.60199609375,-2.4684296875,-2.27181640625,2.45646484375,2.839984375,-6.0678125,-5.27040625,2.86107421875,0.5107890625,3.88846875,4.76377734375,-2.717953125,0.45569921875,1.98725
-1.77442578125,-4.31640625,2.799296875,-7.95409765625,-7.19562890625,-4.14869921875,-1.6985625,6.71465625,-10.44001171875,-1.955203125,-1.56866015625,3.63076953125,-5.0819140625,-5.67568359375,-2.26919921875,-2.05459765625,4.41699609375,-2.5064296875,-3.75381640625,0.00046484375000011,1.464984375,-6.0248125,-6.37340625,0.63107421875,-1.7092109375,1.97846875,3.39477734375,-2.807953125,0.45569921875,2.40825
-0.85242578125,-3.48440625,4.001296875,-6.43609765625,-5.31662890625,-2.10669921875,1.5544375,7.47365625,-9.47201171875,-0.682203125,0.29533984375,3.99176953125,-3.7889140625,-5.76668359375,-2.60519921875,-2.21359765625,2.82599609375,-2.2084296875,-5.49481640625,-2.23253515625,0.601984375,-5.1268125,-7.23040625,-1.72292578125,-3.6762109375,1.15846875,1.99677734375,-2.217953125,0.94469921875,3.38925
0.14457421875,-2.59840625,5.266296875,-4.97209765625,-3.66062890625,-0.38569921875,3.9894375,7.54965625,-8.72201171875,0.182796875,1.83433984375,4.29576953125,-2.9319140625,-6.18968359375,-3.12419921875,-2.37159765625,1.25499609375,-1.9624296875,-7.79881640625,-4.73853515625,-0.476015625,-3.8598125,-8.28840625,-4.64892578125,-5.9502109375,1.08246875,0.0377773437499993,-1.615953125,1.19969921875,4.12625
0.94157421875,-2.02940625,6.035296875,-3.79309765625,-2.60362890625,0.51230078125,4.4564375,7.18565625,-8.41601171875,0.281796875,2.19033984375,4.27576953125,-2.4299140625,-6.96568359375,-4.13319921875,-3.52059765625,-0.0130039062500003,-1.9104296875,-10.65181640625,-7.88453515625,-2.486015625,-2.6538125,-9.71240625,-8.30992578125,-8.9822109375,1.02446875,-2.73022265625,-1.588953125,0.63269921875,3.94625
1.35557421875,-2.00640625,5.920296875,-2.90709765625,-2.21562890625,0.44830078125,2.7164375,6.63165625,-8.39601171875,-0.408203125,1.04233984375,3.74476953125,-1.8979140625,-7.80868359375,-5.64419921875,-6.04759765625,-1.03400390625,-1.9074296875,-13.65181640625,-11.60953515625,-5.691015625,-1.7528125,-11.27340625,-12.39492578125,-12.8192109375,0.25246875,-6.07522265625,-2.392953125,-0.92230078125,2.60725
1.23957421875,-2.61540625,4.788296875,-2.26609765625,-2.35162890625,-0.39869921875,-0.6015625,5.87565625,-8.32201171875,-1.625203125,-1.31766015625,2.53576953125,-0.9809140625,-8.32168359375,-7.39719921875,-9.56659765625,-2.15900390625,-1.6924296875,-16.17181640625,-15.38653515625,-9.712015625,-1.2648125,-12.51140625,-16.20792578125,-17.0342109375,-1.64753125,-9.38522265625,-3.927953125,-3.21730078125,0.30025
0.51557421875,-3.79540625,2.809296875,-1.89109765625,-2.77862890625,-1.67269921875,-4.3595625,4.69165625,-7.90301171875,-2.959203125,-4.14466015625,0.530769531250001,0.3450859375,-8.21068359375,-8.97219921875,-13.11059765625,-3.75400390625,-1.0844296875,-17.60481640625,-18.40253515625,-13.654015625,-1.2238125,-12.98440625,-18.92292578125,-20.8412109375,-4.58153125,-11.92222265625,-5.837953125,-5.76030078125,-2.51575
-0.72542578125,-5.30140625,0.471296875,-1.83109765625,-3.21362890625,-2.89069921875,-7.3185625,2.97065625,-6.98501171875,-3.911203125,-6.45966015625,-2.13823046875,1.7720859375,-7.33668359375,-9.85419921875,-15.48559765625,-5.85000390625,-0.0244296875000005,-17.49481640625,-19.79653515625,-16.409015625,-1.5438125,-12.39240625,-19.80292578125,-23.3062109375,-7.97053125,-13.03722265625,-7.588953125,-7.96830078125,-5.24575
-2.17142578125,-6.68740625,-1.483703125,-2.01309765625,-3.29362890625,-3.47969921875,-8.4695625,1.01765625,-5.50101171875,-3.931203125,-7.31766015625,-4.84523046875,2.9470859375,-5.62368359375,-9.50519921875,-15.68959765625,-7.97100390625,1.5445703125,-15.56381640625,-18.89553515625,-17.028015625,-1.9118125,-10.54940625,-18.34092578125,-23.5752109375,-10.96653125,-12.27222265625,-8.525953125,-9.24830078125,-7.23475
-3.33842578125,-7.43540625,-2.314703125,-2.18109765625,-2.66062890625,-2.92469921875,-7.3055625,-0.48334375,-3.42801171875,-2.579203125,-6.14066015625,-6.45123046875,3.7600859375,-3.02668359375,-7.55819921875,-13.32159765625,-9.28300390625,3.7515703125,-11.76181640625,-15.46353515625,-15.102015625,-1.7958125,-7.36840625,-14.40492578125,-21.1742109375,-12.79253125,-9.43822265625,-8.006953125,-9.08930078125,-7.87075
-3.76742578125,-7.21540625,-1.642703125,-2.03309765625,-1.19062890625,-1.08569921875,-4.0195625,-0.88934375,-0.87601171875,0.178796875,-3.05566015625,-5.72323046875,4.3590859375,0.34431640625,-4.11219921875,-8.83959765625,-9.02300390625,6.6855703125,-6.41581640625,-9.93253515625,-10.999015625,-0.6998125,-2.98740625,-8.39992578125,-16.2712109375,-13.05353125,-4.74622265625,-5.696953125,-7.27230078125,-6.79575
-3.30342578125,-6.13040625,0.281296875,-1.49509765625,0.76837109375,1.54330078125,0.4514375,-0.10234375,1.75098828125,3.724796875,0.98533984375,-2.08823046875,4.8920859375,4.02531640625,0.0688007812499998,-3.48859765625,-6.94100390625,10.1535703125,-0.356816406250001,-3.45053515625,-5.802015625,1.4611875,2.05959375,-1.35292578125,-9.7772109375,-11.83553125,1.08477734375,-1.877953125,-4.07930078125,-4.13975
-2.29642578125,-4.74040625,2.611296875,-0.90509765625,2.38537109375,3.87230078125,4.6284375,1.27665625,3.70598828125,6.842796875,4.46033984375,3.78376953125,5.2210859375,7.17431640625,3.69280078125,1.13840234375,-3.51000390625,13.5205703125,5.15918359375,2.39146484375,-0.906015625,4.1371875,6.82159375,5.24807421875,-3.1232109375,-9.55653125,6.90577734375,2.476046875,-0.32130078125,-0.56675
-1.43042578125,-3.77240625,4.297296875,-0.87109765625,2.69437109375,4.65030078125,6.9724375,2.34765625,4.15998828125,8.181796875,5.88533984375,10.01876953125,4.9260859375,8.85131640625,5.43380078125,3.73340234375,0.26099609375,15.8875703125,8.84618359375,6.11946484375,2.561984375,6.3401875,10.21659375,9.93107421875,2.2587890625,-6.68653125,11.48377734375,6.048046875,2.96569921875,2.99525
-1.24342578125,-3.68940625,4.631296875,-1.86309765625,1.14437109375,3.11330078125,6.5654375,2.53265625,2.69198828125,6.932796875,4.53333984375,14.28676953125,3.6400859375,8.50331640625,4.59480078125,3.86240234375,3.27799609375,16.5465703125,9.93918359375,7.00446484375,4.186984375,7.1961875,11.52359375,11.82907421875,5.5287890625,-3.54353125,14.00877734375,7.812046875,5.01869921875,5.81425
-1.74742578125,-4.40540625,3.610296875,-3.83309765625,-2.01362890625,-0.51969921875,3.6364375,1.89165625,-0.35701171875,3.310796875,0.86733984375,14.84376953125,1.4210859375,6.31831640625,1.51280078125,2.18140234375,4.86099609375,15.3955703125,8.57818359375,5.41046484375,4.340984375,6.4691875,10.75459375,11.05507421875,6.7487890625,-0.29753125,14.44277734375,7.554046875,5.70569921875,7.68625
-2.52842578125,-5.40040625,1.874296875,-6.22309765625,-5.80162890625,-5.08469921875,-0.4745625,0.93365625,-4.00801171875,-1.503203125,-3.63966015625,11.37276953125,-1.1789140625,3.16331640625,-2.58119921875,0.0804023437499997,4.98899609375,12.9795703125,5.71818359375,2.58646484375,3.868984375,4.6361875,8.61459375,8.58007421875,6.7047890625,2.86946875,13.42677734375,5.873046875,5.46469921875,8.85625
-3.22142578125,-6.13440625,0.260296875,-8.33309765625,-9.04162890625,-9.07669921875,-4.0325625,0.19665625,-7.19201171875,-5.991203125,-7.28566015625,5.23476953125,-3.4239140625,0.10731640625,-6.21119921875,-1.13259765625,4.21199609375,10.1165703125,2.59418359375,-0.00653515625000001,3.580984375,2.4741875,6.04659375,5.66707421875,6.3397890625,5.62446875,11.80977734375,3.668046875,4.86069921875,9.62725
-3.85142578125,-6.41740625,-0.692703125,-9.73909765625,-10.96862890625,-11.41469921875,-5.8615625,-0.0263437500000001,-9.29401171875,-9.054203125,-9.03866015625,-0.99123046875,-4.8059140625,-2.12668359375,-8.39319921875,-0.98559765625,3.31299609375,7.4315703125,0.10018359375,-1.42653515625,3.861984375,0.5401875,3.70859375,3.24707421875,6.1947890625,7.49646875,10.14577734375,1.536046875,4.14469921875,10.00825
-4.75642578125,-6.44940625,-0.939703125,-10.42809765625,-11.51062890625,-11.88669921875,-5.8595625,0.28365625,-10.31901171875,-10.423203125,-8.94566015625,-4.59023046875,-5.2399140625,-3.40868359375,-8.96919921875,0.00040234374999959,2.92099609375,5.1505703125,-1.50281640625,-1.56853515625,4.601984375,-1.0558125,1.75459375,1.63007421875,6.2047890625,8.05046875,8.52777734375,-0.460953125,3.16469921875,9.71325
-6.17742578125,-6.54840625,-0.767703125,-10.64409765625,-11.12162890625,-11.03069921875,-4.7975625,0.97265625,-10.64401171875,-10.536203125,-7.85366015625,-3.99823046875,-4.9589140625,-4.04668359375,-8.44119921875,0.80740234375,3.27399609375,3.2255703125,-2.47181640625,-0.97853515625,5.395984375,-2.4848125,-0.01840625,0.619074218750001,5.9227890625,7.11946875,6.78377734375,-2.564953125,1.64169921875,8.46825
-7.84042578125,-6.81340625,-0.462703125,-10.62609765625,-10.41662890625,-9.67869921875,-3.6335625,1.83065625,-10.66601171875,-10.116203125,-6.72466015625,0.331769531250001,-4.2829140625,-4.47468359375,-7.50619921875,0.66840234375,4.17799609375,1.5805703125,-3.23581640625,-0.38353515625,5.820984375,-3.8848125,-1.85740625,-0.15892578125,4.9217890625,4.94046875,4.81277734375,-4.926953125,-0.45930078125,6.34125
-8.74742578125,-6.95640625,-0.0727031249999999,-10.42809765625,-9.86262890625,-8.50469921875,-2.8575625,2.70965625,-10.55601171875,-9.757203125,-6.05966015625,6.02076953125,-3.4369140625,-5.02268359375,-6.66019921875,-0.44759765625,5.13699609375,0.2555703125,-4.12581640625,-0.29153515625,5.615984375,-5.1778125,-3.85640625,-1.00092578125,3.0987890625,2.11846875,2.76577734375,-7.360953125,-2.79130078125,3.83125
-7.39042578125,-6.39440625,0.612296875,-9.89509765625,-9.66662890625,-7.80169921875,-2.2275625,3.59065625,-10.24101171875,-9.726203125,-5.72066015625,9.88876953125,-2.5089140625,-5.84868359375,-6.04119921875,-1.86259765625,5.56899609375,-0.6064296875,-5.26881640625,-0.83353515625,4.727984375,-6.0988125,-5.93940625,-2.02492578125,0.7247890625,-0.58253125,0.99677734375,-9.413953125,-4.78330078125,1.67425
-2.44242578125,-4.56640625,1.882296875,-8.79109765625,-9.80662890625,-7.50669921875,-1.0695625,4.56365625,-9.53001171875,-9.988203125,-5.19866015625,9.54076953125,-1.4939140625,-6.96768359375,-5.50119921875,-2.65859765625,5.04699609375,-0.8764296875,-6.62281640625,-1.83553515625,3.269984375,-6.3828125,-7.96440625,-3.20392578125,-1.7542109375,-2.55453125,-0.14422265625,-10.635953125,-5.95430078125,0.48225
6.34757421875,-1.31240625,3.857296875,-7.01609765625,-10.14062890625,-7.39269921875,1.1114375,5.72365625,-8.31701171875,-10.368203125,-4.08366015625,4.51576953125,-0.3629140625,-8.29768359375,-4.83619921875,-2.29059765625,3.49599609375,-0.5604296875,-8.07181640625,-3.02053515625,1.440984375,-5.9608125,-9.83040625,-4.44292578125,-4.0012109375,-3.61353125,-0.544222656250001,-10.883953125,-6.18030078125,0.42825
17.66557421875,2.91259375,6.341296875,-4.75509765625,-10.50762890625,-7.26769921875,4.1504375,7.05965625,-6.71101171875,-10.714203125,-2.40366015625,-3.55623046875,0.874085937499999,-9.70568359375,-3.97519921875,-0.97159765625,1.26899609375,0.137570312499999,-9.51581640625,-4.19153515625,-0.536015625,-5.0588125,-11.54840625,-5.66392578125,-5.9852109375,-4.06353125,-0.431222656250001,-10.461953125,-5.77230078125,1.13925
17.66557421875,2.91259375,6.341296875,-4.75509765625,-10.50762890625,-7.26769921875,4.1504375,7.05965625,-6.71101171875,-10.714203125,-2.40366015625,-3.55623046875,0.874085937499999,-9.70568359375,-3.97519921875,-0.97159765625,1.26899609375,0.137570312499999,-9.51581640625,-4.19153515625,-0.536015625,-5.0588125,-11.54840625,-5.66392578125,-5.9852109375,-4.06353125,-0.431222656250001,-10.461953125,-5.77230078125,1.13925
