"Fp1","Fpz","Fp2","F7","F3","Fz","F4","F8","FC5","FC1","FC2","FC6","T7","C3","Cz","C4","T8","CP5","CP1","CP2","CP6","P7","P3","Pz","P4","P8","POz","O1","Oz","O2"
11.3863359375,1.92276953125,-0.11685546875,-0.807277343749999,-6.77218359375,2.08159765625,-0.6309921875,4.81565234375,-5.89355859375,4.749125,1.371546875,-4.3393828125,-4.8807109375,-5.20943359375,0.303109375,-1.9769375,-2.2895,-5.81247265625,1.91580859375,1.96977734375,-2.9186796875,-1.67806640625,3.8485625,3.53580859375,0.106179687499999,1.74735546875,5.5930625,4.5127265625,5.37668359375,2.71219140625
10.5853359375,4.78676953125,0.53914453125,-2.37727734375,-3.03318359375,4.74159765625,2.5900078125,7.31265234375,-7.49555859375,6.688125,5.083546875,-1.1833828125,-4.4517109375,-2.40143359375,3.739109375,2.2420625,1.4985,-4.50647265625,4.15480859375,4.44477734375,1.7493203125,-2.45406640625,4.6655625,6.52480859375,4.0481796875,5.94035546875,8.0420625,5.8517265625,7.72068359375,5.64119140625
9.3383359375,6.29476953125,1.74014453125,-3.18027734375,-0.47018359375,6.56259765625,4.5940078125,7.56865234375,-8.28355859375,8.256125,7.666546875,0.7016171875,-4.3587109375,-0.0234335937500001,6.409109375,5.1750625,4.7185,-2.76547265625,6.28780859375,6.67277734375,5.0653203125,-2.42706640625,5.9235625,8.76380859375,7.1421796875,9.45435546875,9.9750625,7.2077265625,9.50368359375,7.93219140625
7.4923359375,6.28976953125,3.22614453125,-3.31327734375,0.81081640625,7.38659765625,5.0480078125,5.72965234375,-8.46355859375,9.280125,8.848546875,0.9566171875,-4.7577109375,1.67256640625,8.036109375,6.5610625,6.8695,-0.90047265625,8.00180859375,8.31777734375,6.7883203125,-1.79606640625,7.3415625,9.97480859375,9.1021796875,11.95535546875,11.1420625,8.3197265625,10.51168359375,9.31319140625
5.1503359375,5.04876953125,4.46114453125,-3.11627734375,0.99281640625,7.27059765625,4.0360078125,2.59365234375,-8.53255859375,9.630125,8.633546875,-0.3673828125,-5.6887109375,2.47156640625,8.442109375,6.4560625,7.5245,0.53252734375,8.89180859375,8.99577734375,7.0343203125,-1.06706640625,8.4005625,10.02080859375,9.7891796875,13.19935546875,11.3520625,8.8617265625,10.62868359375,9.64719140625
2.8043359375,3.19876953125,4.88614453125,-2.94627734375,0.43781640625,6.47959765625,2.1570078125,-0.85834765625,-8.91955859375,9.290125,7.325546875,-2.6813828125,-6.9777109375,2.32456640625,7.625109375,5.2240625,6.6065,1.05152734375,8.68880859375,8.49177734375,6.2233203125,-0.760066406250001,8.6525625,8.98480859375,9.2721796875,13.15135546875,10.5790625,8.6657265625,9.91668359375,9.02819140625
1.2333359375,1.53476953125,4.17414453125,-3.00527734375,-0.39918359375,5.43859765625,0.3710078125,-3.86634765625,-9.71955859375,8.437125,5.494546875,-4.9453828125,-8.2487109375,1.44656640625,5.868109375,3.4830625,4.4945,0.54352734375,7.49280859375,6.94077734375,4.9423203125,-1.13606640625,8.0055625,7.23580859375,7.8671796875,12.05635546875,9.0530625,7.8597265625,8.66168359375,7.80519140625
1.1713359375,0.76876953125,2.37314453125,-3.28927734375,-1.04718359375,4.62559765625,-0.3789921875,-6.04134765625,-10.65355859375,7.435125,3.839546875,-6.0153828125,-9.0727109375,0.30956640625,3.763109375,1.9520625,1.9045,-0.63447265625,5.82580859375,4.86177734375,3.7503203125,-2.06606640625,6.8165625,5.36380859375,6.0801796875,10.38635546875,7.2220625,6.8367265625,7.30168359375,6.45919140625
2.9063359375,1.24876953125,-0.11685546875,-3.64227734375,-1.16318359375,4.40159765625,0.3950078125,-7.31934765625,-11.28855859375,6.700125,2.948546875,-5.1803828125,-9.1927109375,-0.53643359375,2.028109375,1.1960625,-0.4055,-1.82747265625,4.42280859375,2.95677734375,2.9693203125,-3.12406640625,5.6925625,3.96680859375,4.4221796875,8.66235546875,5.5780625,6.0357265625,6.23368359375,5.38119140625
5.9933359375,2.76076953125,-2.66285546875,-3.91027734375,-0.69018359375,4.82959765625,2.4440078125,-7.81134765625,-11.34855859375,6.499125,3.047546875,-2.6023828125,-8.6837109375,-0.72943359375,1.190109375,1.3660625,-1.9425,-2.43547265625,3.84780859375,1.78677734375,2.5883203125,-3.85306640625,5.1415625,3.37580859375,3.2091796875,7.25135546875,4.4280625,5.6917265625,5.61068359375,4.70619140625
9.2593359375,4.53576953125,-4.55485546875,-4.09627734375,0.0928164062500001,5.60959765625,4.8260078125,-7.59534765625,-10.92355859375,6.807125,3.877546875,0.6366171875,-7.9287109375,-0.27243359375,1.353109375,2.1370625,-2.6095,-2.24347265625,4.21680859375,1.52077734375,2.3503203125,-4.05406640625,5.2855625,3.52980859375,2.4881796875,6.27835546875,3.8010625,5.7247265625,5.31568359375,4.32319140625
11.2113359375,5.56576953125,-5.18685546875,-4.40127734375,0.73481640625,6.21759765625,6.3370078125,-6.61034765625,-10.42655859375,7.350125,4.846546875,3.0206171875,-7.4147109375,0.51156640625,2.199109375,2.9110625,-2.5875,-1.50247265625,5.17980859375,1.92277734375,1.9903203125,-3.93406640625,5.8245625,4.06580859375,2.1411796875,5.69935546875,3.5390625,5.8187265625,5.11268359375,4.04319140625
10.7323359375,5.09876953125,-4.27185546875,-5.08627734375,0.86381640625,6.19859765625,6.1370078125,-4.78134765625,-10.30255859375,7.786125,5.344546875,3.3566171875,-7.4677109375,1.18256640625,3.211109375,3.1550625,-2.1055,-0.73647265625,6.17280859375,2.55277734375,1.4203203125,-3.99106640625,6.2655625,4.57180859375,2.0421796875,5.41435546875,3.4620625,5.6317265625,4.84168359375,3.77219140625
7.6983359375,3.03276953125,-2.02385546875,-6.25427734375,0.36281640625,5.39759765625,4.1710078125,-2.32934765625,-10.73755859375,7.879125,5.043546875,1.3746171875,-8.1087109375,1.40956640625,3.915109375,2.6470625,-1.3215,-0.42847265625,6.70980859375,3.01077734375,0.7523203125,-4.69406640625,6.2205625,4.77780859375,2.1201796875,5.32235546875,3.4810625,4.9997265625,4.51268359375,3.56619140625
3.1303359375,0.00976953125000035,0.85014453125,-7.74027734375,-0.62118359375,4.01559765625,1.1410078125,0.0516523437500001,-11.57255859375,7.563125,4.010546875,-2.1783828125,-9.0797109375,1.08656640625,4.051109375,1.5270625,-0.3455,-0.78047265625,6.57080859375,3.09677734375,0.1953203125,-6.16006640625,5.6005625,4.63380859375,2.3391796875,5.32035546875,3.6030625,4.0257265625,4.28368359375,3.55119140625
-1.2356640625,-2.82923046875,3.39514453125,-9.16727734375,-1.77018359375,2.49659765625,-1.9009921875,1.48065234375,-12.42355859375,6.916125,2.627546875,-5.9253828125,-9.9997109375,0.32656640625,3.629109375,0.1870625,0.7255,-1.66047265625,5.82380859375,2.84077734375,-0.0456796875000001,-8.03706640625,4.6125625,4.25480859375,2.6621796875,5.31635546875,3.8780625,3.0367265625,4.36068359375,3.82219140625
-3.6976640625,-4.31123046875,4.81214453125,-10.11427734375,-2.72818359375,1.34559765625,-4.0419921875,1.46565234375,-12.88555859375,6.108125,1.392546875,-8.4863828125,-10.5327109375,-0.61543359375,2.872109375,-0.9219375,1.8295,-2.74147265625,4.72280859375,2.42577734375,0.1623203125,-9.69806640625,3.6055625,3.81780859375,3.0331796875,5.25035546875,4.3260625,2.4187265625,4.87668359375,4.35519140625
-3.3176640625,-3.74323046875,4.78814453125,-10.27827734375,-3.22218359375,0.94159765625,-4.8279921875,0.33065234375,-12.71555859375,5.356125,0.701546875,-9.0383828125,-10.5227109375,-1.47243359375,2.086109375,-1.4979375,2.9565,-3.69647265625,3.55680859375,2.05477734375,0.8103203125,-10.60106640625,2.8715625,3.44480859375,3.3551796875,5.08535546875,4.8720625,2.4137265625,5.78068359375,4.97219140625
-0.320664062500001,-1.24023046875,3.57714453125,-9.61727734375,-3.16018359375,1.39059765625,-4.3369921875,-0.92234765625,-11.95755859375,4.848125,0.684546875,-7.5803828125,-10.0617109375,-2.07643359375,1.520109375,-1.5009375,4.0865,-4.37247265625,2.53080859375,1.84177734375,1.6993203125,-10.58206640625,2.5005625,3.15880859375,3.4971796875,4.77735546875,5.3310625,2.9817265625,6.80868359375,5.39019140625
3.9953359375,2.28476953125,1.83614453125,-8.40727734375,-2.65218359375,2.47659765625,-3.0539921875,-1.20734765625,-10.94255859375,4.662125,1.186546875,-4.8443828125,-9.4767109375,-2.41343359375,1.278109375,-1.1309375,5.0965,-4.82347265625,1.74380859375,1.77277734375,2.4833203125,-9.90506640625,2.3745625,2.89980859375,3.3381796875,4.26835546875,5.4870625,3.8177265625,7.59768359375,5.35119140625
7.8453359375,5.52176953125,0.30014453125,-7.15627734375,-1.97218359375,3.73259765625,-1.6279921875,-0.02734765625,-10.14355859375,4.707125,1.849546875,-1.9303828125,-9.2227109375,-2.58643359375,1.304109375,-0.7129375,5.7505,-5.21347265625,1.21080859375,1.73777734375,2.7953203125,-9.06606640625,2.2675625,2.59880859375,2.8391796875,3.53235546875,5.2230625,4.5487265625,7.88168359375,4.78819140625
9.7853359375,7.35076953125,-0.53185546875,-6.35627734375,-1.47318359375,4.61459765625,-0.6189921875,2.23365234375,-9.90955859375,4.725125,2.268546875,0.1516171875,-9.6817109375,-2.75443359375,1.404109375,-0.5549375,5.8075,-5.66347265625,0.90580859375,1.60177734375,2.3973203125,-8.49706640625,1.9975625,2.21980859375,2.0701796875,2.62735546875,4.6000625,4.9587265625,7.64368359375,3.89019140625
9.3633359375,7.34276953125,-0.57485546875,-6.22027734375,-1.44718359375,4.73459765625,-0.3189921875,4.54465234375,-10.27455859375,4.401125,2.151546875,0.8686171875,-10.9477109375,-3.04443359375,1.333109375,-0.8359375,5.1825,-6.16247265625,0.77280859375,1.26577734375,1.3003203125,-8.35206640625,1.5195625,1.76380859375,1.1831796875,1.70335546875,3.8240625,5.1017265625,7.11168359375,3.00619140625
7.2203359375,5.90876953125,-0.11085546875,-6.58127734375,-1.98018359375,4.02559765625,-0.6979921875,5.82965234375,-10.97355859375,3.528125,1.443546875,0.3306171875,-12.7087109375,-3.49543359375,0.917109375,-1.5249375,4.0305,-6.57847265625,0.73480859375,0.702777343749999,-0.2076796875,-8.48806640625,0.911562500000001,1.26180859375,0.3571796875,0.95135546875,3.1310625,5.2117265625,6.60668359375,2.43919140625
4.6153359375,3.99476953125,0.42214453125,-7.02327734375,-2.90318359375,2.75459765625,-1.4619921875,5.51165234375,-11.62255859375,2.138125,0.350546875,-0.8323828125,-14.3377109375,-4.02643359375,0.158109375,-2.3879375,2.6995,-6.76347265625,0.70680859375,-0.0362226562500005,-1.6526796875,-8.62006640625,0.285562500000001,0.75080859375,-0.269820312500001,0.51035546875,2.6510625,5.4897265625,6.33768359375,2.25919140625
2.7033359375,2.52076953125,0.67514453125,-7.13927734375,-3.88618359375,1.34959765625,-2.2089921875,3.67865234375,-11.91055859375,0.491124999999999,-0.777453125,-1.8563828125,-15.1777109375,-4.48243359375,-0.780890625,-3.1269375,1.5615,-6.66747265625,0.59680859375,-0.86422265625,-2.6006796875,-8.54706640625,-0.3094375,0.23580859375,-0.669820312500001,0.37235546875,2.3110625,5.8847265625,6.23668359375,2.24019140625
1.9963359375,1.90676953125,0.52014453125,-6.77527734375,-4.65218359375,0.15959765625,-2.6199921875,0.87865234375,-11.72455859375,-1.058875,-1.640453125,-2.2953828125,-14.8687109375,-4.72343359375,-1.707890625,-3.5669375,0.8425,-6.40047265625,0.30480859375,-1.72222265625,-2.8976796875,-8.33306640625,-0.944437499999999,-0.35919140625,-0.9718203125,0.341355468750001,1.8400625,6.0327265625,5.95068359375,1.95019140625
2.2073359375,1.92676953125,0.06114453125,-6.13227734375,-5.12818359375,-0.71140234375,-2.6379921875,-2.18934765625,-11.18555859375,-2.251875,-2.142453125,-2.2513828125,-13.5387109375,-4.71843359375,-2.528890625,-3.7619375,0.5115,-6.20847265625,-0.254191406249999,-2.61122265625,-2.7666796875,-8.31706640625,-1.7824375,-1.17719140625,-1.4268203125,0.11735546875,0.895062500000001,5.4127265625,5.02768359375,0.992191406249999
2.4913359375,1.95676953125,-0.43385546875,-5.68227734375,-5.44218359375,-1.38440234375,-2.5049921875,-4.82734765625,-10.59055859375,-3.015875,-2.412453125,-2.2533828125,-11.7297109375,-4.56543359375,-3.267890625,-3.9429375,0.2905,-6.35347265625,-1.10919140625,-3.56922265625,-2.6726796875,-8.92306640625,-2.9704375,-2.34219140625,-2.2648203125,-0.53464453125,-0.7289375,3.6577265625,3.20868359375,-0.751808593750001
1.9653359375,1.42676953125,-0.66085546875,-5.87627734375,-5.78118359375,-2.04840234375,-2.6159921875,-6.37334765625,-10.26155859375,-3.433875,-2.673453125,-2.8623828125,-10.1067109375,-4.43943359375,-3.995890625,-4.3389375,-0.2315,-6.95547265625,-2.18119140625,-4.58922265625,-3.0246796875,-10.36206640625,-4.4994375,-3.85119140625,-3.5368203125,-1.60864453125,-2.9339375,0.8527265625,0.646683593750001,-2.99780859375
0.2653359375,0.19776953125,-0.46585546875,-6.82827734375,-6.22218359375,-2.77140234375,-3.2309921875,-6.32834765625,-10.35255859375,-3.630875,-3.072453125,-4.2543828125,-9.1397109375,-4.48043359375,-4.720890625,-5.0009375,-1.3745,-7.88247265625,-3.27919140625,-5.55122265625,-3.9156796875,-12.41306640625,-6.1254375,-5.51019140625,-5.0358203125,-2.82564453125,-5.2989375,-2.4032734375,-2.10131640625,-5.14880859375
-2.2036640625,-1.33023046875,0.04214453125,-8.17927734375,-6.62818359375,-3.40640234375,-4.2249921875,-4.61834765625,-10.74055859375,-3.652875,-3.543453125,-6.0463828125,-8.9287109375,-4.68443359375,-5.320890625,-5.7319375,-3.1125,-8.76747265625,-4.14019140625,-6.23422265625,-5.0496796875,-14.45006640625,-7.4334375,-6.95519140625,-6.3548203125,-3.76264453125,-7.2289375,-5.2272734375,-4.30431640625,-6.56280859375
-4.4766640625,-2.45523046875,0.53814453125,-9.26527734375,-6.68018359375,-3.63540234375,-5.0639921875,-1.76634765625,-11.07755859375,-3.428875,-3.802453125,-7.4593828125,-9.2517109375,-4.88143359375,-5.561890625,-6.1589375,-4.9495,-9.17647265625,-4.51219140625,-6.40322265625,-5.9176796875,-15.71906640625,-8.0174375,-7.77519140625,-7.0568203125,-4.08164453125,-8.1949375,-6.8632734375,-5.38031640625,-6.84580859375
-5.5756640625,-2.58123046875,0.67814453125,-9.46227734375,-6.05418359375,-3.14140234375,-5.0809921875,1.24965234375,-10.96055859375,-2.819875,-3.499453125,-7.7523828125,-9.7407109375,-4.82243359375,-5.209890625,-5.9409375,-6.0685,-8.85747265625,-4.26319140625,-5.94022265625,-6.1176796875,-15.71406640625,-7.6884375,-7.69919140625,-6.8978203125,-3.72864453125,-7.9639375,-7.0252734375,-5.14931640625,-6.01680859375
-5.0186640625,-1.56823046875,0.28614453125,-8.47527734375,-4.65418359375,-1.82440234375,-3.8769921875,3.41865234375,-10.13755859375,-1.753875,-2.454453125,-6.6743828125,-10.0897109375,-4.35143359375,-4.194890625,-5.0049375,-5.7545,-7.91747265625,-3.46219140625,-4.92522265625,-5.6116796875,-14.44906640625,-6.5724375,-6.76019140625,-5.9638203125,-2.97664453125,-6.6979375,-5.9992734375,-3.89831640625,-4.48380859375
-3.0216640625,0.18276953125,-0.60585546875,-6.45127734375,-2.72418359375,0.0885976562500002,-1.6049921875,4.11865234375,-8.64055859375,-0.321875,-0.812453125,-4.6503828125,-10.1557109375,-3.52843359375,-2.698890625,-3.6199375,-3.8755,-6.82147265625,-2.38519140625,-3.63522265625,-4.7536796875,-12.46306640625,-5.0814375,-5.32819140625,-4.6438203125,-2.26364453125,-4.8999375,-4.4632734375,-2.23531640625,-2.82680859375
-0.3706640625,1.93176953125,-1.80885546875,-3.88327734375,-0.76318359375,2.08559765625,1.0410078125,3.32665234375,-6.77755859375,1.202125,0.971546875,-2.5783828125,-9.9687109375,-2.60243359375,-1.113890625,-2.2739375,-1.0575,-6.15547265625,-1.40119140625,-2.43422265625,-4.0496796875,-10.57006640625,-3.7374375,-3.96519140625,-3.4318203125,-1.92064453125,-3.1979375,-3.1532734375,-0.800316406249999,-1.53380859375
1.9163359375,2.93276953125,-3.03085546875,-1.39127734375,0.70481640625,3.56959765625,3.1280078125,1.56065234375,-4.98255859375,2.448125,2.318546875,-1.3763828125,-9.6307109375,-1.87243359375,0.117109375,-1.4309375,1.6075,-6.29547265625,-0.81519140625,-1.65122265625,-3.8596796875,-9.46006640625,-2.9634375,-3.16919140625,-2.6968203125,-1.97164453125,-2.0949375,-2.5442734375,-0.0023164062499994,-0.808808593750001
2.9773359375,2.72676953125,-3.89485546875,0.53172265625,1.34781640625,4.10259765625,3.9190078125,-0.38534765625,-3.60255859375,3.100125,2.779546875,-1.5153828125,-9.2117109375,-1.50843359375,0.660109375,-1.3289375,3.1085,-7.15547265625,-0.74819140625,-1.48122265625,-4.2226796875,-9.35506640625,-2.8984375,-3.17319140625,-2.5638203125,-2.17764453125,-1.7989375,-2.6972734375,0.08368359375,-0.575808593750001
2.4193359375,1.30576953125,-4.03385546875,1.70672265625,1.16381640625,3.61059765625,3.2210078125,-1.77834765625,-2.75055859375,3.046125,2.241546875,-2.8043828125,-8.6587109375,-1.45943359375,0.426109375,-1.9079375,2.9485,-8.18747265625,-1.10019140625,-1.93622265625,-4.9156796875,-9.92206640625,-3.3554375,-3.86819140625,-2.9398203125,-2.26664453125,-2.2009375,-3.3322734375,-0.361316406249999,-0.643808593750001
0.4743359375,-0.86323046875,-3.29685546875,2.30372265625,0.50981640625,2.46859765625,1.5170078125,-2.22034765625,-2.30655859375,2.465125,1.024546875,-4.4883828125,-7.7967109375,-1.46843359375,-0.360890625,-2.8439375,1.2155,-8.64747265625,-1.58619140625,-2.83622265625,-5.6296796875,-10.46606640625,-3.9024375,-4.87019140625,-3.5998203125,-2.16164453125,-2.9509375,-4.0222734375,-1.03231640625,-0.868808593750001
-2.0276640625,-2.95223046875,-1.94985546875,2.73872265625,-0.01318359375,1.39159765625,-0.2069921875,-1.75934765625,-2.02655859375,1.786125,-0.208453125000001,-5.6253828125,-6.4127109375,-1.19143359375,-1.211890625,-3.6709375,-1.5895,-7.96947265625,-1.83619140625,-3.83522265625,-6.1356796875,-10.30806640625,-4.0494375,-5.67119140625,-4.2638203125,-2.01664453125,-3.6059375,-4.3922734375,-1.61231640625,-1.19480859375
-3.9216640625,-4.04723046875,-0.64485546875,3.47872265625,0.16581640625,1.13459765625,-0.8809921875,-0.79434765625,-1.68455859375,1.493125,-0.738453125,-5.5643828125,-4.4087109375,-0.38543359375,-1.573890625,-3.9629375,-4.7445,-6.06347265625,-1.54119140625,-4.51422265625,-6.3366796875,-9.13206640625,-3.4504375,-5.83319140625,-4.6708203125,-2.05864453125,-3.7889375,-4.2252734375,-1.83031640625,-1.59080859375
-4.1526640625,-3.51923046875,-0.10885546875,4.82572265625,1.28081640625,2.11559765625,0.0980078124999998,0.18265234375,-1.17655859375,1.878125,-0.152453125000001,-4.2913828125,-1.9217109375,0.92856640625,-1.091890625,-3.5249375,-7.4175,-3.40047265625,-0.60019140625,-4.53922265625,-6.2236796875,-7.15506640625,-2.0534375,-5.15819140625,-4.6398203125,-2.38864453125,-3.3309375,-3.4792734375,-1.52131640625,-1.95980859375
-2.3106640625,-1.35223046875,-0.69885546875,6.72572265625,3.08681640625,4.17559765625,2.4960078125,0.89165234375,-0.576558593750001,2.895125,1.439546875,-2.4283828125,0.6442890625,2.44256640625,0.212109375,-2.4739375,-8.7995,-0.84047265625,0.82180859375,-3.81222265625,-5.7986796875,-5.04606640625,-0.143437499999999,-3.77219140625,-4.1198203125,-2.89264453125,-2.3329375,-2.2742734375,-0.67931640625,-2.15380859375
1.0503359375,1.74376953125,-2.12385546875,8.72072265625,4.97881640625,6.62759765625,5.3060078125,1.40865234375,-0.107558593750001,4.211125,3.466546875,-0.8823828125,2.7262890625,3.70056640625,1.970109375,-1.1609375,-8.3785,0.73552734375,2.34780859375,-2.54522265625,-5.0706796875,-3.61106640625,1.7525625,-2.06519140625,-3.2048203125,-3.33664453125,-1.1049375,-0.8622734375,0.518683593750001,-2.06680859375
4.5543359375,4.56576953125,-3.54085546875,10.11872265625,6.29081640625,8.57959765625,7.2630078125,2.00765234375,-0.00455859374999967,5.398125,5.198546875,-0.3593828125,3.8132890625,4.32356640625,3.644109375,-0.0159375,-6.2425,0.83352734375,3.53680859375,-1.20022265625,-4.1416796875,-3.37906640625,3.0815625,-0.54919140625,-2.1238203125,-3.54164453125,-0.0519374999999993,0.4297265625,1.73868359375,-1.74180859375
6.6463359375,5.90576953125,-4.01085546875,10.33072265625,6.57481640625,9.33559765625,7.5070078125,2.83265234375,-0.361558593750001,6.129125,6.072546875,-1.0583828125,3.6642890625,4.17156640625,4.728109375,0.5930625,-3.1665,-0.42847265625,4.03480859375,-0.320222656250001,-3.2816796875,-4.32406640625,3.4795625,0.30380859375,-1.2088203125,-3.49664453125,0.4580625,1.2847265625,2.58868359375,-1.39080859375
6.4233359375,5.14576953125,-3.05585546875,9.19072265625,5.76081640625,8.69559765625,6.0000078125,3.69265234375,-1.08055859375,6.278125,5.897546875,-2.6503828125,2.4212890625,3.37456640625,4.913109375,0.4710625,-0.3105,-2.40847265625,3.67880859375,-0.317222656250001,-2.8626796875,-5.92606640625,2.8975625,0.20980859375,-0.784820312500001,-3.33264453125,0.1940625,1.4907265625,2.76668359375,-1.27980859375
4.1593359375,2.62776953125,-0.99185546875,7.06372265625,4.14881640625,7.01959765625,3.5000078125,4.12065234375,-1.95055859375,5.909125,4.880546875,-4.4693828125,0.557289062500001,2.23356640625,4.179109375,-0.3329375,1.2935,-4.28147265625,2.54580859375,-1.29122265625,-3.1306796875,-7.49706640625,1.5805625,-0.83319140625,-1.0348203125,-3.18364453125,-0.8569375,1.0127265625,2.20568359375,-1.55580859375
1.2013359375,-0.44723046875,1.17614453125,4.70672265625,2.26681640625,5.03359765625,1.1800078125,3.60665234375,-2.76055859375,5.203125,3.488546875,-5.7623828125,-1.3157109375,1.07356640625,2.794109375,-1.5199375,1.1445,-5.40947265625,0.94180859375,-2.97422265625,-4.0076796875,-8.52706640625,-0.0334374999999989,-2.53919140625,-1.8908203125,-3.07864453125,-2.4619375,0.0247265624999997,1.12568359375,-2.14080859375
-0.7186640625,-2.60223046875,2.24814453125,2.96272265625,0.65181640625,3.48159765625,0.1130078125,1.83865234375,-3.35255859375,4.368125,2.241546875,-5.9543828125,-2.6757109375,0.12856640625,1.203109375,-2.6559375,-0.6445,-5.54647265625,-0.68619140625,-4.82022265625,-5.0796796875,-8.84106640625,-1.4724375,-4.42819140625,-3.0528203125,-2.93264453125,-4.1979375,-1.1322734375,-0.0623164062499999,-2.76580859375
-0.3826640625,-2.80923046875,1.44214453125,2.42572265625,-0.34818359375,2.81459765625,0.8050078125,-1.10334765625,-3.63155859375,3.578125,1.489546875,-4.8653828125,-3.2537109375,-0.49743359375,-0.141890625,-3.3509375,-3.5155,-4.84347265625,-1.89119140625,-6.22322265625,-5.7786796875,-8.55606640625,-2.3714375,-6.00219140625,-4.1088203125,-2.61464453125,-5.5989375,-2.0792734375,-0.92831640625,-3.10580859375
2.2933359375,-0.98123046875,-1.19085546875,3.17472265625,-0.64218359375,3.04359765625,2.9640078125,-4.63434765625,-3.59755859375,2.939125,1.296546875,-2.8233828125,-3.0837109375,-0.81943359375,-0.933890625,-3.4309375,-6.6715,-3.72147265625,-2.38419140625,-6.75522265625,-5.6446796875,-7.93706640625,-2.6054375,-6.90319140625,-4.6998203125,-2.01564453125,-6.3239375,-2.5612734375,-1.20431640625,-2.94080859375
6.2033359375,2.01976953125,-4.75085546875,4.72272265625,-0.38618359375,3.79859765625,5.5740078125,-7.72834765625,-3.39355859375,2.471125,1.443546875,-0.6033828125,-2.4327109375,-0.93343359375,-1.101890625,-3.0039375,-9.2415,-2.71047265625,-2.14619140625,-6.33222265625,-4.5476796875,-7.27906640625,-2.3204375,-7.02119140625,-4.6418203125,-1.09964453125,-6.2819375,-2.5622734375,-0.86531640625,-2.25380859375
9.5963359375,4.80876953125,-7.85285546875,6.22572265625,0.09381640625,4.51559765625,7.3100078125,-9.24434765625,-3.29755859375,2.103125,1.540546875,0.8406171875,-1.6797109375,-1.00843359375,-0.830890625,-2.4249375,-10.4215,-2.28447265625,-1.45219140625,-5.24022265625,-2.7926796875,-6.82206640625,-1.8674375,-6.50219140625,-4.0138203125,0.07335546875,-5.6519375,-2.2812734375,-0.121316406249999,-1.23980859375
10.9363359375,6.11676953125,-9.23485546875,6.86772265625,0.38981640625,4.66859765625,7.1440078125,-8.44534765625,-3.63055859375,1.678125,1.209546875,0.8096171875,-1.1807109375,-1.26543359375,-0.498890625,-2.1409375,-9.7035,-2.71547265625,-0.77119140625,-4.01022265625,-1.0166796875,-6.68906640625,-1.6374375,-5.67719140625,-3.1218203125,1.34735546875,-4.7819375,-1.9792734375,0.70668359375,-0.219808593750001
9.6503359375,5.36576953125,-8.33285546875,6.22772265625,0.16781640625,3.98359765625,4.8580078125,-5.42934765625,-4.60755859375,1.015125,0.274546875,-0.7383828125,-1.1817109375,-1.91543359375,-0.513890625,-2.4609375,-7.1235,-3.98647265625,-0.56319140625,-3.18722265625,0.1193203125,-6.85206640625,-1.8774375,-4.90819140625,-2.3568203125,2.51535546875,-4.0029375,-1.7982734375,1.35668359375,0.509191406249999
6.3603359375,2.89076953125,-5.54485546875,4.46272265625,-0.69018359375,2.54059765625,1.1690078125,-1.18234765625,-6.20355859375,-0.00687500000000085,-1.152453125,-3.1143828125,-1.7617109375,-3.05243359375,-1.110890625,-3.3789375,-3.3405,-5.79747265625,-1.06119140625,-3.09422265625,0.2633203125,-7.13006640625,-2.5844375,-4.42219140625,-1.9958203125,3.39635546875,-3.4649375,-1.6732734375,1.76368359375,0.829191406249999
2.4943359375,-0.31023046875,-2.00985546875,2.21372265625,-2.04818359375,0.70159765625,-2.6789921875,2.83065234375,-8.13555859375,-1.388875,-2.757453125,-5.3013828125,-2.8527109375,-4.58243359375,-2.260890625,-4.6109375,0.5955,-7.67747265625,-2.18419140625,-3.73322265625,-0.4866796875,-7.27406640625,-3.5244375,-4.23919140625,-2.0898203125,3.88835546875,-3.1079375,-1.4182734375,2.04368359375,0.820191406249999
-0.4996640625,-3.14823046875,0.96814453125,0.269722656250001,-3.63118359375,-1.11840234375,-5.6229921875,5.35665234375,-9.97355859375,-3.023875,-4.246453125,-6.6003828125,-4.2907109375,-6.25843359375,-3.722890625,-5.8139375,3.6795,-9.15747265625,-3.62619140625,-4.84622265625,-1.7346796875,-7.09706640625,-4.3814375,-4.24119140625,-2.5008203125,3.96935546875,-2.7809375,-0.9002734375,2.33768359375,0.654191406249999
-1.8566640625,-4.95123046875,2.51214453125,-0.815277343749999,-5.16818359375,-2.66840234375,-7.2979921875,5.91165234375,-11.33955859375,-4.742875,-5.507453125,-7.0023828125,-5.8787109375,-7.77043359375,-5.200890625,-6.7939375,5.3395,-9.90947265625,-5.03219140625,-6.09022265625,-3.0596796875,-6.58106640625,-4.9254375,-4.29619140625,-3.0298203125,3.68235546875,-2.3999375,-0.1862734375,2.66768359375,0.447191406249999
-1.6756640625,-5.60523046875,2.43914453125,-0.92127734375,-6.42818359375,-3.89840234375,-8.0259921875,4.90665234375,-12.01955859375,-6.334875,-6.584453125,-7.0123828125,-7.4037109375,-8.83043359375,-6.447890625,-7.5219375,5.5705,-9.80947265625,-6.13819140625,-7.16822265625,-4.1696796875,-5.86906640625,-5.1064375,-4.34619140625,-3.5038203125,3.12035546875,-2.0119375,0.4587265625,2.89068359375,0.181191406249999
-0.5486640625,-5.34023046875,1.10514453125,-0.25527734375,-7.18918359375,-4.82440234375,-8.3139921875,3.27565234375,-11.92855859375,-7.524875,-7.481453125,-7.1023828125,-8.6527109375,-9.21943359375,-7.291890625,-7.9929375,4.8175,-8.92747265625,-6.80819140625,-7.87922265625,-4.8916796875,-5.16706640625,-5.0134375,-4.40619140625,-3.8108203125,2.39735546875,-1.7629375,0.7017265625,2.76968359375,-0.276808593750001
0.9843359375,-4.43923046875,-0.95385546875,0.91972265625,-7.23918359375,-5.39240234375,-8.3469921875,1.88565234375,-11.01555859375,-8.013875,-8.034453125,-7.2923828125,-9.4297109375,-8.83343359375,-7.630890625,-8.1019375,3.6955,-7.49547265625,-7.01419140625,-8.10922265625,-5.1116796875,-4.64906640625,-4.7924375,-4.52819140625,-3.9018203125,1.60735546875,-1.8109375,0.3077265625,2.07868359375,-1.09880859375
2.6853359375,-3.11623046875,-3.30085546875,2.46072265625,-6.46618359375,-5.47540234375,-7.8739921875,1.11365234375,-9.29255859375,-7.603875,-7.964453125,-7.1533828125,-9.6147109375,-7.73943359375,-7.440890625,-7.6749375,2.6645,-5.88247265625,-6.81219140625,-7.82822265625,-4.7636796875,-4.41606640625,-4.5754375,-4.74819140625,-3.7988203125,0.77435546875,-2.2579375,-0.7612734375,0.697683593750001,-2.40280859375
4.4693359375,-1.56923046875,-5.61885546875,4.29072265625,-4.96318359375,-4.98540234375,-6.5169921875,0.81865234375,-6.95855859375,-6.334875,-7.085453125,-6.1513828125,-9.1877109375,-6.19443359375,-6.776890625,-6.6019375,1.8495,-4.51047265625,-6.31619140625,-7.09922265625,-3.8596796875,-4.49406640625,-4.4494375,-5.04419140625,-3.5718203125,-0.12064453125,-3.0839375,-2.3222734375,-1.27631640625,-4.14780859375
6.1173359375,-0.0762304687499999,-7.55585546875,6.24472265625,-3.03818359375,-3.98040234375,-4.1809921875,0.66165234375,-4.45455859375,-4.513875,-5.475453125,-4.0213828125,-8.2077109375,-4.56343359375,-5.765890625,-4.9549375,1.1205,-3.69147265625,-5.65119140625,-6.06422265625,-2.5206796875,-4.80006640625,-4.4084375,-5.29819140625,-3.2868203125,-1.05964453125,-4.0969375,-4.0012734375,-3.46731640625,-6.04780859375
7.2163359375,1.00576953125,-8.62285546875,8.02072265625,-1.11018359375,-2.65940234375,-1.2139921875,0.47865234375,-2.34255859375,-2.581875,-3.483453125,-0.9533828125,-6.7787109375,-3.17643359375,-4.575890625,-3.0119375,0.3815,-3.46347265625,-4.90919140625,-4.90222265625,-0.9796796875,-5.12106640625,-4.3154375,-5.31319140625,-2.9688203125,-1.90464453125,-4.9559375,-5.3222734375,-5.28631640625,-7.61380859375
7.3883359375,1.39676953125,-8.36585546875,9.30672265625,0.47281640625,-1.25940234375,1.7470078125,0.45565234375,-1.07055859375,-0.908875000000001,-1.559453125,2.4556171875,-5.0327109375,-2.18743359375,-3.363890625,-1.1669375,-0.1675,-3.57047265625,-4.12419140625,-3.77322265625,0.4523203125,-5.16406640625,-3.9314375,-4.90219140625,-2.5968203125,-2.41864453125,-5.2989375,-5.8802734375,-6.16031640625,-8.34780859375
6.6103359375,1.08376953125,-6.69785546875,9.96272265625,1.59281640625,0.06159765625,4.0770078125,1.01365234375,-0.810558593750001,0.361124999999999,-0.0414531250000003,5.4096171875,-3.1447109375,-1.54243359375,-2.234890625,0.2300625,-0.0485,-3.62547265625,-3.29219140625,-2.80422265625,1.4703203125,-4.72706640625,-3.0544375,-4.00719140625,-2.1508203125,-2.40064453125,-4.9409375,-5.5472734375,-5.82931640625,-8.01880859375
5.3223359375,0.38676953125,-4.13385546875,10.09972265625,2.37081640625,1.27359765625,5.4200078125,2.50065234375,-1.43655859375,1.308125,0.971546875,7.1836171875,-1.3697109375,-1.05343359375,-1.229890625,1.0010625,1.1635,-3.34647265625,-2.42719140625,-2.08922265625,1.8843203125,-3.88606640625,-1.6864375,-2.79519140625,-1.6618203125,-1.84964453125,-4.0189375,-4.6012734375,-4.53231640625,-6.84180859375
4.2303359375,-0.21223046875,-1.65185546875,9.99472265625,3.02081640625,2.40459765625,5.7570078125,4.88165234375,-2.60655859375,2.105125,1.581546875,7.3646171875,-0.0577109374999996,-0.55543359375,-0.360890625,1.1610625,3.4625,-2.71847265625,-1.61619140625,-1.69622265625,1.6783203125,-3.05506640625,-0.110437499999999,-1.63619140625,-1.2548203125,-1.04664453125,-2.9879375,-3.6502734375,-2.96631640625,-5.43080859375
3.9193359375,-0.35223046875,-0.21785546875,9.88872265625,3.64381640625,3.43159765625,5.3050078125,7.66165234375,-3.88955859375,2.856125,1.941546875,6.0166171875,0.419289062500001,-0.01843359375,0.334109375,0.8500625,6.2605,-1.97847265625,-1.01319140625,-1.66722265625,0.9823203125,-2.82606640625,1.1935625,-0.97719140625,-1.1158203125,-0.464644531249999,-2.4269375,-3.3562734375,-1.96931640625,-4.53680859375
4.5283359375,0.00276953125000023,-0.28685546875,9.82872265625,4.16981640625,4.23459765625,4.3740078125,10.13165234375,-4.88355859375,3.532125,2.145546875,3.7076171875,-0.178710937499998,0.46756640625,0.800109375,0.2590625,8.5995,-1.45547265625,-0.75819140625,-1.98122265625,-0.000679687500000137,-3.65706640625,1.7795625,-1.11319140625,-1.3968203125,-0.53064453125,-2.7379375,-4.0662734375,-2.09831640625,-4.67480859375
5.7133359375,0.61076953125,-1.61385546875,9.68472265625,4.48781640625,4.66859765625,3.2960078125,11.74865234375,-5.27255859375,4.052125,2.226546875,1.3556171875,-1.7667109375,0.81856640625,1.043109375,-0.3979375,9.6155,-1.36347265625,-0.85519140625,-2.52622265625,-1.0216796875,-5.54906640625,1.4825625,-2.00919140625,-2.0798203125,-1.37764453125,-3.8989375,-5.5922734375,-3.31331640625,-5.85280859375
6.8973359375,1.14176953125,-3.44385546875,9.32872265625,4.61481640625,4.69559765625,2.4150078125,12.35765234375,-4.84455859375,4.403125,2.214546875,-0.1163828125,-3.8597109375,1.07656640625,1.155109375,-0.9059375,8.9765,-1.65447265625,-1.12419140625,-3.09622265625,-1.7976796875,-7.93406640625,0.533562500000001,-3.28819140625,-2.9318203125,-2.73664453125,-5.4379375,-7.2602734375,-4.99131640625,-7.53980859375
7.6053359375,1.37376953125,-4.91985546875,8.82372265625,4.74081640625,4.45659765625,2.0310078125,12.14865234375,-3.51155859375,4.687125,2.181546875,-0.1703828125,-5.7057109375,1.41256640625,1.276109375,-1.1099375,7.0865,-2.01947265625,-1.27019140625,-3.46522265625,-2.0646796875,-9.89206640625,-0.5224375,-4.40019140625,-3.5938203125,-4.05064453125,-6.6509375,-8.2192734375,-6.25131640625,-8.91880859375
7.6533359375,1.26376953125,-5.42385546875,8.42872265625,5.11681640625,4.21359765625,2.2760078125,11.45565234375,-1.38655859375,5.061125,2.229546875,1.1076171875,-6.6037109375,2.02456640625,1.511109375,-0.9689375,4.9315,-2.03347265625,-1.02219140625,-3.46722265625,-1.6856796875,-10.57506640625,-1.0694375,-4.86919140625,-3.7378203125,-4.73664453125,-6.9339375,-7.8352734375,-6.39031640625,-9.25680859375
7.1233359375,0.93976953125,-4.73885546875,8.43172265625,5.89581640625,4.24859765625,3.0150078125,10.59665234375,1.16044140625,5.654125,2.472546875,3.0996171875,-6.2157109375,3.01156640625,1.923109375,-0.5429375,3.6295,-1.36647265625,-0.24319140625,-3.03522265625,-0.7476796875,-9.60506640625,-0.672437499999999,-4.44319140625,-3.1948203125,-4.45964453125,-6.0179375,-5.9582734375,-5.15831640625,-8.21080859375
6.2693359375,0.64776953125,-3.04085546875,8.95272265625,7.03881640625,4.75759765625,3.9210078125,9.75665234375,3.57944140625,6.525125,3.029546875,5.0156171875,-4.6897109375,4.31856640625,2.567109375,0.0820624999999999,3.8815,0.0685273437499996,1.05580859375,-2.16622265625,0.4673203125,-7.18306640625,0.781562500000001,-3.12019140625,-1.9898203125,-3.25764453125,-4.0189375,-2.9392734375,-2.79931640625,-5.91380859375
5.4363359375,0.66876953125,-0.79485546875,9.87772265625,8.31781640625,5.78759765625,4.6780078125,8.92665234375,5.32744140625,7.664125,3.999546875,6.3106171875,-2.5377109375,5.77656640625,3.510109375,0.8730625,5.5925,2.08452734375,2.74780859375,-0.86822265625,1.6143203125,-3.92606640625,3.0925625,-1.10019140625,-0.295820312500001,-1.50164453125,-1.3359375,0.5597265625,0.11968359375,-2.88080859375
5.0013359375,1.21276953125,1.40914453125,10.90872265625,9.41381640625,7.22559765625,5.1640078125,7.94665234375,6.04044140625,8.994125,5.416546875,6.9006171875,-0.386710937499998,7.17356640625,4.808109375,1.8690625,7.8985,4.32152734375,4.63580859375,0.834777343749999,2.4723203125,-0.578066406250001,5.8445625,1.28180859375,1.6231796875,0.28335546875,1.5220625,3.8247265625,2.94468359375,0.207191406249999
5.2493359375,2.31376953125,3.05714453125,11.67072265625,10.04481640625,8.82659765625,5.4930078125,6.65765234375,5.61944140625,10.375125,7.195546875,7.0836171875,1.2732890625,8.32956640625,6.435109375,3.1340625,9.5795,6.39352734375,6.48580859375,2.84077734375,3.0473203125,2.22593359375,8.5145625,3.62280859375,3.4781796875,1.63035546875,4.0670625,6.2867265625,5.14668359375,2.71819140625
6.2383359375,3.78376953125,3.88214453125,11.82872265625,10.06781640625,10.28059765625,5.8750078125,5.06865234375,4.23044140625,11.606125,9.110546875,7.2526171875,2.2092890625,9.11956640625,8.224109375,4.6580625,9.6425,8.00552734375,8.04580859375,4.88977734375,3.5163203125,4.08693359375,10.5955625,5.52780859375,4.9951796875,2.26635546875,5.9170625,7.6227265625,6.43568359375,4.21519140625
7.6823359375,5.21576953125,3.94714453125,11.16872265625,9.46681640625,11.26159765625,6.3990078125,3.39165234375,2.24244140625,12.433125,10.790546875,7.5576171875,2.4332890625,9.44856640625,9.827109375,6.2350625,7.7695,8.98552734375,9.04780859375,6.56577734375,4.0163203125,4.87293359375,11.7025625,6.67180859375,5.9171796875,2.13735546875,6.8170625,7.7717265625,6.75968359375,4.53219140625
8.9573359375,6.05676953125,3.60514453125,9.62172265625,8.27881640625,11.45159765625,6.8350078125,1.97065234375,0.0814414062499988,12.574125,11.768546875,7.7196171875,2.0952890625,9.21156640625,10.763109375,7.4160625,4.4415,9.22852734375,9.23680859375,7.39077734375,4.4293203125,4.66893359375,11.6565625,6.84580859375,6.0201796875,1.35335546875,6.6560625,6.8907265625,6.24668359375,3.76919140625
9.2773359375,5.78276953125,3.35014453125,7.24272265625,6.55081640625,10.58659765625,6.6400078125,1.18665234375,-1.95755859375,11.794125,11.615546875,7.1536171875,1.3612890625,8.32356640625,10.588109375,7.6480625,0.7365,8.64752734375,8.45480859375,7.00777734375,4.3713203125,3.69393359375,10.5175625,6.01880859375,5.2001796875,0.14935546875,5.5120625,5.2987265625,5.15468359375,2.26819140625
8.0883359375,4.17376953125,3.59614453125,4.25572265625,4.40181640625,8.60959765625,5.2930078125,1.35265234375,-3.78055859375,10.055125,10.167546875,5.3936171875,0.3652890625,6.80456640625,9.150109375,6.5840625,-2.0825,7.22152734375,6.76280859375,5.39777734375,3.4443203125,2.24693359375,8.5895625,4.40180859375,3.5961796875,-1.12964453125,3.6940625,3.4217265625,3.85068359375,0.549191406249999
5.5053359375,1.55576953125,4.43614453125,1.14272265625,2.10581640625,5.83159765625,2.8130078125,2.52065234375,-5.40555859375,7.654125,7.731546875,2.5896171875,-0.772710937499999,4.88456640625,6.766109375,4.3970625,-3.0425,5.10952734375,4.51780859375,2.99377734375,1.6153203125,0.672933593749999,6.3625625,2.44280859375,1.6621796875,-2.06164453125,1.7170625,1.7177265625,2.73468359375,-0.811808593750001
2.4793359375,-1.18523046875,5.53214453125,-1.36427734375,0.09981640625,2.96759765625,0.0510078124999998,4.26865234375,-6.80755859375,5.209125,5.098546875,-0.3233828125,-1.9267109375,2.97956640625,4.189109375,1.8590625,-1.8175,2.69852734375,2.30680859375,0.598777343749999,-0.5776796875,-0.694066406250001,4.3865625,0.72180859375,0.0621796874999991,-2.27264453125,0.1480625,0.5527265625,2.11668359375,-1.37080859375
0.4393359375,-2.91223046875,6.21614453125,-2.53027734375,-1.13518359375,0.92259765625,-1.5739921875,5.70865234375,-7.85355859375,3.460125,3.273546875,-1.9763828125,-2.9607109375,1.56456640625,2.328109375,0.0580624999999999,1.1785,0.50652734375,0.75280859375,-0.909222656250001,-2.1786796875,-1.62606640625,3.0905625,-0.23819140625,-0.571820312500001,-1.58464453125,-0.5939375,0.0617265624999996,2.08468359375,-0.982808593750001
0.578335937499999,-2.75223046875,5.79914453125,-1.97927734375,-1.25818359375,0.40259765625,-0.8589921875,5.85665234375,-8.37155859375,2.955125,3.023546875,-1.3273828125,-3.7527109375,0.97456640625,1.866109375,-0.1259375,4.9795,-1.02047265625,0.27480859375,-0.945222656250001,-2.2926796875,-2.09006640625,2.6435625,-0.15519140625,0.0811796874999993,-0.10864453125,-0.3919375,0.1027265625,2.48668359375,0.137191406249999
3.2003359375,-0.55923046875,3.93514453125,0.0787226562500001,-0.25118359375,1.56059765625,2.3720078125,4.21565234375,-8.27255859375,3.797125,4.464546875,1.6396171875,-4.2307109375,1.27056640625,2.938109375,1.4870625,8.4245,-1.69147265625,0.91380859375,0.51477734375,-0.6116796875,-2.24206640625,2.9255625,0.89980859375,1.8671796875,1.78335546875,0.5390625,0.3517265625,3.02068359375,1.51319140625
7.4953359375,2.95076953125,0.86814453125,2.91072265625,1.52181640625,3.88859765625,6.9840078125,1.18565234375,-7.63655859375,5.595125,6.961546875,5.7446171875,-4.3917109375,2.21956640625,5.060109375,4.2400625,10.4955,-1.61647265625,2.31580859375,2.92777734375,2.3713203125,-2.30106640625,3.6375625,2.52680859375,4.2081796875,3.58735546875,1.7650625,0.4947265625,3.38568359375,2.61619140625
11.8303359375,6.48176953125,-2.56085546875,5.54272265625,3.43981640625,6.43659765625,11.0190078125,-2.00234765625,-6.72455859375,7.651125,9.432546875,9.1416171875,-4.2767109375,3.42356640625,7.378109375,6.9800625,10.6075,-1.11147265625,3.89680859375,5.44477734375,5.6033203125,-2.39906640625,4.4715625,4.16980859375,6.3631796875,4.84435546875,2.8340625,0.4027265625,3.42068359375,3.07819140625
14.4473359375,8.73976953125,-5.18885546875,7.11372265625,4.92781640625,8.27759765625,12.7300078125,-3.83634765625,-5.86655859375,9.295125,10.923546875,10.2956171875,-3.9227109375,4.52656640625,9.107109375,8.7000625,8.7925,-0.50847265625,5.12280859375,7.31377734375,8.0163203125,-2.49406640625,5.2525625,5.36180859375,7.7811796875,5.30335546875,3.4740625,0.1757265625,3.17268359375,2.82819140625
14.2593359375,9.03976953125,-5.98685546875,7.18972265625,5.72581640625,8.95559765625,11.5510078125,-3.28434765625,-5.26255859375,10.183125,11.113546875,8.8236171875,-3.3167109375,5.38156640625,9.909109375,9.0690625,5.7375,0.02052734375,5.74280859375,8.20177734375,9.0363203125,-2.41006640625,5.9765625,5.90380859375,8.3201796875,5.00335546875,3.6700625,0.0457265624999996,2.84668359375,2.08119140625
11.3673359375,7.58376953125,-4.53385546875,5.92972265625,5.96781640625,8.64859765625,8.4010078125,-0.33534765625,-4.83855859375,10.392125,10.421546875,5.6796171875,-2.4137109375,6.07356640625,9.963109375,8.5180625,2.5645,0.51452734375,5.83580859375,8.24277734375,8.7503203125,-1.97106640625,6.7295625,5.87080859375,8.2231796875,4.22135546875,3.5910625,0.2107265625,2.66068359375,1.20019140625
6.9963359375,5.27476953125,-1.22385546875,4.00272265625,6.01881640625,7.97759765625,5.1100078125,4.00065234375,-4.29755859375,10.278125,9.670546875,2.5856171875,-1.2237109375,6.77856640625,9.732109375,7.8580625,0.3955,1.13152734375,5.67380859375,7.83977734375,7.7253203125,-1.13406640625,7.5435625,5.47680859375,7.8821796875,3.31835546875,3.4180625,0.6957265625,2.70968359375,0.506191406249999
2.8463359375,3.21376953125,2.88214453125,2.26772265625,6.22381640625,7.60559765625,3.3650078125,8.23165234375,-3.37855859375,10.228125,9.566546875,1.0786171875,0.1062890625,7.58856640625,9.634109375,7.7460625,-0.1255,1.97252734375,5.50980859375,7.36277734375,6.6123203125,-0.045066406250001,8.2865625,4.92580859375,7.5791796875,2.56635546875,3.2360625,1.3337265625,2.92168359375,0.146191406249999
0.2623359375,2.15476953125,6.51114453125,1.37672265625,6.74181640625,7.90159765625,3.8680078125,11.12265234375,-2.09155859375,10.469125,10.325546875,1.7896171875,1.2712890625,8.41956640625,9.823109375,8.3340625,0.9075,2.95252734375,5.45480859375,6.95977734375,5.8113203125,1.01993359375,8.7015625,4.34480859375,7.3701796875,2.05535546875,3.0290625,1.8557265625,3.12968359375,0.0751914062499992
-0.3176640625,2.20176953125,8.71814453125,1.52672265625,7.50781640625,8.83059765625,6.1600078125,12.18165234375,-0.749558593750001,11.027125,11.649546875,4.2906171875,1.8892890625,9.06056640625,10.183109375,9.2930625,2.7795,3.83152734375,5.48180859375,6.59677734375,5.3703203125,1.81293359375,8.5615625,3.81080859375,7.1441796875,1.71435546875,2.7850625,2.0537265625,3.18868359375,0.125191406249999
0.6213359375,2.87776953125,9.23614453125,2.46772265625,8.32981640625,10.07959765625,9.0680078125,11.68365234375,0.212441406249999,11.803125,12.995546875,7.4706171875,1.6912890625,9.31956640625,10.506109375,10.1180625,4.5995,4.36652734375,5.54080859375,6.24077734375,5.1443203125,2.26393359375,7.8655625,3.43880859375,6.8041796875,1.44035546875,2.5920625,1.9147265625,3.07368359375,0.142191406249999
2.1073359375,3.48176953125,8.48414453125,3.69872265625,9.05981640625,11.28759765625,11.3980078125,10.33865234375,0.523441406249999,12.687125,13.935546875,10.1456171875,0.7152890625,9.17956640625,10.699109375,10.5040625,5.8035,4.47952734375,5.68180859375,6.02477734375,5.0843203125,2.51793359375,6.9095625,3.43480859375,6.4371796875,1.23335546875,2.6860625,1.6347265625,2.91668359375,0.0981914062499989
3.2743359375,3.54876953125,7.23714453125,4.74772265625,9.71781640625,12.26659765625,12.5060078125,8.85865234375,0.29044140625,13.639125,14.399546875,11.5776171875,-0.606710937499999,8.85856640625,10.889109375,10.5610625,6.4015,4.31652734375,6.08280859375,6.25477734375,5.3893203125,2.83093359375,6.1795625,4.06180859375,6.3491796875,1.24235546875,3.3620625,1.5047265625,2.95468359375,0.11619140625
3.7973359375,3.11776953125,6.17614453125,5.41072265625,10.48581640625,13.07059765625,12.5240078125,7.65865234375,0.0264414062499991,14.691125,14.673546875,11.7076171875,-1.5817109375,8.71656640625,11.335109375,10.7200625,6.8415,4.16752734375,6.94180859375,7.23777734375,6.4043203125,3.38893359375,6.1095625,5.49780859375,6.9041796875,1.66635546875,4.8110625,1.7277265625,3.38668359375,0.384191406249999
3.9533359375,2.67176953125,5.58314453125,5.85472265625,11.56081640625,13.91159765625,12.1860078125,6.76565234375,0.411441406249999,15.869125,15.189546875,11.0516171875,-1.5687109375,9.06456640625,12.213109375,11.4400625,7.6015,4.31452734375,8.31780859375,9.05277734375,8.3413203125,4.17693359375,6.8585625,7.67280859375,8.2871796875,2.60035546875,6.9540625,2.3077265625,4.24068359375,1.00719140625
4.2953359375,2.77776953125,5.34614453125,6.49172265625,12.98481640625,14.97059765625,12.3600078125,5.95465234375,1.89644140625,17.097125,16.245546875,10.3626171875,-0.3007109375,9.99056640625,13.451109375,12.8880625,8.8055,4.91252734375,10.03180859375,11.42477734375,11.0303203125,5.00293359375,8.2305625,10.21980859375,10.3411796875,3.94835546875,9.4120625,3.0697265625,5.34468359375,1.93219140625
5.1853359375,3.69676953125,5.19914453125,7.68672265625,14.55581640625,16.23059765625,13.5520078125,5.04765234375,4.39044140625,18.153125,17.804546875,10.2406171875,1.9782890625,11.28956640625,14.715109375,14.8120625,10.1105,5.93752734375,11.69780859375,13.77377734375,13.9053203125,5.64193359375,9.7715625,12.56580859375,12.5961796875,5.45835546875,11.6330625,3.7847265625,6.43068359375,2.96819140625
6.5383359375,5.20476953125,4.98314453125,9.46472265625,15.87381640625,17.41559765625,15.6250078125,4.21365234375,7.23944140625,18.713125,19.463546875,10.8746171875,4.6222890625,12.53256640625,15.523109375,16.6020625,10.9415,7.20652734375,12.84180859375,15.41077734375,16.1903203125,5.96893359375,10.9525625,14.10880859375,14.4241796875,6.83135546875,13.0600625,4.2677265625,7.23868359375,3.86419140625
7.9133359375,6.71476953125,4.74214453125,11.42172265625,16.46781640625,18.08059765625,17.8610078125,4.01565234375,9.51644140625,18.466125,20.593546875,11.9926171875,6.8582890625,13.22056640625,15.436109375,17.5370625,10.9015,8.41852734375,13.06080859375,15.78577734375,17.2023203125,5.98093359375,11.3475625,14.38980859375,15.2501796875,7.81735546875,13.2810625,4.3837265625,7.54768359375,4.35419140625
8.8163359375,7.60576953125,4.65214453125,12.89272265625,15.99681640625,17.82259765625,19.2850078125,5.13165234375,10.44244140625,17.264125,20.611546875,13.0516171875,8.1002890625,12.99056640625,14.259109375,17.1110625,10.0685,9.25052734375,12.17180859375,14.69377734375,16.6553203125,5.72793359375,10.7555625,13.24580859375,14.7551796875,8.27835546875,12.1360625,4.0117265625,7.17768359375,4.22119140625
8.9793359375,7.55276953125,4.87114453125,13.29572265625,14.45181640625,16.51859765625,19.1380078125,7.83065234375,9.74244140625,15.250125,19.281546875,13.5826171875,8.1832890625,11.79356640625,12.189109375,15.3360625,9.0105,9.48352734375,10.34380859375,12.39177734375,14.8593203125,5.25893359375,9.2755625,10.92680859375,13.0571796875,8.23335546875,9.8080625,3.0807265625,6.06268359375,3.39919140625
8.4533359375,6.64576953125,5.45014453125,12.47572265625,12.24381640625,14.44859765625,17.2660078125,11.58065234375,7.78344140625,12.867125,16.887546875,13.4846171875,7.4232890625,9.95056640625,9.801109375,12.8260625,8.5295,9.09852734375,8.10480859375,9.56677734375,12.6703203125,4.60793359375,7.2965625,8.08380859375,10.7351796875,7.87335546875,6.8250625,1.6507265625,4.34668359375,2.06119140625
7.5303359375,5.28276953125,6.28514453125,10.84472265625,10.05881640625,12.18659765625,14.2540078125,15.10665234375,5.44344140625,10.706125,14.150546875,13.0686171875,6.4682890625,8.01356640625,7.817109375,10.5480625,9.2465,8.27152734375,6.14680859375,7.09977734375,11.1273203125,3.80593359375,5.3595625,5.56080859375,8.6211796875,7.46935546875,3.9170625,-0.0662734374999996,2.37768359375,0.57619140625
6.5893359375,3.94376953125,7.12114453125,9.21572265625,8.56381640625,10.33459765625,11.1520078125,17.00965234375,3.73144140625,9.240125,11.889546875,12.8036171875,5.9922890625,6.50356640625,6.742109375,9.3540625,11.2395,7.27752734375,5.00980859375,5.71377734375,10.9493203125,2.88193359375,3.9405625,4.04080859375,7.4251796875,7.21835546875,1.7410625,-1.7922734375,0.572683593750001,-0.661808593750001
5.9233359375,2.98176953125,7.61414453125,8.39272265625,8.09981640625,9.21859765625,8.9230078125,16.56565234375,3.35044140625,8.588125,10.613546875,12.9416171875,6.3962890625,5.68756640625,6.600109375,9.5400625,13.9245,6.37652734375,4.81780859375,5.65277734375,12.1653203125,1.88393359375,3.2655625,3.75580859375,7.4031796875,7.13035546875,0.642062500000001,-3.3042734375,-0.75631640625,-1.42480859375
5.5923359375,2.50876953125,7.49714453125,8.75572265625,8.54081640625,8.73659765625,7.9150078125,14.13465234375,4.41044140625,8.453125,10.261546875,13.2616171875,7.6612890625,5.49356640625,6.918109375,10.7030625,16.2965,5.74452734375,5.23980859375,6.57677734375,14.0903203125,0.910933593749998,3.2605625,4.41180859375,8.2611796875,7.03735546875,0.5670625,-4.4762734375,-1.48731640625,-1.72780859375
5.3813359375,2.36776953125,6.75514453125,10.08472265625,9.33781640625,8.41359765625,7.7000078125,10.87265234375,6.46244140625,8.266125,10.240546875,13.1066171875,9.4052890625,5.60256640625,6.958109375,11.9290625,17.4195,5.46452734375,5.68280859375,7.72177734375,15.6373203125,0.129933593749999,3.6705625,5.36780859375,9.3121796875,6.71335546875,1.1600625,-5.2492734375,-1.69231640625,-1.77680859375
4.9093359375,2.22176953125,5.67414453125,11.69872265625,9.76181640625,7.63259765625,7.3650078125,7.98965234375,8.78044140625,7.462125,9.738546875,11.7496171875,11.0782890625,5.62056640625,6.080109375,12.2210625,16.8805,5.52952734375,5.60580859375,8.25577734375,15.8193203125,-0.280066406250001,4.2155625,5.95180859375,9.8131796875,6.00335546875,1.9540625,-5.5862734375,-1.56731640625,-1.84180859375
3.8763359375,1.74776953125,4.68214453125,12.78672265625,9.24481640625,5.96259765625,6.0850078125,6.09665234375,10.68344140625,5.748125,8.165546875,8.9056171875,12.2032890625,5.26856640625,4.073109375,10.9880625,14.9475,5.87752734375,4.78780859375,7.66177734375,14.2123203125,-0.203066406250001,4.7185625,5.77580859375,9.3161796875,4.91935546875,2.5770625,-5.4632734375,-1.32931640625,-2.11380859375
2.2933359375,0.85276953125,4.10114453125,12.76872265625,7.65481640625,3.39559765625,3.6430078125,5.04465234375,11.76944140625,3.238125,5.482546875,5.0666171875,12.5562890625,4.50156640625,1.279109375,8.3320625,12.3565,6.42052734375,3.41480859375,5.95177734375,11.1503203125,0.358933593749999,5.1235625,4.88880859375,7.8671796875,3.66135546875,2.8720625,-4.8962734375,-1.11431640625,-2.61180859375
0.554335937499999,-0.24623046875,3.96014453125,11.55572265625,5.34681640625,0.38159765625,0.5700078125,4.21665234375,12.00544140625,0.407124999999999,2.214546875,1.3726171875,12.2532890625,3.50356640625,-1.576890625,4.9720625,9.8725,7.06252734375,1.94480859375,3.61677734375,7.5153203125,1.30993359375,5.4505625,3.68480859375,5.9291796875,2.52935546875,2.8920625,-3.9622734375,-0.94031640625,-3.19580859375
-0.7306640625,-1.13523046875,3.98414453125,9.60272265625,2.97881640625,-2.38340234375,-2.1309921875,2.99165234375,11.69544140625,-2.123875,-0.826453125,-0.9563828125,11.6812890625,2.57356640625,-3.749890625,1.8600625,7.9225,7.69052734375,0.83580859375,1.34477734375,4.2833203125,2.50093359375,5.7025625,2.64780859375,4.1021796875,1.77335546875,2.7740625,-2.8022734375,-0.75931640625,-3.67280859375
-1.0476640625,-1.42523046875,3.75514453125,7.71772265625,1.22281640625,-4.26640234375,-3.5379921875,1.10365234375,11.31544140625,-3.836875,-2.938453125,-1.2453828125,11.3302890625,1.98156640625,-4.820890625,-0.2669375,6.5185,8.17752734375,0.31880859375,-0.310222656250001,2.1133203125,3.77193359375,5.8125625,2.08580859375,2.8261796875,1.46135546875,2.6290625,-1.5982734375,-0.52531640625,-3.90680859375
-0.2786640625,-0.94423046875,2.95714453125,6.68972265625,0.52881640625,-4.96340234375,-3.2939921875,-1.20134765625,11.29644140625,-4.498875,-3.816453125,0.3206171875,11.5522890625,1.85956640625,-4.823890625,-1.1359375,5.4635,8.42352734375,0.33880859375,-1.12222265625,1.2063203125,4.98093359375,5.6565625,2.02480859375,2.2461796875,1.47935546875,2.4940625,-0.5202734375,-0.22731640625,-3.86080859375
1.1923359375,0.15176953125,1.59314453125,6.91972265625,0.97981640625,-4.59940234375,-1.8119921875,-3.25234765625,11.82244140625,-4.219875,-3.634453125,2.8256171875,12.3762890625,2.15356640625,-4.152890625,-0.9459375,4.6105,8.40952734375,0.64280859375,-1.19522265625,1.3983203125,6.01693359375,5.1145625,2.26280859375,2.2591796875,1.62035546875,2.3680625,0.3217265625,0.10868359375,-3.56380859375
2.6053359375,1.38576953125,0.04814453125,8.20072265625,2.23481640625,-3.68540234375,-0.1069921875,-4.25634765625,12.74944140625,-3.404875,-2.944453125,5.0546171875,13.4622890625,2.64256640625,-3.342890625,-0.2069375,3.9775,8.21352734375,0.92480859375,-0.829222656250001,2.3293203125,6.81593359375,4.1485625,2.49680859375,2.6241796875,1.70535546875,2.2380625,0.8957265625,0.41868359375,-3.08880859375
3.1393359375,2.11976953125,-1.06685546875,9.77072265625,3.62681640625,-2.91740234375,0.6630078125,-3.68234765625,13.63744140625,-2.611875,-2.440453125,6.0136171875,14.2362890625,3.01156640625,-2.851890625,0.4990625,3.6415,7.94452734375,0.94380859375,-0.35622265625,3.5713203125,7.33193359375,2.8395625,2.46480859375,3.0801796875,1.64135546875,2.0830625,1.2257265625,0.59968359375,-2.55480859375
2.2983359375,1.86176953125,-1.24085546875,10.65572265625,4.40681640625,-2.89040234375,-0.2369921875,-1.54634765625,13.90544140625,-2.369875,-2.662453125,5.3266171875,14.1642890625,2.96156640625,-2.901890625,0.7560625,3.5605,7.65852734375,0.58280859375,-0.0252226562500004,4.7153203125,7.49993359375,1.3575625,2.03080859375,3.4101796875,1.42035546875,1.8520625,1.3237265625,0.52268359375,-2.13880859375
0.2013359375,0.53476953125,-0.38485546875,10.16972265625,4.04981640625,-3.84140234375,-2.7219921875,1.53365234375,13.08144140625,-2.980875,-3.770453125,3.3316171875,13.0122890625,2.32556640625,-3.458890625,0.4360625,3.5045,7.30752734375,-0.16319140625,0.0207773437499994,5.4323203125,7.19893359375,-0.119437499999999,1.18780859375,3.4561796875,1.08835546875,1.4240625,1.1157265625,0.05168359375,-2.06180859375
-2.4316640625,-1.47223046875,1.06914453125,8.28372265625,2.45381640625,-5.57040234375,-5.9029921875,4.51465234375,11.05144140625,-4.426875,-5.519453125,0.8306171875,10.9672890625,1.10956640625,-4.352890625,-0.3399375,3.1845,6.75652734375,-1.24919140625,-0.309222656250001,5.5153203125,6.26293359375,-1.5014375,-0.0251914062500003,3.0871796875,0.705355468750001,0.5920625,0.4117265625,-0.949316406249999,-2.54580859375
-4.6486640625,-3.54823046875,2.40014453125,5.61972265625,-0.0451835937499998,-7.59440234375,-8.5659921875,6.25765234375,8.18344140625,-6.405875,-7.430453125,-1.3543828125,8.5442890625,-0.51943359375,-5.442890625,-1.3519375,2.4795,5.85452734375,-2.63419140625,-1.10822265625,4.9083203125,4.55593359375,-2.8164375,-1.59519140625,2.1861796875,0.31635546875,-0.8859375,-1.0182734375,-2.58631640625,-3.73580859375
-5.7966640625,-5.18323046875,3.02414453125,3.06972265625,-2.81218359375,-9.39640234375,-9.8099921875,5.93065234375,5.21544140625,-8.448875,-9.029453125,-2.7073828125,6.3542890625,-2.26843359375,-6.666890625,-2.3989375,1.5965,4.54652734375,-4.25319140625,-2.42522265625,3.7543203125,2.10593359375,-4.1394375,-3.49519140625,0.730179687499999,-0.0396445312499996,-3.1349375,-3.2682734375,-4.82931640625,-5.59380859375
-5.8486640625,-6.17123046875,2.83314453125,1.34472265625,-5.10218359375,-10.59740234375,-9.4189921875,3.36565234375,2.99744140625,-10.059875,-9.989453125,-3.0913828125,4.8732890625,-3.76343359375,-7.952890625,-3.3069375,1.0475,2.98152734375,-5.92219140625,-4.14822265625,2.4093203125,-0.771066406250001,-5.4324375,-5.56319140625,-1.1048203125,-0.30364453125,-5.9769375,-6.0972734375,-7.39931640625,-7.81580859375
-5.2986640625,-6.57723046875,2.22614453125,0.73672265625,-6.27818359375,-10.99340234375,-7.7939921875,-0.79334765625,2.19244140625,-10.819875,-10.154453125,-2.6263828125,4.3142890625,-4.62643359375,-9.092890625,-3.9039375,1.4185,1.53652734375,-7.30019140625,-5.91522265625,1.3303203125,-3.45906640625,-6.4484375,-7.42919140625,-2.9238203125,-0.40264453125,-8.8859375,-8.8882734375,-9.77431640625,-9.87980859375
-4.7326640625,-6.56723046875,1.78714453125,1.13472265625,-5.99418359375,-10.51840234375,-5.6039921875,-5.21334765625,3.05744140625,-10.478875,-9.502453125,-1.5483828125,4.6242890625,-4.60243359375,-9.737890625,-4.0259375,3.0035,0.68352734375,-7.97619140625,-7.19722265625,0.8583203125,-5.23906640625,-6.8034375,-8.61619140625,-4.2518203125,-0.30164453125,-11.1509375,-10.8492734375,-11.36231640625,-11.24080859375
-4.4186640625,-6.22323046875,1.83214453125,2.18972265625,-4.28218359375,-9.20540234375,-3.4269921875,-8.30934765625,5.33644140625,-9.024875,-8.118453125,-0.1353828125,5.5502890625,-3.67443359375,-9.526890625,-3.5779375,5.5265,0.75652734375,-7.65519140625,-7.52022265625,1.0263203125,-5.60406640625,-6.1924375,-8.75019140625,-4.7448203125,-0.0656445312499994,-12.1979375,-11.3822734375,-11.77931640625,-11.59180859375
-4.1356640625,-5.45023046875,2.12114453125,3.50472265625,-1.52018359375,-7.20040234375,-1.5599921875,-8.88234765625,8.34744140625,-6.697875,-6.195453125,1.3356171875,6.7432890625,-2.09143359375,-8.300890625,-2.5929375,8.1315,1.75552734375,-6.32719140625,-6.72422265625,1.5543203125,-4.52406640625,-4.6194375,-7.77519140625,-4.3488203125,0.15135546875,-11.8519375,-10.3882734375,-11.02531640625,-11.00980859375
-3.2996640625,-4.02623046875,1.94114453125,4.79372265625,1.68181640625,-4.77140234375,-0.00299218750000019,-6.69234765625,11.24544140625,-3.959875,-4.033453125,2.6236171875,7.8472890625,-0.27943359375,-6.258890625,-1.2779375,9.7535,3.34052734375,-4.32719140625,-5.08922265625,2.0223203125,-2.46106640625,-2.4544375,-6.01319140625,-3.3148203125,0.18835546875,-10.4229375,-8.3192734375,-9.48731640625,-9.90080859375
-1.3136640625,-1.78123046875,0.53014453125,5.94872265625,4.61081640625,-2.31440234375,1.4070078125,-2.63634765625,13.32644140625,-1.394875,-2.018453125,3.5656171875,8.5762890625,1.29856640625,-3.973890625,-0.000937500000000036,9.6335,4.98552734375,-2.25119140625,-3.26222265625,2.0953203125,-0.145066406250002,-0.308437499999999,-4.06819140625,-2.0898203125,-0.0106445312499996,-8.5569375,-5.9472734375,-7.75931640625,-8.78080859375
1.9883359375,1.17276953125,-2.39085546875,6.95672265625,6.58981640625,-0.311402343749999,2.7840078125,1.66365234375,14.19044140625,0.409125,-0.572453125,4.0616171875,8.7742890625,2.25856640625,-2.201890625,0.8030625,7.7125,6.18152734375,-0.75019140625,-1.99422265625,1.6763203125,1.76793359375,1.2035625,-2.58119140625,-1.1408203125,-0.363644531249999,-6.9449375,-4.0232734375,-6.39331640625,-8.03380859375
5.9823359375,4.28176953125,-6.25185546875,7.72172265625,7.10981640625,0.75359765625,3.9930078125,4.66865234375,13.73344140625,0.989125,-0.0544531250000002,4.0306171875,8.4482890625,2.36056640625,-1.587890625,0.7860625,4.6605,6.58352734375,-0.31119140625,-1.82822265625,0.9283203125,2.94393359375,1.6725625,-1.98619140625,-0.784820312500001,-0.709644531249999,-6.0449375,-3.0022734375,-5.69731640625,-7.77780859375
9.2653359375,6.58176953125,-9.70485546875,7.95572265625,5.95481640625,0.51559765625,4.6060078125,5.63465234375,12.08844140625,0.139124999999999,-0.667453125,3.3726171875,7.7312890625,1.51456640625,-2.409890625,-0.1899375,1.5645,6.05052734375,-1.10019140625,-2.87422265625,0.1403203125,3.42893359375,0.989562500000001,-2.38019140625,-1.1148203125,-0.940644531249999,-5.9569375,-2.9682734375,-5.69231640625,-7.88980859375
10.1643359375,6.99676953125,-11.16985546875,7.25872265625,3.28081640625,-1.13040234375,4.1070078125,4.80665234375,9.62244140625,-1.999875,-2.368453125,2.0156171875,6.7942890625,-0.19743359375,-4.488890625,-1.9999375,-0.5785,4.62152734375,-2.94119140625,-4.80222265625,-0.4656796875,3.50393359375,-0.667437499999999,-3.55719140625,-2.0368203125,-1.10164453125,-6.4819375,-3.7192734375,-6.20631640625,-8.14480859375
7.5723359375,4.84676953125,-9.63085546875,5.36672265625,-0.35918359375,-3.91540234375,2.2370078125,3.06665234375,6.92644140625,-4.915875,-4.820453125,0.0546171874999999,5.7672890625,-2.49643359375,-7.248890625,-4.2869375,-1.2755,2.49952734375,-5.38419140625,-6.99322265625,-0.8636796875,3.45193359375,-2.9164375,-5.13119140625,-3.3398203125,-1.36064453125,-7.2759375,-4.9242734375,-6.99931640625,-8.36480859375
1.6423359375,0.33276953125,-5.22385546875,2.41572265625,-4.07918359375,-7.17840234375,-0.7259921875,1.34465234375,4.69644140625,-7.823875,-7.407453125,-2.1233828125,4.7462890625,-4.87943359375,-9.882890625,-6.5249375,-0.6655,0.0545273437499998,-7.82419140625,-8.76522265625,-1.1726796875,3.39793359375,-5.2504375,-6.64219140625,-4.7278203125,-1.87964453125,-7.9849375,-6.2142734375,-7.82531640625,-8.45080859375
-6.0766640625,-5.34423046875,0.74214453125,-0.95327734375,-6.89518359375,-10.03140234375,-3.9789921875,0.18665234375,3.50744140625,-9.894875,-9.390453125,-3.8973828125,3.8702890625,-6.70343359375,-11.604890625,-8.1399375,0.6725,-2.19047265625,-9.63219140625,-9.58322265625,-1.5066796875,3.30693359375,-7.1154375,-7.64219140625,-5.8458203125,-2.65264453125,-8.3059375,-7.2062734375,-8.43031640625,-8.34580859375
-13.1926640625,-10.38423046875,6.37214453125,-3.76727734375,-8.09118359375,-11.68140234375,-6.5519921875,-0.33734765625,3.58544140625,-10.557875,-10.185453125,-4.6913828125,3.3532890625,-7.38743359375,-11.920890625,-8.7159375,2.0715,-3.65547265625,-10.34019140625,-9.21822265625,-1.8646796875,3.11493359375,-8.0154375,-7.79219140625,-6.3688203125,-3.48064453125,-8.0389375,-7.5332734375,-8.57831640625,-7.99980859375
-17.4376640625,-13.14323046875,10.02014453125,-5.14027734375,-7.53718359375,-11.75440234375,-7.7909921875,-0.40734765625,4.69944140625,-9.742875,-9.640453125,-4.3103828125,3.3782890625,-6.67443359375,-10.833890625,-8.1719375,3.0855,-3.89247265625,-9.79919140625,-7.81522265625,-2.1556796875,2.84493359375,-7.6694375,-7.00419140625,-6.1428203125,-4.07964453125,-7.1459375,-6.9342734375,-8.12531640625,-7.39180859375
-17.5776640625,-12.80623046875,10.92714453125,-4.71827734375,-5.73118359375,-10.43340234375,-7.6069921875,-0.15534765625,6.23444140625,-7.912875,-8.107453125,-3.0573828125,3.9462890625,-4.78343359375,-8.845890625,-6.8089375,3.6145,-2.76547265625,-8.24719140625,-5.84322265625,-2.2906796875,2.63393359375,-6.1464375,-5.51519140625,-5.2658203125,-4.25064453125,-5.7849375,-5.3842734375,-7.09731640625,-6.59680859375
-13.8176640625,-9.64223046875,9.36914453125,-2.85327734375,-3.50218359375,-8.30040234375,-6.3349921875,0.47665234375,7.49244140625,-5.824875,-6.212453125,-1.5133828125,4.8052890625,-2.33343359375,-6.708890625,-5.1239375,3.8165,-0.54547265625,-6.21319140625,-3.90022265625,-2.2316796875,2.64693359375,-3.8934375,-3.82919140625,-4.0478203125,-3.95564453125,-4.2699375,-3.1542734375,-5.69631640625,-5.78580859375
-7.5846640625,-4.78923046875,6.35614453125,-0.38627734375,-1.58518359375,-6.00340234375,-4.3719921875,1.63065234375,8.07144140625,-4.148875,-4.493453125,-0.1633828125,5.5642890625,-0.09243359375,-5.082890625,-3.5439375,3.9155,2.13852734375,-4.31219140625,-2.46422265625,-1.9766796875,2.94593359375,-1.6054375,-2.51819140625,-2.8588203125,-3.30864453125,-2.9649375,-0.7452734375,-4.23831640625,-5.17680859375
-0.8936640625,0.25076953125,3.11614453125,1.77172265625,-0.32718359375,-3.99040234375,-1.9899921875,3.30865234375,8.06244140625,-3.195875,-3.171453125,0.8456171875,5.8902890625,1.30656640625,-4.285890625,-2.2639375,4.0325,4.45952734375,-3.05119140625,-1.74022265625,-1.5356796875,3.38493359375,-0.00543749999999932,-2.02019140625,-2.0028203125,-2.52164453125,-2.2009375,1.2527265625,-3.09731640625,-4.97680859375
4.3303359375,4.10876953125,0.64614453125,2.99572265625,0.30881640625,-2.45740234375,0.5490078125,5.27165234375,7.89844140625,-2.908875,-2.205453125,1.6456171875,5.6462890625,1.52056640625,-4.272890625,-1.2909375,4.1505,5.62452734375,-2.73619140625,-1.70422265625,-0.9656796875,3.62493359375,0.3605625,-2.52619140625,-1.6808203125,-1.88364453125,-2.2229375,2.3047265625,-2.64731640625,-5.35780859375
6.7753359375,5.90276953125,-0.52485546875,3.09272265625,0.53681640625,-1.47540234375,2.7790078125,7.13065234375,7.97644140625,-3.064875,-1.534453125,2.3816171875,4.8982890625,0.53356640625,-4.794890625,-0.6119375,4.1995,5.14952734375,-3.45119140625,-2.24322265625,-0.4196796875,3.28493359375,-0.727437499999999,-3.97719140625,-2.0038203125,-1.72664453125,-3.1569375,2.0727265625,-3.18231640625,-6.43280859375
6.0653359375,5.41176953125,-0.39585546875,2.29872265625,0.51881640625,-1.12340234375,4.0500078125,8.49465234375,8.40544140625,-3.502875,-1.263453125,2.9966171875,3.8322890625,-1.39843359375,-5.607890625,-0.3339375,4.1445,3.09252734375,-5.06919140625,-3.27422265625,-0.1716796875,2.18793359375,-3.0974375,-6.11019140625,-3.0118203125,-2.34264453125,-4.9509375,0.5287265625,-4.78531640625,-8.19680859375
2.8513359375,3.07876953125,0.57614453125,1.15672265625,0.25281640625,-1.50440234375,3.8310078125,9.02165234375,8.98744140625,-4.201875,-1.647453125,3.2126171875,2.6582890625,-3.82643359375,-6.609890625,-0.6679375,4.0075,0.10052734375,-7.27819140625,-4.73122265625,-0.5476796875,0.516933593749999,-6.2204375,-8.54719140625,-4.6578203125,-3.85664453125,-7.3359375,-1.9922734375,-7.24331640625,-10.47680859375
-1.4506640625,-0.16823046875,1.68314453125,0.26072265625,-0.39818359375,-2.66840234375,2.0760078125,8.40065234375,9.36144140625,-5.235875,-2.887453125,2.7266171875,1.5422890625,-6.23343359375,-7.829890625,-1.7759375,3.7935,-2.82947265625,-9.65219140625,-6.48322265625,-1.7736796875,-1.26206640625,-9.3814375,-10.87719140625,-6.7668203125,-6.13064453125,-9.8599375,-4.9042734375,-10.07031640625,-12.92980859375
-5.2366640625,-3.24123046875,2.27314453125,-0.0512773437499998,-1.57818359375,-4.50840234375,-0.6669921875,6.44265234375,9.16444140625,-6.646875,-4.919453125,1.4616171875,0.572289062500001,-8.17243359375,-9.289890625,-3.5749375,3.4195,-4.77747265625,-11.73819140625,-8.26622265625,-3.7906796875,-2.64806640625,-11.9234375,-12.74119140625,-9.0048203125,-8.75264453125,-12.0089375,-7.5822734375,-12.65231640625,-15.12880859375
-7.3396640625,-5.25123046875,2.04814453125,0.136722656250001,-3.29418359375,-6.70940234375,-3.4709921875,3.28465234375,8.17844140625,-8.324875,-7.331453125,-0.2823828125,-0.235710937499999,-9.36143359375,-10.859890625,-5.6429375,2.7385,-5.27147265625,-13.14819140625,-9.69122265625,-6.1266796875,-3.33906640625,-13.4284375,-13.87119140625,-10.9038203125,-11.14064453125,-13.3409375,-9.5552734375,-14.43531640625,-16.66880859375
-7.3666640625,-5.75323046875,1.18014453125,0.40972265625,-5.32618359375,-8.77540234375,-5.4189921875,-0.46334765625,6.43744140625,-9.947875,-9.470453125,-1.9013828125,-0.890710937499999,-9.71843359375,-12.206890625,-7.3239375,1.6565,-4.40647265625,-13.62819140625,-10.33422265625,-7.9876796875,-3.28706640625,-13.7714375,-14.10519140625,-11.9688203125,-12.70264453125,-13.5919375,-10.5632734375,-15.06631640625,-17.24680859375
-5.6816640625,-4.81023046875,0.18114453125,0.290722656250001,-7.23618359375,-10.15140234375,-5.9849921875,-3.82234765625,4.22744140625,-11.041875,-10.687453125,-2.7703828125,-1.3637109375,-9.32143359375,-12.884890625,-7.9789375,0.2755,-2.69447265625,-13.08919140625,-9.88522265625,-8.5316796875,-2.61206640625,-13.0464375,-13.37819140625,-11.8218203125,-12.99864453125,-12.6919375,-10.4952734375,-14.43231640625,-16.69180859375
-3.1536640625,-2.90423046875,-0.36385546875,-0.49827734375,-8.46918359375,-10.39740234375,-5.2119921875,-5.80334765625,1.99744140625,-11.156875,-10.573453125,-2.5553828125,-1.5457109375,-8.32243359375,-12.511890625,-7.2509375,-1.0445,-0.76347265625,-11.58319140625,-8.26122265625,-7.2536796875,-1.45006640625,-11.4454375,-11.69819140625,-10.3198203125,-11.84464453125,-10.7209375,-9.2992734375,-12.61431640625,-14.95980859375
-0.7866640625,-0.73523046875,-0.05585546875,-1.88927734375,-8.55118359375,-9.36840234375,-3.6469921875,-5.83834765625,0.23044140625,-10.067875,-9.112453125,-1.3993828125,-1.2867109375,-6.84943359375,-10.938890625,-5.2279375,-1.7905,0.94052734375,-9.25819140625,-5.65322265625,-4.2666796875,0.133933593749999,-9.1454375,-9.12919140625,-7.6058203125,-9.34764453125,-7.8529375,-6.9682734375,-9.80531640625,-12.14680859375
0.655335937499999,1.00376953125,1.14414453125,-3.46727734375,-7.30418359375,-7.31340234375,-2.0679921875,-4.04634765625,-0.643558593750001,-7.915875,-6.695453125,0.1166171875,-0.463710937499998,-4.96543359375,-8.356890625,-2.4269375,-1.5775,2.31152734375,-6.32519140625,-2.48722265625,-0.3616796875,2.15193359375,-6.2794375,-5.82419140625,-4.1128203125,-5.90664453125,-4.3329375,-3.6162734375,-6.30031640625,-8.53980859375
0.8953359375,1.82276953125,2.88414453125,-4.61027734375,-4.98018359375,-4.82640234375,-1.1649921875,-1.19934765625,-0.35655859375,-5.204875,-3.999453125,1.2176171875,0.935289062500001,-2.71243359375,-5.282890625,0.3610625,-0.4835,3.52952734375,-3.06919140625,0.661777343749999,3.2343203125,4.58493359375,-3.0064375,-2.09519140625,-0.511820312500001,-2.17864453125,-0.5289375,0.3887265625,-2.53031640625,-4.67380859375
0.1323359375,1.55376953125,4.55014453125,-4.76527734375,-2.20518359375,-2.65040234375,-1.2829921875,1.59465234375,1.07844140625,-2.629875,-1.755453125,1.2856171875,2.7762890625,-0.20943359375,-2.394890625,2.3560625,0.8425,4.82752734375,0.12180859375,3.18677734375,5.3413203125,7.24793359375,0.370562500000001,1.56880859375,2.4391796875,1.04335546875,3.0490625,4.3697265625,0.925683593750001,-1.26980859375
-1.1676640625,0.36776953125,5.53214453125,-3.72127734375,0.29381640625,-1.37640234375,-2.3039921875,3.33465234375,3.34844140625,-0.811875000000001,-0.476453125,0.1716171875,4.7922890625,2.28956640625,-0.283890625,3.0960625,1.4925,6.25352734375,2.79580859375,4.61477734375,5.3533203125,9.73093359375,3.3645625,4.57380859375,4.1301796875,3.05835546875,5.8110625,7.4727265625,3.45068359375,0.964191406249999
-2.4856640625,-1.27823046875,5.48314453125,-1.71527734375,1.99981640625,-1.17840234375,-3.6979921875,3.46965234375,5.95144140625,-0.0348750000000004,-0.260453125,-1.7103828125,6.6292890625,4.44856640625,0.773109375,2.6240625,0.8795,7.60452734375,4.56380859375,4.78477734375,3.5213203125,11.50893359375,5.4395625,6.41780859375,4.3231796875,3.51135546875,7.2580625,8.9697265625,4.59168359375,1.61919140625
-3.3806640625,-2.78623046875,4.44214453125,0.68872265625,2.80481640625,-1.75240234375,-4.7449921875,2.03865234375,8.39444140625,-0.136875000000001,-0.784453125000001,-3.5683828125,7.9112890625,5.97956640625,0.897109375,1.4490625,-0.8535,8.57552734375,5.26180859375,3.94777734375,0.8053203125,12.17393359375,6.2555625,6.89680859375,3.2471796875,2.54435546875,7.1930625,8.5997265625,4.26268359375,0.787191406249999
-3.5676640625,-3.62023046875,2.74614453125,2.84172265625,2.98381640625,-2.49940234375,-4.8689921875,-0.42034765625,10.30744140625,-0.629875000000001,-1.493453125,-4.6373828125,8.3512890625,6.77556640625,0.506109375,0.2910625,-2.9365,8.97852734375,5.04480859375,2.68177734375,-1.5996796875,11.64693359375,5.8785625,6.21480859375,1.5181796875,0.73535546875,5.8510625,6.7227265625,2.83068359375,-0.948808593750001
-3.0286640625,-3.51923046875,0.85714453125,4.24772265625,2.99281640625,-2.84940234375,-3.9269921875,-3.11134765625,11.45344140625,-0.977875000000001,-1.894453125,-4.5573828125,7.8622890625,6.94256640625,0.111109375,-0.2499375,-4.5065,8.86452734375,4.34480859375,1.64077734375,-2.8176796875,10.24793359375,4.7945625,4.93080859375,-0.104820312500001,-1.13964453125,3.8580625,4.1937265625,1.01968359375,-2.72980859375
-2.0656640625,-2.62123046875,-0.79685546875,4.68672265625,3.18381640625,-2.55540234375,-2.2859921875,-5.26834765625,11.72244140625,-0.869875,-1.793453125,-3.5323828125,6.6282890625,6.72456640625,0.0641093749999997,0.0370625,-5.1625,8.48652734375,3.68280859375,1.25977734375,-2.6306796875,8.58593359375,3.7055625,3.72280859375,-1.0058203125,-2.42064453125,2.0100625,2.0147265625,-0.35731640625,-3.78080859375
-1.2126640625,-1.42223046875,-1.90985546875,4.21572265625,3.62481640625,-1.80340234375,-0.6569921875,-6.42234765625,11.15244140625,-0.359875000000001,-1.359453125,-2.1833828125,5.0782890625,6.34456640625,0.412109375,0.9000625,-5.1355,8.12252734375,3.42280859375,1.57077734375,-1.4846796875,7.31693359375,3.2105625,3.09680859375,-0.941820312500001,-2.80764453125,0.9590625,0.9407265625,-0.72731640625,-3.71180859375
-0.9846640625,-0.53723046875,-2.35485546875,3.07472265625,4.09881640625,-1.06940234375,0.2580078125,-6.55434765625,9.93344140625,0.217124999999999,-0.986453125000001,-1.1863828125,3.7322890625,5.88756640625,0.917109375,1.7980625,-5.0315,7.91152734375,3.62380859375,2.24977734375,-0.1756796875,6.87393359375,3.5245625,3.18880859375,-0.0908203125000004,-2.41864453125,0.9750625,1.2257265625,0.0306835937500001,-2.62980859375
-1.5756640625,-0.36323046875,-2.20685546875,1.57972265625,4.28281640625,-0.81240234375,0.1270078125,-6.06934765625,8.36144140625,0.471124999999999,-1.017453125,-0.9023828125,2.9872890625,5.30056640625,1.260109375,2.2340625,-5.3895,7.79852734375,4.06580859375,2.86277734375,0.6113203125,7.30193359375,4.4175625,3.78580859375,1.1121796875,-1.64264453125,1.9060625,2.6067265625,1.61068359375,-1.01480859375
-2.6776640625,-0.83823046875,-1.71385546875,0.0787226562500001,3.97881640625,-1.16440234375,-0.7919921875,-5.54734765625,6.77544140625,0.211124999999999,-1.486453125,-1.2143828125,2.9562890625,4.50756640625,1.284109375,2.0590625,-6.3715,7.63052734375,4.43480859375,3.15277734375,0.6433203125,8.28393359375,5.3775625,4.50980859375,2.2241796875,-0.89164453125,3.3260625,4.4957265625,3.46268359375,0.541191406249999
-3.5736640625,-1.46023046875,-1.22085546875,-1.06727734375,3.22581640625,-1.84540234375,-1.7529921875,-5.39734765625,5.50644140625,-0.433875,-2.072453125,-1.6763828125,3.4322890625,3.54356640625,1.099109375,1.5220625,-7.7395,7.31352734375,4.51580859375,3.18577734375,0.1843203125,9.32293359375,5.9055625,5.03880859375,2.9671796875,-0.40264453125,4.7490625,6.2477265625,5.03168359375,1.58419140625
-3.5306640625,-1.60123046875,-1.02785546875,-1.57027734375,2.25781640625,-2.34040234375,-1.9379921875,-5.65834765625,4.80844140625,-1.099875,-2.301453125,-1.8583828125,3.9932890625,2.59056640625,0.990109375,1.0560625,-9.0485,6.88352734375,4.29180859375,3.23677734375,-0.2666796875,9.95793359375,5.7485625,5.22580859375,3.2611796875,-0.18164453125,5.7920625,7.3657265625,5.92068359375,1.92519140625
-2.3316640625,-0.93323046875,-1.24685546875,-1.37127734375,1.38781640625,-2.23840234375,-0.9679921875,-6.08334765625,4.76244140625,-1.397875,-1.864453125,-1.6393828125,4.2052890625,1.91356640625,1.224109375,0.9710625,-9.8825,6.46552734375,3.91180859375,3.55977734375,-0.3316796875,9.91493359375,4.9575625,5.10480859375,3.1561796875,-0.0996445312500001,6.2510625,7.5977265625,5.97168359375,1.63819140625
-0.5456640625,0.31076953125,-1.70785546875,-0.736277343749999,0.88481640625,-1.49340234375,0.8580078125,-6.36834765625,5.22744140625,-1.108875,-0.813453125000001,-1.2363828125,3.8382890625,1.73756640625,1.908109375,1.2920625,-10.0135,6.17752734375,3.60180859375,4.20977734375,0.0213203124999999,9.17693359375,3.8365625,4.84380859375,2.7651796875,-0.00264453124999964,6.1250625,6.9777265625,5.29768359375,0.989191406249999
0.7023359375,1.43476953125,-1.98985546875,-0.15527734375,0.89281640625,-0.42540234375,2.7530078125,-6.33834765625,5.90344140625,-0.257875000000001,0.489546875,-0.9903828125,2.9792890625,2.14756640625,2.957109375,1.8240625,-9.4165,6.06552734375,3.57480859375,5.06477734375,0.5073203125,8.00193359375,2.7995625,4.67780859375,2.2451796875,0.208355468750001,5.6130625,5.8157265625,4.24168359375,0.332191406249999
0.3663359375,1.71076953125,-1.60085546875,-0.102277343749999,1.38881640625,0.49759765625,3.9150078125,-5.98434765625,6.46444140625,0.930124999999999,1.611546875,-1.0623828125,1.9592890625,3.04356640625,4.161109375,2.3660625,-8.2245,6.10152734375,3.95180859375,5.96677734375,0.7653203125,6.82093359375,2.2245625,4.83380859375,1.8021796875,0.57735546875,5.0420625,4.6177265625,3.26668359375,0.000191406249999027
-1.9276640625,0.82276953125,-0.21485546875,-0.84027734375,2.18781640625,0.93959765625,3.9350078125,-5.40834765625,6.64744140625,2.141125,2.294546875,-1.2953828125,1.1142890625,4.16256640625,5.293109375,2.8820625,-6.6675,6.18552734375,4.70780859375,6.83977734375,0.6413203125,6.04693359375,2.2965625,5.44780859375,1.6671796875,1.10935546875,4.7490625,3.8937265625,2.79168359375,0.196191406249999
-5.6736640625,-0.94223046875,2.13614453125,-2.34727734375,3.00281640625,0.87859765625,2.9400078125,-4.72234765625,6.30144140625,3.079125,2.558546875,-1.3393828125,0.538289062500001,5.15556640625,6.183109375,3.5040625,-5.0365,6.16952734375,5.65180859375,7.67477734375,0.3173203125,5.84593359375,2.9105625,6.47580859375,2.0191796875,1.78435546875,4.9220625,3.9177265625,3.02368359375,0.908191406249999
-9.7066640625,-2.87423046875,5.02014453125,-4.32627734375,3.55381640625,0.59259765625,1.4760078125,-3.94034765625,5.41344140625,3.568125,2.634546875,-0.9243828125,0.0142890625000014,5.69256640625,6.742109375,4.3720625,-3.6105,5.89352734375,6.45880859375,8.44677734375,0.1733203125,6.04593359375,3.7015625,7.65980859375,2.8661796875,2.54935546875,5.4950625,4.5857265625,3.87668359375,1.90819140625
-12.6526640625,-4.17623046875,7.68814453125,-6.25327734375,3.71581640625,0.51559765625,0.2760078125,-2.95034765625,4.16244140625,3.627125,2.836546875,-0.0233828125,-0.821710937499999,5.60056640625,6.976109375,5.4780625,-2.5495,5.25352734375,6.80280859375,9.06977734375,0.5183203125,6.25193359375,4.2125625,8.61480859375,4.0081796875,3.32535546875,6.1890625,5.4807265625,5.01768359375,2.86019140625
-13.3636640625,-4.22423046875,9.25514453125,-7.47727734375,3.67081640625,1.08759765625,0.0570078124999998,-1.63834765625,2.92144140625,3.519125,3.480546875,1.2396171875,-2.1897109375,4.97056640625,7.033109375,6.6910625,-1.7995,4.29052734375,6.53180859375,9.46477734375,1.4243203125,6.10393359375,4.1335625,9.02280859375,5.1391796875,4.05835546875,6.6810625,6.1257265625,6.06268359375,3.53119140625
-11.2816640625,-2.70923046875,8.99314453125,-7.42527734375,3.89781640625,2.63259765625,1.3370078125,-0.14534765625,2.15744140625,3.699125,4.835546875,2.7816171875,-3.9597109375,4.18156640625,7.231109375,7.9050625,-1.1295,3.23952734375,5.81180859375,9.68277734375,2.7553203125,5.54293359375,3.4895625,8.84180859375,6.0521796875,4.74635546875,6.8290625,6.2867265625,6.80268359375,3.96619140625
-6.6766640625,0.23676953125,6.65714453125,-5.87927734375,4.92281640625,5.20259765625,4.2320078125,0.96265234375,2.24744140625,4.596125,6.998546875,4.6096171875,-5.6857109375,3.73056640625,7.928109375,9.1160625,-0.3175,2.47852734375,5.06380859375,9.90877734375,4.2763203125,4.89693359375,2.6255625,8.33480859375,6.7361796875,5.41535546875,6.7550625,6.1157265625,7.30668359375,4.50019140625
-0.6996640625,3.93676953125,2.72514453125,-3.18327734375,6.88981640625,8.42159765625,8.2590078125,0.84265234375,3.27644140625,6.298125,9.721546875,6.6366171875,-6.8557109375,3.94256640625,9.247109375,10.3190625,0.6195,2.34352734375,4.70380859375,10.32477734375,5.6993203125,4.71393359375,2.0105625,7.89180859375,7.2851796875,6.02535546875,6.7260625,6.0417265625,7.80968359375,5.55319140625
4.8733359375,7.23176953125,-1.63385546875,-0.21627734375,9.29781640625,11.44259765625,12.3100078125,-1.09134765625,4.93044140625,8.357125,12.332546875,8.4906171875,-7.1877109375,4.73756640625,10.867109375,11.3400625,1.3325,2.92252734375,4.86780859375,10.91177734375,6.7003203125,5.43093359375,1.9545625,7.76380859375,7.7221796875,6.42635546875,6.9530625,6.4907265625,8.51268359375,7.35419140625
8.2093359375,8.86776953125,-4.94285546875,1.91572265625,11.15081640625,13.19459765625,14.9460078125,-4.59134765625,6.58744140625,9.904125,13.932546875,9.5496171875,-6.7377109375,5.64556640625,12.105109375,11.8340625,1.2955,3.96252734375,5.33480859375,11.40477734375,7.0053203125,7.07893359375,2.4455625,7.93380859375,7.9411796875,6.42235546875,7.4540625,7.6347265625,9.44168359375,9.77819140625
8.1443359375,8.06476953125,-6.03585546875,2.39372265625,11.48381640625,12.87259765625,15.0160078125,-8.42834765625,7.60044140625,10.081125,13.826546875,9.2376171875,-5.7997109375,6.07156640625,12.276109375,11.4660625,0.1315,4.97052734375,5.69580859375,11.45377734375,6.5303203125,9.20693359375,3.1795625,8.17280859375,7.7961796875,5.91535546875,8.0760625,9.2927265625,10.43868359375,12.40519140625
4.7353359375,4.95276953125,-4.61685546875,1.08972265625,9.89581640625,10.39759765625,12.2840078125,-10.92534765625,7.61544140625,8.529125,11.912546875,7.3816171875,-4.7027109375,5.60856640625,11.091109375,10.1410625,-2.1175,5.43352734375,5.60980859375,10.85377734375,5.4513203125,11.04393359375,3.7235625,8.20380859375,7.2451796875,4.98135546875,8.5790625,10.9907265625,11.21868359375,14.69619140625
-0.7376640625,0.54776953125,-1.43685546875,-1.40227734375,6.77581640625,6.52259765625,7.6120078125,-10.86334765625,6.70444140625,5.610125,8.770546875,4.3706171875,-3.6697109375,4.22256640625,8.841109375,8.0840625,-4.9735,5.04552734375,4.97680859375,9.68077734375,4.0993203125,11.81593359375,3.7045625,7.83680859375,6.3901796875,3.81835546875,8.7240625,12.1247265625,11.44968359375,16.18119140625
-6.3776640625,-3.72623046875,2.08014453125,-4.14327734375,3.11281640625,2.52059765625,2.5410078125,-8.16434765625,5.25744140625,2.266125,5.401546875,1.0166171875,-2.7757109375,2.24356640625,6.275109375,5.7630625,-7.7395,3.83152734375,3.95980859375,8.24777734375,2.7823203125,11.08193359375,2.9435625,7.04580859375,5.4111796875,2.61535546875,8.3520625,12.1587265625,10.86068359375,16.57319140625
-10.5426640625,-6.68423046875,4.56114453125,-6.33527734375,0.0538164062500002,-0.39040234375,-1.4589921875,-3.90934765625,3.77344140625,-0.399875000000001,2.772546875,-1.8003828125,-1.9637109375,0.22356640625,4.273109375,3.6990625,-9.7475,2.14152734375,2.89880859375,6.94777734375,1.6633203125,8.93493359375,1.5155625,5.98180859375,4.4831796875,1.47235546875,7.4470625,10.8387265625,9.36868359375,15.82419140625
-12.4486640625,-7.84123046875,5.31414453125,-7.57527734375,-1.55618359375,-1.53140234375,-3.5799921875,0.21765234375,2.70344140625,-1.571875,1.442546875,-3.4913828125,-1.1007109375,-1.24143359375,3.477109375,2.2750625,-10.5405,0.54052734375,2.17480859375,6.08177734375,0.7733203125,5.98493359375,-0.2454375,4.92680859375,3.7211796875,0.40935546875,6.1780625,8.3497265625,7.17968359375,14.15219140625
-12.2076640625,-7.44223046875,4.48314453125,-7.80027734375,-1.44718359375,-0.947402343749999,-3.8149921875,2.69865234375,2.36044140625,-1.005875,1.415546875,-3.9393828125,-0.0397109374999989,-1.69543359375,4.028109375,1.6170625,-9.9605,-0.38347265625,2.05980859375,5.75477734375,0.1033203125,3.12493359375,-1.8434375,4.16680859375,3.1731796875,-0.55564453125,4.8600625,5.2967265625,4.75868359375,11.99419140625
-10.4466640625,-6.12323046875,2.74014453125,-7.10027734375,0.0578164062500002,0.74659765625,-2.7199921875,2.80765234375,2.83744140625,0.914124999999999,2.253546875,-3.4573828125,1.2992890625,-0.98243359375,5.536109375,1.5840625,-8.2205,-0.24647265625,2.60380859375,5.84577734375,-0.3036796875,1.16393359375,-2.8084375,3.86680859375,2.8381796875,-1.36464453125,3.8490625,2.4917265625,2.67768359375,9.88919140625
-7.8796640625,-4.48423046875,0.79914453125,-5.61627734375,2.22781640625,2.69959765625,-1.0719921875,0.87265234375,3.92144140625,3.359125,3.306546875,-2.5823828125,2.8642890625,0.65856640625,7.247109375,1.8610625,-5.8855,0.92752734375,3.58380859375,6.05377734375,-0.3706796875,0.500933593749999,-2.9094375,3.98680859375,2.6641796875,-1.93964453125,3.3800625,0.6087265625,1.39668359375,8.30419140625
-5.0736640625,-2.85723046875,-0.89085546875,-3.57127734375,4.17581640625,4.13659765625,0.4060078125,-1.92734765625,5.12944140625,5.357125,3.955546875,-1.8613828125,4.4612890625,2.60556640625,8.326109375,2.0660625,-3.7025,2.65452734375,4.54780859375,5.99677734375,-0.0796796875000001,0.990933593749999,-2.2874375,4.29380859375,2.5461796875,-2.25264453125,3.4570625,-0.0972734375000002,1.07168359375,7.46719140625
-2.4536640625,-1.35023046875,-2.18185546875,-1.33727734375,5.10581640625,4.54659765625,1.2020078125,-4.17434765625,5.89044140625,6.120125,3.791546875,-1.6633828125,5.7842890625,4.03856640625,8.159109375,1.8850625,-2.2885,4.13752734375,4.96180859375,5.37077734375,0.4353203125,2.05693359375,-1.4124375,4.46780859375,2.3421796875,-2.34664453125,3.8210625,0.1357265625,1.47968359375,7.31319140625
-0.4096640625,-0.0472304687499996,-3.07985546875,0.55072265625,4.54981640625,3.74959765625,1.1060078125,-4.97834765625,5.77144140625,5.289125,2.715546875,-2.0533828125,6.5172890625,4.25056640625,6.581109375,1.1940625,-1.8655,4.59252734375,4.44180859375,4.09177734375,0.8993203125,2.98193359375,-0.8784375,4.26680859375,1.9301796875,-2.30764453125,4.0770625,0.7437265625,2.13068359375,7.55319140625
0.6743359375,0.88976953125,-3.61985546875,1.52372265625,2.53581640625,1.89959765625,0.2570078125,-4.45134765625,4.64844140625,3.046125,0.967546875,-2.7453828125,6.4512890625,2.96056640625,3.967109375,0.1450625,-2.2275,3.59152734375,2.94980859375,2.36877734375,1.0193203125,3.23093359375,-1.1244375,3.65680859375,1.2981796875,-2.20564453125,3.8900625,1.1367265625,2.50068359375,7.84219140625
0.5493359375,1.27576953125,-3.84785546875,1.21972265625,-0.39618359375,-0.56740234375,-0.8869921875,-3.60034765625,2.77344140625,0.0391249999999994,-0.963453125,-3.2153828125,5.6002890625,0.46156640625,1.096109375,-0.8859375,-2.9515,1.27452734375,0.84980859375,0.637777343749999,0.6413203125,2.65593359375,-2.2204375,2.82380859375,0.5541796875,-2.06964453125,3.1600625,0.9897265625,2.27868359375,7.93419140625
-0.7166640625,1.05676953125,-3.86585546875,-0.29027734375,-3.40518359375,-3.07540234375,-1.7419921875,-3.63534765625,0.703441406249999,-2.878875,-2.553453125,-3.0093828125,4.2212890625,-2.49743359375,-1.187890625,-1.5159375,-3.7075,-1.70047265625,-1.24219140625,-0.637222656250001,-0.1636796875,1.50293359375,-3.8304375,2.05980859375,-0.141820312500001,-1.92564453125,2.0610625,0.3587265625,1.48568359375,7.75219140625
-2.7036640625,0.38376953125,-3.82885546875,-2.51527734375,-5.70118359375,-5.12940234375,-1.9369921875,-5.09434765625,-0.912558593750001,-4.998875,-3.509453125,-2.0593828125,2.7162890625,-5.04043359375,-2.356890625,-1.5909375,-4.4115,-4.42747265625,-2.73319140625,-1.17422265625,-1.1366796875,0.265933593749999,-5.3774375,1.59380859375,-0.671820312500001,-1.80764453125,0.9460625,-0.4012734375,0.423683593750001,7.38719140625
-4.8316640625,-0.44823046875,-3.84085546875,-4.78427734375,-6.85018359375,-6.48440234375,-1.5829921875,-7.34934765625,-1.62555859375,-6.017875,-3.908453125,-0.7983828125,1.4582890625,-6.50343359375,-2.392890625,-1.2779375,-5.1195,-6.12647265625,-3.28919140625,-1.00322265625,-1.9396796875,-0.542066406250001,-6.3044375,1.49880859375,-0.994820312500001,-1.71964453125,0.1890625,-0.8492734375,-0.47731640625,7.04719140625
-6.6226640625,-1.16423046875,-3.85685546875,-6.56127734375,-6.86918359375,-7.18640234375,-1.2579921875,-8.92134765625,-1.37555859375,-6.083875,-4.116453125,0.0696171875,0.639289062500001,-6.65443359375,-1.715890625,-0.9479375,-5.7945,-6.41347265625,-2.93219140625,-0.42022265625,-2.3016796875,-0.580066406250001,-6.3104375,1.68580859375,-1.1258203125,-1.58964453125,0.0240625000000003,-0.6952734375,-0.86031640625,6.97119140625
-7.8286640625,-1.63323046875,-3.72585546875,-7.60527734375,-6.13318359375,-7.45940234375,-1.6669921875,-8.46934765625,-0.45955859375,-5.632875,-4.554453125,-0.0273828125,0.225289062500002,-5.72343359375,-0.936890625,-0.9609375,-6.1795,-5.41247265625,-1.99619140625,0.161777343749999,-2.1426796875,0.206933593749999,-5.4584375,1.96180859375,-1.1238203125,-1.28364453125,0.432062500000001,0.0567265624999997,-0.60431640625,7.31519140625
-8.3826640625,-1.89523046875,-3.36885546875,-7.96427734375,-5.15518359375,-7.55640234375,-3.1909921875,-5.77034765625,0.66544140625,-5.145875,-5.456453125,-1.1913828125,0.0392890625000017,-4.26843359375,-0.578890625,-1.4959375,-5.9485,-3.67647265625,-0.97219140625,0.39077734375,-1.6226796875,1.57893359375,-4.1314375,2.08380859375,-1.0878203125,-0.706644531249999,1.1340625,1.1127265625,0.104683593750001,8.03819140625
-8.3266640625,-2.09123046875,-2.90885546875,-7.88727734375,-4.37118359375,-7.65340234375,-5.6279921875,-1.94034765625,1.57244140625,-4.957875,-6.744453125,-2.9883828125,-0.0857109374999983,-2.93243359375,-0.869890625,-2.4749375,-4.9875,-1.97147265625,-0.30019140625,0.0977773437499994,-1.0526796875,3.10293359375,-2.8514375,1.85880859375,-1.1358203125,0.10535546875,1.7180625,2.0297265625,0.87468359375,8.88519140625
-7.7796640625,-2.34823046875,-2.60385546875,-7.71027734375,-3.98618359375,-7.81440234375,-8.2459921875,1.23165234375,1.97944140625,-5.162875,-8.069453125,-4.6253828125,-0.176710937499999,-2.17543359375,-1.673890625,-3.5889375,-3.5535,-0.97647265625,-0.17819140625,-0.644222656250001,-0.7076796875,4.32293359375,-2.0514375,1.24480859375,-1.3278203125,0.98435546875,1.8730625,2.4407265625,1.32868359375,9.50319140625
-6.9236640625,-2.67723046875,-2.65385546875,-7.70927734375,-3.96118359375,-8.01240234375,-10.0979921875,2.31765234375,1.81644140625,-5.628875,-8.974453125,-5.3113828125,-0.116710937499999,-2.09843359375,-2.590890625,-4.4289375,-2.1335,-1.00847265625,-0.49319140625,-1.55722265625,-0.6586796875,4.95993359375,-1.8824375,0.40780859375,-1.6088203125,1.71235546875,1.5650625,2.2487265625,1.30168359375,9.62719140625
-5.9716640625,-2.96123046875,-3.05085546875,-7.97727734375,-4.12118359375,-8.19340234375,-10.4679921875,0.95465234375,1.24644140625,-6.109875,-9.128453125,-4.6473828125,0.257289062500002,-2.44143359375,-3.178890625,-4.6939375,-1.1585,-1.90747265625,-0.92619140625,-2.30022265625,-0.7856796875,5.00793359375,-2.1814375,-0.35219140625,-1.8378203125,2.11235546875,1.0450625,1.6477265625,0.89568359375,9.20319140625
-5.1676640625,-3.04623046875,-3.57285546875,-8.40927734375,-4.30718359375,-8.36340234375,-9.2629921875,-2.07834765625,0.594441406249999,-6.407875,-8.533453125,-2.8933828125,1.0122890625,-2.75843359375,-3.199890625,-4.3699375,-0.8275,-3.14847265625,-1.15919140625,-2.65322265625,-0.9516796875,4.70693359375,-2.5934375,-0.76819140625,-1.9068203125,2.07935546875,0.666062500000001,0.9817265625,0.36168359375,8.36219140625
-4.8126640625,-2.90623046875,-3.89785546875,-8.81327734375,-4.48318359375,-8.62440234375,-7.1219921875,-5.36434765625,0.183441406249999,-6.503875,-7.571453125,-0.9193828125,2.0522890625,-2.68143359375,-2.741890625,-3.7709375,-1.1575,-4.12547265625,-1.07119140625,-2.63822265625,-1.1936796875,4.39993359375,-2.7924375,-0.76719140625,-1.8568203125,1.56135546875,0.6480625,0.5387265625,-0.0753164062499998,7.30819140625
-5.1826640625,-2.72723046875,-3.77085546875,-9.03527734375,-4.73818359375,-9.11040234375,-5.1249921875,-7.61034765625,0.17944140625,-6.563875,-6.832453125,0.2116171875,3.1582890625,-2.11543359375,-2.169890625,-3.3869375,-2.1285,-4.44147265625,-0.79619140625,-2.49322265625,-1.7456796875,4.38793359375,-2.6284375,-0.52019140625,-1.8958203125,0.548355468750001,0.940062500000001,0.4217265625,-0.340316406249999,6.20719140625
-6.3306640625,-2.80523046875,-3.15885546875,-9.00927734375,-5.20318359375,-9.86540234375,-4.2279921875,-8.29334765625,0.52844140625,-6.827875,-6.812453125,-0.1853828125,4.0912890625,-1.28643359375,-1.927890625,-3.6159375,-3.7425,-4.04347265625,-0.62419140625,-2.50222265625,-2.8566796875,4.84493359375,-2.1644375,-0.35319140625,-2.2738203125,-0.89464453125,1.2650625,0.5627265625,-0.52231640625,5.15019140625
-7.9466640625,-3.34423046875,-2.28985546875,-8.75027734375,-5.92518359375,-10.74940234375,-4.7719921875,-7.83434765625,0.99644140625,-7.448875,-7.640453125,-2.0363828125,4.6862890625,-0.59843359375,-2.303890625,-4.5309375,-5.9225,-3.15947265625,-0.81819140625,-2.81422265625,-4.5296796875,5.79193359375,-1.5874375,-0.56019140625,-3.1098203125,-2.59064453125,1.3030625,0.8177265625,-0.786316406249999,4.19619140625
-9.4636640625,-4.30123046875,-1.52985546875,-8.34927734375,-6.79018359375,-11.48140234375,-6.3659921875,-7.20534765625,1.29544140625,-8.387875,-9.007453125,-4.5653828125,4.8992890625,-0.40043359375,-3.270890625,-5.8269375,-8.3905,-2.12847265625,-1.43819140625,-3.37022265625,-6.4126796875,7.10193359375,-1.0854375,-1.23719140625,-4.2788203125,-4.25664453125,0.8830625,1.0567265625,-1.24231640625,3.40719140625
-10.3576640625,-5.40923046875,-1.17685546875,-7.94827734375,-7.55718359375,-11.78640234375,-8.1839921875,-7.25534765625,1.25944140625,-9.419875,-10.353453125,-6.7453828125,4.8282890625,-0.78243359375,-4.494890625,-6.9989375,-10.6585,-1.24247265625,-2.29819140625,-3.97022265625,-7.9506796875,8.51993359375,-0.757437499999999,-2.22819140625,-5.4638203125,-5.58464453125,0.0610625000000002,1.1777265625,-1.88931640625,2.83719140625
-10.3926640625,-6.33423046875,-1.31285546875,-7.69327734375,-7.99318359375,-11.54240234375,-9.4539921875,-8.17134765625,0.96444140625,-10.249875,-11.173453125,-7.8623828125,4.6712890625,-1.54143359375,-5.520890625,-7.6429375,-12.1955,-0.67847265625,-3.08119140625,-4.41522265625,-8.7076796875,9.71593359375,-0.605437499999999,-3.23319140625,-6.3398203125,-6.36364453125,-0.9469375,1.0887265625,-2.65631640625,2.46919140625
-9.6776640625,-6.81623046875,-1.81385546875,-7.67327734375,-8.00218359375,-10.84640234375,-9.8469921875,-9.39134765625,0.68244140625,-10.653875,-11.263453125,-7.8163828125,4.6252890625,-2.31643359375,-6.009890625,-7.6759375,-12.6595,-0.50847265625,-3.52819140625,-4.63822265625,-8.6336796875,10.36293359375,-0.592437499999999,-3.97419140625,-6.7528203125,-6.56164453125,-1.9089375,0.6997265625,-3.47631640625,2.19419140625
-8.5426640625,-6.73923046875,-2.46585546875,-7.89927734375,-7.64918359375,-9.92240234375,-9.5439921875,-9.95334765625,0.68544140625,-10.575875,-10.744453125,-7.0373828125,4.7622890625,-2.78943359375,-5.873890625,-7.3189375,-12.0345,-0.74647265625,-3.57219140625,-4.71122265625,-8.0506796875,10.25793359375,-0.707437499999999,-4.31119140625,-6.7578203125,-6.30264453125,-2.6599375,-0.0262734374999996,-4.30031640625,1.87419140625
-7.3686640625,-6.12223046875,-3.06685546875,-8.28827734375,-7.06818359375,-8.95740234375,-8.9509921875,-9.10034765625,1.05544140625,-10.092875,-9.880453125,-6.0923828125,4.9802890625,-2.81843359375,-5.236890625,-6.8699375,-10.5865,-1.34747265625,-3.32419140625,-4.73822265625,-7.3976796875,9.42093359375,-0.965437499999999,-4.23119140625,-6.5048203125,-5.76464453125,-3.0939375,-0.9942734375,-5.03631640625,1.46719140625
-6.4446640625,-5.10323046875,-3.44985546875,-8.64427734375,-6.35518359375,-7.97140234375,-8.3339921875,-6.75934765625,1.64744140625,-9.317875,-8.860453125,-5.3013828125,5.0692890625,-2.46143359375,-4.294890625,-6.4869375,-8.7145,-2.19747265625,-2.95319140625,-4.72522265625,-6.9416796875,8.12393359375,-1.3424375,-3.76619140625,-6.1038203125,-5.08664453125,-3.1199375,-1.9392734375,-5.50831640625,1.10219140625
-5.9106640625,-3.92023046875,-3.48185546875,-8.70327734375,-5.54218359375,-6.84540234375,-7.6689921875,-3.63134765625,2.19444140625,-8.321875,-7.713453125,-4.6153828125,4.8602890625,-1.89643359375,-3.204890625,-6.1179375,-6.8225,-3.11247265625,-2.57119140625,-4.55122265625,-6.6596796875,6.80293359375,-1.7254375,-2.95019140625,-5.5658203125,-4.35064453125,-2.6649375,-2.5072734375,-5.50131640625,1.01819140625
-5.7886640625,-2.85123046875,-3.09385546875,-8.28927734375,-4.64918359375,-5.48840234375,-6.8149921875,-0.81534765625,2.44644140625,-7.160875,-6.413453125,-3.7953828125,4.3182890625,-1.33043359375,-2.062890625,-5.6109375,-5.2505,-3.88547265625,-2.20819140625,-4.05722265625,-6.3406796875,5.87493359375,-1.9504375,-1.84419140625,-4.8568203125,-3.63664453125,-1.7259375,-2.4212734375,-4.88731640625,1.40119140625
-6.0096640625,-2.09723046875,-2.35585546875,-7.48627734375,-3.75618359375,-3.99940234375,-5.7899921875,0.72865234375,2.26944140625,-5.967875,-5.041453125,-2.7033828125,3.5472890625,-0.92843359375,-0.960890625,-4.8729375,-4.2495,-4.34547265625,-1.85819140625,-3.19522265625,-5.7746796875,5.56393359375,-1.9054375,-0.58619140625,-3.9858203125,-3.05764453125,-0.4369375,-1.6552734375,-3.73831640625,2.24219140625
-6.3896640625,-1.67923046875,-1.53285546875,-6.64627734375,-3.03818359375,-2.69040234375,-4.8599921875,0.57165234375,1.69244140625,-5.007875,-3.860453125,-1.4713828125,2.7022890625,-0.79843359375,-0.063890625,-3.9799375,-3.9315,-4.41147265625,-1.57019140625,-2.11422265625,-4.9216796875,5.81493359375,-1.6154375,0.57780859375,-3.0738203125,-2.74064453125,0.9170625,-0.4812734375,-2.35731640625,3.29819140625
-6.6166640625,-1.42523046875,-1.06485546875,-6.18727734375,-2.73118359375,-1.96840234375,-4.3789921875,-1.10134765625,0.87044140625,-4.635875,-3.253453125,-0.4513828125,1.9012890625,-1.02043359375,0.368109375,-3.1889375,-4.2455,-4.12247265625,-1.49719140625,-1.15322265625,-3.9876796875,6.33593359375,-1.2714375,1.33580859375,-2.3628203125,-2.77764453125,1.9510625,0.6277265625,-1.19431640625,4.18619140625
-6.3546640625,-1.09823046875,-1.40685546875,-6.33427734375,-3.03318359375,-2.12840234375,-4.5599921875,-3.62934765625,-0.0335585937499996,-5.156875,-3.545453125,-0.0143828125000001,1.2012890625,-1.66143359375,0.0591093749999998,-2.8339375,-5.0125,-3.64847265625,-1.85719140625,-0.721222656250001,-3.3606796875,6.73493359375,-1.1524375,1.40480859375,-2.1308203125,-3.17664453125,2.3020625,1.2147265625,-0.67931640625,4.56319140625
-5.4716640625,-0.58623046875,-2.76585546875,-7.00527734375,-3.98118359375,-3.21040234375,-5.3539921875,-6.17034765625,-0.947558593750001,-6.647875,-4.822453125,-0.3603828125,0.643289062500001,-2.74543359375,-1.125890625,-3.1699375,-5.9685,-3.24547265625,-2.80819140625,-1.11222265625,-3.4206796875,6.69393359375,-1.5084375,0.65980859375,-2.5458203125,-3.83064453125,1.7740625,1.0307265625,-1.01831640625,4.29419140625
-4.2146640625,-0.0372304687499998,-4.87285546875,-7.92727734375,-5.42018359375,-4.96640234375,-6.5109921875,-8.06234765625,-1.90355859375,-8.875875,-6.853453125,-1.4263828125,0.280289062500001,-4.21243359375,-3.063890625,-4.2289375,-6.8365,-3.17547265625,-4.33819140625,-2.34922265625,-4.3426796875,6.08993359375,-2.4334375,-0.79419140625,-3.5608203125,-4.52964453125,0.4250625,0.1367265625,-2.09431640625,3.51919140625
-3.1796640625,0.15176953125,-7.00885546875,-8.86727734375,-7.08918359375,-6.98040234375,-7.7439921875,-9.12434765625,-2.95255859375,-11.362875,-9.170453125,-2.9403828125,0.134289062500001,-5.91843359375,-5.387890625,-5.8069375,-7.4195,-3.60947265625,-6.24019140625,-4.16122265625,-5.9956796875,4.99793359375,-3.8264375,-2.67119140625,-4.9328203125,-5.03864453125,-1.4599375,-1.1642734375,-3.54231640625,2.55319140625
-3.0686640625,-0.46523046875,-8.30885546875,-9.80927734375,-8.73818359375,-8.85040234375,-8.8659921875,-9.70134765625,-4.09955859375,-13.589875,-11.248453125,-4.5263828125,0.1062890625,-7.68243359375,-7.631890625,-7.5439375,-7.7325,-4.56347265625,-8.20119140625,-6.10122265625,-7.9946796875,3.57993359375,-5.4554375,-4.63419140625,-6.3568203125,-5.23764453125,-3.4959375,-2.5132734375,-4.95531640625,1.70119140625
-4.3556640625,-2.09723046875,-8.17985546875,-10.93727734375,-10.20618359375,-10.31140234375,-9.7999921875,-10.36234765625,-5.29255859375,-15.177875,-12.677453125,-5.8193828125,-0.0207109374999987,-9.32743359375,-9.393890625,-9.0459375,-8.0115,-5.87947265625,-9.90919140625,-7.73722265625,-9.8416796875,1.97793359375,-7.0734375,-6.41119140625,-7.5988203125,-5.20464453125,-5.3399375,-3.6772734375,-6.08331640625,1.09319140625
-6.9916640625,-4.49823046875,-6.56985546875,-12.39927734375,-11.41018359375,-11.24540234375,-10.4749921875,-11.46434765625,-6.43255859375,-15.988875,-13.238453125,-6.5513828125,-0.437710937499999,-10.69043359375,-10.431890625,-9.9899375,-8.5575,-7.24947265625,-11.13419140625,-8.79422265625,-11.1066796875,0.299933593749999,-8.4924375,-7.83819140625,-8.5578203125,-5.19564453125,-6.7729375,-4.6152734375,-6.91431640625,0.65619140625
-10.3126640625,-6.98223046875,-3.97785546875,-14.03527734375,-12.32718359375,-11.63440234375,-10.7359921875,-12.84734765625,-7.38355859375,-16.106875,-12.927453125,-6.6433828125,-1.1077109375,-11.61543359375,-10.698890625,-10.2219375,-9.4775,-8.30347265625,-11.77019140625,-9.21922265625,-11.5736796875,-1.30806640625,-9.6004375,-8.84919140625,-9.2478203125,-5.50164453125,-7.7239375,-5.4182734375,-7.60631640625,0.20119140625
-13.1946640625,-8.67023046875,-1.24985546875,-15.30327734375,-12.96118359375,-11.52040234375,-10.4319921875,-13.84234765625,-7.98855859375,-15.762875,-11.945453125,-6.2503828125,-1.7077109375,-11.98543359375,-10.334890625,-9.8049375,-10.5385,-8.73947265625,-11.83819140625,-9.15022265625,-11.3096796875,-2.63606640625,-10.3484375,-9.45219140625,-9.7428203125,-6.26864453125,-8.2609375,-6.2022734375,-8.34531640625,-0.430808593750001
-14.4496640625,-8.83123046875,0.71314453125,-15.52727734375,-13.30418359375,-10.99340234375,-9.5919921875,-13.59534765625,-8.13555859375,-15.237875,-10.638453125,-5.6873828125,-1.7867109375,-11.75843359375,-9.610890625,-8.9889375,-11.2065,-8.44447265625,-11.46319140625,-8.83822265625,-10.5956796875,-3.50106640625,-10.7504375,-9.70319140625,-10.0928203125,-7.35864453125,-8.5319375,-7.0272734375,-9.19631640625,-1.24280859375
-13.2626640625,-7.14823046875,1.23714453125,-14.29627734375,-13.32118359375,-10.17440234375,-8.4959921875,-11.58334765625,-7.81855859375,-14.776875,-9.401453125,-5.2263828125,-1.0487109375,-11.00243359375,-8.850890625,-8.0989375,-10.8995,-7.54447265625,-10.81719140625,-8.53622265625,-9.7886796875,-3.86006640625,-10.8774375,-9.67619140625,-10.2718203125,-8.35064453125,-8.6879375,-7.8652734375,-10.03131640625,-2.03280859375
-9.5486640625,-3.85623046875,0.08614453125,-11.75927734375,-12.99918359375,-9.21140234375,-7.5419921875,-8.06534765625,-7.14355859375,-14.535875,-8.570453125,-4.9413828125,0.433289062500002,-9.91043359375,-8.350890625,-7.4109375,-9.3075,-6.35947265625,-10.08519140625,-8.39822265625,-9.1666796875,-3.86006640625,-10.8504375,-9.46119140625,-10.2028203125,-8.72564453125,-8.8309375,-8.6072734375,-10.60131640625,-2.49280859375
-4.1106640625,0.26676953125,-2.41485546875,-8.62027734375,-12.45218359375,-8.32040234375,-7.0519921875,-4.10334765625,-6.30655859375,-14.603875,-8.369453125,-4.7173828125,2.1992890625,-8.78043359375,-8.326890625,-7.0919375,-6.6555,-5.27647265625,-9.45119140625,-8.45522265625,-8.8466796875,-3.75606640625,-10.7984375,-9.16919140625,-9.8428203125,-8.15364453125,-8.9859375,-9.1142734375,-10.69431640625,-2.38380859375
1.4493359375,4.06176953125,-5.40685546875,-5.84227734375,-11.93718359375,-7.80440234375,-7.1979921875,-1.02034765625,-5.55755859375,-15.017875,-8.896453125,-4.4093828125,3.6212890625,-7.93143359375,-8.859890625,-7.1759375,-3.7705,-4.57947265625,-9.06319140625,-8.63522265625,-8.7856796875,-3.74406640625,-10.7974375,-8.90119140625,-9.2468203125,-6.71664453125,-9.1019375,-9.2802734375,-10.26131640625,-1.69380859375
5.1463359375,6.31376953125,-7.70585546875,-4.20927734375,-11.75218359375,-7.99440234375,-8.0369921875,0.37765234375,-5.13555859375,-15.744875,-10.119453125,-3.9613828125,4.2382890625,-7.55743359375,-9.843890625,-7.5619375,-1.8645,-4.28847265625,-8.96819140625,-8.79222265625,-8.8276796875,-3.78406640625,-10.7874375,-8.67719140625,-8.5408203125,-4.87664453125,-9.0389375,-9.0572734375,-9.41431640625,-0.619808593750001
5.3073359375,6.15276953125,-8.17885546875,-3.98727734375,-12.07618359375,-9.11340234375,-9.5489921875,0.23565234375,-5.17055859375,-16.644875,-11.866453125,-3.3963828125,3.9982890625,-7.61043359375,-11.000890625,-8.0489375,-2.1115,-4.11947265625,-9.06219140625,-8.74122265625,-8.7886796875,-3.55206640625,-10.5584375,-8.38519140625,-7.8358203125,-3.24564453125,-8.5949375,-8.4312734375,-8.31831640625,0.569191406249999
1.2363359375,3.35276953125,-6.18285546875,-4.89127734375,-12.89518359375,-11.15440234375,-11.6239921875,-0.60834765625,-5.61055859375,-17.502875,-13.884453125,-2.7503828125,3.2192890625,-7.84643359375,-12.003890625,-8.4189375,-5.1645,-3.63847265625,-9.14619140625,-8.32022265625,-8.5396796875,-2.60806640625,-9.8364375,-7.84019140625,-7.1788203125,-2.27364453125,-7.5899375,-7.3982734375,-7.09831640625,1.67919140625
-6.5026640625,-1.61223046875,-1.86785546875,-6.38227734375,-14.05818359375,-13.89640234375,-14.0739921875,-1.33134765625,-6.28255859375,-18.164875,-15.950453125,-2.0433828125,2.3022890625,-8.01643359375,-12.668890625,-8.5599375,-10.8255,-2.56847265625,-9.06319140625,-7.48522265625,-8.0576796875,-0.731066406250001,-8.4964375,-6.93919140625,-6.5638203125,-2.06364453125,-6.0029375,-6.0002734375,-5.81731640625,2.65019140625
-16.2926640625,-7.74023046875,3.81614453125,-8.02627734375,-15.38218359375,-16.99740234375,-16.6829921875,-1.68134765625,-7.02355859375,-18.649875,-17.978453125,-1.2963828125,1.4522890625,-8.05043359375,-13.065890625,-8.5209375,-18.0455,-1.01847265625,-8.81919140625,-6.37322265625,-7.4246796875,1.82393359375,-6.7134375,-5.77319140625,-5.9688203125,-2.35564453125,-4.0349375,-4.3762734375,-4.51231640625,3.52119140625
-16.2926640625,-7.74023046875,3.81614453125,-8.02627734375,-15.38218359375,-16.99740234375,-16.6829921875,-1.68134765625,-7.02355859375,-18.649875,-17.978453125,-1.2963828125,1.4522890625,-8.05043359375,-13.065890625,-8.5209375,-18.0455,-1.01847265625,-8.81919140625,-6.37322265625,-7.4246796875,1.82393359375,-6.7134375,-5.77319140625,-5.9688203125,-2.35564453125,-4.0349375,-4.3762734375,-4.51231640625,3.52119140625
