"Fp1","Fpz","Fp2","F7","F3","Fz","F4","F8","FC5","FC1","FC2","FC6","T7","C3","Cz","C4","T8","CP5","CP1","CP2","CP6","P7","P3","Pz","P4","P8","POz","O1","Oz","O2"
0.776804687499999,-1.41378515625,-10.27429296875,-10.61276953125,-14.01312890625,-21.0584609375,-11.7658828125,22.70761328125,-9.951125,-3.950515625,-2.77690625,6.192421875,-0.954390625,-6.5628828125,-8.187953125,-5.10377734375,23.91226171875,-6.36821484375,-15.957375,-8.62745703125,-14.3669375,-8.80235546875,-9.04003125,-8.5937734375,-10.5306796875,-9.6538203125,-14.7799296875,-12.09175390625,-12.17581640625,-16.9094765625
2.0488046875,-2.97078515625,-3.83029296875,-11.30876953125,-16.65412890625,-20.1114609375,-7.2688828125,23.69061328125,-13.483125,-7.393515625,-3.17290625,5.380421875,-2.173390625,-9.4888828125,-10.625953125,-6.26477734375,23.24126171875,-8.90321484375,-18.035375,-10.08745703125,-13.5619375,-10.30935546875,-12.07403125,-10.8107734375,-10.5856796875,-8.2128203125,-16.2189296875,-13.08175390625,-12.62681640625,-17.5474765625
1.9508046875,-3.76578515625,-0.573292968750001,-9.21676953125,-17.36812890625,-19.3714609375,-5.0678828125,23.91961328125,-15.553125,-9.275515625,-3.39690625,4.972421875,-2.866390625,-11.1368828125,-12.046953125,-7.28477734375,23.02426171875,-10.58521484375,-19.574375,-11.18445703125,-12.8049375,-11.25235546875,-13.93003125,-12.2487734375,-10.7866796875,-7.1378203125,-17.2419296875,-13.74275390625,-12.96481640625,-17.5044765625
0.8268046875,-3.66178515625,-0.555292968750001,-4.83876953125,-16.08512890625,-18.6164609375,-4.6808828125,23.67161328125,-16.014125,-9.487515625,-3.36190625,5.064421875,-3.124390625,-11.4448828125,-12.301953125,-8.02477734375,23.35226171875,-11.34721484375,-20.435375,-11.88345703125,-12.0809375,-11.68335546875,-14.54103125,-12.8497734375,-11.1056796875,-6.3578203125,-17.7329296875,-13.97875390625,-13.12281640625,-16.6904765625
-0.562195312500001,-2.78678515625,-2.86229296875,0.0562304687499999,-13.47012890625,-17.6684609375,-5.0308828125,23.36961328125,-15.156125,-8.435515625,-3.06790625,5.488421875,-3.212390625,-10.7598828125,-11.576953125,-8.36377734375,24.10026171875,-11.36621484375,-20.616375,-12.23245703125,-11.3949375,-11.81535546875,-14.19803125,-12.7837734375,-11.4516796875,-5.7738203125,-17.6699296875,-13.77075390625,-13.07081640625,-15.2644765625
-1.4991953125,-1.48578515625,-6.13529296875,3.30523046875,-10.64812890625,-16.5984609375,-5.1928828125,23.27561328125,-13.541125,-6.827515625,-2.62890625,5.820421875,-3.356390625,-9.6548828125,-10.302953125,-8.24877734375,24.95326171875,-10.93721484375,-20.236375,-12.28045703125,-10.7499375,-11.85935546875,-13.37103125,-12.3267734375,-11.6836796875,-5.3598203125,-17.1029296875,-13.17675390625,-12.81981640625,-13.5494765625
-1.6111953125,-0.18678515625,-9.08429296875,3.43723046875,-8.71012890625,-15.6674609375,-4.7758828125,23.44861328125,-11.756125,-5.359515625,-2.21790625,5.589421875,-3.523390625,-8.6608828125,-8.967953125,-7.71777734375,25.53526171875,-10.32221484375,-19.471375,-12.02145703125,-10.1139375,-11.85135546875,-12.49203125,-11.7167734375,-11.6346796875,-5.1618203125,-16.1289296875,-12.32275390625,-12.41281640625,-11.8944765625
-0.933195312500001,0.75021484375,-10.80729296875,0.34123046875,-8.24712890625,-15.1064609375,-3.8838828125,23.90261328125,-10.194125,-4.446515625,-1.97290625,4.555421875,-3.350390625,-8.0658828125,-7.916953125,-6.88877734375,25.57426171875,-9.62121484375,-18.484375,-11.39445703125,-9.4229375,-11.59335546875,-11.78903125,-11.0717734375,-11.1636796875,-5.2548203125,-14.8619296875,-11.36975390625,-11.93381640625,-10.5554765625
0.1668046875,1.12721484375,-10.94729296875,-4.82276953125,-9.14712890625,-14.9524609375,-2.9018828125,24.68161328125,-8.969125,-4.124515625,-1.92490625,2.883421875,-2.330390625,-7.8518828125,-7.232953125,-5.90877734375,24.98826171875,-8.74021484375,-17.381375,-10.35045703125,-8.6469375,-10.74935546875,-11.21203125,-10.3747734375,-10.2156796875,-5.6848203125,-13.4149296875,-10.46975390625,-11.49681640625,-9.6554765625
1.1388046875,0.95221484375,-9.72329296875,-10.24176953125,-10.71812890625,-15.0374609375,-2.2898828125,25.75961328125,-7.963125,-4.127515625,-1.97090625,1.081421875,-0.157390625,-7.7608828125,-6.733953125,-4.89477734375,23.87626171875,-7.46521484375,-16.199375,-8.89745703125,-7.8579375,-9.05635546875,-10.50303125,-9.5137734375,-8.8396796875,-6.4608203125,-11.8839296875,-9.70675390625,-11.21881640625,-9.2034765625
1.5268046875,0.44521484375,-7.81129296875,-14.15276953125,-12.02112890625,-15.0464609375,-2.3408828125,26.94361328125,-6.963125,-4.037515625,-1.87790625,-0.218578125,3.006609375,-7.4398828125,-6.068953125,-3.85677734375,22.45726171875,-5.62221484375,-14.907375,-7.09545703125,-7.2139375,-6.51735546875,-9.33703125,-8.3527734375,-7.1326796875,-7.5268203125,-10.3289296875,-9.08475390625,-11.16181640625,-9.1264765625
1.2598046875,-0.01178515625,-6.02729296875,-15.31676953125,-12.23112890625,-14.5894609375,-2.9388828125,27.90361328125,-5.792125,-3.440515625,-1.30790625,-0.497578125,6.548609375,-6.5758828125,-4.856953125,-2.64477734375,21.04826171875,-3.20421484375,-13.416375,-4.99145703125,-6.8109375,-3.45235546875,-7.48103125,-6.7707734375,-5.1316796875,-8.6938203125,-8.7499296875,-8.52475390625,-11.26081640625,-9.2664765625
0.7338046875,-0.00578515624999998,-4.95829296875,-13.28476953125,-10.90012890625,-13.3274609375,-3.5208828125,28.33661328125,-4.390125,-2.035515625,0.0950937499999998,0.518421875,9.716609375,-4.9858828125,-2.821953125,-0.96877734375,20.06226171875,-0.41121484375,-11.597375,-2.56345703125,-6.5109375,-0.38335546875,-4.88403125,-4.6817734375,-2.7566796875,-9.5858203125,-7.0759296875,-7.88775390625,-11.31181640625,-9.3544765625
0.623804687499999,0.72221484375,-4.72729296875,-8.50376953125,-8.07112890625,-11.1254609375,-3.3378828125,28.14461328125,-2.818125,0.280484375,2.54809375,2.782421875,11.969609375,-2.6648828125,0.0940468749999999,1.46022265625,19.91826171875,2.44078515625,-9.357375,0.240542968749999,-5.9269375,2.19464453125,-1.69603125,-2.0447734375,0.1183203125,-9.7348203125,-5.2009296875,-7.00675390625,-11.06181640625,-9.0484765625
1.5358046875,2.13721484375,-5.02129296875,-2.22276953125,-4.23112890625,-8.1544609375,-1.8688828125,27.54661328125,-1.196125,3.359484375,5.95909375,5.908421875,13.151609375,0.2151171875,3.673046875,4.69722265625,20.82626171875,5.03678515625,-6.720375,3.37554296875,-4.6599375,4.00264453125,1.77096875,1.0772265625,3.4723203125,-8.8488203125,-3.0689296875,-5.74275390625,-10.34881640625,-8.0944765625
3.6648046875,3.89121484375,-5.33629296875,3.82723046875,-0.12912890625,-4.8614609375,0.8861171875,27.03661328125,0.391875,6.802484375,9.84109375,9.227421875,13.419609375,3.3441171875,7.443046875,8.38522265625,22.57926171875,7.14978515625,-3.886375,6.56154296875,-2.6519375,5.05964453125,5.09696875,4.4342265625,6.9583203125,-7.0768203125,-0.7809296875,-4.04875390625,-9.20181640625,-6.5034765625
6.5978046875,5.45821484375,-5.25929296875,7.94023046875,3.46687109375,-1.8484609375,4.3301171875,27.14761328125,1.926875,10.047484375,13.38909375,11.958421875,13.080609375,6.3291171875,10.769046875,11.76322265625,24.52326171875,8.65778515625,-1.227375,9.25554296875,-0.3729375,5.59364453125,7.82696875,7.5502265625,9.8773203125,-5.0468203125,1.3510703125,-2.04175390625,-7.83781640625,-4.6144765625
9.3808046875,6.34221484375,-4.68429296875,9.01723046875,6.00187109375,0.2795390625,7.4471171875,28.11261328125,3.397875,12.530484375,15.72509375,13.446421875,12.461609375,8.7601171875,13.020046875,13.90222265625,25.79926171875,9.50878515625,0.782624999999999,10.79454296875,1.3180625,5.87664453125,9.54996875,9.8032265625,11.3883203125,-3.6148203125,2.8330703125,-0.0357539062500001,-6.58081640625,-2.9914765625
10.9518046875,6.26621484375,-3.84029296875,7.01523046875,7.27587109375,1.1105390625,9.2201171875,29.64161328125,4.692875,13.853484375,16.23309375,13.374421875,11.854609375,10.2861171875,13.782046875,14.09922265625,25.75026171875,9.68578515625,1.717625,10.65254296875,1.6110625,6.05264453125,9.99696875,10.6252265625,10.8663203125,-3.4478203125,3.1410703125,1.49824609375,-5.75681640625,-2.1814765625
10.7648046875,5.28221484375,-3.12929296875,3.03123046875,7.44687109375,0.597539062500001,9.1251171875,30.99661328125,5.579875,13.914484375,14.84409375,11.882421875,11.485609375,10.6971171875,13.031046875,12.24322265625,24.28626171875,9.19278515625,1.377625,8.70654296875,0.2130625,6.07264453125,9.12896875,9.7522265625,8.2503203125,-4.6608203125,1.9760703125,2.06924609375,-5.60081640625,-2.4644765625
9.1288046875,3.73821484375,-2.86929296875,-1.15176953125,6.91987109375,-0.8904609375,7.3971171875,31.33061328125,5.822875,12.929484375,12.10309375,9.532421875,11.459609375,10.0041171875,11.176046875,8.93222265625,21.98126171875,8.07878515625,-0.0913750000000011,5.36854296875,-2.4339375,5.75864453125,7.18496875,7.3952265625,4.1703203125,-6.7388203125,-0.507929687500001,1.37924609375,-6.17581640625,-3.7094765625
6.9718046875,2.13321484375,-3.11829296875,-3.87676953125,6.15187109375,-2.7414609375,4.8671171875,30.11361328125,5.344875,11.342484375,8.94509375,7.090421875,11.702609375,8.4481171875,8.913046875,5.26922265625,19.83326171875,6.47478515625,-2.235375,1.48754296875,-5.3479375,4.97064453125,4.64096875,4.2232265625,-0.2416796875,-8.7988203125,-3.6429296875,-0.49975390625,-7.32181640625,-5.4174765625
5.2608046875,0.91021484375,-3.67029296875,-4.36076953125,5.46587109375,-4.3874609375,2.5171171875,27.45861328125,4.296875,9.653484375,6.30209375,5.216421875,11.954609375,6.4371171875,6.942046875,2.39322265625,18.78326171875,4.58978515625,-4.469375,-1.94745703125,-7.5019375,3.74264453125,2.08196875,1.1162265625,-3.8026796875,-10.0628203125,-6.4679296875,-3.09675390625,-8.70181640625,-6.9754765625
4.5528046875,0.29021484375,-4.18829296875,-2.93876953125,4.94687109375,-5.4994609375,1.0911171875,24.18961328125,3.015875,8.238484375,4.73909375,4.202421875,11.832609375,4.4281171875,5.704046875,1.00522265625,19.26426171875,2.67378515625,-6.304375,-4.19045703125,-8.3379375,2.28364453125,0.01096875,-1.1857734375,-5.7446796875,-10.2798203125,-8.1629296875,-5.73775390625,-9.95881640625,-7.9804765625
4.8518046875,0.23521484375,-4.38529296875,-0.77476953125,4.45487109375,-6.0134609375,0.9291171875,21.58061328125,1.897875,7.245484375,4.32109375,3.946421875,10.994609375,2.7941171875,5.243046875,1.12022265625,21.00026171875,0.94578515625,-7.502375,-5.00945703125,-7.9959375,0.83864453125,-1.32203125,-2.3787734375,-5.9906796875,-9.8158203125,-8.4459296875,-7.86275390625,-10.90581640625,-8.4464765625
5.6798046875,0.56021484375,-4.18129296875,0.70723046875,3.76487109375,-6.0574609375,1.9621171875,20.82261328125,1.268875,6.585484375,4.70309375,4.142421875,9.330609375,1.7311171875,5.241046875,2.15922265625,23.16426171875,-0.44921484375,-8.100375,-4.73245703125,-7.1579375,-0.46335546875,-1.98403125,-2.6727734375,-5.0936796875,-9.3838203125,-7.7229296875,-9.28575390625,-11.63781640625,-8.7594765625
6.2338046875,1.09021484375,-3.76829296875,0.36423046875,2.71587109375,-5.8554609375,3.7841171875,22.44961328125,1.246875,6.007484375,5.34409375,4.540421875,7.072609375,1.2121171875,5.184046875,3.27722265625,24.76926171875,-1.46321484375,-8.348375,-4.06145703125,-6.6119375,-1.66135546875,-2.29003125,-2.6357734375,-3.9286796875,-9.5898203125,-6.8769296875,-10.20975390625,-12.46481640625,-9.4144765625
5.7088046875,1.72721484375,-3.50329296875,-2.28676953125,1.28287109375,-5.6604609375,5.7661171875,25.99761328125,1.643875,5.183484375,5.71009375,5.046421875,4.731609375,1.0091171875,4.560046875,3.72622265625,25.08826171875,-2.15321484375,-8.592375,-3.75845703125,-6.8409375,-2.88335546875,-2.65403125,-2.9087734375,-3.3106796875,-10.6118203125,-6.8389296875,-11.02775390625,-13.69781640625,-10.7204765625
3.7308046875,2.36621484375,-3.68429296875,-6.82976953125,-0.448128906250001,-5.6974609375,7.2041171875,30.03661328125,1.984875,3.808484375,5.39509375,5.605421875,2.881609375,0.764117187499999,3.037046875,3.09122265625,23.91826171875,-2.66921484375,-9.155375,-4.35845703125,-7.8349375,-4.21435546875,-3.41503125,-3.9317734375,-3.7166796875,-12.1988203125,-8.1409296875,-12.02375390625,-15.43081640625,-12.6384765625
0.652804687499999,2.78321484375,-4.36329296875,-11.96476953125,-2.36312890625,-6.1684609375,7.4291171875,32.55761328125,1.709875,1.704484375,4.17409375,5.997421875,1.874609375,0.1111171875,0.572046875,1.34722265625,21.59526171875,-3.21721484375,-10.231375,-6.00945703125,-9.2159375,-5.62035546875,-4.71403125,-5.7907734375,-5.1936796875,-13.9198203125,-10.6939296875,-13.19875390625,-17.44181640625,-14.8374765625
-2.5011953125,2.64021484375,-5.33129296875,-15.94776953125,-4.37512890625,-7.2344609375,5.9281171875,31.66161328125,0.497875,-1.079515625,2.04609375,5.803421875,1.675609375,-1.1798828125,-2.569953125,-1.20777734375,18.78626171875,-3.96721484375,-11.806375,-8.47245703125,-10.5289375,-6.96235546875,-6.46003125,-8.2137734375,-7.4626796875,-15.4698203125,-13.8759296875,-14.29275390625,-19.30381640625,-16.8974765625
-4.4781953125,1.64621484375,-6.24529296875,-17.39576953125,-6.40912890625,-8.9454609375,2.5351171875,26.39061328125,-1.486125,-4.216515625,-0.752906250000001,4.587421875,1.928609375,-3.0938828125,-5.886953125,-4.10877734375,16.17326171875,-4.98321484375,-13.638375,-11.25545703125,-11.5259375,-8.08335546875,-8.39603125,-10.7237734375,-10.0946796875,-16.8168203125,-16.8619296875,-14.98575390625,-20.60981640625,-18.5384765625
-4.4311953125,-0.23478515625,-6.79329296875,-16.03676953125,-8.34512890625,-11.1194609375,-2.3518828125,17.35661328125,-3.599125,-7.173515625,-3.78390625,2.185421875,2.207609375,-5.3388828125,-8.795953125,-6.90577734375,14.17126171875,-6.18521484375,-15.309375,-13.82645703125,-12.2759375,-8.88835546875,-10.20503125,-12.8447734375,-12.6846796875,-18.1478203125,-19.0009296875,-15.11475390625,-21.19181640625,-19.7284765625
-2.4411953125,-2.66078515625,-6.83529296875,-12.89776953125,-9.97912890625,-13.3134609375,-7.7418828125,6.70661328125,-5.006125,-9.378515625,-6.51290625,-1.116578125,2.292609375,-7.4358828125,-10.818953125,-9.30377734375,12.84926171875,-7.36121484375,-16.370375,-15.77945703125,-13.0739375,-9.35735546875,-11.59203125,-14.2667734375,-14.9316796875,-19.6928203125,-20.0499296875,-14.75775390625,-21.16981640625,-20.6314765625
0.4208046875,-4.96978515625,-6.48729296875,-9.74776953125,-11.02512890625,-14.9684609375,-12.3078828125,-2.75038671875,-5.102125,-10.426515625,-8.45690625,-4.638578125,2.269609375,-8.8928828125,-11.713953125,-11.20777734375,12.06626171875,-8.21621484375,-16.494375,-16.92145703125,-14.1789375,-9.49335546875,-12.32903125,-14.8937734375,-16.6296796875,-21.5248203125,-20.1629296875,-14.14275390625,-20.82681640625,-21.4204765625
2.6488046875,-6.40678515625,-6.11129296875,-8.11076953125,-11.20912890625,-15.6454609375,-14.8218828125,-8.86138671875,-3.813125,-10.211515625,-9.32990625,-7.574578125,2.404609375,-9.3908828125,-11.504953125,-12.65777734375,11.69726171875,-8.46121484375,-15.574375,-17.23945703125,-15.5699375,-9.27335546875,-12.26703125,-14.7817734375,-17.6006796875,-23.4198203125,-19.7009296875,-13.48175390625,-20.38581640625,-22.0794765625
3.1528046875,-6.46578515625,-6.13429296875,-8.45376953125,-10.40012890625,-15.2214609375,-14.6148828125,-11.12538671875,-1.643125,-8.971515625,-9.14290625,-9.367578125,2.903609375,-8.8968828125,-10.425953125,-13.73377734375,11.75826171875,-7.92121484375,-13.742375,-16.83545703125,-16.8669375,-8.65035546875,-11.36803125,-14.0457734375,-17.6596796875,-24.8708203125,-18.9999296875,-12.85475390625,-19.86981640625,-22.3424765625
1.8108046875,-5.17378515625,-6.79229296875,-10.04376953125,-8.76012890625,-13.9724609375,-11.9208828125,-10.77238671875,0.574875,-7.222515625,-8.24690625,-9.990578125,3.702609375,-7.6868828125,-8.849953125,-14.51377734375,12.33026171875,-6.65021484375,-11.330375,-15.88845703125,-17.5359375,-7.63335546875,-9.76703125,-12.8307734375,-16.7006796875,-25.2818203125,-18.2489296875,-12.22075390625,-19.13481640625,-21.8464765625
-0.6521953125,-3.16178515625,-7.96329296875,-11.49876953125,-6.78812890625,-12.5354609375,-7.9908828125,-9.94938671875,2.051875,-5.633515625,-7.27490625,-9.939578125,4.432609375,-6.2668828125,-7.227953125,-15.10077734375,13.36526171875,-4.96821484375,-8.827375,-14.66345703125,-17.2499375,-6.36635546875,-7.81603125,-11.3507734375,-14.8376796875,-24.2968203125,-17.5229296875,-11.51875390625,-18.05881640625,-20.4354765625
-3.2181953125,-1.42478515625,-9.22029296875,-11.66376953125,-5.23812890625,-11.7244609375,-4.7608828125,-10.49338671875,2.344875,-4.850515625,-6.94690625,-9.897578125,4.568609375,-5.2288828125,-6.035953125,-15.63477734375,14.54726171875,-3.39221484375,-6.813375,-13.50745703125,-16.1379375,-5.14435546875,-6.05003125,-9.9257734375,-12.5066796875,-22.0588203125,-16.8689296875,-10.77875390625,-16.71881640625,-18.3844765625
-5.1121953125,-0.87278515625,-10.06229296875,-10.27576953125,-4.87112890625,-12.1904609375,-4.0668828125,-12.99938671875,1.448875,-5.316515625,-7.78490625,-10.260578125,3.696609375,-5.0518828125,-5.671953125,-16.24277734375,15.36626171875,-2.46121484375,-5.830375,-12.77445703125,-14.7419375,-4.33735546875,-5.03403125,-8.9397734375,-10.3616796875,-19.2078203125,-16.3499296875,-10.15475390625,-15.41381640625,-16.3504765625
-6.0201953125,-1.87878515625,-10.16629296875,-8.10276953125,-6.14212890625,-14.0894609375,-6.7448828125,-16.62138671875,-0.315125000000001,-7.130515625,-9.84890625,-10.855578125,1.776609375,-5.9428828125,-6.317953125,-16.92777734375,15.36526171875,-2.51121484375,-6.200375,-12.67045703125,-13.7079375,-4.23535546875,-5.13303125,-8.6907734375,-8.9816796875,-16.5948203125,-16.0109296875,-9.84275390625,-14.49181640625,-15.0464765625
-6.0301953125,-4.08678515625,-9.54129296875,-6.51776953125,-8.94712890625,-16.9604609375,-12.1518828125,-19.64338671875,-2.490125,-9.977515625,-12.65890625,-11.052578125,-0.730390625,-7.7448828125,-7.822953125,-17.51177734375,14.42826171875,-3.52021484375,-7.871375,-13.11645703125,-13.4119375,-4.88935546875,-6.30903125,-9.2047734375,-8.5606796875,-14.8668203125,-15.8159296875,-9.91975390625,-14.08981640625,-14.8314765625
-5.4201953125,-6.57978515625,-8.49929296875,-6.74876953125,-12.58612890625,-19.8974609375,-18.3948828125,-20.43838671875,-4.645125,-13.201515625,-15.36990625,-10.224578125,-2.970390625,-9.9968828125,-9.701953125,-17.69577734375,12.90926171875,-5.08521484375,-10.397375,-13.75045703125,-13.7909375,-6.01835546875,-8.08103125,-10.1737734375,-8.7966796875,-14.2058203125,-15.6459296875,-10.21275390625,-13.97481640625,-15.5034765625
-4.4281953125,-8.31178515625,-7.47829296875,-9.17476953125,-16.00212890625,-21.9244609375,-23.1138828125,-18.27538671875,-6.490125,-16.002515625,-17.14190625,-8.264578125,-4.019390625,-12.0968828125,-11.299953125,-17.22977734375,11.51326171875,-6.58721484375,-13.084375,-14.09745703125,-14.4369375,-7.08035546875,-9.72203125,-11.0867734375,-9.0736796875,-14.3448203125,-15.3739296875,-10.30575390625,-13.61581640625,-16.4424765625
-3.1461953125,-8.57878515625,-6.81229296875,-13.02376953125,-18.18812890625,-22.3854609375,-24.4658828125,-13.64938671875,-7.921125,-17.704515625,-17.50390625,-5.787578125,-3.296390625,-13.5048828125,-12.054953125,-16.09377734375,10.96726171875,-7.46621484375,-15.226375,-13.83245703125,-14.8959375,-7.50135546875,-10.59003125,-11.4907734375,-8.8406796875,-14.8368203125,-14.9569296875,-9.73875390625,-12.48281640625,-17.0144765625
-1.6531953125,-7.29278515625,-6.57429296875,-16.67976953125,-18.53212890625,-21.2004609375,-21.8828828125,-8.06238671875,-8.954125,-17.944515625,-16.52190625,-3.857578125,-0.857390625,-13.8738828125,-11.717953125,-14.53577734375,11.65726171875,-7.44721484375,-16.330375,-12.95145703125,-14.9379375,-6.96735546875,-10.41103125,-11.2087734375,-7.9466796875,-15.3448203125,-14.4689296875,-8.29475390625,-10.38981640625,-16.9514765625
-0.222195312500001,-4.96378515625,-6.55429296875,-18.43376953125,-16.93112890625,-18.8694609375,-16.2988828125,-3.41138671875,-9.580125,-16.720515625,-14.69390625,-3.394578125,2.614609375,-13.0908828125,-10.398953125,-12.96077734375,13.43426171875,-6.62521484375,-16.236375,-11.74545703125,-14.6409375,-5.59035546875,-9.35803125,-10.3777734375,-6.7216796875,-15.7808203125,-14.0349296875,-6.20275390625,-7.67681640625,-16.4674765625
0.6628046875,-2.42478515625,-6.37529296875,-17.35876953125,-13.71012890625,-16.2164609375,-9.6958828125,-1.22438671875,-9.621125,-14.319515625,-12.66990625,-4.655578125,6.103609375,-11.2378828125,-8.476953125,-11.73177734375,15.69426171875,-5.37021484375,-15.106375,-10.62545703125,-14.2759375,-3.88035546875,-7.92303125,-9.3287734375,-5.7736796875,-16.2458203125,-13.7329296875,-4.11175390625,-5.10081640625,-16.0724765625
0.603804687499999,-0.47278515625,-5.70829296875,-13.84776953125,-9.49712890625,-14.0054609375,-4.2118828125,-2.04938671875,-8.780125,-11.221515625,-10.98490625,-7.104578125,8.668609375,-8.5888828125,-6.438953125,-11.03477734375,17.67326171875,-4.16721484375,-13.345375,-9.93345703125,-14.0999375,-2.52735546875,-6.68703125,-8.4267734375,-5.6576796875,-16.8758203125,-13.5549296875,-2.85675390625,-3.51781640625,-16.2464765625
-0.327195312500001,0.39621484375,-4.52829296875,-9.53976953125,-5.12612890625,-12.6764609375,-1.3138828125,-5.30438671875,-6.878125,-8.016515625,-9.93590625,-9.708578125,9.760609375,-5.6168828125,-4.754953125,-10.86777734375,18.76826171875,-3.45021484375,-11.493375,-9.84845703125,-14.2139375,-2.11335546875,-6.12603125,-7.9667734375,-6.6066796875,-17.7098203125,-13.4459296875,-3.10475390625,-3.52281640625,-17.1654765625
-1.4981953125,0.10621484375,-3.26529296875,-6.60776953125,-1.53412890625,-12.3044609375,-1.4158828125,-9.63938671875,-4.130125,-5.318515625,-9.58990625,-11.434578125,9.331609375,-2.9478828125,-3.783953125,-11.09477734375,18.73126171875,-3.46821484375,-10.082375,-10.36745703125,-14.5339375,-2.86835546875,-6.46903125,-8.1177734375,-8.4356796875,-18.6418203125,-13.3699296875,-5.04675390625,-5.19381640625,-18.5964765625
-2.0191953125,-1.02578515625,-2.65729296875,-6.73176953125,0.472871093749999,-12.6894609375,-3.9448828125,-13.55738671875,-1.192125,-3.608515625,-9.82590625,-11.653578125,7.755609375,-1.1788828125,-3.673953125,-11.51077734375,17.70926171875,-4.20921484375,-9.470375,-11.31345703125,-14.8389375,-4.57335546875,-7.63603125,-8.8817734375,-10.6266796875,-19.4558203125,-13.3179296875,-8.25675390625,-8.03081640625,-19.9624765625
-1.2521953125,-2.41978515625,-3.34429296875,-10.22776953125,0.501871093749999,-13.4504609375,-7.6238828125,-15.94938671875,1.094875,-3.073515625,-10.36590625,-10.287578125,5.605609375,-0.6148828125,-4.303953125,-11.88077734375,16.14526171875,-5.41921484375,-9.710375,-12.37045703125,-14.8669375,-6.67435546875,-9.27103125,-10.0657734375,-12.5256796875,-19.9178203125,-13.2779296875,-11.82275390625,-11.12981640625,-20.5794765625
0.7718046875,-3.45178515625,-5.40729296875,-15.77976953125,-1.22412890625,-14.1444609375,-10.9098828125,-16.34038671875,2.096875,-3.536515625,-10.84590625,-7.761578125,3.408609375,-1.1168828125,-5.315953125,-11.99377734375,14.61926171875,-6.71121484375,-10.533375,-13.17245703125,-14.4179375,-8.53435546875,-10.86203125,-11.3237734375,-13.5926796875,-19.8748203125,-13.2089296875,-14.69975390625,-13.52481640625,-19.9644765625
3.2468046875,-3.69478515625,-8.20229296875,-20.93576953125,-3.91712890625,-14.4224609375,-12.5148828125,-14.82838671875,1.659875,-4.526515625,-10.93590625,-4.831578125,1.475609375,-2.1598828125,-6.257953125,-11.74477734375,13.65326171875,-7.71821484375,-11.460375,-13.41745703125,-13.4479375,-9.67535546875,-11.92603125,-12.2417734375,-13.5766796875,-19.3138203125,-13.0359296875,-16.11075390625,-14.53681640625,-18.0564765625
4.8788046875,-3.09178515625,-10.59429296875,-23.20776953125,-6.51212890625,-14.1664609375,-11.8778828125,-11.89038671875,0.142874999999999,-5.458515625,-10.47790625,-2.369578125,-0.0983906249999995,-3.0788828125,-6.747953125,-11.17377734375,13.53326171875,-8.19021484375,-11.989375,-12.97045703125,-12.0929375,-9.86335546875,-12.13903125,-12.4537734375,-12.5586796875,-18.3488203125,-12.6379296875,-15.78075390625,-13.94681640625,-15.2154765625
4.5048046875,-1.96378515625,-11.45829296875,-21.30576953125,-8.08112890625,-13.4994609375,-9.3218828125,-8.17138671875,-1.769125,-5.853515625,-9.54490625,-1.116578125,-1.324390625,-3.3548828125,-6.594953125,-10.44677734375,14.22026171875,-8.01421484375,-11.751375,-11.88245703125,-10.6159375,-9.06935546875,-11.38803125,-11.7407734375,-10.8456796875,-17.1518203125,-11.8359296875,-13.92075390625,-11.93381640625,-12.0034765625
1.7418046875,-0.83278515625,-10.20029296875,-15.88876953125,-8.19712890625,-12.6784609375,-5.8258828125,-4.39238671875,-3.341125,-5.492515625,-8.38590625,-1.435578125,-2.169390625,-2.7898828125,-5.829953125,-9.75777734375,15.38626171875,-7.19621484375,-10.624375,-10.33845703125,-9.2819375,-7.42035546875,-9.76203125,-10.0867734375,-8.8056796875,-15.8708203125,-10.4109296875,-11.05275390625,-8.90581640625,-8.9104765625
-2.7491953125,-0.15878515625,-7.07229296875,-9.35676953125,-7.05612890625,-11.9834609375,-2.5878828125,-1.32438671875,-4.057125,-4.469515625,-7.30090625,-3.150578125,-2.486390625,-1.5298828125,-4.660953125,-9.23177734375,16.57526171875,-5.85521484375,-8.772375,-8.57545703125,-8.2539375,-5.19435546875,-7.49803125,-7.6847734375,-6.7436796875,-14.5898203125,-8.1889296875,-7.80675390625,-5.33581640625,-6.1824765625
-7.4961953125,-0.10978515625,-3.11729296875,-4.70476953125,-5.31312890625,-11.6174609375,-0.5738828125,0.265613281249998,-3.775125,-3.104515625,-6.51390625,-5.569578125,-2.070390625,0.0611171874999996,-3.382953125,-8.85977734375,17.40026171875,-4.20821484375,-6.588375,-6.80845703125,-7.5449375,-2.82135546875,-4.92903125,-4.8807734375,-4.8706796875,-13.3448203125,-5.1529296875,-4.75675390625,-1.67081640625,-3.8264765625
-10.7991953125,-0.50478515625,0.266707031249999,-3.96576953125,-3.69012890625,-11.5904609375,-0.1658828125,-0.152386718750002,-2.682125,-1.771515625,-6.08490625,-7.721578125,-0.824390625,1.5961171875,-2.251953125,-8.51277734375,17.69426171875,-2.52921484375,-4.539375,-5.17845703125,-7.0439375,-0.80535546875,-2.40403125,-2.0697734375,-3.3196796875,-12.1788203125,-1.5149296875,-2.30975390625,1.72518359375,-1.7314765625
-11.3791953125,-0.90878515625,1.95670703125,-7.11376953125,-2.60312890625,-11.6364609375,-1.0228828125,-2.55038671875,-1.105125,-0.722515625,-5.89590625,-8.685578125,1.096609375,2.8461171875,-1.379953125,-8.00577734375,17.57326171875,-1.07221484375,-2.954375,-3.73645703125,-6.5879375,0.43864453125,-0.20803125,0.4152265625,-2.1676796875,-11.1768203125,2.3110703125,-0.638753906250001,4.60718359375,0.181523437500001
-8.8731953125,-0.84878515625,1.56170703125,-12.08576953125,-2.00312890625,-11.2824609375,-2.2808828125,-6.19338671875,0.673875,-0.0115156250000001,-5.70390625,-7.885578125,3.288609375,3.8051171875,-0.702953125,-7.20277734375,17.37026171875,0.00278515624999986,-1.902375,-2.47245703125,-6.0289375,0.75564453125,1.48996875,2.3682265625,-1.4356796875,-10.4448203125,5.8130703125,0.30424609375,6.85518359375,1.8675234375
-4.0091953125,-0.03878515625,-0.52929296875,-15.90876953125,-1.55412890625,-10.1294609375,-3.0518828125,-9.85038671875,2.469875,0.451484375,-5.28590625,-5.273578125,5.272609375,4.6101171875,-0.0649531250000001,-6.11577734375,17.45826171875,0.64778515625,-1.225375,-1.38945703125,-5.3029375,0.29764453125,2.62496875,3.7032265625,-1.1046796875,-10.0718203125,8.5070703125,0.701246093749999,8.40518359375,3.1455234375
1.6528046875,1.46521484375,-3.43329296875,-16.32276953125,-0.98812890625,-8.1694609375,-2.9028828125,-12.29738671875,4.113875,0.748484375,-4.58990625,-1.375578125,6.699609375,5.3681171875,0.639046875,-4.96977734375,18.01226171875,0.87278515625,-0.721375,-0.57645703125,-4.4659375,-0.57235546875,3.17896875,4.3832265625,-1.1476796875,-10.0958203125,10.0460703125,0.73224609375,9.17218359375,3.7605234375
6.3398046875,3.25121484375,-6.15729296875,-12.96176953125,-0.37912890625,-5.8904609375,-2.0188828125,-12.82438671875,5.395875,0.824484375,-3.80690625,2.796421875,7.464609375,6.0171171875,1.334046875,-4.15377734375,18.86426171875,0.68278515625,-0.311375,-0.22545703125,-3.6959375,-1.47535546875,3.11996875,4.3602265625,-1.5606796875,-10.4808203125,10.2860703125,0.460246093749999,9.04218359375,3.5165234375
8.6988046875,4.70221484375,-7.89929296875,-7.47976953125,-0.123128906250001,-4.1054609375,-0.9788828125,-11.49538671875,6.099875,0.504484375,-3.28990625,6.003421875,7.668609375,6.3311171875,1.770046875,-4.07377734375,19.57326171875,0.0697851562499998,-0.0963750000000001,-0.55145703125,-3.2329375,-2.20035546875,2.41296875,3.5832265625,-2.3696796875,-11.1098203125,9.3010703125,-0.19875390625,7.94518359375,2.3905234375
8.1948046875,5.28321484375,-8.26129296875,-2.57276953125,-0.631128906250001,-3.5774609375,-0.3708828125,-9.08638671875,6.103875,-0.362515625,-3.36390625,7.187421875,7.515609375,6.0761171875,1.650046875,-4.94877734375,19.67426171875,-0.92021484375,-0.266375,-1.66445703125,-3.2739375,-2.76535546875,1.08396875,2.0712265625,-3.6036796875,-11.8198203125,7.3450703125,-1.40475390625,5.96118359375,0.5715234375
5.2058046875,4.82121484375,-7.34629296875,-0.47576953125,-1.96312890625,-4.6244609375,-0.4228828125,-6.70538671875,5.460875,-1.720515625,-4.09990625,5.902421875,7.238609375,5.1991171875,0.835046875,-6.64177734375,18.97826171875,-2.11621484375,-0.927375,-3.44645703125,-3.8749375,-3.35335546875,-0.70403125,-0.0137734374999998,-5.2486796875,-12.4718203125,4.7760703125,-3.27075390625,3.34718359375,-1.6274765625
0.878804687499999,3.62321484375,-5.68029296875,-1.76476953125,-3.67612890625,-6.8814609375,-0.8648828125,-5.27038671875,4.413875,-3.244515625,-5.21790625,2.556421875,7.052609375,3.9321171875,-0.525953125,-8.65877734375,17.69426171875,-3.23421484375,-1.979375,-5.53545703125,-4.8999375,-4.14835546875,-2.66003125,-2.3657734375,-7.2126796875,-13.0128203125,1.9530703125,-5.73975390625,0.467183593750001,-3.9094765625
-3.2811953125,2.29321484375,-3.94429296875,-5.11176953125,-5.02012890625,-9.4324609375,-1.1548828125,-5.09338671875,3.306875,-4.467515625,-6.18290625,-1.708578125,7.134609375,2.7031171875,-2.045953125,-10.31777734375,16.28726171875,-3.98221484375,-3.152375,-7.45045703125,-6.0539375,-5.19235546875,-4.46603125,-4.6367734375,-9.3146796875,-13.4788203125,-0.859929687500001,-8.56975390625,-2.35881640625,-6.0824765625
-6.0401953125,1.37521484375,-2.67129296875,-8.08976953125,-5.33512890625,-11.2634609375,-0.9818828125,-5.83538671875,2.457875,-5.022515625,-6.47690625,-5.469578125,7.578609375,1.9031171875,-3.307953125,-11.06277734375,15.15126171875,-4.20621484375,-4.169375,-8.79545703125,-6.9929375,-6.33635546875,-5.93203125,-6.5817734375,-11.3216796875,-13.9078203125,-3.5579296875,-11.40075390625,-4.96281640625,-8.0304765625
-6.9451953125,1.05821484375,-2.08029296875,-8.57276953125,-4.40012890625,-11.7624609375,-0.6108828125,-6.81538671875,2.035875,-4.844515625,-5.87090625,-7.586578125,8.327609375,1.6731171875,-4.080953125,-10.71377734375,14.29826171875,-3.97021484375,-4.920375,-9.43645703125,-7.4499375,-7.31035546875,-7.08403125,-8.1617734375,-13.0166796875,-14.2338203125,-6.1899296875,-13.90375390625,-7.34081640625,-9.6214765625
-6.3721953125,1.13621484375,-2.06829296875,-5.95076953125,-2.54212890625,-10.9424609375,-0.6998828125,-7.41638671875,2.041875,-4.191515625,-4.52690625,-7.620578125,9.123609375,1.8391171875,-4.396953125,-9.53277734375,13.29626171875,-3.54021484375,-5.496375,-9.52945703125,-7.3109375,-7.89735546875,-8.14503125,-9.5227734375,-14.2466796875,-14.2358203125,-8.8899296875,-15.89675390625,-9.55581640625,-10.6564765625
-5.1441953125,1.21421484375,-2.33229296875,-1.45876953125,-0.474128906250001,-9.3104609375,-1.7278828125,-7.32938671875,2.355875,-3.487515625,-2.88590625,-5.926578125,9.547609375,2.0351171875,-4.450953125,-8.05177734375,11.49326171875,-3.25621484375,-6.071375,-9.38645703125,-6.6199375,-8.07435546875,-9.38703125,-10.8767734375,-14.9506796875,-13.6288203125,-11.7589296875,-17.36375390625,-11.61381640625,-10.9564765625
-4.0441953125,0.98721484375,-2.56529296875,2.50423046875,0.998871093749999,-7.5734609375,-3.5898828125,-6.57638671875,2.837875,-3.111515625,-1.46290625,-3.420578125,9.213609375,1.9321171875,-4.447953125,-6.80277734375,8.38426171875,-3.34821484375,-6.747375,-9.28545703125,-5.5489375,-7.99635546875,-10.93603125,-12.3317734375,-15.1786796875,-12.2788203125,-14.7629296875,-18.37075390625,-13.40481640625,-10.5274765625
-3.5361953125,0.41221484375,-2.65329296875,3.69323046875,1.29387109375,-6.3854609375,-5.6798828125,-5.40338671875,3.396875,-3.239515625,-0.651906250000001,-1.161578125,8.044609375,1.4141171875,-4.497953125,-6.11677734375,3.88826171875,-3.79521484375,-7.485375,-9.33945703125,-4.3699375,-7.85535546875,-12.63503125,-13.8097734375,-15.0916796875,-10.4178203125,-17.6659296875,-18.92975390625,-14.73781640625,-9.6734765625
-3.6751953125,-0.32278515625,-2.75329296875,1.22823046875,0.270871093749999,-6.1604609375,-7.2988828125,-4.14238671875,3.992875,-3.826515625,-0.63790625,0.0414218750000002,6.438609375,0.6211171875,-4.624953125,-6.08777734375,-1.60673828125,-4.32621484375,-8.147375,-9.50545703125,-3.4199375,-7.72435546875,-14.06503125,-15.0687734375,-14.9236796875,-8.6728203125,-20.0509296875,-18.94675390625,-15.42581640625,-8.9144765625
-4.1501953125,-0.94578515625,-3.18829296875,-3.91676953125,-1.71312890625,-6.9604609375,-8.0138828125,-3.11138671875,4.589875,-4.696515625,-1.38090625,-0.168578125,5.148609375,-0.1538828125,-4.824953125,-6.64877734375,-7.40373828125,-4.57121484375,-8.572375,-9.66945703125,-3.0029375,-7.52335546875,-14.72003125,-15.8077734375,-14.8676796875,-7.7938203125,-21.3839296875,-18.27375390625,-15.34881640625,-8.7204765625
-4.4391953125,-1.26778515625,-4.23129296875,-9.41476953125,-3.95712890625,-8.4994609375,-7.7708828125,-2.54538671875,5.095875,-5.658515625,-2.65090625,-1.697578125,4.904609375,-0.6288828125,-5.100953125,-7.64977734375,-12.76373828125,-4.25721484375,-8.619375,-9.73445703125,-3.2459375,-7.08935546875,-14.22303125,-15.7697734375,-14.9446796875,-8.2098203125,-21.1349296875,-16.80575390625,-14.42781640625,-9.1694765625
-4.0921953125,-1.25678515625,-5.90829296875,-12.77476953125,-5.70412890625,-10.2894609375,-6.8218828125,-2.58138671875,5.337875,-6.576515625,-4.09690625,-4.113578125,5.986609375,-0.6818828125,-5.456953125,-8.87577734375,-17.11773828125,-3.32621484375,-8.190375,-9.63845703125,-3.9919375,-6.27435546875,-12.47403125,-14.7907734375,-14.9466796875,-9.6708203125,-18.9229296875,-14.53875390625,-12.57281640625,-9.7844765625
-2.9881953125,-1.03178515625,-7.90229296875,-12.56176953125,-6.44412890625,-11.8484609375,-5.5438828125,-3.23138671875,5.131875,-7.383515625,-5.35090625,-6.792578125,8.022609375,-0.4108828125,-5.861953125,-10.04777734375,-20.16973828125,-1.94521484375,-7.260375,-9.34845703125,-4.8179375,-5.02535546875,-9.69603125,-12.8527734375,-14.5426796875,-11.2758203125,-14.6909296875,-11.59675390625,-9.69481640625,-9.7194765625
-1.4121953125,-0.80578515625,-9.61229296875,-9.01876953125,-6.10912890625,-12.8584609375,-4.3038828125,-4.35438671875,4.371875,-8.062515625,-6.15290625,-9.084578125,10.146609375,-0.0998828125000004,-6.251953125,-10.88177734375,-21.88673828125,-0.44021484375,-5.946375,-8.86645703125,-5.2199375,-3.44535546875,-6.39703125,-10.1467734375,-13.5156796875,-11.9408203125,-8.8569296875,-8.27075390625,-5.83881640625,-8.2754765625
0.0358046874999993,-0.82178515625,-10.39629296875,-3.83676953125,-5.08912890625,-13.2444609375,-3.4298828125,-5.66638671875,3.080875,-8.643515625,-6.46090625,-10.500578125,11.403609375,-0.1088828125,-6.563953125,-11.18977734375,-22.45473828125,0.77878515625,-4.547375,-8.26645703125,-4.8779375,-1.81435546875,-3.25603125,-7.1067734375,-11.9916796875,-11.0518203125,-2.3449296875,-5.03375390625,-1.36381640625,-5.4164765625
0.656804687499999,-1.25678515625,-9.92229296875,0.75223046875,-4.04812890625,-13.1854609375,-3.2628828125,-6.84638671875,1.394875,-9.168515625,-6.45590625,-10.853578125,11.194609375,-0.7018828125,-6.770953125,-10.96877734375,-22.22373828125,1.32778515625,-3.470375,-7.69245703125,-3.8339375,-0.52235546875,-0.93803125,-4.3437734375,-10.4566796875,-8.8688203125,3.6080703125,-2.47575390625,3.02618359375,-1.9184765625
-0.0811953125000007,-2.11478515625,-8.37929296875,3.03523046875,-3.60112890625,-12.9854609375,-4.0938828125,-7.65238671875,-0.486125,-9.635515625,-6.39890625,-10.272578125,9.533609375,-1.8858828125,-6.844953125,-10.35977734375,-21.62473828125,1.00178515625,-3.023375,-7.28545703125,-2.4529375,0.0926445312499999,0.14696875,-2.4157734375,-9.5036796875,-6.3778203125,7.8730703125,-1.07475390625,6.51118359375,1.0175234375
-2.2551953125,-3.14978515625,-6.38829296875,2.52823046875,-3.97512890625,-12.8584609375,-5.9028828125,-7.95438671875,-2.267125,-9.917515625,-6.39690625,-9.045578125,7.032609375,-3.3098828125,-6.692953125,-9.48877734375,-21.04073828125,-0.0852148437500002,-3.172375,-7.04745703125,-1.1559375,-0.0623554687499999,0.0359687500000003,-1.5527734375,-9.4166796875,-4.6548203125,9.9060703125,-0.93775390625,8.53818359375,2.4675234375
-5.3451953125,-3.90278515625,-4.64429296875,0.00923046875000022,-4.83812890625,-12.7364609375,-8.1408828125,-7.67038671875,-3.520125,-9.747515625,-6.24390625,-7.415578125,4.665609375,-4.3398828125,-6.109953125,-8.31677734375,-20.66073828125,-1.45221484375,-3.456375,-6.75745703125,-0.1199375,-0.73835546875,-0.74503125,-1.4917734375,-9.9106796875,-4.1988203125,10.0120703125,-1.66175390625,9.12718359375,2.3285234375
-8.4191953125,-3.88078515625,-3.58129296875,-3.04576953125,-5.43212890625,-12.3174609375,-9.8518828125,-6.71638671875,-3.731125,-8.810515625,-5.51990625,-5.494578125,3.394609375,-4.3108828125,-4.874953125,-6.63777734375,-20.41673828125,-2.39521484375,-3.187375,-6.05045703125,0.8240625,-1.42435546875,-1.37703125,-1.5757734375,-10.2146796875,-4.6718203125,9.2050703125,-2.47075390625,8.87518359375,1.3525234375
-10.5591953125,-2.83278515625,-3.23529296875,-5.27376953125,-4.98712890625,-11.3244609375,-10.1548828125,-5.02738671875,-2.524125,-6.956515625,-3.90390625,-3.352578125,3.774609375,-2.8678828125,-2.917953125,-4.27377734375,-20.07173828125,-2.28921484375,-1.826375,-4.62245703125,2.0230625,-1.59835546875,-1.12003125,-1.0977734375,-9.5016796875,-5.2098203125,8.6910703125,-2.59375390625,8.63918359375,0.6665234375
-11.2481953125,-0.94578515625,-3.31929296875,-6.04476953125,-3.21812890625,-9.7764609375,-8.7408828125,-2.66238671875,0.0378749999999997,-4.386515625,-1.48690625,-1.196578125,5.683609375,-0.195882812500001,-0.470953125,-1.31977734375,-19.40973828125,-0.92221484375,0.668624999999999,-2.45545703125,3.6870625,-1.00135546875,0.32696875,0.3142265625,-7.3526796875,-5.0128203125,9.2690703125,-1.66775390625,9.09818359375,1.1085234375
-10.5361953125,1.16121484375,-3.41429296875,-5.61876953125,-0.60112890625,-8.0664609375,-6.0558828125,0.088613281249998,3.290875,-1.679515625,1.14509375,0.557421875,8.319609375,2.9951171875,1.943046875,1.76022265625,-18.41673828125,1.34678515625,3.766625,0.10154296875,5.6740625,0.20564453125,2.65696875,2.4872265625,-3.9926796875,-3.8018203125,10.9810703125,0.06824609375,10.44118359375,2.8085234375
-8.9461953125,2.69621484375,-3.16929296875,-4.84076953125,1.79287109375,-6.8004609375,-3.0738828125,2.68161328125,6.112875,0.398484375,3.14309375,1.405421875,10.507609375,5.7351171875,3.699046875,4.27722265625,-17.32573828125,3.71478515625,6.580625,2.44254296875,7.5260625,1.52264453125,5.09396875,4.7912265625,-0.1836796875,-1.9138203125,13.1820703125,1.88924609375,12.32518359375,5.1695234375
-7.1941953125,3.06421484375,-2.45129296875,-4.61176953125,2.85487109375,-6.5054609375,-0.7958828125,4.44661328125,7.369875,1.242484375,3.81209375,1.026421875,11.229609375,7.1801171875,4.330046875,5.63222265625,-16.49973828125,5.28278515625,8.258625,3.94454296875,8.7080625,2.35464453125,6.73496875,6.4482265625,3.0903203125,-0.0398203124999998,14.9250703125,2.93624609375,14.06718359375,7.2175234375
-5.7981953125,2.17621484375,-1.40129296875,-5.41276953125,2.06587109375,-7.3274609375,0.2671171875,4.82861328125,6.439875,0.697484375,2.96009375,-0.455578125,10.092609375,6.9341171875,3.725046875,5.59822265625,-16.24173828125,5.44578515625,8.335625,4.21454296875,8.9000625,2.28464453125,6.92096875,6.8812265625,5.0033203125,1.1891796875,15.4190703125,2.61124609375,14.99318359375,8.0845234375
-4.7871953125,0.50621484375,-0.37229296875,-7.09276953125,-0.219128906250001,-8.9114609375,0.3281171875,3.62261328125,3.515875,-0.870515625,1.00209375,-2.385578125,7.503609375,5.1541171875,2.152046875,4.42322265625,-16.64873828125,4.11678515625,6.891625,3.22054296875,8.1510625,1.23464453125,5.46296875,5.9192265625,5.1693203125,1.5281796875,14.3210703125,0.839246093749999,14.75318359375,7.3965234375
-3.7921953125,-1.13178515625,0.168707031249999,-8.98776953125,-2.98612890625,-10.5894609375,0.0621171875000002,1.04561328125,-0.505125,-2.790515625,-1.25290625,-3.796578125,4.440609375,2.4121171875,0.0880468749999999,2.67322265625,-17.60873828125,1.69678515625,4.447625,1.27054296875,6.8240625,-0.52535546875,2.66896875,3.8032265625,3.7173203125,1.1731796875,11.7640703125,-1.93175390625,13.43618359375,5.3485234375
-2.4941953125,-1.97978515625,-0.22629296875,-10.26176953125,-5.14712890625,-11.7644609375,0.0271171875,-2.37338671875,-4.470125,-4.427515625,-3.01190625,-3.872578125,1.956609375,-0.5868828125,-2.010953125,0.93822265625,-18.89173828125,-1.14921484375,1.705625,-1.13845703125,5.3710625,-2.53335546875,-0.82203125,1.0222265625,1.1573203125,0.5271796875,8.1710703125,-4.98975390625,11.43718359375,2.4795234375
-1.0301953125,-1.67978515625,-1.81129296875,-10.28776953125,-6.06312890625,-12.2034609375,0.2441171875,-5.94238671875,-7.446125,-5.433515625,-3.83290625,-2.429578125,0.697609375,-3.2508828125,-3.863953125,-0.41477734375,-20.25073828125,-3.76421484375,-0.731375,-3.49445703125,4.1090625,-4.34635546875,-4.27803125,-1.8907734375,-1.8586796875,-0.1098203125,4.0460703125,-7.70775390625,9.19218359375,-0.6654765625
0.0168046874999996,-0.40378515625,-4.42029296875,-8.95176953125,-5.72912890625,-12.0094609375,0.3091171875,-8.91038671875,-8.966125,-5.778515625,-3.71690625,-0.117578125,0.692609375,-5.1988828125,-5.354953125,-1.30477734375,-21.46573828125,-5.67821484375,-2.476375,-5.37345703125,3.1230625,-5.67735546875,-7.07703125,-4.4807734375,-4.7376796875,-0.7078203125,-0.1209296875,-9.75075390625,7.00718359375,-3.7374765625
0.0338046874999995,1.27121484375,-7.36229296875,-6.78276953125,-4.59912890625,-11.4114609375,-0.1528828125,-10.58038671875,-9.008125,-5.599515625,-2.96990625,1.785421875,1.502609375,-6.2358828125,-6.426953125,-1.83477734375,-22.35473828125,-6.65821484375,-3.349375,-6.48845703125,2.3240625,-6.43135546875,-8.81503125,-6.3957734375,-7.0356796875,-1.4018203125,-3.8539296875,-11.05275390625,5.08818359375,-6.4954765625
-1.1961953125,2.62921484375,-9.59329296875,-4.83976953125,-3.27412890625,-10.6044609375,-1.1518828125,-10.54838671875,-7.893125,-5.053515625,-1.98890625,1.927421875,2.576609375,-6.3218828125,-7.009953125,-2.13477734375,-22.78673828125,-6.67721484375,-3.331375,-6.70245703125,1.5900625,-6.63835546875,-9.34403125,-7.3907734375,-8.4656796875,-2.2428203125,-6.6919296875,-11.66275390625,3.64018359375,-8.6254765625
-3.3241953125,3.07921484375,-10.16929296875,-4.26876953125,-2.26912890625,-9.7504609375,-2.3748828125,-8.97138671875,-6.186125,-4.266515625,-1.13090625,-0.491578125,3.565609375,-5.5948828125,-7.053953125,-2.29277734375,-22.73073828125,-5.87121484375,-2.556375,-6.06445703125,0.8730625,-6.40035546875,-8.77403125,-7.3797734375,-8.9126796875,-3.0528203125,-8.2809296875,-11.62775390625,2.89918359375,-9.6894765625
-5.5791953125,2.35821484375,-8.71729296875,-5.67376953125,-1.92312890625,-9.0114609375,-3.4718828125,-6.58238671875,-4.594125,-3.384515625,-0.66090625,-5.301578125,4.402609375,-4.3898828125,-6.607953125,-2.34977734375,-22.28373828125,-4.51921484375,-1.312375,-4.81445703125,0.230062500000001,-5.86335546875,-7.43503125,-6.4877734375,-8.4446796875,-3.4908203125,-8.4989296875,-10.97475390625,3.03118359375,-9.3194765625
-7.1211953125,0.62321484375,-5.64929296875,-8.63076953125,-2.36712890625,-8.5174609375,-4.2648828125,-4.36638671875,-3.733125,-2.598515625,-0.71090625,-11.355578125,5.171609375,-3.1518828125,-5.849953125,-2.32177734375,-21.63073828125,-2.98721484375,0.0236249999999991,-3.32345703125,-0.205937499999999,-5.17435546875,-5.75903125,-5.0327734375,-7.2956796875,-3.2478203125,-7.4869296875,-9.76175390625,4.02418359375,-7.4854765625
-7.4461953125,-1.55978515625,-2.00529296875,-11.73076953125,-3.47312890625,-8.2874609375,-4.7678828125,-3.08638671875,-3.836125,-2.076515625,-1.23290625,-16.918578125,5.922609375,-2.2448828125,-5.020953125,-2.18877734375,-20.95973828125,-1.62221484375,1.128625,-1.95345703125,-0.301937499999999,-4.42635546875,-4.11703125,-3.3867734375,-5.7926796875,-2.2248203125,-5.5659296875,-8.11375390625,5.64918359375,-4.6234765625
-6.6081953125,-3.39778515625,0.99970703125,-13.24376953125,-4.82812890625,-8.1754609375,-5.0488828125,-2.98638671875,-4.579125,-1.837515625,-1.96790625,-20.295578125,6.551609375,-1.7748828125,-4.277953125,-1.87277734375,-20.38273828125,-0.62721484375,1.874625,-0.913457031250001,0.00906250000000064,-3.62935546875,-2.67803125,-1.8057734375,-4.2556796875,-0.5868203125,-3.0969296875,-6.23675390625,7.51718359375,-1.5194765625
-5.1301953125,-4.17678515625,2.52370703125,-12.07276953125,-5.80812890625,-7.8794609375,-5.0668828125,-3.77838671875,-5.207125,-1.685515625,-2.48390625,-20.397578125,6.809609375,-1.5388828125,-3.592953125,-1.24377734375,-19.90673828125,0.00778515624999976,2.387625,-0.179457031250001,0.6920625,-2.73435546875,-1.38703125,-0.3337734375,-2.9056796875,1.3101796875,-0.374929687500002,-4.39575390625,9.19918359375,0.9885234375
-3.6771953125,-3.57878515625,2.47470703125,-8.43776953125,-5.79912890625,-7.0344609375,-4.6238828125,-4.84138671875,-4.924125,-1.270515625,-2.31090625,-17.056578125,6.419609375,-1.1608828125,-2.755953125,-0.16177734375,-19.45073828125,0.47378515625,2.970625,0.45554296875,1.6420625,-1.71835546875,-0.05403125,1.1612265625,-1.8206796875,3.0731796875,2.3860703125,-2.84375390625,10.37818359375,2.3515234375
-2.7691953125,-1.83978515625,1.49970703125,-3.87876953125,-4.45712890625,-5.4014609375,-3.5098828125,-5.50238671875,-3.324125,-0.266515625,-1.13490625,-11.036578125,5.221609375,-0.3228828125,-1.521953125,1.44322265625,-18.87373828125,1.02278515625,3.916625,1.23654296875,2.7350625,-0.65835546875,1.48196875,2.8402265625,-0.9606796875,4.4181796875,5.0060703125,-1.74775390625,10.94418359375,2.5095234375
-2.6451953125,0.36021484375,0.59570703125,-0.54176953125,-1.89512890625,-3.0594609375,-1.7098828125,-5.29138671875,-0.613125000000001,1.428484375,1.03109375,-3.815578125,3.297609375,1.0321171875,0.198046875,3.48122265625,-18.02673828125,1.81178515625,5.295625,2.27454296875,3.8630625,0.24864453125,3.20196875,4.7262265625,-0.2536796875,5.2391796875,7.2760703125,-1.15975390625,10.97218359375,1.8315234375
-3.2351953125,2.22521484375,0.59470703125,-0.0597695312500002,1.29787109375,-0.444460937500001,0.5251171875,-4.10038671875,2.466875,3.598484375,3.82509375,2.803421875,1.008609375,2.6501171875,2.233046875,5.69222265625,-16.82673828125,2.78978515625,6.878625,3.46754296875,4.9220625,0.75164453125,4.85896875,6.6222265625,0.3273203125,5.5791796875,8.9650703125,-1.03775390625,10.64318359375,0.8685234375
-4.1301953125,3.22621484375,1.78470703125,-2.60576953125,4.23987109375,1.8625390625,2.8401171875,-2.15838671875,4.949875,5.773484375,6.68609375,7.202421875,-1.078390625,4.0771171875,4.212046875,7.73522265625,-15.34073828125,3.71578515625,8.240625,4.55654296875,5.8170625,0.67264453125,6.07096875,8.1742265625,0.7423203125,5.5911796875,9.9010703125,-1.26875390625,10.19318359375,0.108523437500001
-4.6631953125,3.32221484375,3.81170703125,-6.71076953125,6.08287109375,3.4345390625,4.9771171875,0.11661328125,6.058875,7.435484375,9.09909375,8.475421875,-2.389390625,4.8881171875,5.746046875,9.33622265625,-13.79573828125,4.29178515625,8.985625,5.28754296875,6.4790625,0.0256445312499998,6.51096875,9.0462265625,0.9353203125,5.5021796875,10.0910703125,-1.66975390625,9.90718359375,-0.1314765625
-4.1881953125,2.91621484375,5.87170703125,-10.00776953125,6.35087109375,4.1625390625,6.8161171875,2.28661328125,5.527875,8.242484375,10.76009375,6.771421875,-2.578390625,4.8821171875,6.584046875,10.38522265625,-12.49773828125,4.32778515625,8.936625,5.54654296875,6.8820625,-0.96235546875,6.07696875,9.0712265625,0.8753203125,5.5621796875,9.7330703125,-2.01375390625,10.06818359375,0.2825234375
-2.4731953125,2.56221484375,7.12370703125,-10.52176953125,5.11587109375,4.2095390625,8.2711171875,3.97861328125,3.706875,8.137484375,11.58109375,3.212421875,-1.702390625,4.1471171875,6.660046875,10.90822265625,-11.65473828125,3.82778515625,8.162625,5.36754296875,7.0390625,-1.94835546875,4.93396875,8.2912265625,0.5443203125,5.9201796875,9.1030703125,-2.11975390625,10.81018359375,1.2625234375
0.0538046874999996,2.60421484375,7.14470703125,-7.72376953125,2.92387109375,3.8475390625,9.2031171875,4.90161328125,1.387875,7.296484375,11.57109375,-0.653578125,-0.208390625,2.9751171875,6.038046875,10.95022265625,-11.25273828125,2.96978515625,6.885625,4.83554296875,6.9620625,-2.63635546875,3.42296875,6.8792265625,-0.0976796874999999,6.4961796875,8.3860703125,-1.96275390625,11.93918359375,2.4575234375
2.4388046875,2.98021484375,6.13370703125,-2.80676953125,0.52987109375,3.2945390625,9.4231171875,4.82761328125,-0.562125,5.986484375,10.73209375,-3.595578125,1.261609375,1.6971171875,4.835046875,10.49022265625,-11.08173828125,1.99678515625,5.342625,3.99054296875,6.6290625,-2.90735546875,1.89796875,5.0462265625,-1.1046796875,6.9621796875,7.6050703125,-1.71875390625,12.92918359375,3.3275234375
3.6468046875,3.30621484375,4.69370703125,1.91423046875,-1.39412890625,2.6255390625,8.7431171875,3.60161328125,-1.558125,4.447484375,9.06809375,-5.168578125,2.118609375,0.5491171875,3.192046875,9.46822265625,-10.91673828125,1.11378515625,3.719625,2.84054296875,5.9830625,-2.85435546875,0.62296875,3.0192265625,-2.4626796875,6.9251796875,6.7120703125,-1.66375390625,13.16818359375,3.4085234375
3.0948046875,3.17221484375,3.37870703125,4.13223046875,-2.45312890625,1.8185390625,7.0741171875,1.23461328125,-1.477125,2.860484375,6.66909375,-5.663578125,2.016609375,-0.3718828125,1.280046875,7.90122265625,-10.71873828125,0.43878515625,2.162625,1.44254296875,4.9740625,-2.68535546875,-0.25503125,1.0682265625,-3.9916796875,6.1881796875,5.7830703125,-1.95975390625,12.34818359375,2.6555234375
0.9568046875,2.42621484375,2.37070703125,2.67623046875,-2.58112890625,0.8775390625,4.5581171875,-1.94638671875,-0.616125,1.334484375,3.78409375,-5.666578125,0.910609375,-1.0828828125,-0.697953125,5.97122265625,-10.71273828125,-0.0102148437500003,0.804625,-0.0394570312500004,3.6240625,-2.58335546875,-0.68303125,-0.4907734375,-5.3256796875,4.9181796875,5.1140703125,-2.48875390625,10.73018359375,1.5755234375
-1.9541953125,1.25721484375,1.52070703125,-1.95076953125,-2.01512890625,-0.0724609374999989,1.6331171875,-5.24338671875,0.477875,-0.0895156250000002,0.795093749999999,-5.599578125,-0.994390625,-1.6918828125,-2.544953125,3.99522265625,-11.26573828125,-0.31421484375,-0.258375000000001,-1.38845703125,2.0500625,-2.60835546875,-0.69003125,-1.3937734375,-6.0586796875,3.5691796875,5.1160703125,-2.87075390625,9.05018359375,0.999523437500001
-4.6751953125,0.06021484375,0.59570703125,-7.88176953125,-1.18812890625,-0.844460937499999,-1.0598828125,-7.74638671875,1.233875,-1.445515625,-1.90490625,-5.531578125,-3.346390625,-2.3718828125,-4.146953125,2.28422265625,-12.63173828125,-0.63021484375,-1.036375,-2.45745703125,0.429062500000001,-2.70735546875,-0.40203125,-1.5627734375,-5.9836796875,2.6121796875,6.0380703125,-2.69275390625,8.11118359375,1.5755234375
-6.5811953125,-0.77178515625,-0.50529296875,-12.83576953125,-0.556128906250001,-1.3374609375,-2.9148828125,-8.71638671875,1.252875,-2.797515625,-4.04290625,-5.306578125,-5.740390625,-3.3188828125,-5.509953125,1.01322265625,-14.71273828125,-1.13921484375,-1.683375,-3.26245703125,-1.0599375,-2.78835546875,-0.0410312499999996,-1.1827734375,-5.2686796875,2.2411796875,7.7200703125,-1.81975390625,8.29418359375,3.3165234375
-7.5521953125,-1.02478515625,-1.69029296875,-15.12576953125,-0.41112890625,-1.5884609375,-3.5738828125,-7.96538671875,0.438874999999999,-4.168515625,-5.53090625,-4.838578125,-7.794390625,-4.6528828125,-6.730953125,0.16622265625,-16.98273828125,-1.96521484375,-2.438375,-3.96045703125,-2.2789375,-2.81435546875,0.10596875,-0.6607734375,-4.4236796875,2.2581796875,9.5500703125,-0.558753906250001,9.31518359375,5.4855234375
-7.7691953125,-0.74478515625,-2.72229296875,-14.23976953125,-0.794128906250001,-1.7194609375,-3.0448828125,-6.00738671875,-0.997125,-5.506515625,-6.44790625,-4.330578125,-9.209390625,-6.3368828125,-7.922953125,-0.42977734375,-18.65673828125,-3.12421484375,-3.495375,-4.74745703125,-3.1359375,-2.85435546875,-0.23303125,-0.4657734375,-4.0736796875,2.2061796875,10.6950703125,0.40724609375,10.34318359375,6.9085234375
-7.4451953125,-0.24178515625,-3.35329296875,-10.86776953125,-1.57112890625,-1.8704609375,-1.7678828125,-3.88038671875,-2.664125,-6.704515625,-7.00290625,-4.290578125,-9.851390625,-8.1678828125,-9.138953125,-1.02277734375,-19.05273828125,-4.52021484375,-4.891375,-5.73545703125,-3.5889375,-3.08135546875,-1.23503125,-0.9497734375,-4.6556796875,1.6371796875,10.4710703125,0.32324609375,10.41618359375,6.5445234375
-6.7171953125,0.04821484375,-3.48929296875,-6.49076953125,-2.56912890625,-2.1864609375,-0.5358828125,-2.71138671875,-4.158125,-7.656515625,-7.44290625,-5.271578125,-9.810390625,-9.8648828125,-10.340953125,-1.83577734375,-17.94873828125,-5.98421484375,-6.487375,-6.88445703125,-3.6629375,-3.69535546875,-2.89303125,-2.2037734375,-6.2276796875,0.3701796875,8.6890703125,-1.26475390625,8.95218359375,4.0305234375
-5.6941953125,-0.18678515625,-3.26529296875,-2.68876953125,-3.64312890625,-2.7604609375,-0.1388828125,-3.19738671875,-5.163125,-8.275515625,-7.91890625,-7.454578125,-9.358390625,-11.1498828125,-11.384953125,-2.93877734375,-15.69473828125,-7.29721484375,-7.991375,-7.99745703125,-3.4449375,-4.78835546875,-4.97203125,-4.0047734375,-8.4276796875,-1.3968203125,5.7870703125,-4.22675390625,6.09018359375,-0.0894765624999998
-4.5151953125,-0.88078515625,-2.93929296875,-0.41676953125,-4.60312890625,-3.4824609375,-0.8268828125,-5.22738671875,-5.437125,-8.448515625,-8.33190625,-10.354578125,-8.773390625,-11.7738828125,-12.018953125,-4.14177734375,-12.99673828125,-8.20221484375,-9.015375,-8.76245703125,-3.0119375,-6.20535546875,-7.01303125,-5.8687734375,-10.6006796875,-3.1558203125,2.6800703125,-7.82375390625,2.66718359375,-4.5824765625
-3.3531953125,-1.54578515625,-2.68529296875,0.34123046875,-5.10412890625,-3.9384609375,-2.0208828125,-7.87138671875,-4.789125,-7.995515625,-8.30390625,-12.898578125,-8.131390625,-11.5148828125,-11.913953125,-4.97877734375,-10.52573828125,-8.43221484375,-9.147375,-8.82945703125,-2.3499375,-7.51735546875,-8.43503125,-7.1777734375,-12.0126796875,-4.2858203125,0.413070312499999,-10.97775390625,-0.154816406250001,-8.0744765625
-2.3811953125,-1.53378515625,-2.44329296875,0.31923046875,-4.67812890625,-3.5354609375,-2.6108828125,-9.80338671875,-3.131125,-6.702515625,-7.33090625,-13.896578125,-7.233390625,-10.2188828125,-10.762953125,-4.86277734375,-8.61673828125,-7.78821484375,-8.088375,-7.92745703125,-1.3509375,-8.16135546875,-8.71003125,-7.3797734375,-12.1046796875,-4.3058203125,-0.253929687500001,-12.70175390625,-1.42981640625,-9.6244765625
-1.6761953125,-0.45078515625,-1.96229296875,0.33723046875,-2.94512890625,-1.8014609375,-1.6608828125,-9.95138671875,-0.600125,-4.439515625,-5.07790625,-12.641578125,-5.756390625,-7.8938828125,-8.433953125,-3.36177734375,-7.22073828125,-6.24721484375,-5.801375,-5.96345703125,0.0910625000000005,-7.70335546875,-7.57103125,-6.1897734375,-10.6846796875,-3.0498203125,0.878070312499998,-12.47775390625,-0.837816406250001,-9.0214765625
-1.1111953125,1.57321484375,-1.00329296875,0.78923046875,0.113871093749999,1.3365390625,1.0261171875,-7.98638671875,2.376875,-1.295515625,-1.60690625,-9.302578125,-3.541390625,-4.7778828125,-5.101953125,-0.45177734375,-6.06273828125,-4.00921484375,-2.582375,-3.09045703125,1.9660625,-6.04335546875,-5.12903125,-3.7047734375,-7.9786796875,-0.7018203125,3.4270703125,-10.40175390625,1.24718359375,-6.7194765625
-0.393195312500001,3.96521484375,0.43770703125,1.55323046875,4.01887109375,5.4625390625,4.8021171875,-4.42538671875,5.190875,2.366484375,2.57609375,-4.863578125,-0.788390625,-1.3188828125,-1.260953125,3.40822265625,-4.87373828125,-1.45321484375,0.997624999999999,0.30354296875,4.0810625,-3.47935546875,-1.84803125,-0.3807734375,-4.5436796875,2.2761796875,6.6260703125,-7.06975390625,4.00218359375,-3.5374765625
0.684804687499999,6.02821484375,2.04970703125,2.23823046875,7.89687109375,9.7865390625,8.4981171875,-0.353386718750002,7.299875,5.973484375,6.66609375,-0.690578125,1.978609375,1.9251171875,2.382046875,7.41722265625,-3.58373828125,0.97478515625,4.255625,3.67154296875,6.0870625,-0.57535546875,1.60396875,3.1142265625,-1.0886796875,5.2811796875,9.6430703125,-3.30975390625,6.56718359375,-0.312476562499999
1.9428046875,7.29921484375,3.33870703125,2.52023046875,10.80587109375,13.3945390625,10.9431171875,3.06361328125,8.458875,8.905484375,9.82609375,2.045421875,4.152609375,4.4291171875,5.122046875,10.70822265625,-2.40573828125,2.87478515625,6.576625,6.43054296875,7.5860625,2.03164453125,4.54596875,6.0892265625,1.7273203125,7.7181796875,11.8480703125,0.10224609375,8.37218359375,2.3425234375
2.8158046875,7.68921484375,3.91470703125,2.31523046875,12.09987109375,15.5945390625,11.4701171875,5.06861328125,8.778875,10.669484375,11.44809375,2.799421875,5.302609375,5.8031171875,6.469046875,12.63922265625,-1.73973828125,3.95478515625,7.556625,8.10354296875,8.2740625,3.82264453125,6.43296875,7.9912265625,3.4643203125,9.1561796875,12.9370703125,2.61524609375,9.26818359375,4.1415234375
2.7148046875,7.41621484375,3.72070703125,1.75623046875,11.67387109375,16.1565390625,10.1921171875,5.57561328125,8.596875,11.035484375,11.33109375,1.787421875,5.296609375,5.8771171875,6.287046875,12.98522265625,-1.95773828125,4.04978515625,7.065625,8.43954296875,8.0680625,4.49964453125,6.95196875,8.4952265625,3.9983203125,9.4621796875,12.8940703125,3.95224609375,9.43218359375,5.0855234375
1.4548046875,6.77921484375,3.04270703125,1.04123046875,9.92787109375,15.3225390625,7.8841171875,5.05961328125,8.222875,10.075484375,9.71409375,-0.175578125,4.257609375,4.7181171875,4.807046875,11.96222265625,-3.17673828125,3.13078515625,5.248625,7.47354296875,7.1530625,4.02564453125,6.06096875,7.5442265625,3.5053203125,8.8391796875,11.8690703125,4.09824609375,9.16318359375,5.3655234375
-0.541195312500001,5.97421484375,2.30170703125,0.27423046875,7.51487109375,13.5675390625,5.5221171875,4.15561328125,7.730875,8.101484375,7.14809375,-2.028578125,2.432609375,2.6171171875,2.520046875,10.08722265625,-5.15373828125,1.33378515625,2.465625,5.51154296875,5.9020625,2.62564453125,3.99396875,5.3582265625,2.3573203125,7.7301796875,10.0720703125,3.26624609375,8.71118359375,5.2525234375
-2.3691953125,5.01721484375,1.82570703125,-0.55676953125,5.02487109375,11.3435390625,3.8341171875,3.26561328125,6.918875,5.561484375,4.31209375,-2.883578125,0.100609375,0.0231171874999996,0.0190468749999999,7.96822265625,-7.35473828125,-1.03021484375,-0.784375000000001,3.03354296875,4.7000625,0.73964453125,1.20996875,2.3752265625,0.9913203125,6.6101796875,7.7380703125,1.85424609375,8.18918359375,4.9905234375
-3.0181953125,3.85921484375,1.72770703125,-1.45976953125,2.82787109375,9.0085390625,3.1171171875,2.45961328125,5.484875,2.939484375,1.84309375,-2.352578125,-2.403390625,-2.5258828125,-2.135953125,6.13522265625,-9.13673828125,-3.49521484375,-3.919375,0.57754296875,3.7960625,-1.08235546875,-1.70503125,-0.8207734375,-0.2126796875,5.7881796875,5.1690703125,0.33824609375,7.57618359375,4.7095234375
-1.8871953125,2.56521484375,1.90670703125,-2.27076953125,1.11687109375,6.9045390625,3.2941171875,1.67661328125,3.337875,0.726484375,0.24209375,-0.672578125,-4.633390625,-4.4838828125,-3.489953125,4.95622265625,-9.96673828125,-5.51621484375,-6.347375,-1.36245703125,3.2660625,-2.33735546875,-4.17003125,-3.6137734375,-0.9896796875,5.3311796875,2.7720703125,-0.85575390625,6.78418359375,4.3955234375
0.8278046875,1.41421484375,2.11170703125,-2.61176953125,0.0408710937499999,5.4175390625,4.0621171875,0.986613281249998,0.813874999999999,-0.618515625,-0.175906250000001,1.416421875,-6.089390625,-5.3928828125,-3.724953125,4.59822265625,-9.62573828125,-6.60221484375,-7.550375,-2.40245703125,3.0780625,-2.71335546875,-5.71203125,-5.4557734375,-1.2166796875,5.1351796875,1.0390703125,-1.45075390625,5.77018359375,3.9715234375
4.1678046875,0.80721484375,2.05870703125,-2.02776953125,-0.23312890625,4.9225390625,5.0461171875,0.644613281249999,-1.357125,-0.746515625,0.658093749999999,2.999421875,-6.429390625,-4.9818828125,-2.698953125,5.02322265625,-8.31473828125,-6.46121484375,-7.193375,-2.32445703125,3.1620625,-2.17335546875,-6.04703125,-5.9707734375,-0.9076796875,5.0541796875,0.434070312499999,-1.33275390625,4.63818359375,3.4305234375
6.9418046875,1.03621484375,1.61270703125,-0.26876953125,0.41587109375,5.6405390625,5.9891171875,0.93061328125,-2.336125,0.462484375,2.54409375,3.416421875,-5.699390625,-3.2328828125,-0.490953125,6.01322265625,-6.60473828125,-5.09321484375,-5.209375,-1.11245703125,3.4590625,-0.92935546875,-5.10203125,-5.0227734375,-0.1716796875,5.0041796875,1.2580703125,-0.50675390625,3.68918359375,2.9545234375
8.3358046875,2.08621484375,0.923707031249999,2.44023046875,1.96087109375,7.4985390625,6.8601171875,1.87261328125,-1.544125,2.820484375,5.06009375,2.603421875,-4.363390625,-0.3698828125,2.601046875,7.27622265625,-5.17573828125,-2.77821484375,-1.807375,1.06154296875,3.9400625,0.67564453125,-2.98703125,-2.7227734375,0.8693203125,4.9901796875,3.5430703125,0.95624609375,3.35118359375,2.8985234375
8.1818046875,3.61121484375,0.383707031249999,5.30823046875,4.17487109375,10.0745390625,7.7561171875,3.08661328125,1.046875,5.863484375,7.68909375,1.110421875,-3.071390625,3.2021171875,6.118046875,8.56822265625,-4.48473828125,0.0367851562499999,2.560625,3.88354296875,4.6170625,2.32964453125,0.04696875,0.5992265625,2.1323203125,5.0981796875,7.0270703125,2.93624609375,4.02218359375,3.6465234375
6.8228046875,5.10221484375,0.38770703125,7.17923046875,6.66487109375,12.6865390625,8.6891171875,3.84561328125,4.833875,8.974484375,9.96209375,-0.216578125,-2.302390625,6.9621171875,9.541046875,9.76622265625,-4.52773828125,2.87578515625,7.276625,6.95854296875,5.5390625,3.84364453125,3.63896875,4.4582265625,3.5713203125,5.4661796875,11.1960703125,5.24324609375,5.86318359375,5.3975234375
4.8558046875,6.11821484375,1.08170703125,7.00423046875,8.93987109375,14.6395390625,9.4861171875,3.40861328125,8.731875,11.537484375,11.56009375,-0.699578124999999,-2.138390625,10.3581171875,12.406046875,10.84222265625,-4.86473828125,5.33278515625,11.663625,9.86554296875,6.7410625,5.13964453125,7.31996875,8.2782265625,5.1053203125,6.2151796875,15.3890703125,7.60524609375,8.66118359375,7.9905234375
2.9478046875,6.46121484375,2.27270703125,4.36823046875,10.52787109375,15.5015390625,9.9001171875,1.41461328125,11.538875,13.103484375,12.34509375,-0.133578125,-2.300390625,12.8961171875,14.393046875,11.79622265625,-4.86173828125,7.12178515625,15.118625,12.22154296875,8.1900625,6.16964453125,10.54696875,11.4912265625,6.5863203125,7.3801796875,18.9620703125,9.69324609375,11.83218359375,10.8985234375
1.6848046875,6.20321484375,3.54870703125,-0.14976953125,11.14087109375,15.2585390625,9.7831171875,-1.87438671875,12.405875,13.501484375,12.34109375,1.197421875,-2.405390625,14.2691171875,15.384046875,12.60022265625,-4.02773828125,8.10878515625,17.268625,13.76854296875,9.7630625,6.85564453125,12.81796875,13.6782265625,7.8343203125,8.8871796875,21.4580703125,11.20124609375,14.59418359375,13.4265234375
1.4248046875,5.59321484375,4.48570703125,-5.00676953125,10.82287109375,14.2565390625,9.1831171875,-5.59038671875,11.198875,12.890484375,11.68009375,2.706421875,-2.220390625,14.4611171875,15.457046875,13.18022265625,-2.27673828125,8.33678515625,18.056625,14.43554296875,11.2580625,7.11864453125,13.83296875,14.6772265625,8.7223203125,10.5631796875,22.7310703125,11.94924609375,16.25018359375,15.0005234375
2.2088046875,4.90721484375,4.84770703125,-8.17576953125,9.96787109375,13.0365390625,8.3371171875,-8.52938671875,8.576875,11.671484375,10.55109375,3.755421875,-1.740390625,13.7621171875,14.819046875,13.42922265625,-0.0137382812499993,8.01878515625,17.731625,14.33554296875,12.4260625,6.97764453125,13.62196875,14.6092265625,9.2243203125,12.1741796875,22.9290703125,11.96624609375,16.43518359375,15.3715234375
3.7608046875,4.33421484375,4.69170703125,-8.02476953125,9.14487109375,12.1245390625,7.5841171875,-9.57638671875,5.702875,10.326484375,9.17409375,3.888421875,-1.086390625,12.6711171875,13.718046875,13.24622265625,2.01126171875,7.48978515625,16.728625,13.68654296875,13.0230625,6.63364453125,12.54696875,13.7892265625,9.4083203125,13.4851796875,22.3710703125,11.49424609375,15.24318359375,14.6685234375
5.5328046875,3.93321484375,4.31770703125,-4.19176953125,8.78287109375,11.8285390625,7.1771171875,-8.20038671875,3.724875,9.214484375,7.77009375,3.025421875,-0.360390625,11.6871171875,12.363046875,12.60422265625,3.03726171875,7.08478515625,15.511625,12.72254296875,12.9060625,6.44064453125,11.17096875,12.5992265625,9.3993203125,14.3721796875,21.3940703125,10.90324609375,13.20518359375,13.3295234375
6.8258046875,3.65721484375,4.09670703125,2.08223046875,8.94287109375,12.1125390625,7.0911171875,-4.80238671875,3.272875,8.461484375,6.53209375,1.538421875,0.383609375,11.1001171875,10.898046875,11.60222265625,2.64526171875,7.01778515625,14.422625,11.63654296875,12.1400625,6.74664453125,10.03896875,11.3712265625,9.3383203125,14.9191796875,20.2520703125,10.55724609375,11.12418359375,11.9885234375
7.0368046875,3.41421484375,4.26570703125,8.43023046875,9.30887109375,12.6525390625,7.0071171875,-0.669386718750001,4.247875,7.953484375,5.57009375,0.106421875,1.069609375,10.8981171875,9.412046875,10.45222265625,0.946261718749998,7.29778515625,13.603625,10.56454296875,11.0140625,7.67464453125,9.46696875,10.3172265625,9.3263203125,15.3681796875,19.0870703125,10.66724609375,9.79618359375,11.2805234375
5.9528046875,3.13121484375,4.82470703125,12.38823046875,9.42187109375,13.0535390625,6.5311171875,2.51061328125,5.989875,7.441484375,4.89309375,-0.615578125,1.523609375,10.8201171875,7.945046875,9.38522265625,-1.52273828125,7.72778515625,12.996625,9.55854296875,9.8970625,9.00464453125,9.43996875,9.4832265625,9.3483203125,15.9191796875,17.9420703125,11.22224609375,9.69618359375,11.5875234375
3.8888046875,2.77621484375,5.56270703125,12.39723046875,8.95687109375,13.0655390625,5.4671171875,3.37461328125,7.689875,6.684484375,4.41409375,-0.320578125,1.512609375,10.5001171875,6.483046875,8.52422265625,-4.10773828125,8.00278515625,12.387625,8.56854296875,9.0300625,10.25264453125,9.65396875,8.7682265625,9.2143203125,16.5061796875,16.7900703125,11.99624609375,10.76118359375,12.8195234375
1.5538046875,2.33921484375,6.16770703125,8.35023046875,7.89987109375,12.6485390625,3.9341171875,1.45861328125,8.740875,5.555484375,3.98209375,0.824421875,0.855609375,9.6141171875,4.952046875,7.81222265625,-6.35873828125,7.84678515625,11.489625,7.45454296875,8.3890625,10.90864453125,9.67596875,7.9752265625,8.6023203125,16.7521796875,15.5610703125,12.64424609375,12.39318359375,14.3835234375
-0.2651953125,1.80521484375,6.34770703125,1.59523046875,6.53487109375,11.9025390625,2.3051171875,-2.61038671875,8.884875,4.071484375,3.41109375,2.288421875,-0.446390625,7.9771171875,3.243046875,7.04422265625,-8.16873828125,7.11878515625,10.052625,6.05454296875,7.7220625,10.70464453125,9.15496875,6.9062265625,7.2063203125,16.1601796875,14.1720703125,12.82124609375,13.71018359375,15.4085234375
-0.9991953125,1.15521484375,5.89270703125,-5.54376953125,5.29687109375,10.9675390625,1.0431171875,-7.34738671875,8.129875,2.347484375,2.52409375,3.391421875,-2.178390625,5.5891171875,1.267046875,5.97122265625,-9.66573828125,5.84578515625,7.964625,4.28154296875,6.7340625,9.72564453125,7.94796875,5.4372265625,4.9373203125,14.4411796875,12.5690703125,12.28824609375,13.92918359375,15.1455234375
-0.4871953125,0.41721484375,4.66670703125,-10.57976953125,4.55587109375,9.9465390625,0.5221171875,-10.96238671875,6.615875,0.524484375,1.20509375,3.548421875,-3.983390625,2.6431171875,-0.968953125,4.44622265625,-10.97873828125,4.18678515625,5.330625,2.21054296875,5.3040625,8.32964453125,6.16896875,3.5832265625,2.0603203125,11.7741796875,10.7740703125,10.99124609375,12.73318359375,13.3685234375
0.970804687499999,-0.28978515625,2.62870703125,-11.76076953125,4.43887109375,8.8435390625,0.8321171875,-12.06638671875,4.554875,-1.266515625,-0.50490625,2.501421875,-5.512390625,-0.5098828125,-3.311953125,2.53622265625,-12.05073828125,2.37478515625,2.468625,0.0945429687499995,3.5900625,6.92864453125,4.12096875,1.5192265625,-0.8306796875,8.8251796875,8.9140703125,9.08824609375,10.40418359375,10.5565234375
2.7098046875,-0.80778515625,-0.0532929687500001,-8.76476953125,4.75787109375,7.5835390625,1.6931171875,-10.26838671875,2.244875,-2.909515625,-2.37090625,0.450421875,-6.555390625,-3.4388828125,-5.467953125,0.53322265625,-12.62073828125,0.65678515625,-0.186375,-1.71045703125,1.9700625,5.77764453125,2.17596875,-0.4637734375,-3.0306796875,6.4811796875,7.1790703125,6.89224609375,7.64718359375,7.6865234375
3.9848046875,-1.05078515625,-2.85329296875,-2.86776953125,5.09587109375,6.1235390625,2.5991171875,-6.38938671875,0.070875,-4.300515625,-4.01890625,-1.998578125,-7.086390625,-5.7638828125,-7.099953125,-1.15577734375,-12.38573828125,-0.76821484375,-2.222375,-2.89545703125,0.8440625,4.85764453125,0.61696875,-2.0747734375,-4.0296796875,5.4061796875,5.7160703125,4.73024609375,5.17818359375,5.7065234375
4.2958046875,-1.08278515625,-4.90229296875,3.57223046875,5.01287109375,4.5985390625,3.1281171875,-2.11238671875,-1.571125,-5.352515625,-5.07890625,-4.112578125,-7.188390625,-7.2498828125,-7.948953125,-2.20377734375,-11.22273828125,-1.78521484375,-3.392375,-3.34345703125,0.419062500000001,3.92664453125,-0.45203125,-3.1427734375,-3.7406796875,5.6721796875,4.5470703125,2.79824609375,3.33818359375,4.9985234375
3.5858046875,-1.06378515625,-5.31229296875,8.15323046875,4.30287109375,3.3625390625,3.2121171875,0.778613281249999,-2.384125,-5.979515625,-5.33690625,-5.349578125,-6.967390625,-7.8168828125,-7.912953125,-2.48277734375,-9.34873828125,-2.35621484375,-3.643375,-3.13245703125,0.613062500000001,2.70864453125,-1.07303125,-3.6197734375,-2.4926796875,6.7431796875,3.5970703125,1.13724609375,2.01918359375,5.2375234375
2.2388046875,-1.11278515625,-3.68129296875,9.52823046875,3.15587109375,2.8565390625,3.1511171875,1.23561328125,-2.239125,-6.053515625,-4.77790625,-5.525578125,-6.499390625,-7.4828828125,-7.027953125,-2.06777734375,-7.29373828125,-2.46221484375,-3.060375,-2.42545703125,1.1440625,1.15264453125,-1.29603125,-3.4957734375,-0.7816796875,7.8421796875,2.8550703125,-0.236753906250001,0.950183593749999,5.7785234375
0.974804687499999,-1.17978515625,-0.448292968750001,7.98923046875,2.11587109375,3.4155390625,3.4261171875,-0.57238671875,-1.195125,-5.421515625,-3.54590625,-4.741578125,-5.852390625,-6.3038828125,-5.411953125,-1.11977734375,-5.67573828125,-2.07421484375,-1.766375,-1.32745703125,1.7510625,-0.44735546875,-1.07403125,-2.7027734375,1.0623203125,8.4941796875,2.5220703125,-1.18175390625,0.0941835937499995,6.2645234375
0.628804687499999,-1.05478515625,3.18770703125,5.20923046875,1.81187109375,5.0865390625,4.4171171875,-3.38638671875,0.500875,-3.980515625,-1.85790625,-3.245578125,-5.125390625,-4.4018828125,-3.218953125,0.21422265625,-4.89273828125,-1.19121484375,0.122624999999999,0.15654296875,2.3680625,-1.57135546875,-0.29603125,-1.1437734375,3.0153203125,8.8271796875,2.9740703125,-1.42075390625,-0.20781640625,6.9505234375
1.7768046875,-0.52778515625,5.80070703125,3.26223046875,2.61287109375,7.5435390625,6.1631171875,-5.52338671875,2.433875,-1.803515625,0.0280937499999996,-1.353578125,-4.477390625,-2.0338828125,-0.644953125,1.81122265625,-4.93273828125,0.0717851562499998,2.448625,2.02654296875,3.1300625,-1.79835546875,1.05596875,1.1652265625,5.2243203125,9.3941796875,4.5240703125,-0.750753906250001,0.48118359375,8.4195234375
4.3408046875,0.41921484375,6.45470703125,3.46823046875,4.41787109375,10.1395390625,8.2841171875,-5.75538671875,4.125875,0.815484375,1.83609375,0.539421875,-4.085390625,0.4101171875,2.054046875,3.50522265625,-5.43373828125,1.46478515625,4.962625,4.17254296875,4.1840625,-1.09335546875,2.77396875,3.9582265625,7.6863203125,10.6391796875,7.1150703125,0.68424609375,2.20018359375,10.9105234375
7.5148046875,1.53821484375,5.20170703125,5.73523046875,6.70087109375,12.1665390625,10.1811171875,-3.88038671875,5.205875,3.447484375,3.30509375,1.994421875,-4.024390625,2.5361171875,4.593046875,5.06822265625,-5.92773828125,2.69178515625,7.347625,6.33954296875,5.5030625,0.16264453125,4.46296875,6.7312265625,10.0533203125,12.4481796875,10.2000703125,2.32624609375,4.31718359375,13.8415234375
10.1238046875,2.44621484375,3.05170703125,8.78423046875,8.77687109375,13.2025390625,11.4121171875,-0.692386718750001,5.552875,5.705484375,4.27909375,2.689421875,-4.145390625,4.1221171875,6.741046875,6.27622265625,-6.09573828125,3.57878515625,9.344625,8.22954296875,6.8450625,1.42164453125,5.73796875,8.9422265625,11.7443203125,14.1531796875,12.9560703125,3.45624609375,5.76218359375,15.9675234375
11.1538046875,2.86521484375,1.40070703125,11.06123046875,10.09487109375,13.3195390625,11.9301171875,2.51661328125,5.297875,7.401484375,4.77709375,2.630421875,-4.070390625,5.2031171875,8.401046875,7.02422265625,-5.88073828125,4.17878515625,10.873625,9.64754296875,7.9200625,2.31664453125,6.46396875,10.2672265625,12.3083203125,14.9951796875,14.7030703125,3.62424609375,5.65418359375,16.1335234375
10.1448046875,2.78421484375,1.26770703125,11.68523046875,10.43087109375,12.9535390625,11.9811171875,4.57861328125,4.686875,8.569484375,4.97709375,2.235421875,-3.387390625,6.0231171875,9.618046875,7.39322265625,-5.43373828125,4.74178515625,12.058625,10.59854296875,8.6000625,2.84564453125,6.83396875,10.7672265625,11.7753203125,14.6841796875,15.2700703125,2.95524609375,3.88218359375,14.0995234375
7.3338046875,2.43021484375,2.80570703125,10.88223046875,9.90187109375,12.5845390625,11.8351171875,4.89661328125,3.937875,9.372484375,5.11609375,2.141421875,-1.926390625,6.8841171875,10.524046875,7.59222265625,-4.97673828125,5.54978515625,13.130625,11.26654296875,9.0210625,3.30864453125,7.25796875,10.8432265625,10.7183203125,13.6671796875,15.0600703125,2.09324609375,1.24818359375,10.8245234375
3.6268046875,2.08521484375,5.32070703125,9.70623046875,8.85087109375,12.4505390625,11.6121171875,3.62461328125,3.195875,9.951484375,5.35909375,2.798421875,0.0496093750000002,7.9941171875,11.244046875,7.82422265625,-4.67473828125,6.73278515625,14.272625,11.88354296875,9.5060625,4.05164453125,8.09496875,10.9932265625,9.9803203125,12.9041796875,14.7740703125,1.83424609375,-0.920816406250001,8.0065234375
0.3268046875,1.90721484375,7.68170703125,9.26523046875,7.65487109375,12.4635390625,11.2621171875,1.54361328125,2.548875,10.323484375,5.69809375,4.126421875,1.917609375,9.3611171875,11.836046875,8.16022265625,-4.56073828125,8.16578515625,15.495625,12.58454296875,10.3560625,5.21364453125,9.42396875,11.5342265625,10.2253203125,13.3061796875,14.9800703125,2.68924609375,-1.47781640625,7.1495234375
-1.4081953125,1.83921484375,8.84770703125,9.95223046875,6.53487109375,12.2955390625,10.5821171875,-0.329386718750001,2.014875,10.353484375,5.93809375,5.495421875,2.984609375,10.7451171875,12.258046875,8.49522265625,-4.55173828125,9.50678515625,16.585625,13.30354296875,11.6540625,6.60864453125,10.96996875,12.4302265625,11.5793203125,15.1971796875,15.7960703125,4.63024609375,-0.0318164062499999,8.7705234375
-1.1731953125,1.67221484375,8.29370703125,11.20123046875,5.48887109375,11.5565390625,9.2691171875,-1.25838671875,1.497875,9.823484375,5.75909375,6.077421875,2.834609375,11.6961171875,12.380046875,8.59322265625,-4.53373828125,10.32678515625,17.152625,13.77654296875,13.1730625,7.80564453125,12.20496875,13.3162265625,13.5723203125,18.0951796875,16.8430703125,7.11824609375,2.86218359375,12.1755234375
0.449804687499999,1.20421484375,6.20370703125,11.98823046875,4.41387109375,10.0425390625,7.1421171875,-1.12738671875,0.795875,8.564484375,4.87909375,5.321421875,1.516609375,11.7111171875,12.032046875,8.20122265625,-4.45473828125,10.27478515625,16.799625,13.64754296875,14.4440625,8.32164453125,12.57096875,13.6772265625,15.3763203125,20.9211796875,17.4590703125,9.33924609375,5.98218359375,15.8775234375
2.2348046875,0.39521484375,3.36070703125,11.71223046875,3.30687109375,7.9255390625,4.4311171875,-0.406386718749999,-0.278125,6.598484375,3.21909375,3.258421875,-0.508390625,10.4641171875,11.094046875,7.17322265625,-4.38473828125,9.20478515625,15.320625,12.62454296875,14.9400625,7.84764453125,11.72196875,13.0922265625,16.2023203125,22.4941796875,17.0210703125,10.52724609375,7.97918359375,18.3105234375
3.0078046875,-0.58178515625,0.74670703125,10.70823046875,2.38387109375,5.7215390625,1.8511171875,0.20061328125,-1.741125,4.209484375,0.98809375,0.488421875,-2.626390625,8.0031171875,9.570046875,5.55222265625,-4.48473828125,7.23978515625,12.827625,10.62954296875,14.2930625,6.41064453125,9.67796875,11.4202265625,15.6403203125,22.0101796875,15.2000703125,10.24124609375,7.91218359375,18.4645234375
2.2658046875,-1.42878515625,-0.930292968750001,9.98023046875,1.97187109375,4.0355390625,0.2821171875,0.160613281250001,-3.369125,1.859484375,-1.37990625,-2.081578125,-4.372390625,4.7731171875,7.626046875,3.57322265625,-4.91673828125,4.74078515625,9.729625,7.87654296875,12.4480625,4.37864453125,6.83596875,8.8692265625,13.8013203125,19.3311796875,12.0750703125,8.52224609375,5.57718359375,16.2105234375
0.394804687499999,-1.91678515625,-1.49629296875,10.41623046875,2.24687109375,3.2495390625,0.2711171875,-0.64538671875,-4.776125,-0.014515625,-3.40590625,-3.597578125,-5.614390625,1.4561171875,5.543046875,1.59022265625,-5.75073828125,2.17978515625,6.579625,4.82454296875,9.6990625,2.28164453125,3.82796875,5.9172265625,11.2313203125,15.0021796875,8.0970703125,5.86224609375,1.54418359375,12.2675234375
-1.6451953125,-2.03878515625,-1.20929296875,12.11623046875,3.01587109375,3.3405390625,1.6691171875,-1.91138671875,-5.613125,-1.214515625,-4.77390625,-3.607578125,-6.523390625,-1.2928828125,3.610046875,-0.0467773437500001,-6.93273828125,-0.01821484375,3.896625,2.03854296875,6.5940625,0.55164453125,1.28096875,3.1342265625,8.6603203125,10.0651796875,3.9470703125,2.99524609375,-3.10481640625,7.8825234375
-2.9721953125,-2.02978515625,-0.46929296875,14.25523046875,3.71787109375,3.9035390625,3.6261171875,-3.06938671875,-5.775125,-1.856515625,-5.46290625,-2.290578125,-7.377390625,-3.0848828125,2.008046875,-1.11077734375,-8.29773828125,-1.61121484375,2.012625,-0.00745703125000041,3.7390625,-0.66235546875,-0.40903125,0.986226562500001,6.7063203125,5.6991796875,0.3280703125,0.58724609375,-7.19781640625,4.3315234375
-3.3671953125,-2.24178515625,0.41370703125,15.51123046875,3.68587109375,4.3425390625,4.9331171875,-3.55338671875,-5.483125,-2.268515625,-5.73990625,-0.422578125,-8.349390625,-3.8878828125,0.758046875,-1.57277734375,-9.62773828125,-2.57621484375,1.004625,-1.08445703125,1.6050625,-1.48335546875,-1.16903125,-0.2897734375,5.6453203125,2.8231796875,-2.2259296875,-0.98875390625,-9.90381640625,2.4285234375
-3.3161953125,-2.93178515625,1.27670703125,14.79523046875,2.49487109375,4.1685390625,4.5911171875,-3.04538671875,-5.183125,-2.784515625,-5.99890625,0.983421875,-9.452390625,-3.9608828125,-0.252953125,-1.57277734375,-10.69373828125,-3.06921484375,0.715624999999999,-1.26645703125,0.4120625,-2.14535546875,-1.20503125,-0.7137734375,5.3973203125,1.8021796875,-3.4659296875,-1.71775390625,-10.96081640625,2.2675234375
-3.4881953125,-4.10178515625,2.02170703125,11.87523046875,0.23787109375,3.2915390625,2.3441171875,-1.62938671875,-5.262125,-3.564515625,-6.52490625,1.217421875,-10.631390625,-3.6808828125,-1.174953125,-1.32577734375,-11.29973828125,-3.33021484375,0.855625,-0.861457031250001,0.1300625,-2.80835546875,-0.85303125,-0.4927734375,5.6753203125,2.4121796875,-3.4489296875,-1.82375390625,-10.63881640625,3.3345234375
-4.0941953125,-5.44778515625,2.52470703125,7.56823046875,-2.45712890625,2.0985390625,-1.1338828125,0.227613281250001,-5.753125,-4.520515625,-7.31690625,0.243421875,-11.876390625,-3.3648828125,-2.088953125,-1.00877734375,-11.34073828125,-3.56921484375,1.135625,-0.25745703125,0.5590625,-3.46035546875,-0.42503125,0.0902265625000003,6.2013203125,4.0651796875,-2.4869296875,-1.59775390625,-9.48381640625,4.8975234375
-4.6851953125,-6.47978515625,2.60670703125,3.36823046875,-4.65212890625,1.2335390625,-4.5398828125,1.84061328125,-6.258125,-5.388515625,-8.08290625,-1.303578125,-13.183390625,-3.1608828125,-2.962953125,-0.69977734375,-10.84273828125,-3.87021484375,1.355625,0.23854296875,1.4280625,-3.94235546875,-0.0960312499999998,0.7832265625,6.8293203125,6.1391796875,-1.0259296875,-1.24075390625,-8.01281640625,6.4245234375
-4.4831953125,-6.72978515625,2.13170703125,0.74323046875,-5.51612890625,1.2195390625,-6.5478828125,2.54961328125,-6.183125,-5.876515625,-8.40790625,-2.495578125,-14.399390625,-3.0478828125,-3.673953125,-0.37977734375,-9.95873828125,-4.14421484375,1.449625,0.51654296875,2.4860625,-4.01635546875,0.13896875,1.4362265625,7.5383203125,8.2171796875,0.508070312499999,-0.78375390625,-6.48381640625,7.7875234375
-2.9491953125,-5.98178515625,1.17270703125,0.50423046875,-4.68812890625,2.2065390625,-6.3538828125,1.95861328125,-5.134125,-5.804515625,-7.97490625,-2.591578125,-15.127390625,-2.9078828125,-4.074953125,0.0252226562499999,-8.87673828125,-4.16721484375,1.474625,0.67454296875,3.5730625,-3.46235546875,0.44196875,2.0152265625,8.3613203125,10.1061796875,1.8670703125,-0.08875390625,-4.86281640625,9.1725234375
-0.2171953125,-4.37978515625,0.104707031249999,2.54323046875,-2.42412890625,3.9635390625,-3.9538828125,0.0816132812500001,-3.206125,-5.156515625,-6.72090625,-1.361578125,-14.883390625,-2.6088828125,-4.055953125,0.59222265625,-7.73273828125,-3.69121484375,1.570625,0.95654296875,4.6360625,-2.16535546875,1.04996875,2.5922265625,9.2983203125,11.6961796875,3.0560703125,1.05024609375,-2.96681640625,10.7905234375
2.8158046875,-2.39078515625,-0.510292968750001,5.99323046875,0.54887109375,6.0535390625,-0.1048828125,-2.66038671875,-0.957125,-4.023515625,-4.85290625,0.843421875,-13.434390625,-2.0768828125,-3.569953125,1.34522265625,-6.60173828125,-2.58321484375,1.882625,1.62254296875,5.6570625,-0.20835546875,2.15796875,3.2962265625,10.2753203125,12.8051796875,4.2740703125,2.74524609375,-0.696816406250001,12.6085234375
4.8168046875,-0.62978515625,-0.161292968750001,9.65223046875,3.36487109375,8.0575390625,3.9761171875,-5.54938671875,0.871874999999999,-2.503515625,-2.72290625,3.255421875,-11.053390625,-1.3378828125,-2.622953125,2.22422265625,-5.59573828125,-0.92021484375,2.494625,2.82054296875,6.5600625,2.09664453125,3.80996875,4.2512265625,11.1403203125,13.1651796875,5.7340703125,4.88124609375,1.76718359375,14.2575234375
4.6838046875,0.36421484375,1.38770703125,12.48423046875,5.36387109375,9.7415390625,7.1041171875,-7.75338671875,1.728875,-0.656515625,-0.66590625,5.013421875,-8.446390625,-0.4998828125,-1.243953125,3.09122265625,-4.93573828125,1.02078515625,3.399625,4.48654296875,7.1620625,4.26264453125,5.83696875,5.5012265625,11.7023203125,12.5441796875,7.4560703125,7.08624609375,3.95418359375,15.1595234375
2.1998046875,0.33121484375,3.98270703125,13.99523046875,6.29487109375,11.1205390625,8.5711171875,-8.55138671875,1.506875,1.472484375,1.12109375,5.547421875,-6.368390625,0.3111171875,0.518046875,3.79622265625,-4.90973828125,2.86678515625,4.522625,6.35654296875,7.2400625,5.79664453125,7.89396875,6.9572265625,11.8113203125,10.9221796875,9.1590703125,8.87124609375,5.28318359375,14.7925234375
-1.7511953125,-0.60978515625,7.05670703125,14.32223046875,6.32587109375,12.3675390625,8.3061171875,-7.60538671875,0.563874999999999,3.794484375,2.59109375,4.850421875,-5.218390625,1.0141171875,2.571046875,4.25622265625,-5.68773828125,4.29878515625,5.753625,8.06054296875,6.6720625,6.39964453125,9.56996875,8.3892265625,11.4283203125,8.5871796875,10.3330703125,9.83824609375,5.33818359375,12.9525234375
-5.5521953125,-1.99378515625,9.74370703125,14.02923046875,5.88587109375,13.6375390625,6.7551171875,-5.15438671875,-0.472125000000001,6.140484375,3.78209375,3.495421875,-4.896390625,1.6031171875,4.733046875,4.50122265625,-7.14273828125,5.17278515625,6.968625,9.27254296875,5.5580625,6.09164453125,10.53696875,9.4942265625,10.6553203125,6.0701796875,10.4540703125,9.85324609375,4.08018359375,9.8765234375
-7.5321953125,-3.19078515625,11.15870703125,13.77723046875,5.45987109375,14.9535390625,4.6671171875,-1.98838671875,-0.975125,8.290484375,4.75809375,2.347421875,-4.958390625,2.1541171875,6.736046875,4.66622265625,-8.81073828125,5.55778515625,8.054625,9.83754296875,4.2350625,5.19464453125,10.66296875,9.9982265625,9.7173203125,3.9691796875,9.2490703125,9.08924609375,1.88718359375,6.1865234375
-6.6181953125,-3.63878515625,10.77870703125,14.07223046875,5.41587109375,16.2265390625,2.8981171875,0.88061328125,-0.545125000000001,10.040484375,5.58409375,2.127421875,-4.921390625,2.7791171875,8.282046875,4.91722265625,-10.05173828125,5.65878515625,8.919625,9.80954296875,3.1560625,4.16964453125,10.02496875,9.7552265625,8.8793203125,2.7221796875,6.8330703125,7.91824609375,-0.59581640625,2.6675234375
-2.7531953125,-3.05578515625,8.67370703125,15.14223046875,5.90287109375,17.3265390625,2.1661171875,2.64961328125,0.879874999999999,11.255484375,6.32309375,3.087421875,-4.519390625,3.5311171875,9.136046875,5.35122265625,-10.35673828125,5.67578515625,9.477625,9.38654296875,2.6720625,3.40964453125,8.84596875,8.7892265625,8.3413203125,2.4401796875,3.6630703125,6.73024609375,-2.71881640625,-0.0184765625000001
3.0318046875,-1.53178515625,5.45470703125,16.92223046875,6.82987109375,18.1225390625,2.7561171875,3.02561328125,3.019875,11.881484375,7.01109375,4.941421875,-3.796390625,4.3171171875,9.207046875,5.91922265625,-9.62773828125,5.68278515625,9.622625,8.78554296875,2.8370625,3.09164453125,7.38396875,7.2792265625,8.1363203125,2.8701796875,0.3370703125,5.78124609375,-4.08381640625,-1.5594765625
8.9768046875,0.50621484375,2.02770703125,19.09523046875,7.92587109375,18.5015390625,4.3681171875,2.22161328125,5.358875,11.931484375,7.61909375,7.065421875,-3.033390625,4.8851171875,8.576046875,6.41122265625,-8.26573828125,5.59078515625,9.250625,8.14554296875,3.3670625,3.15264453125,5.84896875,5.4962265625,8.1193203125,3.5151796875,-2.6089296875,5.15324609375,-4.66181640625,-2.0494765625
13.2978046875,2.43921484375,-0.682292968750001,21.18623046875,8.85387109375,18.4165390625,6.2601171875,0.740613281249999,7.340875,11.461484375,8.03109375,8.776421875,-2.578390625,4.9431171875,7.471046875,6.54122265625,-6.97173828125,5.23878515625,8.346625,7.51154296875,3.7970625,3.39664453125,4.38196875,3.7442265625,8.0773203125,3.8711796875,-4.8159296875,4.83524609375,-4.71681640625,-1.8494765625
14.8808046875,3.64121484375,-1.94529296875,22.63923046875,9.31787109375,17.8995390625,7.5841171875,-0.891386718750002,8.549875,10.553484375,8.05909375,9.567421875,-2.665390625,4.3271171875,6.190046875,6.07722265625,-6.38073828125,4.53578515625,7.079625,6.87354296875,3.7540625,3.64764453125,3.09396875,2.3112265625,7.8823203125,3.6621796875,-6.1239296875,4.82324609375,-4.60381640625,-1.3464765625
13.5978046875,3.66621484375,-1.42129296875,22.90523046875,9.12987109375,17.0185390625,7.7051171875,-2.33738671875,8.800875,9.289484375,7.50409375,9.209421875,-3.301390625,3.1031171875,5.007046875,4.95522265625,-6.73173828125,3.56678515625,5.793625,6.24454296875,3.1660625,3.86664453125,2.09896875,1.4302265625,7.5883203125,2.9361796875,-6.5279296875,5.16524609375,-4.56881640625,-0.7524765625
10.1708046875,2.42321484375,0.73570703125,21.59023046875,8.23687109375,15.8355390625,6.4361171875,-3.52438671875,8.103875,7.755484375,6.28109375,7.766421875,-4.254390625,1.5291171875,4.093046875,3.32722265625,-7.76973828125,2.58278515625,4.879625,5.70454296875,2.3010625,4.13364453125,1.52296875,1.2482265625,7.4353203125,2.0011796875,-6.1269296875,5.90724609375,-4.63381640625,-0.0224765624999996
5.7698046875,0.24921484375,3.93170703125,18.70523046875,6.73787109375,14.4345390625,4.1671171875,-4.59238671875,6.588875,6.049484375,4.54209375,5.569421875,-5.139390625,-0.0728828125000003,3.502046875,1.52622265625,-8.91573828125,1.87578515625,4.608625,5.41054296875,1.6320625,4.54064453125,1.45396875,1.7962265625,7.7383203125,1.2571796875,-5.0709296875,7.01024609375,-4.60281640625,1.0835234375
1.5538046875,-2.16778515625,7.33070703125,14.86323046875,4.88787109375,12.9885390625,1.7581171875,-5.75138671875,4.432875,4.296484375,2.68509375,3.162421875,-5.565390625,-1.4548828125,3.172046875,-0.0457773437500001,-9.60773828125,1.62478515625,5.016625,5.51854296875,1.5680625,5.07664453125,1.88796875,2.9672265625,8.7283203125,1.0141796875,-3.5399296875,8.30824609375,-4.17081640625,2.8245234375
-1.7151953125,-4.04778515625,10.09670703125,11.21623046875,3.05087109375,11.7175390625,0.1441171875,-7.13238671875,1.843875,2.628484375,1.19609375,1.157421875,-5.279390625,-2.5028828125,2.952046875,-1.08477734375,-9.62073828125,1.81578515625,5.877625,6.06954296875,2.1970625,5.60364453125,2.70796875,4.4962265625,10.3683203125,1.3291796875,-1.7789296875,9.55324609375,-3.12181640625,5.2405234375
-3.8201953125,-4.86678515625,11.58370703125,9.03623046875,1.59087109375,10.7665390625,-0.1888828125,-8.68138671875,-0.904125000000001,1.152484375,0.385093749999999,-0.00957812499999999,-4.278390625,-3.2188828125,2.616046875,-1.54677734375,-9.20073828125,2.27778515625,6.783625,6.87254296875,3.1620625,5.95564453125,3.70696875,5.9652265625,12.2513203125,1.9351796875,-0.129929687500001,10.51524609375,-1.50481640625,7.9895234375
-4.9301953125,-4.59378515625,11.47370703125,9.13423046875,0.725871093749999,10.1105390625,0.5171171875,-10.13738671875,-3.420125,-0.0785156250000001,0.20009375,-0.316578125,-2.817390625,-3.6518828125,1.935046875,-1.69477734375,-8.90773828125,2.80578515625,7.293625,7.51854296875,3.7960625,6.06664453125,4.63996875,6.8752265625,13.6793203125,2.3341796875,0.9850703125,11.09324609375,0.31418359375,10.3765234375
-5.2531953125,-3.69078515625,9.85970703125,11.42623046875,0.440871093749999,9.5845390625,1.4631171875,-11.15338671875,-5.219125,-1.066515625,0.25809375,-0.223578125,-1.303390625,-3.8408828125,0.773046875,-1.97177734375,-9.25573828125,3.26278515625,7.101625,7.52254296875,3.4700625,6.02164453125,5.27696875,6.7922265625,13.9323203125,2.0391796875,1.1730703125,11.35724609375,1.78618359375,11.6085234375
-4.8321953125,-2.86478515625,7.21970703125,14.91023046875,0.517871093749999,8.9915390625,1.7161171875,-11.49038671875,-5.863125,-1.829515625,0.0680937499999996,-0.451578125,-0.125390625,-3.8058828125,-0.799953125,-2.76977734375,-10.34773828125,3.61178515625,6.158625,6.56254296875,1.9520625,5.98664453125,5.46196875,5.5322265625,12.6103203125,0.8641796875,0.226070312499999,11.48524609375,2.40218359375,11.1505234375
-3.6511953125,-2.71478515625,4.29370703125,18.10523046875,0.67887109375,8.2195390625,0.6461171875,-11.15338671875,-5.163125,-2.360515625,-0.68490625,-1.591578125,0.510609375,-3.5668828125,-2.476953125,-4.19277734375,-11.74373828125,3.89078515625,4.690625,4.67654296875,-0.437937499999999,6.09264453125,5.15296875,3.2952265625,9.8733203125,-0.9088203125,-1.7489296875,11.65024609375,1.92418359375,9.0035234375
-1.8721953125,-3.47178515625,1.90770703125,19.74223046875,0.74587109375,7.3155390625,-1.7928828125,-10.30838671875,-3.321125,-2.598515625,-1.96490625,-3.712578125,0.638609375,-3.1598828125,-3.783953125,-5.97577734375,-12.65173828125,4.14078515625,3.112625,2.31354296875,-2.9419375,6.36764453125,4.45596875,0.6522265625,6.4363203125,-2.6038203125,-4.3029296875,11.95224609375,0.50018359375,5.7735234375
0.0538046874999996,-4.92978515625,0.79470703125,19.30223046875,0.733871093749999,6.5155390625,-4.9898828125,-9.08238671875,-0.913125,-2.466515625,-3.37890625,-6.197578125,0.458609375,-2.6558828125,-4.268953125,-7.57777734375,-12.32973828125,4.35178515625,1.883625,0.180542968749999,-4.7019375,6.74264453125,3.58896875,-1.6447734375,3.3133203125,-3.4698203125,-6.7759296875,12.40124609375,-1.38881640625,2.4515234375
1.5148046875,-6.56978515625,1.35970703125,17.09023046875,0.791871093749999,6.1475390625,-7.8948828125,-7.47238671875,1.284875,-1.942515625,-4.36890625,-7.933578125,0.201609375,-2.1648828125,-3.705953125,-8.42277734375,-10.48773828125,4.43778515625,1.327625,-1.04745703125,-5.1299375,7.09964453125,2.79396875,-2.9687734375,1.3993203125,-3.0848203125,-8.5519296875,12.92724609375,-3.14181640625,0.0105234374999998
2.0028046875,-7.79178515625,3.46470703125,13.88723046875,1.06787109375,6.4305390625,-9.4968828125,-5.47738671875,2.565875,-1.123515625,-4.47690625,-7.826578125,0.0196093749999999,-1.8288828125,-2.215953125,-8.16177734375,-7.45073828125,4.27878515625,1.512625,-1.02845703125,-4.1419375,7.31464453125,2.22196875,-3.0747734375,1.1033203125,-1.5948203125,-9.3159296875,13.40924609375,-4.27681640625,-0.9894765625
1.3758046875,-8.14378515625,6.40970703125,10.49523046875,1.59087109375,7.3155390625,-9.2868828125,-3.32738671875,2.570875,-0.215515625,-3.55890625,-5.364578125,-0.0323906249999997,-1.7598828125,-0.214953125,-6.82077734375,-3.97773828125,3.80078515625,2.250625,0.12154296875,-2.1439375,7.29264453125,1.88396875,-2.1707734375,2.2123203125,0.3901796875,-9.1589296875,13.71224609375,-4.58881640625,-0.562476562499999
-0.00819531250000027,-7.45478515625,9.22170703125,7.48523046875,2.26287109375,8.5215390625,-7.4018828125,-1.55438671875,1.444875,0.558484375,-1.79790625,-0.882578125,0.0276093749999999,-1.9438828125,1.797046875,-4.74177734375,-0.829738281250002,3.05378515625,3.227625,1.92754296875,0.2150625,7.00064453125,1.68496875,-0.7737734375,4.0573203125,2.1811796875,-8.4769296875,13.75424609375,-4.13481640625,0.845523437500001
-1.4251953125,-5.83678515625,11.10570703125,5.19423046875,2.95187109375,9.7165390625,-4.4258828125,-0.79338671875,-0.205125,1.077484375,0.44709375,4.635421875,0.132609375,-2.1968828125,3.463046875,-2.37677734375,1.63126171875,2.22778515625,4.166625,3.80654296875,2.3670625,6.49264453125,1.51896875,0.5532265625,5.8763203125,3.4221796875,-7.7589296875,13.56224609375,-3.12881640625,2.6785234375
-2.1561953125,-3.61278515625,11.76170703125,3.84523046875,3.58087109375,10.6695390625,-1.0818828125,-1.41238671875,-1.583125,1.397484375,2.84409375,10.039421875,0.158609375,-2.2248828125,4.692046875,-0.0627773437500002,3.56426171875,1.58778515625,4.927625,5.33254296875,4.0600625,5.91264453125,1.34996875,1.4272265625,7.1293203125,4.2671796875,-7.3819296875,13.27224609375,-1.81681640625,4.5385234375
-1.8781953125,-1.22178515625,11.40570703125,3.60523046875,4.13587109375,11.2955390625,1.9881171875,-3.21838671875,-2.088125,1.712484375,5.16609375,14.424421875,-0.0683906250000001,-1.7948828125,5.592046875,2.05522265625,5.39426171875,1.33678515625,5.481625,6.34654296875,5.3340625,5.45664453125,1.22196875,1.7292265625,7.6253203125,5.1881796875,-7.5309296875,13.05224609375,-0.42881640625,6.2455234375
-0.784195312500001,0.87121484375,10.54770703125,4.55323046875,4.60287109375,11.6315390625,4.3371171875,-5.41338671875,-1.599125,2.220484375,7.25509375,17.271421875,-0.719390625,-0.9188828125,6.303046875,3.94622265625,7.37626171875,1.48678515625,5.829625,6.91154296875,6.3250625,5.26564453125,1.18096875,1.5282265625,7.4383203125,6.5721796875,-8.2219296875,12.99124609375,0.810183593750001,7.6955234375
0.598804687499999,2.27521484375,9.69770703125,6.53323046875,4.91787109375,11.7965390625,5.7201171875,-6.90538671875,-0.489125,2.998484375,8.92209375,18.385421875,-1.859390625,0.1041171875,6.873046875,5.57022265625,9.28526171875,1.81878515625,5.954625,7.18454296875,7.0580625,5.33064453125,1.19796875,0.9762265625,6.7503203125,8.4031796875,-9.3349296875,13.04024609375,1.68618359375,8.7035234375
1.6928046875,2.78321484375,9.15170703125,9.04723046875,5.01387109375,11.9485390625,6.0321171875,-6.82938671875,0.632874999999999,3.979484375,9.94609375,17.839421875,-3.335390625,0.8551171875,7.270046875,6.84422265625,10.46126171875,2.00678515625,5.855625,7.33754296875,7.4180625,5.49064453125,1.17996875,0.2702265625,5.7723203125,10.2531796875,-10.5979296875,13.06024609375,2.05618359375,9.0185234375
2.0668046875,2.44921484375,8.96870703125,11.28723046875,4.92387109375,12.2225390625,5.2711171875,-4.98038671875,1.289875,5.031484375,10.17209375,15.990421875,-4.773390625,1.0801171875,7.496046875,7.72522265625,10.21926171875,1.83578515625,5.633625,7.55654296875,7.2910625,5.54664453125,1.08696875,-0.3097734375,4.7693203125,11.5871796875,-11.5629296875,12.94024609375,1.94518359375,8.5005234375
1.5598046875,1.57821484375,9.11570703125,12.43223046875,4.81887109375,12.7005390625,3.6311171875,-1.90638671875,1.358875,6.067484375,9.67909375,13.473421875,-5.709390625,0.8981171875,7.694046875,8.32022265625,8.35726171875,1.38078515625,5.542625,8.06754296875,6.7640625,5.41464453125,1.04396875,-0.3777734375,4.1193203125,12.1311796875,-11.6539296875,12.70624609375,1.57118359375,7.3035234375
0.3848046875,0.63221484375,9.60270703125,12.05723046875,4.92887109375,13.4135390625,1.6291171875,1.38461328125,1.050875,7.073484375,8.84909375,11.059421875,-5.819390625,0.7751171875,8.122046875,8.90422265625,5.43526171875,0.98278515625,5.919625,9.10154296875,6.2020625,5.19364453125,1.33696875,0.4712265625,4.2713203125,12.0771796875,-10.3469296875,12.52824609375,1.27218359375,5.8855234375
-0.880195312500001,0.07421484375,10.43770703125,10.38723046875,5.36787109375,14.3195390625,0.0301171875000001,3.84261328125,0.698874999999999,8.040484375,8.24009375,9.449421875,-5.096390625,1.2411171875,8.998046875,9.80222265625,2.62026171875,1.05078515625,7.013625,10.78854296875,6.1440625,5.08464453125,2.26696875,2.4822265625,5.5783203125,11.9851796875,-7.4049296875,12.63424609375,1.35518359375,4.8295234375
-1.4671953125,0.23021484375,11.46070703125,8.18623046875,6.02987109375,15.2665390625,-0.4798828125,4.72661328125,0.538875,8.888484375,8.32809375,9.094421875,-3.858390625,2.5621171875,10.311046875,11.19622265625,1.16726171875,1.82978515625,8.803625,13.04054296875,7.0530625,5.24364453125,3.94596875,5.5712265625,8.0873203125,12.4861796875,-3.0379296875,13.18524609375,1.98118359375,4.6265234375
-0.739195312500001,1.19021484375,12.29170703125,6.40423046875,6.64787109375,16.0175390625,0.3851171875,3.80361328125,0.646875,9.453484375,9.26409375,10.110421875,-2.581390625,4.5731171875,11.771046875,12.98722265625,1.83526171875,3.27778515625,10.963625,15.51954296875,9.0660625,5.68664453125,6.19896875,9.2882265625,11.4503203125,13.9541796875,2.1320703125,14.22924609375,3.14518359375,5.5285234375
1.4588046875,2.77421484375,12.53470703125,5.77423046875,6.95787109375,16.3605390625,2.3781171875,1.45661328125,1.000875,9.561484375,10.79309375,12.228421875,-1.670390625,6.7701171875,12.909046875,14.77222265625,4.53126171875,5.10478515625,12.990625,17.71954296875,11.8550625,6.31664453125,8.61096875,12.9422265625,15.0153203125,16.3141796875,7.2600703125,15.72124609375,4.74218359375,7.5025234375
4.5448046875,4.52921484375,12.08470703125,6.53823046875,6.82787109375,16.1905390625,4.7851171875,-1.39138671875,1.537875,9.095484375,12.34009375,14.768421875,-1.305390625,8.5551171875,13.275046875,15.95522265625,8.34826171875,6.90878515625,14.411625,19.11954296875,14.6780625,7.00864453125,10.68496875,15.8062265625,18.0363203125,19.0341796875,11.5040703125,17.56024609375,6.61918359375,10.2265234375
7.2608046875,5.82621484375,11.24670703125,8.36123046875,6.24787109375,15.4785390625,6.5781171875,-3.61238671875,2.124875,8.027484375,13.18609375,16.738421875,-1.435390625,9.4681171875,12.598046875,15.94022265625,11.92826171875,8.28878515625,14.921625,19.33854296875,16.5920625,7.68064453125,12.00396875,17.3122265625,19.8763203125,21.2851796875,14.1930703125,19.56524609375,8.56418359375,13.1065234375
8.1748046875,6.05121484375,10.52370703125,10.48323046875,5.26287109375,14.2135390625,6.7331171875,-4.39638671875,2.508875,6.384484375,12.71109375,17.147421875,-1.892390625,9.3061171875,10.848046875,14.34822265625,14.01526171875,8.92678515625,14.425625,18.23554296875,16.8040625,8.28764453125,12.32796875,17.1782265625,20.1543203125,22.2421796875,14.9170703125,21.43624609375,10.27418359375,15.3795234375
6.4838046875,4.88421484375,10.27170703125,12.11423046875,3.94087109375,12.4115390625,4.6971171875,-3.67738671875,2.347875,4.245484375,10.62309375,15.472421875,-2.530390625,8.1521171875,8.229046875,11.19422265625,13.95126171875,8.63978515625,13.008625,15.95854296875,14.9930625,8.78964453125,11.63296875,15.4622265625,18.8443203125,21.4161796875,13.5880703125,22.77124609375,11.38918359375,16.3565234375
2.5728046875,2.48921484375,10.45270703125,12.81523046875,2.40287109375,10.2075390625,0.7671171875,-2.17138671875,1.355875,1.753484375,7.11309375,12.024421875,-3.297390625,6.3201171875,5.107046875,6.94822265625,11.91926171875,7.43178515625,10.895625,12.91054296875,11.4780625,9.12064453125,10.10796875,12.5362265625,16.3093203125,18.8901796875,10.4840703125,23.19624609375,11.63118359375,15.7085234375
-2.1061953125,-0.50078515625,10.63870703125,12.60523046875,0.82987109375,7.8735390625,-3.9438828125,-0.957386718750001,-0.531125,-0.856515625,2.81409375,7.889421875,-4.217390625,4.2451171875,1.911046875,2.40722265625,8.78226171875,5.52378515625,8.408625,9.64154296875,7.0860625,9.20464453125,8.10496875,8.9952265625,13.1973203125,15.2961796875,6.2110703125,22.53824609375,10.94318359375,13.6175234375
-5.7751953125,-3.24878515625,10.24070703125,11.75823046875,-0.578128906250001,5.7345390625,-8.0218828125,-0.88938671875,-3.058125,-3.281515625,-1.42490625,4.383421875,-5.319390625,2.3611171875,-0.973953125,-1.58977734375,5.62526171875,3.32878515625,5.920625,6.68454296875,2.8100625,9.00064453125,6.05396875,5.4872265625,10.2183203125,11.5241796875,1.5500703125,20.94124609375,9.53818359375,10.6865234375
-7.1921953125,-5.07078515625,8.86670703125,10.48423046875,-1.68612890625,4.0655390625,-10.3838828125,-2.14238671875,-5.671125,-5.210515625,-4.82390625,2.334421875,-6.601390625,0.994117187499999,-3.281953125,-4.44477734375,3.25026171875,1.33678515625,3.803625,4.41254296875,-0.564937499999999,8.55064453125,4.33796875,2.5482265625,7.8973203125,8.3501796875,-2.7629296875,18.84824609375,7.82418359375,7.6575234375
-6.1051953125,-5.68578515625,6.59070703125,8.75323046875,-2.45612890625,3.0335390625,-10.6608828125,-4.16838671875,-7.661125,-6.402515625,-6.88590625,1.698421875,-8.045390625,0.3201171875,-4.880953125,-5.93577734375,1.89826171875,-0.0462148437500001,2.374625,2.99354296875,-2.6609375,7.97264453125,3.19596875,0.5032265625,6.4503203125,6.1881796875,-6.2269296875,16.86224609375,6.24818359375,5.1385234375
-3.1711953125,-5.24678515625,3.94870703125,6.30623046875,-2.93712890625,2.6675390625,-9.1878828125,-6.02438671875,-8.400125,-6.740515625,-7.44890625,1.736421875,-9.653390625,0.3661171875,-5.749953125,-6.15077734375,1.30326171875,-0.62321484375,1.825625,2.42754296875,-3.4869375,7.40264453125,2.67696875,-0.5487734375,5.8173203125,5.0921796875,-8.6389296875,15.53724609375,5.15618359375,3.4635234375
0.5408046875,-4.14978515625,1.61970703125,2.84923046875,-3.21312890625,2.8615390625,-6.6938828125,-6.89138671875,-7.582125,-6.257515625,-6.64590625,1.578421875,-11.432390625,1.0361171875,-5.951953125,-5.34777734375,0.97126171875,-0.43721484375,2.170625,2.60954296875,-3.2909375,6.93164453125,2.68196875,-0.6847734375,5.7943203125,4.8841796875,-10.0609296875,15.18824609375,4.70018359375,2.6955234375
4.1558046875,-2.79078515625,-0.000292968750000178,-1.68976953125,-3.36312890625,3.4215390625,-3.8808828125,-6.49038671875,-5.356125,-5.125515625,-4.82790625,0.748421875,-13.368390625,2.1521171875,-5.635953125,-3.84977734375,0.50026171875,0.30078515625,3.229625,3.35354296875,-2.4269375,6.58164453125,3.03696875,-0.1237734375,6.1403203125,5.2791796875,-10.7449296875,15.77624609375,4.81518359375,2.6595234375
7.3778046875,-1.41378515625,-1.03629296875,-6.96876953125,-3.45612890625,4.1415390625,-1.1268828125,-5.18838671875,-2.310125,-3.637515625,-2.50390625,-0.673578125,-15.393390625,3.4831171875,-5.036953125,-2.02177734375,-0.231738281249999,1.30178515625,4.672625,4.39054296875,-1.2829375,6.30764453125,3.54196875,0.7932265625,6.6273203125,5.9341796875,-11.0689296875,16.91924609375,5.25218359375,2.9995234375
7.3778046875,-1.41378515625,-1.03629296875,-6.96876953125,-3.45612890625,4.1415390625,-1.1268828125,-5.18838671875,-2.310125,-3.637515625,-2.50390625,-0.673578125,-15.393390625,3.4831171875,-5.036953125,-2.02177734375,-0.231738281249999,1.30178515625,4.672625,4.39054296875,-1.2829375,6.30764453125,3.54196875,0.7932265625,6.6273203125,5.9341796875,-11.0689296875,16.91924609375,5.25218359375,2.9995234375
