"Fp1","Fpz","Fp2","F7","F3","Fz","F4","F8","FC5","FC1","FC2","FC6","T7","C3","Cz","C4","T8","CP5","CP1","CP2","CP6","P7","P3","Pz","P4","P8","POz","O1","Oz","O2"
0.0630468749999999,1.92659375,-2.34349609375,6.6428203125,1.6526953125,0.7900546875,2.89228125,0.92271875,4.22337109375,-0.0729960937499996,2.8421640625,-2.3543203125,1.1529921875,0.0678554687500004,1.18716796875,0.0254335937500008,-9.8448828125,-2.51998046875,6.34785546875,0.85369921875,-6.631671875,-6.0295625,-1.5933828125,4.448953125,-4.67380859375,-8.5925703125,-3.48940234375,-6.8903828125,-4.4855078125,-11.85348046875
2.971046875,1.09559375,-2.95049609375,5.1548203125,0.205695312500001,3.9800546875,3.91728125,3.24071875,6.32037109375,2.44900390625,5.4791640625,-0.5153203125,-1.7500078125,2.71085546875,4.21016796875,1.56943359375,-8.7148828125,-1.80998046875,9.27585546875,2.33769921875,-5.581671875,-5.9975625,-0.242382812500001,7.016953125,-3.40580859375,-10.9975703125,-1.30740234375,-6.6403828125,-3.1295078125,-10.65648046875
5.518046875,1.67559375,-1.18549609375,4.8028203125,0.385695312500001,6.6530546875,5.21028125,5.79171875,7.87937109375,4.88500390625,7.7951640625,1.4796796875,-1.9180078125,4.96485546875,6.67516796875,2.71343359375,-6.8778828125,-0.87398046875,11.57885546875,3.60669921875,-4.476671875,-5.4795625,1.0126171875,9.054953125,-2.33580859375,-12.3685703125,0.46259765625,-6.0813828125,-1.7125078125,-9.49248046875
7.304046875,3.45259375,2.69050390625,5.6958203125,1.8386953125,8.3060546875,6.30628125,8.15771875,8.44537109375,6.69000390625,9.3051640625,3.2646796875,0.4009921875,6.29985546875,8.02716796875,3.12343359375,-4.6558828125,-0.0799804687499996,12.59285546875,4.26569921875,-3.551671875,-4.7035625,1.6766171875,9.981953125,-1.76180859375,-12.6365703125,1.48159765625,-5.4123828125,-0.5035078125,-8.58248046875
7.900046875,5.58259375,7.41550390625,7.4378203125,3.3766953125,8.4200546875,6.44928125,9.67571875,7.60837109375,7.13800390625,9.4361640625,4.2886796875,3.8699921875,6.12785546875,7.70116796875,2.51243359375,-2.7108828125,0.0220195312499998,11.64785546875,3.88569921875,-3.102671875,-4.0975625,1.1466171875,9.222953125,-1.96880859375,-11.9745703125,1.47259765625,-4.9393828125,0.1634921875,-8.14648046875
7.067046875,6.96259375,11.26850390625,9.2348203125,3.5056953125,6.7070546875,4.98628125,9.76271875,5.21737109375,5.67100390625,7.8181640625,4.0916796875,6.7439921875,4.08285546875,5.39116796875,0.809433593750001,-1.6918828125,-0.99198046875,8.43585546875,2.25269921875,-3.296671875,-4.0225625,-0.941382812500001,6.519953125,-3.03980859375,-10.6295703125,0.389597656249999,-4.8433828125,0.1084921875,-8.22848046875
4.912046875,6.73459375,12.77650390625,10.2168203125,1.2086953125,3.3330546875,1.77628125,8.20671875,1.51037109375,2.22100390625,4.5521640625,2.5606796875,7.7199921875,0.24085546875,1.28716796875,-1.71356640625,-1.9178828125,-3.15798046875,3.29585546875,-0.44730078125,-4.011671875,-4.5695625,-4.4183828125,2.186953125,-4.71880859375,-8.7855703125,-1.48240234375,-5.0333828125,-0.5545078125,-8.60448046875
1.912046875,4.68859375,11.28650390625,9.8118203125,-3.4983046875,-1.0429453125,-2.64871875,5.29371875,-2.91162890625,-2.66099609375,0.2781640625,0.0366796874999995,6.4829921875,-4.79314453125,-3.85683203125,-4.45956640625,-3.2148828125,-6.03198046875,-2.75914453125,-3.60930078125,-4.828671875,-5.5055625,-8.5223828125,-2.862046875,-6.42780859375,-6.5185703125,-3.56940234375,-5.1673828125,-1.4405078125,-8.84848046875
-1.233953125,1.31959375,7.15950390625,7.9398203125,-9.5423046875,-5.4289453125,-7.26471875,1.69371875,-7.23662890625,-7.94399609375,-4.0218359375,-2.7813203125,3.7109921875,-10.00414453125,-8.89983203125,-6.68356640625,-5.0088828125,-8.83798046875,-8.32314453125,-6.41230078125,-5.205671875,-6.3975625,-12.1453828125,-7.382046875,-7.46680859375,-3.8885703125,-5.20140234375,-4.8623828125,-2.0695078125,-8.53848046875
-3.848953125,-2.44340625,1.57050390625,4.9578203125,-15.2783046875,-8.8379453125,-10.95471875,-1.79228125,-10.69462890625,-12.47599609375,-7.3838359375,-5.1403203125,0.6059921875,-14.27714453125,-12.70683203125,-7.81556640625,-6.6158828125,-10.79098046875,-12.10014453125,-8.16130078125,-4.783671875,-6.8495625,-14.3123828125,-10.284046875,-7.36180859375,-1.1095703125,-5.89940234375,-3.9713828125,-2.1355078125,-7.51348046875
-5.503953125,-5.66240625,-3.95949609375,1.4478203125,-19.1983046875,-10.6409453125,-12.93271875,-4.50528125,-12.78662890625,-15.39399609375,-9.2058359375,-6.5603203125,-1.7000078125,-16.78114453125,-14.59283203125,-7.76156640625,-7.5828828125,-11.43698046875,-13.40614453125,-8.61230078125,-3.649671875,-6.6975625,-14.6193828125,-11.093046875,-6.16780859375,1.3204296875,-5.61040234375,-2.7333828125,-1.7065078125,-6.02848046875
-6.109953125,-7.71140625,-8.02449609375,-1.9491796875,-20.5773046875,-10.7829453125,-13.04071875,-6.08228125,-13.39562890625,-16.39299609375,-9.4238359375,-6.9913203125,-2.5850078125,-17.23214453125,-14.56083203125,-6.95256640625,-7.8728828125,-10.82198046875,-12.39614453125,-8.06630078125,-2.379671875,-6.0745625,-13.3903828125,-10.134046875,-4.49980859375,2.6834296875,-4.75240234375,-1.6993828125,-1.2135078125,-4.69848046875
-5.816953125,-8.40240625,-9.69249609375,-4.5791796875,-19.6933046875,-9.7199453125,-11.73771875,-6.45128125,-12.72862890625,-15.71899609375,-8.4438359375,-6.7183203125,-2.0550078125,-15.91614453125,-13.18583203125,-6.09956640625,-7.7968828125,-9.39198046875,-9.91714453125,-7.18030078125,-1.787671875,-5.3045625,-11.4523828125,-8.313046875,-3.24980859375,2.3084296875,-3.99640234375,-1.4483828125,-1.2055078125,-4.24148046875
-4.832953125,-7.96040625,-8.75449609375,-5.7941796875,-17.4833046875,-8.1209453125,-9.79571875,-5.74528125,-11.14762890625,-13.94399609375,-6.8698359375,-6.1243203125,-0.6000078125,-13.48914453125,-11.26783203125,-5.80656640625,-7.7638828125,-7.72598046875,-7.08614453125,-6.60830078125,-2.496671875,-4.7225625,-9.6983828125,-6.649046875,-3.14080859375,-0.0775703124999998,-3.92540234375,-2.2623828125,-2.0415078125,-5.14948046875
-3.326953125,-6.88140625,-5.82049609375,-5.1081796875,-14.9183046875,-6.5359453125,-7.86071875,-4.24028125,-9.03162890625,-11.68799609375,-5.2018359375,-5.4983203125,1.1089921875,-10.68914453125,-9.45583203125,-6.27356640625,-8.0248828125,-6.25798046875,-4.81914453125,-6.68930078125,-4.582671875,-4.5025625,-8.6673828125,-5.813046875,-4.36680859375,-4.1315703125,-4.73840234375,-3.9363828125,-3.6775078125,-7.44048046875
-1.456953125,-5.66840625,-2.09449609375,-2.4921796875,-12.5773046875,-5.2159453125,-6.21471875,-2.32128125,-6.71362890625,-9.43699609375,-3.6808359375,-4.9583203125,2.5599921875,-8.10314453125,-8.05583203125,-7.24756640625,-8.5478828125,-5.13398046875,-3.55514453125,-7.32430078125,-7.489671875,-4.5885625,-8.3563828125,-5.889046875,-6.50880859375,-8.9055703125,-6.14940234375,-5.8103828125,-5.6525078125,-10.61348046875
0.512046875,-4.57540625,1.18250390625,1.4108203125,-10.6333046875,-4.1619453125,-4.83171875,-0.41828125,-4.47962890625,-7.51599609375,-2.3428359375,-4.4813203125,3.6219921875,-6.06614453125,-7.04283203125,-8.22256640625,-9.0808828125,-4.25698046875,-3.24114453125,-8.09430078125,-10.271671875,-4.7255625,-8.3333828125,-6.459046875,-8.74080859375,-13.1465703125,-7.52840234375,-7.0313828125,-7.2625078125,-13.83348046875
2.142046875,-3.53440625,3.28350390625,5.3808203125,-9.0733046875,-3.3139453125,-3.63671875,1.08571875,-2.59562890625,-6.15399609375,-1.2048359375,-4.0273203125,4.4829921875,-4.71814453125,-6.27983203125,-8.76856640625,-9.3398828125,-3.47598046875,-3.55114453125,-8.55030078125,-12.034671875,-4.6145625,-8.0813828125,-6.955046875,-10.24680859375,-15.7495703125,-8.23740234375,-6.9293828125,-7.8715078125,-16.25548046875
2.895046875,-2.37540625,4.14950390625,8.0618203125,-7.8873046875,-2.7469453125,-2.73371875,1.90571875,-1.34862890625,-5.57199609375,-0.4158359375,-3.6743203125,5.3479921875,-4.15114453125,-5.75683203125,-8.81256640625,-9.1958828125,-2.81098046875,-4.19314453125,-8.51430078125,-12.348671875,-4.1155625,-7.3733828125,-7.064046875,-10.63980859375,-16.1815703125,-7.97140234375,-5.3513828125,-7.2315078125,-17.36448046875
2.336046875,-1.16640625,4.07550390625,8.5048203125,-7.1533046875,-2.7469453125,-2.46371875,1.85971875,-1.05662890625,-5.98999609375,-0.2728359375,-3.6753203125,6.1189921875,-4.49614453125,-5.70883203125,-8.69956640625,-8.7678828125,-2.52998046875,-5.10914453125,-8.22030078125,-11.412671875,-3.3885625,-6.4583828125,-6.939046875,-10.13380859375,-14.6595703125,-6.93440234375,-2.7753828125,-5.6225078125,-17.16848046875
0.388046875,-0.37840625,3.28150390625,6.5488203125,-7.0603046875,-3.6809453125,-3.24671875,0.86071875,-2.00562890625,-7.53099609375,-1.0948359375,-4.3393203125,6.3459921875,-5.88614453125,-6.48883203125,-8.98056640625,-8.3488828125,-3.03298046875,-6.46214453125,-8.19730078125,-9.906671875,-2.8465625,-5.9343828125,-7.093046875,-9.38880859375,-11.9965703125,-5.75040234375,-0.130382812499999,-3.7595078125,-16.16748046875
-2.569953125,-0.69140625,1.75450390625,2.8338203125,-7.8913046875,-5.7469453125,-5.30071875,-1.04028125,-4.31162890625,-10.10199609375,-3.0228359375,-5.8313203125,5.4809921875,-8.31714453125,-8.31983203125,-10.07656640625,-8.2538828125,-4.61398046875,-8.46114453125,-8.96830078125,-8.629671875,-2.9595625,-6.4283828125,-8.064046875,-9.13880859375,-9.2275703125,-5.17640234375,1.5656171875,-2.5015078125,-15.13148046875
-5.844953125,-2.56440625,-0.58749609375,-1.5331796875,-9.8763046875,-8.7669453125,-8.41871875,-3.60728125,-7.80362890625,-13.34299609375,-5.8698359375,-8.0373203125,3.2329921875,-11.55414453125,-11.10183203125,-12.03756640625,-8.6648828125,-7.26998046875,-11.14514453125,-10.75630078125,-8.118671875,-4.0235625,-8.2633828125,-10.089046875,-9.84580859375,-7.2335703125,-5.78440234375,1.5846171875,-2.5405078125,-14.79648046875
-8.727953125,-5.85340625,-3.60649609375,-5.4701796875,-12.9863046875,-12.2109453125,-11.98371875,-6.40728125,-11.97362890625,-16.70199609375,-9.1268359375,-10.5733203125,-0.1850078125,-15.12314453125,-14.39083203125,-14.49956640625,-9.5548828125,-10.64798046875,-14.26414453125,-13.33130078125,-8.429671875,-6.0185625,-11.2743828125,-12.922046875,-11.50980859375,-6.4995703125,-7.72840234375,-0.2883828125,-4.1555078125,-15.58548046875
-10.726953125,-9.73040625,-6.78149609375,-8.2841796875,-16.8153046875,-15.3969453125,-15.24071875,-8.88828125,-16.04762890625,-19.58399609375,-12.1238359375,-12.8853203125,-4.0440078125,-18.39814453125,-17.51283203125,-16.81756640625,-10.6788828125,-14.11998046875,-17.28914453125,-16.06430078125,-9.153671875,-8.6015625,-14.8143828125,-15.880046875,-13.66180859375,-7.0345703125,-10.66040234375,-3.6843828125,-7.0975078125,-17.43348046875
-11.624953125,-12.98640625,-9.30949609375,-9.7441796875,-20.6373046875,-17.7259453125,-17.57971875,-10.48728125,-19.16262890625,-21.49099609375,-14.2378359375,-14.3963203125,-7.3340078125,-20.72914453125,-19.73983203125,-18.27856640625,-11.6268828125,-16.93998046875,-19.52714453125,-18.13530078125,-9.625671875,-11.2065625,-17.9243828125,-18.068046875,-15.53980859375,-8.4375703125,-13.80540234375,-7.7543828125,-10.6235078125,-19.79548046875
-11.402953125,-14.57440625,-10.43749609375,-9.9291796875,-23.5893046875,-18.8249453125,-18.66671875,-10.77228125,-20.60962890625,-22.12199609375,-15.0478359375,-14.6593203125,-9.1470078125,-21.60014453125,-20.50483203125,-18.34256640625,-11.9568828125,-18.45398046875,-20.31114453125,-18.83030078125,-9.226671875,-13.2305625,-19.6383828125,-18.704046875,-16.37380859375,-10.0695703125,-16.21140234375,-11.4173828125,-13.7165078125,-21.84048046875
-10.149953125,-14.09740625,-9.86049609375,-9.0461796875,-24.9063046875,-18.5719453125,-18.41471875,-9.58128125,-20.06062890625,-21.41799609375,-14.4218359375,-13.5163203125,-9.0510078125,-20.79014453125,-19.58883203125,-16.83856640625,-11.3668828125,-18.30598046875,-19.22514453125,-17.80730078125,-7.658671875,-14.2285625,-19.3053828125,-17.427046875,-15.70180859375,-11.3015703125,-17.06940234375,-13.6903828125,-15.4365078125,-22.77948046875
-8.042953125,-11.95140625,-7.89849609375,-7.3581796875,-24.1723046875,-17.0909453125,-16.94971875,-7.10128125,-17.67562890625,-19.55899609375,-12.5328359375,-11.1683203125,-7.2460078125,-18.44914453125,-17.18383203125,-14.03756640625,-9.8418828125,-16.54898046875,-16.26414453125,-15.22130078125,-5.071671875,-14.0485625,-16.8223828125,-14.429046875,-13.54880859375,-11.7125703125,-16.00640234375,-14.0033828125,-15.2585078125,-22.18448046875
-5.372953125,-9.06040625,-5.30549609375,-5.1851796875,-21.5033046875,-14.7019453125,-14.58571875,-3.83128125,-14.05762890625,-16.89799609375,-9.8238359375,-8.1133203125,-4.4380078125,-15.05114453125,-13.81483203125,-10.54656640625,-7.6708828125,-13.62598046875,-11.88014453125,-11.64130078125,-1.981671875,-12.8425625,-12.6743828125,-10.367046875,-10.39380859375,-11.1805703125,-13.20640234375,-12.3703828125,-13.2395078125,-20.14948046875
-2.585953125,-6.39240625,-2.86649609375,-2.9081796875,-17.5303046875,-11.8599453125,-11.75971875,-0.42428125,-10.08962890625,-13.88799609375,-6.8878359375,-4.9943203125,-1.5410078125,-11.28514453125,-10.16683203125,-7.10056640625,-5.3418828125,-10.24898046875,-6.88214453125,-7.83430078125,0.943328125,-10.9915625,-7.7883828125,-6.123046875,-6.95780859375,-9.8565703125,-9.34640234375,-9.3673828125,-9.9795078125,-17.24548046875
-0.254953125,-4.59340625,-1.06349609375,-0.9521796875,-13.1963046875,-9.0809453125,-8.92371875,2.48871875,-6.73662890625,-11.02499609375,-4.2948359375,-2.4203203125,0.6059921875,-7.91614453125,-6.91583203125,-4.33356640625,-3.3578828125,-7.23398046875,-2.26214453125,-4.52230078125,3.146328125,-8.9905625,-3.2703828125,-2.531046875,-3.95580859375,-8.0685703125,-5.37440234375,-5.9243828125,-6.4145078125,-14.28448046875
1.071046875,-3.86640625,-0.0174960937499997,0.2548203125,-9.5213046875,-6.8469453125,-6.45071875,4.45571875,-4.82162890625,-8.80199609375,-2.4538359375,-0.8003203125,1.4019921875,-5.64014453125,-4.59983203125,-2.60856640625,-2.0528828125,-5.31998046875,1.03785546875,-2.21030078125,4.364328125,-7.3265625,-0.1103828125,-0.178046875000001,-1.88980859375,-6.1835703125,-2.23240234375,-3.0203828125,-3.5075078125,-12.01448046875
1.089046875,-4.06940625,0.35650390625,0.3238203125,-7.3963046875,-5.4889453125,-4.58971875,5.30571875,-4.76262890625,-7.59799609375,-1.5408359375,-0.2123203125,0.5659921875,-4.90514453125,-3.51083203125,-1.92356640625,-1.4808828125,-4.98098046875,2.36685546875,-1.11130078125,4.687328125,-6.3665625,1.0816171875,0.688953124999999,-0.944808593750001,-4.4725703125,-0.594402343750001,-1.3873828125,-1.9585078125,-10.88448046875
-0.0729531250000001,-4.87540625,0.16350390625,-0.9941796875,-7.3473046875,-5.0659453125,-3.42671875,5.18971875,-6.38462890625,-7.54399609375,-1.4748359375,-0.3863203125,-1.8080078125,-5.75514453125,-3.63783203125,-1.96056640625,-1.4188828125,-6.28098046875,1.54985546875,-1.16030078125,4.471328125,-6.2665625,0.2066171875,0.143953124999999,-1.01280859375,-3.0615703125,-0.733402343750001,-1.3443828125,-2.0435078125,-10.96448046875
-1.889953125,-5.88940625,-0.51649609375,-3.6431796875,-9.2793046875,-5.3579453125,-2.87971875,4.50471875,-8.95162890625,-8.44999609375,-1.9688359375,-0.8503203125,-5.2210078125,-7.80914453125,-4.70883203125,-2.26956640625,-1.5098828125,-8.84898046875,-1.06714453125,-2.10930078125,4.134328125,-6.9405625,-2.3463828125,-1.527046875,-1.82580859375,-1.9915703125,-2.52140234375,-2.7773828125,-3.6295078125,-12.02148046875
-3.701953125,-6.69840625,-1.50449609375,-7.1331796875,-12.4073046875,-6.0109453125,-2.78371875,3.70271875,-11.47362890625,-9.87899609375,-2.6698359375,-1.1943203125,-8.8110078125,-10.39714453125,-6.31983203125,-2.51156640625,-1.4828828125,-12.00598046875,-4.76114453125,-3.65630078125,3.934328125,-8.1075625,-5.8763828125,-3.964046875,-3.11080859375,-1.3305703125,-5.54240234375,-5.2553828125,-6.2895078125,-13.67248046875
-5.038953125,-6.93740625,-2.40949609375,-10.5911796875,-15.5653046875,-6.7799453125,-3.09071875,3.06071875,-13.15662890625,-11.36699609375,-3.3528359375,-1.2893203125,-11.5320078125,-12.80814453125,-8.09583203125,-2.61956640625,-1.3138828125,-14.98698046875,-8.70114453125,-5.56230078125,3.837328125,-9.3995625,-9.6193828125,-6.839046875,-4.68280859375,-1.2245703125,-9.22740234375,-8.1883828125,-9.4415078125,-15.53948046875
-5.812953125,-6.44140625,-2.73949609375,-13.0261796875,-17.7203046875,-7.6809453125,-3.99571875,2.54371875,-13.73462890625,-12.64599609375,-4.0638359375,-1.3623203125,-12.4950078125,-14.55714453125,-9.83183203125,-2.83056640625,-1.2468828125,-17.18998046875,-12.23014453125,-7.71330078125,3.524328125,-10.4995625,-12.9803828125,-9.918046875,-6.46480859375,-1.8575703125,-12.99940234375,-11.0043828125,-12.4875078125,-17.33348046875
-6.277953125,-5.44540625,-2.25149609375,-13.7301796875,-18.3853046875,-8.9419453125,-5.84071875,1.82771875,-13.50062890625,-13.73999609375,-5.0908359375,-1.9023203125,-11.3620078125,-15.55614453125,-11.55283203125,-3.57456640625,-1.6798828125,-18.36598046875,-15.04514453125,-10.12030078125,2.533328125,-11.2525625,-15.6773828125,-13.080046875,-8.47380859375,-3.3735703125,-16.39340234375,-13.2903828125,-14.9465078125,-18.89748046875
-6.814953125,-4.61240625,-1.26949609375,-12.6171796875,-17.7323046875,-10.8019453125,-8.85371875,0.48971875,-13.04262890625,-14.89999609375,-6.7828359375,-3.4123203125,-8.5680078125,-16.10114453125,-13.44883203125,-5.27656640625,-2.9718828125,-18.66598046875,-17.19814453125,-12.84730078125,0.473328125,-11.6905625,-17.7303828125,-16.277046875,-10.76980859375,-5.7825703125,-19.12540234375,-14.8563828125,-16.5525078125,-20.17248046875
-7.682953125,-4.74640625,-0.59649609375,-10.3101796875,-16.4733046875,-13.2929453125,-12.90671875,-1.73628125,-12.86362890625,-16.39499609375,-9.3178359375,-6.1103203125,-5.1890078125,-16.66814453125,-15.68083203125,-8.11056640625,-5.2498828125,-18.48498046875,-18.93114453125,-15.86530078125,-2.753671875,-11.9395625,-19.2963828125,-19.401046875,-13.34880859375,-8.8945703125,-21.07240234375,-15.7033828125,-17.2405078125,-21.11648046875
-8.865953125,-6.30540625,-1.03549609375,-7.8581796875,-15.5493046875,-16.1199453125,-17.44571875,-4.73028125,-13.11162890625,-18.28099609375,-12.5308359375,-9.7123203125,-2.4800078125,-17.60214453125,-18.16983203125,-11.82656640625,-8.2848828125,-18.20598046875,-20.42114453125,-18.93230078125,-6.810671875,-12.0775625,-20.4623828125,-22.175046875,-16.01680859375,-12.2975703125,-22.20340234375,-15.9443828125,-17.0655078125,-21.64048046875
-10.064953125,-9.05140625,-2.85049609375,-6.1741796875,-15.6673046875,-18.7019453125,-21.58071875,-7.93228125,-13.57262890625,-20.26999609375,-15.8798359375,-13.4733203125,-1.3240078125,-18.89114453125,-20.52183203125,-15.77156640625,-11.5178828125,-17.99298046875,-21.61214453125,-21.59130078125,-10.975671875,-12.0705625,-21.1273828125,-24.148046875,-18.38380859375,-15.4465703125,-22.53040234375,-15.7303828125,-16.1395078125,-21.60648046875
-10.813953125,-12.09640625,-5.60649609375,-5.5281796875,-16.8753046875,-20.3569453125,-24.34171875,-10.49828125,-13.86762890625,-21.79299609375,-18.5798359375,-16.4693203125,-1.8690078125,-20.16714453125,-22.16583203125,-19.11356640625,-14.2228828125,-17.74998046875,-22.21014453125,-23.33030078125,-14.382671875,-11.8035625,-21.0713828125,-24.856046875,-19.99180859375,-17.8375703125,-22.10540234375,-15.2273828125,-14.6355078125,-20.89348046875
-10.639953125,-14.30640625,-8.45849609375,-5.4541796875,-18.4973046875,-20.5529453125,-25.00871875,-11.63028125,-13.69162890625,-22.21699609375,-19.8788359375,-17.9573203125,-3.5130078125,-20.87914453125,-22.59483203125,-21.14756640625,-15.7438828125,-17.23498046875,-21.85414453125,-23.78930078125,-16.355671875,-11.1825625,-20.1003828125,-24.026046875,-20.50880859375,-19.1615703125,-21.02440234375,-14.5933828125,-12.7955078125,-19.48948046875
-9.244953125,-14.80940625,-10.61549609375,-5.1351796875,-19.5253046875,-19.1129453125,-23.38871875,-10.90228125,-12.92962890625,-21.12399609375,-19.3628359375,-17.6153203125,-5.2180078125,-20.54514453125,-21.57783203125,-21.50856640625,-15.7158828125,-16.22498046875,-20.34414453125,-22.90330078125,-16.648671875,-10.2015625,-18.1933828125,-21.724046875,-19.86180859375,-19.3895703125,-19.43840234375,-13.9533828125,-10.9065078125,-17.52948046875
-6.658953125,-13.32740625,-11.66349609375,-4.0021796875,-19.1873046875,-16.2869453125,-19.86771875,-8.44428125,-11.64062890625,-18.50799609375,-17.1178359375,-15.6103203125,-6.0120078125,-18.95014453125,-19.25283203125,-20.25156640625,-14.1768828125,-14.65298046875,-17.78314453125,-20.91430078125,-15.506671875,-8.9545625,-15.5583828125,-18.376046875,-18.25980859375,-18.7495703125,-17.53540234375,-13.3783828125,-9.2425078125,-15.29048046875
-3.342953125,-10.21540625,-11.57249609375,-2.1421796875,-17.3203046875,-12.6709453125,-15.23471875,-4.89228125,-9.96962890625,-14.80799609375,-13.6838359375,-12.5003203125,-5.4480078125,-16.25314453125,-16.08383203125,-17.77756640625,-11.5498828125,-12.67098046875,-14.58514453125,-18.25730078125,-13.520671875,-7.6275625,-12.5863828125,-14.652046875,-16.11780859375,-17.6245703125,-15.53940234375,-12.8773828125,-8.0195078125,-13.12748046875
-0.106953125,-6.26940625,-10.47249609375,-0.2801796875,-14.4463046875,-9.0179453125,-10.42171875,-1.14028125,-8.10562890625,-10.75799609375,-9.8428359375,-9.0243203125,-3.8120078125,-12.94414453125,-12.69183203125,-14.65056640625,-8.4898828125,-10.60798046875,-11.33514453125,-15.39730078125,-11.343671875,-6.4415625,-9.7283828125,-11.255046875,-13.88480859375,-16.3885703125,-13.65940234375,-12.3813828125,-7.3295078125,-11.35548046875
2.158046875,-2.44940625,-8.45549609375,0.6128203125,-11.5773046875,-6.0369453125,-6.29371875,1.98271875,-6.26562890625,-7.13899609375,-6.3708359375,-5.8483203125,-1.9580078125,-9.68114453125,-9.65383203125,-11.39656640625,-5.6568828125,-8.83598046875,-8.57514453125,-12.67630078125,-9.413671875,-5.5805625,-7.3383828125,-8.679046875,-11.85080859375,-15.2065703125,-12.01440234375,-11.7233828125,-7.0645078125,-10.09748046875
2.826046875,0.36059375,-5.57849609375,-0.1671796875,-9.7933046875,-4.2269453125,-3.49071875,3.95771875,-4.70562890625,-4.53199609375,-3.8458359375,-3.4023203125,-0.8740078125,-7.09114453125,-7.35983203125,-8.37456640625,-3.5278828125,-7.61798046875,-6.65114453125,-10.25730078125,-7.818671875,-5.1085625,-5.5763828125,-7.071046875,-10.04580859375,-13.9375703125,-10.57040234375,-10.6543828125,-6.8965078125,-9.19548046875
1.753046875,1.53059375,-2.05849609375,-2.6951796875,-9.7373046875,-3.8099453125,-2.31271875,4.64571875,-3.70362890625,-3.20699609375,-2.5568359375,-1.8713203125,-1.1750078125,-5.61714453125,-6.00583203125,-5.79556640625,-2.3098828125,-7.02898046875,-5.66114453125,-8.19830078125,-6.376671875,-4.9565625,-4.4193828125,-6.268046875,-8.30280859375,-12.2215703125,-9.16540234375,-8.9453828125,-6.3785078125,-8.26548046875
-0.719953125,0.83759375,1.56250390625,-6.3841796875,-11.2903046875,-4.7449453125,-2.70171875,4.18271875,-3.52562890625,-3.13899609375,-2.5098359375,-1.2863203125,-2.7970078125,-5.45014453125,-5.64783203125,-3.81756640625,-1.9578828125,-6.96498046875,-5.52414453125,-6.55130078125,-4.846671875,-4.9485625,-3.7353828125,-5.949046875,-6.44080859375,-9.6995703125,-7.59940234375,-6.5123828125,-5.1425078125,-6.88648046875
-3.939953125,-1.45040625,4.46950390625,-10.2521796875,-13.6813046875,-6.7799453125,-4.34771875,2.81271875,-4.34962890625,-4.09999609375,-3.5158359375,-1.6083203125,-5.0130078125,-6.49314453125,-6.21483203125,-2.60156640625,-2.2698828125,-7.21498046875,-6.04814453125,-5.42330078125,-3.135671875,-4.8815625,-3.3603828125,-5.805046875,-4.41180859375,-6.2395703125,-5.74340234375,-3.4913828125,-3.0635078125,-4.82648046875
-7.165953125,-4.66140625,5.81350390625,-13.3261796875,-15.9703046875,-9.4939453125,-6.84871875,0.77071875,-6.16062890625,-5.75399609375,-5.2888359375,-2.7573203125,-6.7860078125,-8.37314453125,-7.49883203125,-2.30156640625,-2.9968828125,-7.55198046875,-7.00114453125,-4.94330078125,-1.407671875,-4.6095625,-3.1603828125,-5.643046875,-2.37180859375,-2.0795703125,-3.60340234375,-0.2443828125,-0.3485078125,-2.19148046875
-9.762953125,-8.00340625,4.96050390625,-15.0031796875,-17.5293046875,-12.3249453125,-9.79171875,-1.74428125,-8.66562890625,-7.71399609375,-7.4928359375,-4.6173203125,-7.3020078125,-10.53614453125,-9.16983203125,-3.01456640625,-3.9558828125,-7.85898046875,-8.15714453125,-5.20430078125,-0.0476718749999998,-4.1425625,-3.0833828125,-5.421046875,-0.650808593750001,2.1534296875,-1.35740234375,2.7076171875,2.4874921875,0.565519531249999
-11.315953125,-10.87440625,1.67250390625,-15.2151796875,-18.2203046875,-14.6389453125,-12.72871875,-4.52128125,-11.30462890625,-9.56799609375,-9.7328359375,-7.0133203125,-6.3700078125,-12.40514453125,-10.83383203125,-4.69256640625,-5.0768828125,-8.16698046875,-9.33414453125,-6.18030078125,0.499328125,-3.6805625,-3.1663828125,-5.209046875,0.358191406249999,5.6004296875,0.684597656249999,4.8126171875,4.7554921875,2.79851953125
-11.645953125,-12.98540625,-3.74149609375,-14.3191796875,-18.2073046875,-15.8259453125,-15.12771875,-7.25728125,-13.36262890625,-10.87799609375,-11.5408359375,-9.6333203125,-4.4400078125,-13.50514453125,-12.07283203125,-7.03356640625,-6.3318828125,-8.58298046875,-10.36514453125,-7.62830078125,-0.0226718749999995,-3.5125625,-3.4563828125,-5.067046875,0.421191406249999,7.4794296875,2.21059765625,5.6876171875,5.8394921875,3.94451953125
-10.778953125,-14.24640625,-10.31549609375,-12.8091796875,-17.6173046875,-15.4379453125,-16.41471875,-9.51028125,-14.18862890625,-11.19399609375,-12.4068359375,-11.9633203125,-2.2710078125,-13.52514453125,-12.47983203125,-9.41556640625,-7.6008828125,-9.10298046875,-11.04114453125,-9.03230078125,-1.467671875,-3.8045625,-3.8893828125,-4.935046875,-0.341808593750001,7.4444296875,3.06459765625,5.2986171875,5.4914921875,3.79451953125
-8.948953125,-14.58240625,-16.49549609375,-11.0641796875,-16.2993046875,-13.3329453125,-16.09871875,-10.78028125,-13.42362890625,-10.15799609375,-11.8958359375,-13.3673203125,-0.5270078125,-12.35314453125,-11.72683203125,-11.01056640625,-8.6018828125,-9.51698046875,-11.10114453125,-9.69830078125,-3.262671875,-4.4645625,-4.2423828125,-4.614046875,-1.42480859375,5.7594296875,3.34259765625,3.9856171875,3.9504921875,2.57951953125
-6.607953125,-13.88440625,-20.52849609375,-9.2781796875,-13.9053046875,-9.7859453125,-13.96871875,-10.69128125,-11.15262890625,-7.67099609375,-9.8268359375,-13.3153203125,0.4129921875,-10.11314453125,-9.70783203125,-11.07256640625,-8.9658828125,-9.49098046875,-10.31714453125,-9.02230078125,-4.628671875,-5.1765625,-4.2183828125,-3.896046875,-2.15880859375,3.1624296875,3.32759765625,2.2816171875,1.8054921875,0.837519531249999
-4.352953125,-12.09940625,-21.10149609375,-7.5681796875,-10.2713046875,-5.4749453125,-10.26171875,-9.19028125,-7.89162890625,-4.03999609375,-6.4188359375,-11.6163203125,0.4029921875,-7.17514453125,-6.64283203125,-9.26456640625,-8.4178828125,-8.78998046875,-8.64914453125,-6.78730078125,-4.912671875,-5.6035625,-3.6073828125,-2.718046875,-2.01980859375,0.5294296875,3.32859765625,0.6406171875,-0.3015078125,-0.865480468750002
-2.724953125,-9.35340625,-17.93549609375,-6.1141796875,-5.8163046875,-1.2909453125,-5.68171875,-6.60928125,-4.41662890625,0.0380039062500002,-2.2898359375,-8.5073203125,-0.5870078125,-4.08014453125,-3.04183203125,-5.80556640625,-6.9298828125,-7.44798046875,-6.31114453125,-3.30230078125,-3.855671875,-5.5815625,-2.4183828125,-1.235046875,-0.870808593750001,-1.4505703125,3.54259765625,-0.746382812499999,-1.9395078125,-2.15748046875
-1.997953125,-6.00740625,-11.97149609375,-5.2011796875,-1.5413046875,1.9680546875,-1.18871875,-3.55028125,-1.51062890625,3.68700390625,1.7231640625,-4.5793203125,-2.4830078125,-1.40214453125,0.45416796875,-1.39456640625,-4.7538828125,-5.78298046875,-3.72914453125,0.69969921875,-1.662671875,-5.1865625,-0.8783828125,0.251953125,1.00519140625,-2.4515703125,3.98959765625,-1.9423828125,-2.9725078125,-2.92448046875
-2.110953125,-2.59640625,-4.98349609375,-5.1571796875,1.4226953125,3.8630546875,2.35028125,-0.67228125,0.24737109375,6.14800390625,4.8591640625,-0.5983203125,-4.9940078125,0.41385546875,3.25816796875,3.03243359375,-2.3198828125,-4.24298046875,-1.37814453125,4.33869921875,1.120328125,-4.6525625,0.6556171875,1.437953125,3.05319140625,-2.5035703125,4.55359765625,-3.0933828125,-3.4895078125,-3.23848046875
-2.766953125,0.31259375,1.18650390625,-6.2231796875,2.3896953125,4.3830546875,4.41928125,1.51671875,0.59937109375,7.03300390625,6.6661640625,2.7026796875,-7.5020078125,1.17585546875,4.99516796875,6.59743359375,-0.0688828125000001,-3.19298046875,0.383855468749999,6.90869921875,3.825328125,-4.2125625,1.8636171875,2.162953125,4.69819140625,-1.8555703125,5.08959765625,-4.2243828125,-3.6415078125,-3.21648046875
-3.593953125,2.28659375,5.33150390625,-8.4201796875,1.3816953125,3.8320546875,4.91328125,2.77071875,-0.35362890625,6.40400390625,7.0601640625,4.8236796875,-9.1640078125,0.991855468750001,5.58016796875,8.73143359375,1.7031171875,-2.75998046875,1.42585546875,8.09869921875,5.896328125,-3.9605625,2.5896171875,2.477953125,5.59719140625,-0.802570312499999,5.53059765625,-5.1313828125,-3.5135078125,-2.91848046875
-4.297953125,3.11459375,7.11250390625,-11.4541796875,-0.984304687499998,2.6430546875,4.05828125,3.10371875,-2.18762890625,4.69200390625,6.2531640625,5.5906796875,-9.2890078125,0.21285546875,5.19316796875,9.27043359375,2.9011171875,-2.82398046875,1.82385546875,8.01369921875,7.016328125,-3.8125625,2.8866171875,2.576953125,5.73319140625,0.422429687500001,5.91359765625,-5.4463828125,-3.0865078125,-2.34048046875
-4.727953125,2.79659375,6.81050390625,-14.6981796875,-3.7813046875,1.2080546875,2.29628125,2.70471875,-4.26862890625,2.48700390625,4.6141640625,5.1066796875,-7.7830078125,-0.73614453125,4.15216796875,8.36943359375,3.5711171875,-3.13998046875,1.73085546875,7.00369921875,7.111328125,-3.5825625,2.9276171875,2.645953125,5.30919140625,1.6374296875,6.31059765625,-4.8463828125,-2.3165078125,-1.48148046875
-4.877953125,1.48059375,4.90650390625,-17.3211796875,-6.0933046875,-0.2189453125,0.139281250000001,1.80371875,-5.95662890625,0.32600390625,2.5531640625,3.6146796875,-5.2740078125,-1.53314453125,2.75716796875,6.34143359375,3.7841171875,-3.48598046875,1.24185546875,5.42469921875,6.266328125,-3.0835625,2.8826171875,2.714953125,4.56219140625,2.6664296875,6.71759765625,-3.2483828125,-1.2195078125,-0.416480468750002
-4.816953125,-0.56140625,1.85750390625,-18.5431796875,-7.3143046875,-1.5369453125,-2.00371875,0.56871875,-6.81262890625,-1.44299609375,0.4251640625,1.4126796875,-2.7530078125,-2.04514453125,1.21816796875,3.53243359375,3.5651171875,-3.72498046875,0.36085546875,3.51369921875,4.659328125,-2.2035625,2.8366171875,2.651953125,3.64419140625,3.3344296875,7.03859765625,-0.859382812499999,0.1234921875,0.713519531249998
-4.633953125,-2.94640625,-1.87149609375,-17.9411796875,-7.3383046875,-2.7519453125,-3.94271875,-0.90428125,-6.72562890625,-2.68399609375,-1.5298359375,-1.1803203125,-1.0130078125,-2.30714453125,-0.34083203125,0.294433593750001,2.9051171875,-3.80898046875,-0.92114453125,1.39869921875,2.519328125,-0.938562500000001,2.7796171875,2.266953125,2.62019140625,3.5324296875,7.14159765625,1.9236171875,1.6234921875,1.76051953125
-4.446953125,-5.24740625,-5.70649609375,-15.6681796875,-6.5253046875,-3.9059453125,-5.66971875,-2.56128125,-5.91362890625,-3.43599609375,-3.2108359375,-3.8373203125,-0.3200078125,-2.44514453125,-1.85783203125,-3.02156640625,1.8041171875,-3.77698046875,-2.53214453125,-0.82730078125,0.106328125,0.5884375,2.6266171875,1.429953125,1.51619140625,3.2674296875,6.94859765625,4.6696171875,3.2054921875,2.61751953125
-4.448953125,-7.13140625,-9.00049609375,-12.4821796875,-5.4843046875,-5.0519453125,-7.22971875,-4.35028125,-4.83262890625,-3.85899609375,-4.6418359375,-6.2863203125,-0.4980078125,-2.62614453125,-3.32483203125,-6.08856640625,0.3121171875,-3.75098046875,-4.28114453125,-3.03430078125,-2.309671875,2.1154375,2.2696171875,0.145953125,0.356191406249999,2.6614296875,6.47259765625,7.0286171875,4.7834921875,3.23051953125
-4.864953125,-8.44940625,-11.22849609375,-9.5011796875,-4.8253046875,-6.2559453125,-8.64171875,-6.18128125,-4.01162890625,-4.16799609375,-5.9068359375,-8.3343203125,-1.2110078125,-2.98414453125,-4.73583203125,-8.61456640625,-1.4318828125,-3.89498046875,-5.87014453125,-5.03530078125,-4.449671875,3.3204375,1.6696171875,-1.416046875,-0.789808593750001,1.9354296875,5.82959765625,8.8056171875,6.2364921875,3.60251953125
-5.795953125,-9.26240625,-12.21049609375,-7.7771796875,-4.9813046875,-7.5459453125,-9.86871875,-7.89928125,-3.83562890625,-4.52499609375,-7.0568359375,-9.8423203125,-2.1850078125,-3.52514453125,-5.99883203125,-10.31756640625,-3.1788828125,-4.30898046875,-6.94314453125,-6.56430078125,-6.006671875,3.9544375,0.9376171875,-2.926046875,-1.75480859375,1.3894296875,5.21159765625,9.9756171875,7.4404921875,3.80851953125
-7.065953125,-9.77640625,-12.18749609375,-7.8031796875,-6.0513046875,-8.8119453125,-10.79871875,-9.26128125,-4.35262890625,-4.93199609375,-7.9988359375,-10.6853203125,-3.2850078125,-4.08314453125,-6.90583203125,-10.93256640625,-4.5748828125,-4.93798046875,-7.15114453125,-7.31530078125,-6.669671875,3.9584375,0.3386171875,-3.973046875,-2.28080859375,1.3424296875,4.81359765625,10.6226171875,8.2904921875,3.97651953125
-8.242953125,-10.22740625,-11.67249609375,-9.2491796875,-7.7083046875,-9.7579453125,-11.21471875,-9.98528125,-5.24462890625,-5.22199609375,-8.4708359375,-10.7493203125,-4.5050078125,-4.38514453125,-7.19483203125,-10.28056640625,-5.2568828125,-5.58298046875,-6.27514453125,-7.04230078125,-6.210671875,3.4694375,0.1826171875,-4.214046875,-2.11880859375,2.0124296875,4.74559765625,10.8276171875,8.6994921875,4.22551953125
-8.855953125,-10.71940625,-11.11749609375,-11.1041796875,-9.3123046875,-10.0209453125,-10.87771875,-9.87128125,-5.99662890625,-5.14599609375,-8.1628359375,-9.9833203125,-5.9050078125,-4.18914453125,-6.69083203125,-8.35256640625,-4.9938828125,-5.98398046875,-4.33614453125,-5.67230078125,-4.596671875,2.7374375,0.676617187499999,-3.510046875,-1.15780859375,3.3994296875,4.97459765625,10.5936171875,8.6054921875,4.59651953125
-8.676953125,-11.11040625,-10.61749609375,-12.2201796875,-10.2493046875,-9.3909453125,-9.70571875,-8.90628125,-6.16962890625,-4.53799609375,-6.9188359375,-8.4423203125,-7.5060078125,-3.39814453125,-5.39283203125,-5.35956640625,-3.8068828125,-5.91798046875,-1.61814453125,-3.36230078125,-2.049671875,2.0354375,1.8616171875,-1.965046875,0.528191406249999,5.2724296875,5.38359765625,9.8956171875,8.0444921875,5.03751953125
-7.839953125,-11.05540625,-9.87249609375,-11.9311796875,-10.2373046875,-7.9639453125,-7.89371875,-7.29728125,-5.60762890625,-3.39599609375,-4.8668359375,-6.3093203125,-9.1750078125,-2.09814453125,-3.47483203125,-1.70556640625,-1.9738828125,-5.26798046875,1.42985546875,-0.45930078125,0.994328125,1.5884375,3.6296171875,0.132953125,2.70919140625,7.2564296875,5.87859765625,8.7926171875,7.2014921875,5.45751953125
-6.735953125,-10.23340625,-8.48449609375,-10.3521796875,-9.3733046875,-6.0959453125,-5.84671875,-5.39728125,-4.46062890625,-1.86099609375,-2.3658359375,-3.8983203125,-10.5950078125,-0.50214453125,-1.20183203125,2.09643359375,0.0581171874999997,-4.05098046875,4.36385546875,2.61469921875,4.014328125,1.5364375,5.7946171875,2.439953125,5.08619140625,8.9714296875,6.46259765625,7.5116171875,6.3874921875,5.79951953125
-5.742953125,-8.57240625,-6.33849609375,-8.1571796875,-7.9233046875,-4.1759453125,-3.96271875,-3.56728125,-3.03262890625,-0.0849960937500001,0.1781640625,-1.5743203125,-11.3500078125,1.16285546875,1.20216796875,5.57643359375,1.8331171875,-2.40798046875,6.90985546875,5.51469921875,6.570328125,1.9114375,8.1546171875,4.698953125,7.38419140625,10.1664296875,7.23959765625,6.4156171875,5.9184921875,6.08051953125
-4.993953125,-6.30640625,-3.77949609375,-6.0501796875,-6.0923046875,-2.3769453125,-2.41071875,-2.04628125,-1.57362890625,1.88700390625,2.5041640625,0.3726796875,-11.0830078125,2.78285546875,3.65616796875,8.46143359375,3.0331171875,-0.54298046875,9.03485546875,8.10369921875,8.432328125,2.6464375,10.5246171875,6.815953125,9.44019140625,10.7984296875,8.32959765625,5.8846171875,5.9864921875,6.38051953125
-4.340953125,-3.85840625,-1.44649609375,-4.3411796875,-3.9483046875,-0.5699453125,-1.05571875,-0.90028125,-0.18162890625,4.11400390625,4.5681640625,1.8186796875,-9.6690078125,4.38185546875,6.20616796875,10.73443359375,3.5511171875,1.32501953125,10.87485546875,10.44569921875,9.607328125,3.6024375,12.7126171875,8.820953125,11.20719140625,11.0054296875,9.76159765625,6.1606171875,6.5884921875,6.78351953125
-3.566953125,-1.68240625,0.0545039062500003,-2.9241796875,-1.5253046875,1.5050546875,0.41528125,-0.0872812500000001,1.14237109375,6.60800390625,6.4481640625,2.7506796875,-7.3280078125,5.99885546875,8.84816796875,12.48943359375,3.4621171875,2.95901953125,12.52985546875,12.63069921875,10.217328125,4.5794375,14.4606171875,10.697953125,12.66319140625,10.9694296875,11.36259765625,7.2276171875,7.5144921875,7.29051953125
-2.636953125,-0.12840625,0.43550390625,-1.6071796875,0.989695312500002,3.9130546875,2.21928125,0.43271875,2.37537109375,9.14300390625,8.1461640625,3.1506796875,-4.6030078125,7.52285546875,11.33316796875,13.71543359375,2.9341171875,4.09501953125,13.86785546875,14.53869921875,10.338328125,5.3434375,15.4296171875,12.233953125,13.68919140625,10.7534296875,12.74659765625,8.7856171875,8.4244921875,7.77051953125
-1.780953125,0.61859375,-0.15549609375,-0.4361796875,3.1496953125,6.3170546875,4.22728125,0.65771875,3.42037109375,11.21400390625,9.4461640625,2.9586796875,-2.1660078125,8.64985546875,13.14916796875,14.20043359375,2.1791171875,4.48501953125,14.49785546875,15.75169921875,9.916328125,5.6994375,15.3026171875,13.031953125,14.05519140625,10.2654296875,13.44659765625,10.3616171875,8.9924921875,8.00051953125
-1.313953125,0.55859375,-1.22749609375,0.2788203125,4.3916953125,8.0800546875,5.95428125,0.60671875,4.15637109375,12.23500390625,9.9571640625,2.1696796875,-0.5470078125,9.02185546875,13.73816796875,13.65843359375,1.4451171875,4.01501953125,13.96285546875,15.73269921875,8.840328125,5.5664375,13.9556171875,12.726953125,13.54519140625,9.3564296875,13.12559765625,11.5006171875,9.0564921875,7.78251953125
-1.371953125,-0.17340625,-2.21049609375,0.2348203125,4.4026953125,8.6320546875,6.84128125,0.40671875,4.50637109375,11.86000390625,9.3591640625,0.9466796875,0.0629921875000001,8.42985546875,12.80016796875,11.96943359375,1.0051171875,2.81001953125,12.06085546875,14.15669921875,7.093328125,5.0144375,11.6026171875,11.244953125,12.11019140625,7.9834296875,11.76159765625,11.9366171875,8.6654921875,7.06051953125
-1.759953125,-1.37740625,-2.72349609375,-0.5511796875,3.4526953125,7.8230546875,6.63128125,0.29371875,4.46337109375,10.22100390625,7.6771640625,-0.3563203125,-0.1700078125,6.95985546875,10.51216796875,9.35843359375,1.0941171875,1.23601953125,9.06485546875,11.19169921875,4.876328125,4.2174375,8.7816171875,8.927953125,9.95019140625,6.3124296875,9.67059765625,11.6646171875,8.0154921875,5.97451953125
-2.040953125,-2.82240625,-2.67149609375,-1.6951796875,2.3486953125,6.0320546875,5.54128125,0.51871875,4.09637109375,7.91900390625,5.3841640625,-1.2863203125,-0.8550078125,5.00285546875,7.52916796875,6.41343359375,1.8271171875,-0.20798046875,5.73085546875,7.54369921875,2.621328125,3.3874375,6.2086171875,6.465953125,7.50619140625,4.7134296875,7.40159765625,10.8986171875,7.3304921875,4.81951953125
-1.794953125,-4.20540625,-2.13449609375,-2.7031796875,1.9806953125,3.9860546875,4.15828125,1.22271875,3.55437109375,5.79200390625,3.2521640625,-1.4343203125,-1.5680078125,3.15085546875,4.78116796875,3.92643359375,3.1351171875,-1.04598046875,3.05685546875,4.24369921875,0.888328125,2.7264375,4.5526171875,4.655953125,5.36619140625,3.6554296875,5.54659765625,9.9656171875,6.7834921875,3.94151953125
-0.873953125,-5.14140625,-1.21049609375,-3.3501796875,2.7666953125,2.4110546875,3.14328125,2.39071875,3.01537109375,4.54600390625,2.0191640625,-0.5853203125,-2.0210078125,1.97185546875,3.11316796875,2.60243359375,4.7701171875,-0.98098046875,1.90385546875,2.24669921875,0.165328125,2.3874375,4.2176171875,4.088953125,4.07619140625,3.5014296875,4.52959765625,9.1606171875,6.4384921875,3.58751953125
0.502046875,-5.26540625,0.0155039062500003,-3.8511796875,4.3916953125,1.7170546875,2.94328125,3.87771875,2.58837109375,4.46500390625,2.0751640625,1.1546796875,-2.1630078125,1.77285546875,2.93316796875,2.75143359375,6.3681171875,-0.00698046875000014,2.62885546875,2.03269921875,0.670328125,2.4214375,5.1956171875,4.905953125,3.91419140625,4.3064296875,4.44359765625,8.6236171875,6.2324921875,3.77751953125
1.889046875,-4.38040625,1.38850390625,-4.6401796875,6.0256953125,1.8880546875,3.60928125,5.46671875,2.23937109375,5.33000390625,3.3081640625,3.3816796875,-2.1610078125,2.47285546875,4.06216796875,4.15843359375,7.5711171875,1.58501953125,4.93585546875,3.42669921875,2.236328125,2.7504375,7.0826171875,6.746953125,4.75719140625,5.7334296875,5.00759765625,8.2806171875,5.9934921875,4.27251953125
2.904046875,-2.56240625,2.61950390625,-5.9071796875,6.8326953125,2.6030546875,4.81528125,6.95071875,1.85637109375,6.61600390625,5.1841640625,5.5506796875,-2.2410078125,3.68585546875,5.87616796875,6.19943359375,8.1521171875,3.32901953125,8.00885546875,5.71869921875,4.359328125,3.1864375,9.2396171875,8.934953125,6.12619140625,7.1664296875,5.70459765625,7.8996171875,5.5224921875,4.67251953125
3.448046875,-0.14140625,3.31750390625,-7.3051796875,6.4446953125,3.4840546875,6.05428125,8.16171875,1.39637109375,7.78900390625,7.0091640625,7.1876796875,-2.4910078125,4.94685546875,7.63216796875,8.12743359375,8.0791171875,4.75701953125,10.86285546875,7.99469921875,6.368328125,3.5104375,11.0256171875,10.775953125,7.36919140625,7.9454296875,6.00059765625,7.2156171875,4.6844921875,4.58651953125
3.692046875,2.39159375,3.12750390625,-8.1171796875,5.1236953125,4.2660546875,6.89928125,8.95571875,0.96237109375,8.51400390625,8.1961640625,8.0006796875,-2.7840078125,5.89485546875,8.74116796875,9.31943359375,7.4641171875,5.52501953125,12.68585546875,9.46469921875,7.627328125,3.5254375,11.9666171875,11.774953125,7.87619140625,7.5974296875,5.55159765625,6.0356171875,3.4414921875,3.78551953125
3.857046875,4.50659375,1.91150390625,-7.7981796875,3.5196953125,4.7940546875,7.12828125,9.18371875,0.746371093750001,8.66500390625,8.4101640625,7.8906796875,-2.8950078125,6.33785546875,8.89916796875,9.40643359375,6.4431171875,5.45601953125,13.04685546875,9.65969921875,7.692328125,3.0954375,11.8226171875,11.710953125,7.25819140625,5.9764296875,4.29059765625,4.3136171875,1.8514921875,2.29351953125
3.992046875,5.76059375,-0.0884960937499997,-6.4171796875,2.2266953125,4.9500546875,6.69228125,8.71671875,0.879371093750001,8.21700390625,7.5741640625,6.9166796875,-2.7110078125,6.21885546875,8.09016796875,8.30543359375,5.1051171875,4.53301953125,11.90985546875,8.47969921875,6.429328125,2.1744375,10.5776171875,10.602953125,5.48119140625,3.3164296875,2.40459765625,2.1526171875,0.0614921875000003,0.384519531249998
3.932046875,5.90659375,-2.26249609375,-4.6211796875,1.4826953125,4.6360546875,5.65428125,7.54271875,1.34137109375,7.18100390625,5.8121640625,5.2746796875,-2.3250078125,5.55285546875,6.51916796875,6.20543359375,3.5021171875,2.89401953125,9.54285546875,6.15969921875,4.068328125,0.8284375,8.4036171875,8.628953125,2.89419140625,0.184429687500001,0.22759765625,-0.222382812499999,-1.6965078125,-1.49948046875
3.444046875,4.95859375,-3.88749609375,-3.1591796875,1.1996953125,3.8340546875,4.17628125,5.83771875,1.96537109375,5.61800390625,3.4071640625,3.2466796875,-1.9580078125,4.38885546875,4.49816796875,3.50543359375,1.7131171875,0.80301953125,6.37985546875,3.15869921875,1.144328125,-0.752562500000001,5.6046171875,6.039953125,0.103191406249999,-2.6885703125,-1.90440234375,-2.5383828125,-3.1655078125,-2.90848046875
2.422046875,3.15759375,-4.49749609375,-2.4171796875,1.1846953125,2.6600546875,2.52028125,3.92671875,2.54437109375,3.69900390625,0.7511640625,1.1256796875,-1.7830078125,2.80785546875,2.33416796875,0.69743359375,-0.1348828125,-1.39998046875,2.91685546875,0.0126992187499999,-1.661671875,-2.3035625,2.5586171875,3.112953125,-2.25980859375,-4.6795703125,-3.78040234375,-4.5503828125,-4.1595078125,-3.54548046875
0.991046875,0.88359375,-4.13349609375,-2.3101796875,1.2826953125,1.3290546875,0.95728125,2.13371875,2.93637109375,1.72200390625,-1.7188359375,-0.8463203125,-1.7960078125,0.96885546875,0.28816796875,-1.74656640625,-1.8978828125,-3.35298046875,-0.34914453125,-2.79930078125,-3.749671875,-3.5475625,-0.327382812500001,0.149953125,-3.76480859375,-5.4915703125,-5.34740234375,-6.0883828125,-4.6305078125,-3.38148046875
-0.547953125,-1.44340625,-3.29249609375,-2.5101796875,1.3816953125,0.0710546874999998,-0.35071875,0.62871875,3.12537109375,0.0510039062500001,-3.6248359375,-2.5113203125,-1.8320078125,-0.85114453125,-1.42683203125,-3.48256640625,-3.4668828125,-4.75198046875,-2.95714453125,-4.92630078125,-4.797671875,-4.2745625,-2.6743828125,-2.505046875,-4.28380859375,-5.2465703125,-6.65740234375,-7.0783828125,-4.6805078125,-2.64648046875
-1.880953125,-3.48440625,-2.66749609375,-2.7291796875,1.3796953125,-0.9579453125,-1.38971875,-0.62728125,3.16937109375,-1.00999609375,-4.7248359375,-3.8233203125,-1.7240078125,-2.32214453125,-2.65483203125,-4.37056640625,-4.8208828125,-5.43498046875,-4.56914453125,-6.19130078125,-4.862671875,-4.4245625,-4.2223828125,-4.527046875,-3.99680859375,-4.4115703125,-7.79740234375,-7.5743828125,-4.5385078125,-1.74748046875
-2.824953125,-5.05240625,-2.84249609375,-2.8831796875,1.1966953125,-1.7059453125,-2.22671875,-1.81528125,3.11737109375,-1.35799609375,-4.9588359375,-4.8473203125,-1.4690078125,-3.20014453125,-3.33683203125,-4.51256640625,-6.0198828125,-5.45298046875,-5.06914453125,-6.61330078125,-4.342671875,-4.1275625,-4.9113828125,-5.712046875,-3.30580859375,-3.5985703125,-8.84640234375,-7.7653828125,-4.4925078125,-1.12448046875
-3.373953125,-6.12640625,-4.04949609375,-3.0961796875,0.758695312500002,-2.1929453125,-2.91171875,-3.10828125,2.98537109375,-1.11899609375,-4.4648359375,-5.6963203125,-1.2370078125,-3.43114453125,-3.51483203125,-4.17656640625,-7.1538828125,-5.02798046875,-4.60614453125,-6.38130078125,-3.797671875,-3.6455625,-4.8803828125,-6.060046875,-2.68180859375,-3.3185703125,-9.84140234375,-7.9053828125,-4.7725078125,-1.08248046875
-3.626953125,-6.76640625,-6.03449609375,-3.5901796875,0.00269531250000199,-2.4449453125,-3.44371875,-4.52428125,2.81237109375,-0.56999609375,-3.5488359375,-6.4403203125,-1.1940078125,-3.12714453125,-3.28283203125,-3.65856640625,-8.2648828125,-4.41398046875,-3.50814453125,-5.77330078125,-3.711671875,-3.2295625,-4.3643828125,-5.755046875,-2.48280859375,-3.7675703125,-10.75440234375,-8.1583828125,-5.4035078125,-1.66348046875
-3.707953125,-7.04140625,-8.11049609375,-4.4881796875,-1.0253046875,-2.4659453125,-3.78371875,-5.88928125,2.68737109375,0.00400390625000036,-2.6098359375,-7.0793203125,-1.2910078125,-2.47814453125,-2.74983203125,-3.19256640625,-9.3128828125,-3.75098046875,-2.15514453125,-5.08030078125,-4.317671875,-2.9865625,-3.5903828125,-5.088046875,-2.84980859375,-4.7995703125,-11.49440234375,-8.4773828125,-6.1695078125,-2.63248046875
-3.730953125,-6.99540625,-9.43849609375,-5.6161796875,-2.0513046875,-2.2889453125,-3.92971875,-6.94128125,2.69037109375,0.38500390625,-2.0428359375,-7.6143203125,-1.2350078125,-1.68714453125,-2.09283203125,-2.97356640625,-10.2268828125,-3.03598046875,-0.88714453125,-4.58930078125,-5.592671875,-2.8625625,-2.7333828125,-4.394046875,-3.74080859375,-6.0955703125,-11.96540234375,-8.6253828125,-6.7275078125,-3.61948046875
-3.788953125,-6.66940625,-9.44649609375,-6.4761796875,-2.6473046875,-2.0549453125,-3.98471875,-7.49628125,2.78337109375,0.43300390625,-2.1498359375,-8.1343203125,-0.6770078125,-0.950144531249999,-1.58583203125,-3.21956640625,-10.9788828125,-2.21498046875,0.0278554687499994,-4.58030078125,-7.374671875,-2.7255625,-1.9383828125,-3.995046875,-5.04880859375,-7.4015703125,-12.12740234375,-8.3123828125,-6.8075078125,-4.33248046875
-3.905953125,-6.10640625,-8.13349609375,-6.4401796875,-2.5363046875,-2.0019453125,-4.16671875,-7.53228125,2.79737109375,0.0790039062499996,-3.0578359375,-8.7743203125,0.5229921875,-0.434144531249999,-1.54183203125,-4.14056640625,-11.6018828125,-1.28798046875,0.40385546875,-5.27130078125,-9.482671875,-2.4585625,-1.3273828125,-4.103046875,-6.66480859375,-8.6585703125,-12.01740234375,-7.3583828125,-6.3415078125,-4.69248046875
-3.982953125,-5.35940625,-6.05349609375,-5.0981796875,-1.8373046875,-2.3079453125,-4.66371875,-7.13428125,2.57837109375,-0.64299609375,-4.6458359375,-9.5803203125,2.1669921875,-0.22714453125,-2.15183203125,-5.81856640625,-12.1138828125,-0.35798046875,0.18185546875,-6.69830078125,-11.739671875,-2.0085625,-0.9783828125,-4.737046875,-8.46880859375,-9.9475703125,-11.73340234375,-5.7763828125,-5.4525078125,-4.82848046875
-3.801953125,-4.49740625,-4.01549609375,-2.5121796875,-0.967304687499999,-2.9059453125,-5.42671875,-6.35928125,2.16737109375,-1.56299609375,-6.5158359375,-10.3963203125,3.8139921875,-0.306144531249999,-3.36283203125,-8.07856640625,-12.4328828125,0.40901953125,-0.541144531250001,-8.63530078125,-13.920671875,-1.4015625,-0.9193828125,-5.714046875,-10.29680859375,-11.3405703125,-11.42040234375,-3.7953828125,-4.3935078125,-4.97448046875
-3.089953125,-3.58740625,-2.68649609375,0.7858203125,-0.280304687499999,-3.4429453125,-6.09271875,-5.17328125,1.85337109375,-2.38599609375,-8.0708359375,-10.8833203125,5.0629921875,-0.54514453125,-4.86383203125,-10.47856640625,-12.3568828125,0.86601953125,-1.52614453125,-10.61730078125,-15.720671875,-0.749562500000001,-1.1453828125,-6.739046875,-11.91680859375,-12.7745703125,-11.25140234375,-1.8173828125,-3.4645078125,-5.33448046875
-1.632953125,-2.67540625,-2.33949609375,4.0498203125,0.227695312500002,-3.4609453125,-6.14371875,-3.51128125,2.03437109375,-2.78199609375,-8.7378359375,-10.6443203125,5.8229921875,-0.748144531249999,-6.19183203125,-12.42356640625,-11.6438828125,0.99001953125,-2.46414453125,-12.08530078125,-16.809671875,-0.2115625,-1.6473828125,-7.545046875,-13.07580859375,-14.0335703125,-11.40040234375,-0.336382812499999,-2.9555078125,-6.00048046875
0.629046875,-1.74240625,-2.82349609375,6.6668203125,0.910695312500001,-2.6689453125,-5.19871875,-1.39028125,2.97737109375,-2.51099609375,-8.2058359375,-9.4093203125,6.3809921875,-0.70614453125,-6.90783203125,-13.37156640625,-10.1608828125,0.90501953125,-3.07014453125,-12.59030078125,-16.965671875,0.0674374999999996,-2.4273828125,-7.996046875,-13.58380859375,-14.8565703125,-11.99240234375,0.181617187500001,-3.1065078125,-6.95748046875
3.524046875,-0.70540625,-3.70249609375,8.3988203125,2.1946953125,-1.1209453125,-3.20471875,1.03171875,4.62437109375,-1.53599609375,-6.5498359375,-7.1943203125,7.1859921875,-0.28914453125,-6.78283203125,-13.04156640625,-8.0038828125,0.81201953125,-3.18614453125,-11.97730078125,-16.202671875,-0.00256250000000069,-3.4823828125,-8.136046875,-13.41980859375,-15.1095703125,-13.06840234375,-0.578382812499999,-4.0755078125,-8.15548046875
6.616046875,0.55659375,-4.40349609375,9.3948203125,4.2116953125,0.7880546875,-0.464718749999999,3.46771875,6.57637109375,-0.0779960937500004,-4.1698359375,-4.3453203125,8.4979921875,0.480855468750001,-5.89383203125,-11.52156640625,-5.5068828125,0.85101953125,-2.83714453125,-10.44630078125,-14.788671875,-0.4665625,-4.7593828125,-8.139046875,-12.78080859375,-14.8865703125,-14.57540234375,-2.6813828125,-5.8965078125,-9.55548046875
9.263046875,2.17059375,-4.29549609375,9.9788203125,6.5876953125,2.4930546875,2.43828125,5.59071875,8.24637109375,1.44100390625,-1.6168359375,-1.4153203125,10.1459921875,1.42285546875,-4.56383203125,-9.21556640625,-3.1148828125,1.00501953125,-2.20514453125,-8.46030078125,-13.119671875,-1.3435625,-6.1153828125,-8.207046875,-11.97380859375,-14.4395703125,-16.35040234375,-5.8753828125,-8.3945078125,-11.10448046875
10.801046875,4.19459375,-2.78649609375,10.3628203125,8.5496953125,3.4960546875,4.81728125,7.14471875,9.09837109375,2.55500390625,0.6101640625,1.0606796875,11.5779921875,2.26585546875,-3.17783203125,-6.65456640625,-1.1848828125,1.12001953125,-1.53514453125,-6.53230078125,-11.515671875,-2.6115625,-7.2973828125,-8.434046875,-11.25080859375,-13.9835703125,-18.11340234375,-9.6063828125,-11.1435078125,-12.64848046875
10.809046875,6.51659375,0.42150390625,10.4668203125,9.3756953125,3.5700546875,6.14728125,8.02671875,8.87237109375,2.96000390625,2.2351640625,2.7636796875,12.1439921875,2.76485546875,-2.00983203125,-4.30456640625,0.1411171875,1.00401953125,-1.02014453125,-5.02730078125,-10.083671875,-4.1575625,-8.0083828125,-8.750046875,-10.67780859375,-13.5405703125,-19.49740234375,-13.1193828125,-13.5225078125,-13.87748046875
9.337046875,8.75159375,4.96350390625,9.9628203125,8.8566953125,2.8330546875,6.32128125,8.29271875,7.68637109375,2.64100390625,3.2591640625,3.6546796875,11.3979921875,2.78285546875,-1.15483203125,-2.44456640625,0.929117187499999,0.55301953125,-0.74414453125,-4.07530078125,-8.729671875,-5.7395625,-8.0233828125,-8.944046875,-10.14080859375,-12.9445703125,-20.13640234375,-15.6543828125,-14.9085078125,-14.39248046875
6.930046875,10.29159375,9.69150390625,8.4978203125,7.3776953125,1.6740546875,5.68928125,8.09771875,5.97637109375,1.86400390625,3.8841640625,3.9146796875,9.2669921875,2.33285546875,-0.55883203125,-1.15056640625,1.3331171875,-0.17798046875,-0.674144531250001,-3.57430078125,-7.290671875,-7.0015625,-7.2913828125,-8.755046875,-9.45080859375,-11.9745703125,-19.77240234375,-16.6433828125,-14.8715078125,-13.85848046875
4.422046875,10.56359375,13.07550390625,5.9838203125,5.6076953125,0.5620546875,4.82928125,7.60471875,4.30637109375,1.04200390625,4.3381640625,3.8246796875,6.0889921875,1.58085546875,-0.08383203125,-0.32656640625,1.4861171875,-0.97798046875,-0.70514453125,-3.27430078125,-5.677671875,-7.5515625,-5.9353828125,-7.963046875,-8.43380859375,-10.4975703125,-18.32340234375,-15.8413828125,-13.3065078125,-12.16448046875
2.571046875,9.34259375,13.95750390625,2.7968203125,4.1286953125,-0.1339453125,4.21928125,6.93771875,3.13537109375,0.56100390625,4.7351640625,3.6306796875,2.5359921875,0.791855468750001,0.41216796875,0.200433593750001,1.4571171875,-1.55998046875,-0.70414453125,-2.88330078125,-3.947671875,-7.0855625,-4.1813828125,-6.471046875,-7.01280859375,-8.5565703125,-15.90840234375,-13.3693828125,-10.4545078125,-9.50348046875
1.741046875,6.91359375,12.16450390625,-0.2381796875,3.3096953125,-0.2559453125,4.03628125,6.15771875,2.66737109375,0.64500390625,5.0481640625,3.4356796875,-0.5420078125,0.22885546875,1.00916796875,0.575433593750001,1.2471171875,-1.68098046875,-0.561144531250001,-2.19430078125,-2.292671875,-5.5275625,-2.2663828125,-4.367046875,-5.24280859375,-6.3785703125,-12.81040234375,-9.6663828125,-6.8385078125,-6.33448046875
1.817046875,3.98659375,8.56750390625,-2.1571796875,3.3246953125,0.1350546875,4.14628125,5.28471875,2.83637109375,1.30100390625,5.1761640625,3.1726796875,-2.3420078125,0.0628554687500005,1.69616796875,0.83543359375,0.8161171875,-1.24298046875,-0.21514453125,-1.19430078125,-0.978671875,-3.0915625,-0.3733828125,-1.925046875,-3.31780859375,-4.2955703125,-9.41440234375,-5.3653828125,-3.1215078125,-3.22948046875
2.345046875,1.41259375,4.59750390625,-2.3551796875,4.1186953125,0.8300546875,4.23928125,4.31871875,3.41137109375,2.35600390625,5.0241640625,2.6866796875,-2.3510078125,0.34685546875,2.39116796875,0.922433593750001,0.1171171875,-0.30698046875,0.34185546875,-0.0613007812499999,-0.241671875,-0.2215625,1.3826171875,0.471953125,-1.50080859375,-2.6245703125,-6.10540234375,-1.1293828125,0.0944921875000002,-0.680480468750002
2.778046875,-0.13540625,1.54450390625,-0.9631796875,5.3416953125,1.5740546875,4.01228125,3.25471875,4.13137109375,3.53900390625,4.5461640625,1.8476796875,-0.5400078125,1.02885546875,2.98116796875,0.738433593750001,-0.8808828125,0.94901953125,1.07685546875,0.90569921875,-0.204671875,2.5564375,2.9286171875,2.447953125,-0.0248085937500013,-1.5555703125,-3.17840234375,2.5186171875,2.4414921875,1.05951953125
2.682046875,-0.40940625,0.0255039062500003,1.1888203125,6.4286953125,2.1560546875,3.31528125,2.08671875,4.81637109375,4.56600390625,3.7471640625,0.6046796875,2.5699921875,1.97585546875,3.33916796875,0.206433593750001,-2.1598828125,2.28701953125,1.90585546875,1.41769921875,-0.829671875,4.7864375,4.1826171875,3.743953125,0.963191406249999,-1.1355703125,-0.820402343750001,5.2876171875,3.8324921875,2.00251953125
1.871046875,0.34759375,-0.12449609375,3.0558203125,6.8676953125,2.4720546875,2.21428125,0.82471875,5.40337109375,5.22300390625,2.6741640625,-0.9893203125,6.0289921875,3.00285546875,3.34516796875,-0.67556640625,-3.6378828125,3.46301953125,2.69585546875,1.31569921875,-1.914671875,6.1794375,5.0276171875,4.273953125,1.41419140625,-1.3015703125,0.86459765625,7.1086171875,4.4084921875,2.34751953125
0.479046875,1.54659375,0.43650390625,3.9998203125,6.4706953125,2.5540546875,0.92928125,-0.45928125,5.94837109375,5.43200390625,1.4231640625,-2.7543203125,8.7629921875,3.92685546875,2.96716796875,-1.77756640625,-5.1558828125,4.29301953125,3.29985546875,0.65469921875,-3.128671875,6.6474375,5.3486171875,4.138953125,1.39019140625,-1.8925703125,1.83859765625,8.0806171875,4.4364921875,2.36751953125
-1.057953125,2.55059375,0.99950390625,4.1148203125,5.4876953125,2.5640546875,-0.251718749999999,-1.59128125,6.55737109375,5.28700390625,0.1691640625,-4.3603203125,9.9659921875,4.64185546875,2.34016796875,-2.80456640625,-6.4778828125,4.71601953125,3.61685546875,-0.283300781249999,-4.075671875,6.3144375,5.1206171875,3.590953125,1.06119140625,-2.6495703125,2.15059765625,8.4016171875,4.2274921875,2.32651953125
-2.158953125,2.94359375,1.11250390625,4.0198203125,4.4926953125,2.7050546875,-1.03471875,-2.31228125,7.27537109375,4.99600390625,-0.8148359375,-5.4063203125,9.4099921875,5.12685546875,1.75016796875,-3.38156640625,-7.3578828125,4.82001953125,3.63485546875,-1.08930078125,-4.393671875,5.4704375,4.4696171875,2.951953125,0.683191406249999,-3.2445703125,1.95359765625,8.3046171875,4.0484921875,2.42151953125
-2.348953125,2.66759375,0.68350390625,4.3228203125,4.1036953125,3.1040546875,-1.16671875,-2.39128125,8.00437109375,4.77500390625,-1.2028359375,-5.5833203125,7.5339921875,5.41885546875,1.51416796875,-3.20656640625,-7.6418828125,4.79401953125,3.43785546875,-1.39030078125,-3.869671875,4.4824375,3.6766171875,2.507953125,0.506191406249999,-3.3775703125,1.48459765625,7.9996171875,4.0474921875,2.75051953125
-1.450953125,1.99659375,-0.0574960937499997,5.1598203125,4.6736953125,3.7440546875,-0.501718749999999,-1.73328125,8.54837109375,4.77100390625,-0.7158359375,-4.7973203125,5.3069921875,5.59785546875,1.86716796875,-2.17656640625,-7.3338828125,4.87801953125,3.20385546875,-0.97930078125,-2.513671875,3.6854375,3.1016171875,2.445953125,0.704191406249999,-2.8865703125,0.99259765625,7.6386171875,4.2184921875,3.29851953125
0.393046875,1.41359375,-0.65649609375,6.1848203125,6.1646953125,4.5530546875,0.96428125,-0.42028125,8.77337109375,5.07800390625,0.7821640625,-3.1783203125,3.8939921875,5.82285546875,2.91616796875,-0.392566406249999,-6.5788828125,5.29801953125,3.18585546875,0.15569921875,-0.553671875,3.3094375,3.0616171875,2.832953125,1.33219140625,-1.8125703125,0.649597656249999,7.2976171875,4.4394921875,3.96051953125
2.816046875,1.44559375,-0.61149609375,6.9158203125,8.2716953125,5.5540546875,3.13628125,1.34871875,8.76537109375,5.80600390625,3.2411640625,-1.0023203125,4.1979921875,6.34685546875,4.63816796875,1.90843359375,-5.5768828125,6.19501953125,3.66385546875,1.86769921875,1.635328125,3.4294375,3.6996171875,3.626953125,2.31119140625,-0.397570312499999,0.474597656249999,6.9766171875,4.5414921875,4.57251953125
5.342046875,2.47459375,0.40250390625,7.1118203125,10.6546953125,6.8900546875,5.85028125,3.31571875,8.83637109375,7.06200390625,6.4081640625,1.3806796875,6.4199921875,7.41985546875,6.86716796875,4.41743359375,-4.5088828125,7.53701953125,4.81485546875,3.88969921875,3.621328125,3.9334375,4.8906171875,4.657953125,3.43219140625,0.9944296875,0.341597656249999,6.6056171875,4.3544921875,4.95751953125
7.475046875,4.58559375,2.37650390625,6.8758203125,13.0296953125,8.6570546875,8.81128125,5.21371875,9.35037109375,8.84100390625,9.8211640625,3.6036796875,9.8999921875,9.10385546875,9.26816796875,6.78243359375,-3.4858828125,9.07801953125,6.56885546875,5.86669921875,5.021328125,4.5464375,6.2656171875,5.643953125,4.41119140625,2.0094296875,0.0605976562499997,6.0686171875,3.7654921875,4.98551953125
8.805046875,7.47859375,4.97050390625,6.5118203125,15.0986953125,10.6740546875,11.50228125,6.80471875,10.46837109375,10.89100390625,12.8211640625,5.3516796875,13.3699921875,11.13185546875,11.35816796875,8.64243359375,-2.5498828125,10.40601953125,8.52585546875,7.39969921875,5.596328125,4.9194375,7.3426171875,6.244953125,4.98019140625,2.4484296875,-0.480402343750001,5.2606171875,2.7704921875,4.62951953125
9.133046875,10.48959375,7.61550390625,6.3178203125,16.4926953125,12.4400546875,13.27528125,7.93071875,11.95537109375,12.69300390625,14.6941640625,6.4276796875,15.4839921875,12.89985546875,12.60616796875,9.67043359375,-1.6868828125,11.05101953125,10.03285546875,8.12469921875,5.313328125,4.7554375,7.6846171875,6.168953125,4.98919140625,2.3374296875,-1.24940234375,4.1366171875,1.4934921875,3.99751953125
8.539046875,12.76959375,9.65250390625,6.4508203125,16.8846953125,13.3320546875,13.64628125,8.55671875,13.21037109375,13.61800390625,14.9321640625,6.7846796875,15.3179921875,13.66385546875,12.58616796875,9.64843359375,-0.8618828125,10.61701953125,10.39685546875,7.83069921875,4.335328125,3.8954375,7.0196171875,5.278953125,4.43219140625,1.8614296875,-2.10640234375,2.7216171875,0.1344921875,3.28651953125
7.348046875,13.60159375,10.50850390625,6.8268203125,16.1416953125,12.9360546875,12.59528125,8.76171875,13.53737109375,13.19900390625,13.4851640625,6.5356796875,12.6519921875,12.86585546875,11.16316796875,8.55443359375,-0.0308828124999998,8.90901953125,9.19385546875,6.56869921875,2.977328125,2.3584375,5.3286171875,3.691953125,3.45219140625,1.2554296875,-2.87240234375,1.0986171875,-1.1025078125,2.71451953125
6.005046875,12.75559375,9.94550390625,7.1138203125,14.3996953125,11.3120546875,10.61928125,8.71371875,12.53837109375,11.40400390625,10.8571640625,5.9536796875,8.0169921875,10.46585546875,8.64716796875,6.65943359375,0.868117187499999,6.05901953125,6.52585546875,4.71769921875,1.630328125,0.3524375,2.8816171875,1.807953125,2.32919140625,0.7384296875,-3.37240234375,-0.589382812499999,-2.0275078125,2.46851953125
4.941046875,10.62859375,8.24650390625,6.8998203125,12.0476953125,9.0410546875,8.52428125,8.63571875,10.37637109375,8.73800390625,7.9631640625,5.4296796875,2.5439921875,7.06685546875,5.77916796875,4.52443359375,1.9081171875,2.57601953125,3.08385546875,2.92469921875,0.676328125,-1.7425625,0.2186171875,0.230953125,1.43619140625,0.4824296875,-3.44940234375,-2.1273828125,-2.4535078125,2.66351953125
4.460046875,8.06059375,6.14750390625,6.0078203125,9.6746953125,6.9840546875,7.07828125,8.73971875,7.71837109375,6.06700390625,5.7761640625,5.3276796875,-2.3990078125,3.69685546875,3.46716796875,2.82343359375,3.1271171875,-0.75698046875,-0.0841445312500002,1.86569921875,0.358328125,-3.4585625,-2.0093828125,-0.467046875,1.10119140625,0.5844296875,-3.00040234375,-3.2533828125,-2.2385078125,3.31151953125
4.641046875,5.92859375,4.50650390625,4.7028203125,7.9246953125,5.8430546875,6.67128125,9.11471875,5.38137109375,4.22500390625,4.9071640625,5.7866796875,-5.6620078125,1.35685546875,2.37716796875,2.05543359375,4.4311171875,-3.12398046875,-2.01514453125,1.92869921875,0.674328125,-4.3725625,-3.2623828125,-0.014046875,1.44619140625,1.0004296875,-2.05140234375,-3.7373828125,-1.3735078125,4.28751953125
5.287046875,4.78159375,3.90750390625,3.5488203125,7.2126953125,5.7800546875,7.11028125,9.63771875,3.93637109375,3.61500390625,5.3161640625,6.6206796875,-6.7020078125,0.600855468750001,2.63516796875,2.32043359375,5.5591171875,-3.94498046875,-2.22214453125,3.02069921875,1.352328125,-4.2455625,-3.2973828125,1.432953125,2.30719140625,1.5444296875,-0.77340234375,-3.4763828125,-0.0395078124999997,5.34851953125
5.982046875,4.72359375,4.42550390625,3.0008203125,7.4936953125,6.3560546875,7.73728125,9.99971875,3.54437109375,4.07800390625,6.3751640625,7.4016796875,-5.7390078125,1.38685546875,3.82416796875,3.30043359375,6.1611171875,-3.05398046875,-0.84914453125,4.61569921875,1.973328125,-3.0955625,-2.2123828125,3.375953125,3.31519140625,1.9644296875,0.57659765625,-2.5433828125,1.4304921875,6.21751953125
6.252046875,5.48759375,5.61650390625,3.0658203125,8.3126953125,6.8680546875,7.84728125,9.84171875,4.05237109375,5.07800390625,7.2531640625,7.6776796875,-3.6330078125,3.21985546875,5.25416796875,4.44743359375,5.9541171875,-0.73698046875,1.48285546875,6.01569921875,2.160328125,-1.1895625,-0.3703828125,5.191953125,4.07519140625,2.0514296875,1.76059765625,-1.1783828125,2.6734921875,6.69151953125
5.787046875,6.60159375,6.70850390625,3.3008203125,9.1156953125,6.8270546875,7.15428125,8.94971875,5.18937109375,6.06000390625,7.3941640625,7.1846796875,-1.5300078125,5.43985546875,6.30716796875,5.23543359375,4.8791171875,2.35901953125,3.96385546875,6.66469921875,1.736328125,1.0374375,1.7356171875,6.367953125,4.31819140625,1.7194296875,2.62959765625,0.2926171875,3.4194921875,6.69751953125
4.595046875,7.53559375,6.91350390625,3.1288203125,9.5466953125,6.2220546875,5.92928125,7.34571875,6.65037109375,6.71300390625,6.7651640625,5.9606796875,-0.3860078125,7.46585546875,6.67716796875,5.37643359375,3.1411171875,5.42301953125,5.87585546875,6.34069921875,0.772328125,3.1114375,3.6096171875,6.623953125,3.98519140625,1.0334296875,3.12559765625,1.5566171875,3.5754921875,6.28851953125
3.024046875,7.84059375,5.72750390625,2.2368203125,9.5316953125,5.4280546875,4.74628125,5.26571875,8.06737109375,7.01700390625,5.7521640625,4.3026796875,-0.5520078125,8.90985546875,6.39916796875,4.88643359375,1.1321171875,7.72601953125,6.74785546875,5.19369921875,-0.472671875,4.6554375,4.8376171875,5.948953125,3.21219140625,0.184429687500001,3.23659765625,2.4106171875,3.2344921875,5.57951953125
1.590046875,7.23959375,3.10850390625,0.7968203125,9.1936953125,4.8870546875,4.06628125,3.03171875,9.01037109375,7.10400390625,4.8361640625,2.5946796875,-1.6410078125,9.57385546875,5.71016796875,4.00243359375,-0.7438828125,8.82001953125,6.40485546875,3.60469921875,-1.697671875,5.4804375,5.1336171875,4.532953125,2.24219140625,-0.584570312499999,2.95359765625,2.7966171875,2.6004921875,4.68651953125
0.722046875,5.71159375,-0.53949609375,-0.6031796875,8.7326953125,4.7920546875,3.97728125,0.91971875,9.11337109375,7.08700390625,4.2861640625,1.1006796875,-2.7680078125,9.40885546875,4.83616796875,3.00143359375,-2.2278828125,8.63101953125,4.95485546875,1.98969921875,-2.686671875,5.6174375,4.3826171875,2.681953125,1.30219140625,-1.0765703125,2.25659765625,2.7686171875,1.8774921875,3.70551953125
0.551046875,3.54359375,-4.48349609375,-1.2821796875,8.2966953125,4.9840546875,4.18828125,-0.90828125,8.25737109375,6.96400390625,4.0291640625,-0.1183203125,-3.0610078125,8.50285546875,3.88616796875,2.05943359375,-3.2688828125,7.45101953125,2.73785546875,0.64069921875,-3.367671875,5.2854375,2.6876171875,0.734953125,0.523191406249999,-1.2035703125,1.16459765625,2.4576171875,1.2104921875,2.74451953125
0.857046875,1.30059375,-7.80949609375,-0.8271796875,7.9036953125,5.0710546875,4.23028125,-2.37728125,6.67837109375,6.65400390625,3.7461640625,-1.1303203125,-2.1300078125,7.08485546875,2.88216796875,1.23643359375,-3.9528828125,5.81501953125,0.261855468749999,-0.31730078125,-3.784671875,4.8154375,0.4076171875,-0.981046875,-0.0458085937500012,-0.985570312499999,-0.19440234375,2.0336171875,0.7044921875,1.96551953125
1.213046875,-0.34140625,-9.62649609375,0.7098203125,7.4776953125,4.6960546875,3.74528125,-3.43028125,4.89137109375,6.08900390625,3.1141640625,-1.9943203125,-0.2360078125,5.49285546875,1.84316796875,0.52443359375,-4.3628828125,4.32801953125,-1.92414453125,-0.892300781249999,-4.019671875,4.5414375,-1.9103828125,-2.189046875,-0.405808593750001,-0.5055703125,-1.55940234375,1.6706171875,0.4644921875,1.57851953125
1.243046875,-0.88740625,-9.34849609375,2.8838203125,7.0216953125,3.7740546875,2.72628125,-3.98228125,3.48337109375,5.29200390625,2.0441640625,-2.6673203125,1.9269921875,4.08085546875,0.84416796875,-0.085566406249999,-4.4808828125,3.45901953125,-3.36714453125,-1.15030078125,-4.128671875,4.6624375,-3.6853828125,-2.697046875,-0.576808593750001,0.1174296875,-2.60140234375,1.4986171875,0.5664921875,1.74751953125
0.854046875,-0.27040625,-6.97949609375,5.0988203125,6.7146953125,2.5690546875,1.54928125,-3.93128125,2.89537109375,4.40200390625,0.7771640625,-3.0063203125,3.6499921875,3.11885546875,0.02016796875,-0.57156640625,-4.1858828125,3.40001953125,-3.82714453125,-1.15530078125,-4.111671875,5.1614375,-4.4913828125,-2.429046875,-0.581808593750001,0.7474296875,-3.02040234375,1.5666171875,1.0124921875,2.48051953125
0.335046875,1.09459375,-3.21149609375,6.8638203125,6.8116953125,1.5860546875,0.76328125,-3.21428125,3.27837109375,3.65100390625,-0.2338359375,-2.8223203125,4.5709921875,2.75385546875,-0.451832031249999,-0.86156640625,-3.3338828125,4.06501953125,-3.30114453125,-0.92630078125,-3.919671875,5.8314375,-4.1633828125,-1.412046875,-0.416808593750001,1.2614296875,-2.62640234375,1.8626171875,1.7244921875,3.60051953125
0.210046875,2.51359375,0.76550390625,7.9108203125,7.4536953125,1.3450546875,0.80828125,-1.86928125,4.47037109375,3.30000390625,-0.5478359375,-1.9803203125,4.7669921875,3.03085546875,-0.38183203125,-0.841566406249999,-1.8708828125,5.17501953125,-1.96114453125,-0.424300781249999,-3.481671875,6.3954375,-2.8003828125,0.226953125,-0.0338085937500008,1.5984296875,-1.38440234375,2.3586171875,2.5844921875,4.82251953125
0.937046875,3.35059375,3.69150390625,8.1818203125,8.5876953125,2.1460546875,1.81728125,-0.0662812500000001,6.08837109375,3.54400390625,0.0711640625000003,-0.5023203125,4.5809921875,3.89885546875,0.34116796875,-0.416566406249999,0.0801171875,6.39801953125,-0.0651445312500005,0.39969921875,-2.764671875,6.6274375,-0.7113828125,2.258953125,0.619191406249999,1.7704296875,0.559597656249999,3.0136171875,3.4684921875,5.88251953125
2.596046875,3.34259375,4.73950390625,7.7658203125,10.0386953125,3.9130546875,3.60828125,1.91071875,7.68537109375,4.41400390625,1.5711640625,1.3786796875,4.3429921875,5.20485546875,1.67516796875,0.42543359375,2.2071171875,7.44101953125,2.10585546875,1.55269921875,-1.803671875,6.4094375,1.6746171875,4.366953125,1.54619140625,1.8474296875,2.88759765625,3.7396171875,4.2504921875,6.62651953125
4.803046875,2.72159375,3.88150390625,6.8598203125,11.5726953125,6.1910546875,5.76628125,3.74271875,8.90537109375,5.73500390625,3.6481640625,3.3066796875,4.1989921875,6.70585546875,3.40316796875,1.60043359375,4.1171171875,8.12101953125,4.28685546875,2.97369921875,-0.691671875,5.7544375,3.9136171875,6.221953125,2.69819140625,1.9174296875,5.19159765625,4.3826171875,4.8114921875,7.03051953125
6.878046875,2.09759375,1.91150390625,5.7888203125,12.9006953125,8.2970546875,7.76128125,5.16371875,9.55937109375,7.15400390625,5.8281640625,4.9536796875,4.1179921875,8.10985546875,5.19616796875,2.97843359375,5.5071171875,8.38501953125,6.23385546875,4.54769921875,0.475328125,4.7974375,5.6376171875,7.588953125,3.98619140625,2.0554296875,7.07959765625,4.7456171875,5.0524921875,7.16351953125
8.160046875,2.10759375,0.0525039062500003,4.9698203125,13.6996953125,9.5550546875,9.09228125,6.01671875,9.59037109375,8.24000390625,7.5961640625,6.1206796875,3.9689921875,9.11185546875,6.69616796875,4.41043359375,6.2881171875,8.26801953125,7.70285546875,6.10869921875,1.628328125,3.7464375,6.5976171875,8.361953125,5.28419140625,2.2834296875,8.25459765625,4.6256171875,4.8904921875,7.11751953125
8.283046875,3.02959375,-0.67749609375,4.7528203125,13.6506953125,9.5430546875,9.42828125,6.25471875,9.00337109375,8.61500390625,8.5321640625,6.7476796875,3.5889921875,9.42285546875,7.57416796875,5.72443359375,6.5961171875,7.80601953125,8.44785546875,7.44469921875,2.705328125,2.8044375,6.6476171875,8.519953125,6.39519140625,2.5424296875,8.51959765625,3.8656171875,4.2454921875,6.93551953125
7.305046875,4.62059375,0.0245039062500003,5.1668203125,12.5146953125,8.2670546875,8.70228125,5.91171875,7.85737109375,8.09400390625,8.4381640625,6.8796796875,2.8469921875,8.85685546875,7.62616796875,6.74543359375,6.6761171875,7.00101953125,8.26485546875,8.32769921875,3.632328125,2.1044375,5.7536171875,8.062953125,7.07119140625,2.7194296875,7.78359765625,2.4236171875,3.0684921875,6.60551953125
5.658046875,6.26859375,1.64550390625,5.8058203125,10.2746953125,6.1840546875,7.13928125,5.10071875,6.34337109375,6.79200390625,7.4061640625,6.6526796875,1.7149921875,7.45185546875,6.85616796875,7.34643359375,6.7481171875,5.87001953125,7.10185546875,8.58569921875,4.310328125,1.6914375,4.0346171875,7.001953125,7.11319140625,2.7274296875,6.09759765625,0.4496171875,1.4224921875,6.09051953125
3.939046875,7.36259375,3.20650390625,6.0368203125,7.3576953125,4.0400546875,5.23328125,4.01471875,4.81237109375,5.10800390625,5.8081640625,6.2536796875,0.3299921875,5.52085546875,5.49416796875,7.47743359375,6.9041171875,4.51501953125,5.12685546875,8.16269921875,4.642328125,1.5484375,1.7796171875,5.380953125,6.47219140625,2.5594296875,3.69759765625,-1.7123828125,-0.4645078125,5.37851953125
2.642046875,7.58559375,3.81850390625,5.4568203125,4.7206953125,2.5700546875,3.62828125,2.89771875,3.66337109375,3.56900390625,4.1821640625,5.8386796875,-1.0520078125,3.55485546875,3.88816796875,7.12543359375,7.0911171875,3.13201953125,2.70385546875,7.10669921875,4.549328125,1.6014375,-0.5993828125,3.305953125,5.26419140625,2.2844296875,0.98359765625,-3.6083828125,-2.2555078125,4.49851953125
1.979046875,6.99659375,3.16250390625,4.2488203125,3.5136953125,2.2290546875,2.88928125,1.97671875,3.14437109375,2.60800390625,3.0351640625,5.4686796875,-2.1910078125,2.01485546875,2.35916796875,6.28243359375,7.1751171875,1.94101953125,0.282855468749999,5.54969921875,4.011328125,1.7464375,-2.6793828125,0.965953125,3.72519140625,2.0164296875,-1.55640234375,-4.8303828125,-3.6125078125,3.51951953125
1.876046875,5.89559375,1.62250390625,3.1348203125,4.4096953125,3.0730546875,3.23728125,1.39771875,3.24437109375,2.40600390625,2.6421640625,5.1126796875,-2.9880078125,1.16985546875,1.13016796875,4.96643359375,7.0371171875,1.11001953125,-1.72714453125,3.70069921875,3.109328125,1.9044375,-4.1063828125,-1.344046875,2.14519140625,1.8854296875,-3.46240234375,-5.1333828125,-4.3045078125,2.55051953125
2.103046875,4.61059375,-0.000496093749999704,2.9128203125,7.1166953125,4.8150546875,4.44728125,1.20271875,3.74537109375,2.86600390625,2.9551640625,4.7176796875,-3.4980078125,1.04685546875,0.30516796875,3.27343359375,6.6481171875,0.73501953125,-3.03914453125,1.84169921875,2.035328125,2.0794375,-4.6483828125,-3.242046875,0.812191406249999,2.0044296875,-4.40140234375,-4.4943828125,-4.2515078125,1.74751953125
2.426046875,3.33359375,-1.01149609375,3.9118203125,10.5106953125,6.9650546875,5.98128125,1.33271875,4.34037109375,3.68300390625,3.6471640625,4.2376796875,-3.8290078125,1.45785546875,-0.12183203125,1.38643359375,6.0521171875,0.84401953125,-3.53514453125,0.27569921875,1.039328125,2.3724375,-4.2273828125,-4.355046875,-0.0658085937500008,2.4144296875,-4.24340234375,-3.0883828125,-3.5295078125,1.28351953125
2.665046875,2.11159375,-1.21549609375,5.7278203125,13.2466953125,8.9410546875,7.23228125,1.62471875,4.73437109375,4.45600390625,4.2621640625,3.6296796875,-3.9960078125,2.08485546875,-0.27283203125,-0.46256640625,5.3151171875,1.40601953125,-3.29314453125,-0.78130078125,0.319328125,2.9154375,-2.9453828125,-4.471046875,-0.420808593750001,3.0334296875,-3.07440234375,-1.2143828125,-2.3415078125,1.28451953125
2.678046875,0.97159375,-0.90649609375,7.3938203125,14.3726953125,10.1720546875,7.71028125,1.84471875,4.69237109375,4.81600390625,4.3841640625,2.8676796875,-3.8750078125,2.58985546875,-0.34083203125,-2.05056640625,4.4801171875,2.31801953125,-2.55714453125,-1.27730078125,-0.0626718749999995,3.7714375,-1.0853828125,-3.635046875,-0.332808593750001,3.6764296875,-1.15640234375,0.7926171875,-0.9435078125,1.76051953125
2.359046875,0.0435937500000001,-0.51749609375,7.8818203125,13.6116953125,10.2440546875,7.17428125,1.76971875,4.11437109375,4.55000390625,3.7801640625,1.9806796875,-3.2800078125,2.74285546875,-0.49983203125,-3.19756640625,3.5931171875,3.39801953125,-1.65614453125,-1.32730078125,-0.179671874999999,4.8814375,0.9406171875,-2.164046875,0.0141914062499993,4.1244296875,1.14259765625,2.6466171875,0.4234921875,2.58351953125
1.680046875,-0.42740625,-0.25649609375,6.6418203125,11.3236953125,9.0850546875,5.73428125,1.31571875,3.12037109375,3.69700390625,2.5061640625,1.0856796875,-2.1060078125,2.51085546875,-0.80183203125,-3.78456640625,2.7561171875,4.41001953125,-0.88214453125,-1.12630078125,-0.166671875,6.0604375,2.6936171875,-0.543046875,0.393191406249999,4.1954296875,3.40759765625,4.1456171875,1.5724921875,3.51051953125
0.785046875,-0.17640625,-0.00549609374999971,3.9478203125,8.3096953125,7.0910546875,3.89628125,0.61871875,2.09537109375,2.56400390625,0.9331640625,0.3916796875,-0.4170078125,2.08585546875,-1.13083203125,-3.75656640625,2.1511171875,5.15701953125,-0.37914453125,-0.815300781249999,-0.121671875,7.0814375,3.8586171875,0.753953125,0.612191406249999,3.7944296875,5.22959765625,5.1836171875,2.3804921875,4.27151953125
0.0130468749999999,0.96359375,0.53350390625,0.8608203125,5.5146953125,5.0520546875,2.41428125,-0.00428125000000004,1.58937109375,1.64500390625,-0.3528359375,0.1596796875,1.5969921875,1.82585546875,-1.22383203125,-3.09456640625,1.9951171875,5.60101953125,-0.0771445312500005,-0.38330078125,-0.0336718749999996,7.7724375,4.3696171875,1.445953125,0.609191406249999,2.9494296875,6.30559765625,5.7626171875,2.8024921875,4.67451953125
-0.194953125,2.97859375,1.57350390625,-1.2221796875,3.7656953125,3.8680546875,1.99128125,-0.20928125,2.10137109375,1.44800390625,-0.7708359375,0.6246796875,3.7079921875,2.13385546875,-0.76383203125,-1.79456640625,2.4431171875,5.91601953125,0.27385546875,0.32669921875,0.219328125000001,8.1004375,4.4356171875,1.547953125,0.502191406249999,1.8224296875,6.53259765625,5.9816171875,2.8744921875,4.67751953125
0.467046875,5.59659375,2.99050390625,-1.2411796875,3.6156953125,4.1740546875,2.97228125,0.18071875,3.83337109375,2.27900390625,0.0161640625000001,1.8536796875,5.6639921875,3.26085546875,0.44616796875,0.0934335937500004,3.4751171875,6.38801953125,0.95685546875,1.49069921875,0.786328125,8.1524375,4.4036171875,1.295953125,0.521191406249999,0.653429687500001,6.03259765625,5.9676171875,2.6674921875,4.36051953125
1.956046875,8.25059375,4.25750390625,0.9728203125,5.2486953125,6.0220546875,5.16228125,1.02271875,6.51437109375,4.06200390625,1.9161640625,3.6166796875,7.1659921875,5.12885546875,2.31516796875,2.37943359375,4.8331171875,7.20801953125,2.09185546875,3.11769921875,1.709328125,8.0434375,4.5406171875,0.957953125,0.839191406249999,-0.3455703125,5.07059765625,5.7846171875,2.2244921875,3.83351953125
3.837046875,10.16259375,4.65150390625,4.5978203125,8.3466953125,8.7860546875,7.83828125,1.85271875,9.39037109375,6.28500390625,4.3811640625,5.3926796875,7.9379921875,7.26985546875,4.42016796875,4.67443359375,6.0991171875,8.30401953125,3.52285546875,4.93569921875,2.840328125,7.8234375,4.8816171875,0.660953125,1.43519140625,-1.0515703125,3.92959765625,5.3906171875,1.5504921875,3.16751953125
5.463046875,10.59559375,3.67950390625,8.2508203125,12.0036953125,11.3620546875,9.94728125,2.07171875,11.43637109375,8.15200390625,6.5551640625,6.5506796875,7.8739921875,8.97085546875,6.14916796875,6.44643359375,6.8641171875,9.35801953125,4.86085546875,6.45269921875,3.855328125,7.4754375,5.2286171875,0.355953125,2.10119140625,-1.4145703125,2.82459765625,4.6936171875,0.6814921875,2.39551953125
6.265046875,9.17459375,1.44350390625,10.6738203125,14.9086953125,12.6010546875,10.50628125,1.23671875,11.75037109375,8.88900390625,7.5921640625,6.6086796875,7.1129921875,9.56685546875,6.94316796875,7.16943359375,6.9091171875,9.96701953125,5.66985546875,7.14369921875,4.366328125,6.9634375,5.2986171875,-0.0870468750000004,2.53519140625,-1.4165703125,1.86959765625,3.6616171875,-0.2605078125,1.55651953125
5.961046875,6.12559375,-1.35649609375,11.2688203125,15.8666953125,11.8060546875,9.04528125,-0.71228125,9.97437109375,8.10000390625,7.0091640625,5.4186796875,5.9379921875,8.74485546875,6.52516796875,6.49043359375,6.2791171875,9.85301953125,5.67785546875,6.66569921875,4.070328125,6.2874375,4.8896171875,-0.746046875,2.46819140625,-1.0805703125,1.09559765625,2.3956171875,-1.0965078125,0.715519531249999
4.625046875,2.28759375,-3.77249609375,10.2098203125,14.3706953125,9.0590546875,5.86028125,-3.40328125,6.50837109375,5.96200390625,4.9011640625,3.2086796875,4.6329921875,6.71785546875,5.01616796875,4.37643359375,5.2201171875,9.00701953125,4.91885546875,5.02769921875,2.878328125,5.5074375,4.0066171875,-1.550046875,1.76819140625,-0.4995703125,0.50959765625,1.1276171875,-1.6725078125,-0.0334804687500014
2.645046875,-1.16240625,-5.06649609375,8.1978203125,10.8556953125,5.2100546875,1.89028125,-6.18228125,2.38537109375,3.18000390625,1.8891640625,0.5146796875,3.4269921875,4.16885546875,2.92416796875,1.19643359375,4.0621171875,7.69601953125,3.71985546875,2.62269921875,0.987328125,4.7244375,2.8786171875,-2.277046875,0.524191406249999,0.184429687500001,0.15859765625,0.1566171875,-1.9055078125,-0.580480468750002
0.577046875,-3.18740625,-4.98749609375,6.0808203125,6.4926953125,1.5380546875,-1.68471875,-8.35728125,-1.17662890625,0.68800390625,-1.1468359375,-1.9923203125,2.5129921875,1.95285546875,0.955167968750001,-2.33256640625,3.1171171875,6.32801953125,2.55285546875,0.12069921875,-1.132671875,4.0264375,1.8476171875,-2.663046875,-0.941808593750001,0.849429687500001,0.123597656249999,-0.2643828125,-1.7965078125,-0.813480468750001
-1.073953125,-3.35140625,-3.78049609375,4.5038203125,2.6686953125,-0.7799453125,-3.89771875,-9.45028125,-3.29062890625,-0.75599609375,-3.4238359375,-3.7253203125,2.0249921875,0.69585546875,-0.28283203125,-5.34556640625,2.6261171875,5.22601953125,1.79285546875,-1.78130078125,-2.863671875,3.4094375,1.1866171875,-2.556046875,-2.16280859375,1.4724296875,0.45459765625,-0.0583828124999992,-1.4225078125,-0.648480468750002
-2.036953125,-1.96640625,-1.98549609375,3.7178203125,0.418695312500002,-1.1379453125,-4.28571875,-9.33328125,-3.71562890625,-0.85799609375,-4.5098359375,-4.3473203125,1.9629921875,0.52985546875,-0.52983203125,-7.09156640625,2.7281171875,4.47401953125,1.55485546875,-2.59330078125,-3.633671875,2.7584375,0.955617187499999,-2.006046875,-2.69080859375,2.1514296875,1.08959765625,0.6086171875,-0.9085078125,-0.0584804687500018
-2.331953125,0.15459375,-0.17249609375,3.5648203125,0.023695312500001,0.2900546875,-2.96971875,-8.22428125,-2.82162890625,0.17200390625,-4.4038359375,-3.8053203125,2.1389921875,1.11585546875,0.08116796875,-7.13856640625,3.4581171875,3.92501953125,1.67985546875,-2.15530078125,-3.110671875,1.9134375,1.0076171875,-1.218046875,-2.23580859375,3.0544296875,1.85559765625,1.3826171875,-0.3885078125,0.908519531249999
-2.189953125,2.15859375,1.22950390625,3.6398203125,0.971695312500001,2.6710546875,-0.52371875,-6.56328125,-1.30962890625,1.79300390625,-3.4448359375,-2.2863203125,2.2159921875,1.91285546875,1.16016796875,-5.47456640625,4.7201171875,3.34901953125,1.88485546875,-0.63630078125,-1.324671875,0.774437499999999,1.1056171875,-0.435046875,-0.775808593750001,4.3164296875,2.51959765625,1.8766171875,0.0504921875000002,2.12951953125
-1.904953125,3.48759375,1.93450390625,3.5278203125,2.2926953125,4.8790546875,2.25328125,-4.86728125,0.11737109375,3.37200390625,-2.1288359375,-0.1643203125,1.7959921875,2.45785546875,2.25916796875,-2.50556640625,6.2701171875,2.57301953125,1.93885546875,1.54169921875,1.310328125,-0.643562500000001,1.0646171875,0.165953125,1.40219140625,5.9164296875,2.86859765625,1.8326171875,0.3604921875,3.40351953125
-1.710953125,3.91659375,1.71650390625,2.9818203125,3.0686953125,5.9280546875,4.59328125,-3.59928125,0.97537109375,4.39100390625,-0.9278359375,2.0626796875,0.5329921875,2.53185546875,3.02416796875,1.05143359375,7.7461171875,1.55101953125,1.77485546875,3.82069921875,4.124328125,-2.2145625,0.8256171875,0.509953125,3.76919140625,7.6294296875,2.77959765625,1.2216171875,0.5194921875,4.49951953125
-1.688953125,3.41459375,0.44950390625,1.9878203125,2.8406953125,5.3400546875,5.93828125,-3.04928125,1.08937109375,4.57500390625,-0.1588359375,3.9076796875,-1.7170078125,2.18185546875,3.29116796875,4.39843359375,8.7941171875,0.37301953125,1.49485546875,5.67769921875,6.452328125,-3.7205625,0.4716171875,0.631953125,5.75619140625,9.1184296875,2.29259765625,0.256617187500001,0.5454921875,5.24751953125
-1.745953125,2.04359375,-1.67149609375,0.7278203125,1.7316953125,3.3270546875,6.07828125,-3.22628125,0.57837109375,3.97700390625,0.0781640625,5.0776796875,-4.7550078125,1.65185546875,3.14116796875,6.91943359375,9.2301171875,-0.74398046875,1.29685546875,6.80169921875,7.886328125,-4.8665625,0.1876171875,0.665953125,6.97619140625,10.0974296875,1.65159765625,-0.679382812499999,0.5344921875,5.62751953125
-1.698953125,0.0175937500000001,-3.96649609375,-0.5301796875,0.341695312500002,0.7100546875,5.23028125,-3.84828125,-0.23362890625,2.95700390625,-0.0888359374999999,5.5596796875,-7.9860078125,1.25885546875,2.84616796875,8.33443359375,9.1171171875,-1.50198046875,1.35585546875,7.16769921875,8.375328125,-5.3205625,0.1736171875,0.776953124999999,7.33519140625,10.4394296875,1.22259765625,-1.1873828125,0.6504921875,5.77851953125
-1.421953125,-2.17240625,-5.44249609375,-1.5441796875,-0.556304687499998,-1.4489453125,3.97428125,-4.46628125,-0.96062890625,2.02800390625,-0.3668359375,5.5486796875,-10.5510078125,1.24885546875,2.72916796875,8.67843359375,8.6981171875,-1.61398046875,1.72185546875,6.97569921875,8.130328125,-4.8055625,0.5586171875,1.070953125,6.96219140625,10.1624296875,1.31959765625,-1.0063828125,1.0364921875,5.91351953125
-0.927953125,-3.75440625,-5.27249609375,-2.2151796875,-0.435304687499999,-2.3239453125,2.99228125,-4.68828125,-1.32562890625,1.62500390625,-0.4298359375,5.2996796875,-11.6270078125,1.68385546875,3.00116796875,8.18843359375,8.2411171875,-0.91798046875,2.29685546875,6.50369921875,7.436328125,-3.2205625,1.3526171875,1.543953125,6.08419140625,9.3704296875,2.04459765625,-0.1323828125,1.7144921875,6.19451953125
-0.350953125,-3.94040625,-3.27949609375,-2.6101796875,0.666695312500002,-1.6739453125,2.72528125,-4.37528125,-1.27362890625,1.90300390625,-0.0758359375,5.0006796875,-10.7570078125,2.44185546875,3.68416796875,7.18343359375,7.8981171875,0.53301953125,2.90085546875,5.99469921875,6.514328125,-0.7185625,2.4486171875,2.102953125,4.93619140625,8.2154296875,3.25259765625,1.1866171875,2.5574921875,6.66051953125
0.143046875,-2.36040625,-0.0484960937499997,-2.8651796875,2.1996953125,0.1200546875,3.17728125,-3.67228125,-0.98962890625,2.70000390625,0.6711640625,4.7356796875,-8.0940078125,3.27685546875,4.61016796875,5.96443359375,7.6591171875,2.45201953125,3.35685546875,5.58369921875,5.483328125,2.2794375,3.6406171875,2.627953125,3.71919140625,6.8854296875,4.63059765625,2.5426171875,3.3324921875,7.21151953125
0.439046875,0.60659375,3.37050390625,-3.0051796875,3.5176953125,2.3130546875,3.99728125,-2.90428125,-0.78962890625,3.65100390625,1.5911640625,4.4776796875,-4.3970078125,3.92285546875,5.49016796875,4.75243359375,7.3951171875,4.38301953125,3.55885546875,5.27969921875,4.390328125,5.1654375,4.6666171875,3.017953125,2.58919140625,5.5664296875,5.83959765625,3.5256171875,3.7964921875,7.65251953125
0.518046875,3.91259375,5.97950390625,-2.8391796875,4.3066953125,4.1710546875,4.73828125,-2.38528125,-0.90762890625,4.40700390625,2.3951640625,4.1506796875,-0.7410078125,4.21385546875,6.04816796875,3.67743359375,6.9581171875,5.86401953125,3.51085546875,5.01769921875,3.281328125,7.3164375,5.2926171875,3.246953125,1.65819140625,4.4164296875,6.64759765625,3.8896171875,3.8054921875,7.79151953125
0.482046875,6.31459375,7.23450390625,-2.0701796875,4.6986953125,5.2800546875,5.09728125,-2.26628125,-1.31262890625,4.82100390625,2.8751640625,3.7246796875,1.9709921875,4.18185546875,6.17416796875,2.83043359375,6.3091171875,6.62601953125,3.32885546875,4.75469921875,2.262328125,8.3214375,5.4336171875,3.397953125,1.04819140625,3.5814296875,6.99659765625,3.6636171875,3.4014921875,7.55351953125
0.525046875,6.98259375,7.12650390625,-0.5621796875,5.0466953125,5.6420546875,5.04628125,-2.47828125,-1.67262890625,4.99600390625,2.9961640625,3.2876796875,3.4049921875,4.04785546875,5.98716796875,2.30343359375,5.5701171875,6.68701953125,3.19585546875,4.55269921875,1.521328125,8.1354375,5.1996171875,3.643953125,0.906191406249999,3.2104296875,6.99359765625,3.1406171875,2.8234921875,7.04451953125
0.836046875,5.84759375,5.99350390625,1.4518203125,5.5826953125,5.5480546875,4.81728125,-2.79028125,-1.54562890625,5.14900390625,2.8841640625,3.0056796875,3.8059921875,4.06385546875,5.73616796875,2.17843359375,4.9611171875,6.28001953125,3.25585546875,4.56769921875,1.262328125,7.0794375,4.8336171875,4.143953125,1.34219140625,3.4254296875,6.81159765625,2.7316171875,2.4094921875,6.51451953125
1.464046875,3.56259375,4.28450390625,3.4228203125,6.2026953125,5.3220546875,4.76428125,-2.94228125,-0.66662890625,5.40500390625,2.7261640625,3.0266796875,3.6679921875,4.32385546875,5.62216796875,2.48343359375,4.6671171875,5.67601953125,3.51285546875,4.94869921875,1.613328125,5.6804375,4.5766171875,4.931953125,2.34219140625,4.2414296875,6.60259765625,2.7676171875,2.4584921875,6.24151953125
2.238046875,1.16959375,2.49050390625,4.7498203125,6.4806953125,5.0830546875,5.12428125,-2.76028125,0.82737109375,5.67300390625,2.6431640625,3.4066796875,3.3619921875,4.68785546875,5.68216796875,3.18143359375,4.7481171875,5.06101953125,3.80985546875,5.74869921875,2.551328125,4.4694375,4.5606171875,5.886953125,3.74819140625,5.5344296875,6.48059765625,3.3746171875,3.1274921875,6.41451953125
2.836046875,-0.32940625,1.16950390625,5.0918203125,5.9396953125,4.6920546875,5.83628125,-2.19928125,2.39337109375,5.68900390625,2.6321640625,4.1106796875,3.0029921875,4.86385546875,5.81616796875,4.21043359375,5.1481171875,4.51501953125,3.92885546875,6.88869921875,3.921328125,3.8204375,4.7846171875,6.800953125,5.32619140625,7.0814296875,6.54159765625,4.4516171875,4.3904921875,7.06751953125
2.951046875,-0.35340625,0.85550390625,4.5028203125,4.4216953125,3.9060546875,6.56228125,-1.32428125,3.30237109375,5.19200390625,2.6101640625,5.0366796875,2.5429921875,4.59185546875,5.88816796875,5.50043359375,5.7621171875,4.07301953125,3.72385546875,8.19369921875,5.484328125,3.8594375,5.1406171875,7.475953125,6.84519140625,8.6274296875,6.85959765625,5.7236171875,6.0194921875,8.07151953125
2.463046875,1.05559375,1.81350390625,3.3288203125,2.3166953125,2.6360546875,6.89428125,-0.27428125,3.00237109375,4.11800390625,2.5211640625,6.0286796875,1.9249921875,3.80985546875,5.81616796875,6.93943359375,6.4871171875,3.77101953125,3.21085546875,9.43969921875,6.980328125,4.4634375,5.4776171875,7.789953125,8.11219140625,9.9254296875,7.45559765625,6.8466171875,7.6164921875,9.17451953125
1.509046875,3.29959375,3.83550390625,1.9358203125,0.422695312500002,1.0990546875,6.59828125,0.77771875,1.44837109375,2.69100390625,2.4041640625,6.9136796875,1.1639921875,2.72485546875,5.62616796875,8.34043359375,7.2101171875,3.67601953125,2.57485546875,10.41369921875,8.162328125,5.3374375,5.6696171875,7.720953125,8.99619140625,10.7744296875,8.27459765625,7.5316171875,8.7364921875,10.09151953125
0.428046875,5.49459375,6.27350390625,0.5008203125,-0.467304687499999,-0.2169453125,5.75428125,1.65871875,-0.78462890625,1.36600390625,2.3721640625,7.5436796875,0.3439921875,1.76185546875,5.43916796875,9.45343359375,7.7881171875,3.87601953125,2.08485546875,10.95569921875,8.826328125,6.1514375,5.6796171875,7.334953125,9.43319140625,11.0494296875,9.21059765625,7.6436171875,9.0774921875,10.62351953125
-0.382953125,6.81959375,8.26350390625,-1.0001796875,0.055695312500001,-0.7789453125,4.74828125,2.23771875,-2.72762890625,0.63000390625,2.5281640625,7.8156796875,-0.4260078125,1.35985546875,5.39016796875,10.01143359375,8.0521171875,4.42101953125,1.96585546875,10.96669921875,8.828328125,6.6484375,5.5426171875,6.733953125,9.41819140625,10.7244296875,10.12359765625,7.2136171875,8.5984921875,10.71651953125
-0.640953125,6.81659375,9.02750390625,-2.6031796875,1.8426953125,-0.2999453125,4.08328125,2.44671875,-3.48162890625,0.74200390625,2.8761640625,7.6736796875,-1.0940078125,1.71885546875,5.50416796875,9.79243359375,7.8571171875,5.23301953125,2.25585546875,10.38969921875,8.112328125,6.6864375,5.2956171875,5.976953125,8.95819140625,9.8734296875,10.83959765625,6.3586171875,7.4984921875,10.45751953125
-0.278953125,5.56059375,8.18150390625,-4.1621796875,4.2326953125,1.0860546875,4.08528125,2.29171875,-2.67562890625,1.56700390625,3.2801640625,7.1106796875,-1.6900078125,2.67385546875,5.65516796875,8.71043359375,7.1731171875,6.07701953125,2.77085546875,9.21969921875,6.764328125,6.2174375,4.9186171875,5.058953125,8.07019140625,8.6794296875,11.17559765625,5.1946171875,6.0844921875,10.01751953125
0.570046875,3.64059375,5.93050390625,-5.2951796875,6.2626953125,2.8440546875,4.66528125,1.85871875,-0.64462890625,2.61200390625,3.4921640625,6.2346796875,-2.2650078125,3.77385546875,5.63416796875,6.90443359375,6.1681171875,6.63901953125,3.18485546875,7.56569921875,5.064328125,5.2824375,4.3526171875,3.948953125,6.83919140625,7.4424296875,11.00759765625,3.8246171875,4.6634921875,9.61151953125
1.654046875,1.89359375,3.02350390625,-5.5081796875,7.0406953125,4.2810546875,5.34228125,1.30571875,1.73737109375,3.25600390625,3.2721640625,5.2756796875,-2.8180078125,4.51085546875,5.26516796875,4.75443359375,5.2051171875,6.66901953125,3.18885546875,5.68269921875,3.456328125,4.0054375,3.5596171875,2.655953125,5.47419140625,6.5284296875,10.35959765625,2.3816171875,3.4684921875,9.45151953125
2.691046875,0.99259375,0.43550390625,-4.4371796875,6.1446953125,4.8480546875,5.53328125,0.79171875,3.48337109375,3.03000390625,2.5061640625,4.4936796875,-3.2730078125,4.53585546875,4.48016796875,2.75243359375,4.6931171875,6.08101953125,2.62685546875,3.92969921875,2.401328125,2.5724375,2.5696171875,1.257953125,4.28019140625,6.2234296875,9.41959765625,1.0476171875,2.6364921875,9.68151953125
3.428046875,1.12959375,-1.05549609375,-2.0731796875,3.8336953125,4.3600546875,4.90528125,0.41071875,3.95737109375,1.84100390625,1.2881640625,4.0496796875,-3.5330078125,3.80485546875,3.33916796875,1.31543359375,4.8831171875,5.01101953125,1.56585546875,2.65069921875,2.182328125,1.2044375,1.4956171875,-0.0950468750000004,3.56319140625,6.5804296875,8.47559765625,0.0266171875000003,2.2054921875,10.32051953125
3.724046875,2.03959375,-1.13049609375,1.1868203125,0.954695312500002,3.0570546875,3.56128125,0.18271875,3.17937109375,0.0340039062499997,-0.0968359374999999,3.9676796875,-3.4960078125,2.63085546875,2.05916796875,0.671433593750001,5.7321171875,3.81201953125,0.29685546875,2.08569921875,2.794328125,0.1404375,0.5366171875,-1.154046875,3.53319140625,7.3864296875,7.80759765625,-0.509382812499999,2.1724921875,11.23351953125
3.620046875,3.29759375,0.0735039062500003,4.7238203125,-1.3563046875,1.5010546875,1.99428125,0.11871875,1.78837109375,-1.71699609375,-1.2538359375,4.1976796875,-3.0300078125,1.58885546875,0.99816796875,0.84843359375,6.9221171875,2.98201953125,-0.742144531250001,2.32569921875,3.974328125,-0.3835625,-0.0543828125000001,-1.605046875,4.23719140625,8.2664296875,7.58659765625,-0.457382812499999,2.5164921875,12.17751953125
3.333046875,4.61859375,2.13050390625,7.9698203125,-2.0423046875,0.3360546875,0.86128125,0.26871875,0.66437109375,-2.69999609375,-1.8068359375,4.6766796875,-1.9790078125,1.27585546875,0.54216796875,1.70843359375,8.0281171875,2.98601953125,-1.14314453125,3.28569921875,5.329328125,-0.1955625,-0.0533828125000007,-1.182046875,5.50719140625,8.8564296875,7.80559765625,0.166617187500001,3.1794921875,12.88351953125
3.138046875,5.92259375,4.51550390625,10.5468203125,-0.507304687499999,-0.00694531250000008,0.65328125,0.68671875,0.43737109375,-2.50799609375,-1.5528359375,5.3346796875,-0.2770078125,2.00885546875,0.91316796875,2.98943359375,8.7151171875,4.03701953125,-0.73114453125,4.70469921875,6.498328125,0.7244375,0.612617187499999,0.156953124999999,6.97419140625,8.9694296875,8.27959765625,1.2216171875,4.0064921875,13.15151953125
3.225046875,7.19059375,6.72450390625,12.2228203125,3.0306953125,0.5030546875,1.41028125,1.34571875,1.18937109375,-1.23799609375,-0.5828359375,6.0686796875,1.9249921875,3.65485546875,2.03116796875,4.36643359375,8.8651171875,5.95401953125,0.33185546875,6.19369921875,7.280328125,2.1964375,1.8116171875,2.140953125,8.19519140625,8.6814296875,8.75459765625,2.4616171875,4.7684921875,12.93951953125
3.624046875,8.29959375,8.32650390625,12.8338203125,7.4886953125,1.5470546875,2.68828125,2.10671875,2.50037109375,0.57600390625,0.7371640625,6.7566796875,4.2399921875,5.69385546875,3.53816796875,5.55643359375,8.5921171875,8.22301953125,1.63385546875,7.37469921875,7.684328125,3.8834375,3.2406171875,4.265953125,8.84319140625,8.2944296875,9.06059765625,3.6186171875,5.2704921875,12.38751953125
4.244046875,8.96759375,8.99250390625,12.3208203125,11.3736953125,2.7040546875,3.85928125,2.77571875,3.77837109375,2.26900390625,1.9471640625,7.2926796875,6.1609921875,7.47585546875,4.97116796875,6.41643359375,8.1341171875,10.20601953125,2.74785546875,8.01869921875,7.888328125,5.4064375,4.5556171875,6.012953125,8.84819140625,8.1674296875,9.21459765625,4.4986171875,5.4594921875,11.77151953125
4.933046875,8.85759375,8.58350390625,10.8498203125,13.5396953125,3.7020546875,4.53928125,3.18771875,4.60837109375,3.38000390625,2.7361640625,7.6196796875,7.2469921875,8.51885546875,5.96816796875,6.98043359375,7.7031171875,11.41001953125,3.46285546875,8.12769921875,8.115328125,6.4934375,5.5206171875,7.075953125,8.40219140625,8.4994296875,9.40259765625,5.0596171875,5.4724921875,11.39951953125
5.517046875,7.78559375,7.26550390625,8.8338203125,13.6856953125,4.4760546875,4.77928125,3.24671875,4.89237109375,3.79300390625,3.0481640625,7.7426796875,7.3039921875,8.68885546875,6.41216796875,7.40743359375,7.3741171875,11.67201953125,3.86085546875,7.89369921875,8.514328125,7.0764375,6.0956171875,7.490953125,7.84419140625,9.2214296875,9.86459765625,5.4116171875,5.5724921875,11.49251953125
5.808046875,5.89259375,5.56150390625,6.8028203125,12.2456953125,5.0140546875,4.88528125,2.91071875,4.70837109375,3.62300390625,2.9941640625,7.7136796875,6.4699921875,8.16085546875,6.41116796875,7.87143359375,7.0861171875,11.16201953125,4.17585546875,7.57569921875,9.073328125,7.2864375,6.4126171875,7.573953125,7.50219140625,10.0534296875,10.73059765625,5.7376171875,6.0164921875,12.10051953125
5.616046875,3.64459375,4.15750390625,5.1718203125,9.9016953125,5.1700546875,5.07228125,2.15771875,4.06737109375,2.98200390625,2.6731640625,7.5646796875,5.1199921875,7.20185546875,6.14116796875,8.42343359375,6.7031171875,10.21101953125,4.54585546875,7.33169921875,9.616328125,7.3204375,6.6186171875,7.694953125,7.50419140625,10.6324296875,11.88359765625,6.1276171875,6.8794921875,13.04651953125
4.803046875,1.64359375,3.56250390625,4.0708203125,7.1936953125,4.6450546875,5.24328125,0.99471875,2.82137109375,1.84500390625,2.0661640625,7.2616796875,3.6719921875,5.95685546875,5.66316796875,8.92343359375,6.1131171875,9.10001953125,4.84485546875,7.11269921875,9.867328125,7.2784375,6.7106171875,8.031953125,7.68919140625,10.6484296875,12.94859765625,6.4766171875,7.9374921875,13.95051953125
3.383046875,0.37959375,3.86150390625,3.3168203125,4.4176953125,3.1740546875,5.05728125,-0.48328125,0.84037109375,0.13500390625,1.0841640625,6.7376796875,2.3919921875,4.42385546875,4.90816796875,9.10743359375,5.3271171875,7.95601953125,4.75285546875,6.71369921875,9.601328125,7.0914375,6.5166171875,8.484953125,7.68719140625,9.9644296875,13.45859765625,6.5366171875,8.7544921875,14.36451953125
1.597046875,0.0565937500000002,4.74450390625,2.5468203125,1.7326953125,0.7930546875,4.21728125,-2.02928125,-1.70362890625,-2.05599609375,-0.2908359375,6.0136796875,1.3439921875,2.62685546875,3.82216796875,8.78743359375,4.5261171875,6.82401953125,4.01385546875,5.94269921875,8.797328125,6.6254375,5.8346171875,8.782953125,7.17019140625,8.7204296875,13.12659765625,6.1076171875,8.9354921875,13.99251953125
-0.110953125,0.56159375,5.74350390625,1.4768203125,-0.683304687499999,-1.9999453125,2.76628125,-3.25528125,-4.22062890625,-4.31499609375,-1.8748359375,5.2846796875,0.4659921875,0.794855468750001,2.52716796875,8.01443359375,4.0401171875,5.78601953125,2.68985546875,4.79269921875,7.718328125,5.8374375,4.6536171875,8.706953125,6.10019140625,7.3364296875,12.04359765625,5.2186171875,8.3874921875,12.86251953125
-1.235953125,1.55159375,6.46150390625,0.1588203125,-2.4853046875,-4.3629453125,1.20228125,-3.76328125,-5.88562890625,-5.97499609375,-3.2658359375,4.8486796875,-0.3070078125,-0.631144531249999,1.34216796875,7.07643359375,4.1951171875,5.01601953125,1.22085546875,3.49769921875,6.816328125,4.8654375,3.2586171875,8.254953125,4.79319140625,6.3584296875,10.64859765625,4.1506171875,7.3774921875,11.34051953125
-1.430953125,2.62659375,6.67450390625,-0.9591796875,-3.1543046875,-5.4689453125,0.272281250000001,-3.34028125,-6.03062890625,-6.38999609375,-3.9838359375,4.9316796875,-0.9230078125,-1.18214453125,0.65216796875,6.33643359375,5.1261171875,4.71701953125,0.26085546875,2.42869921875,6.530328125,3.9854375,2.1656171875,7.668953125,3.76919140625,6.2004296875,9.50659765625,3.3076171875,6.3684921875,9.95151953125
-0.676953125,3.52159375,6.36550390625,-1.2531796875,-2.1823046875,-4.9259453125,0.53428125,-2.09728125,-4.48462890625,-5.25999609375,-3.7188359375,5.5386796875,-1.1720078125,-0.60514453125,0.72216796875,6.04043359375,6.6551171875,5.02301953125,0.394855468749999,1.92669921875,7.071328125,3.4784375,1.8956171875,7.321953125,3.49319140625,6.9444296875,9.03959765625,3.0126171875,5.7774921875,9.13451953125
0.698046875,4.20659375,5.69950390625,-0.2751796875,0.612695312500001,-2.9879453125,2.01528125,-0.45528125,-1.70262890625,-2.81099609375,-2.5198359375,6.4406796875,-0.7780078125,0.98985546875,1.59116796875,6.22343359375,8.3521171875,5.90401953125,1.87485546875,2.15969921875,8.331328125,3.4924375,2.7266171875,7.542953125,4.16919140625,8.3214296875,9.36859765625,3.3656171875,5.7864921875,9.05951953125
2.162046875,4.80859375,4.97150390625,1.9558203125,4.8306953125,-0.4249453125,4.18428125,1.03471875,1.39737109375,0.29200390625,-0.7848359375,7.2946796875,0.3829921875,3.16485546875,3.07716796875,6.74443359375,9.7271171875,7.15601953125,4.50485546875,3.07869921875,9.951328125,3.9734375,4.5396171875,8.456953125,5.66319140625,9.8594296875,10.31559765625,4.2036171875,6.3074921875,9.59551953125
3.236046875,5.43959375,4.54550390625,4.8918203125,9.4026953125,1.8900546875,6.24228125,1.93571875,3.81637109375,3.24800390625,0.9501640625,7.8436796875,2.1009921875,5.37085546875,4.90716796875,7.42743359375,10.4641171875,8.48301953125,7.73285546875,4.49069921875,11.486328125,4.6984375,6.8696171875,9.953953125,7.60819140625,11.1294296875,11.55559765625,5.1926171875,7.0794921875,10.44451953125
3.730046875,6.09459375,4.82650390625,7.6468203125,12.7196953125,3.4150546875,7.46028125,2.11371875,4.89937109375,5.49100390625,2.2621640625,8.1076796875,3.8389921875,7.24985546875,6.93516796875,8.24643359375,10.5631171875,9.65801953125,10.92385546875,6.21869921875,12.607328125,5.4094375,9.1366171875,11.814953125,9.63719140625,11.9614296875,12.83259765625,5.9966171875,7.8654921875,11.33151953125
3.828046875,6.69459375,6.21650390625,9.3438203125,13.0586953125,4.1430546875,7.39728125,1.75871875,4.55737109375,6.91300390625,2.9861640625,8.4306796875,4.9929921875,8.82085546875,9.26916796875,9.40443359375,10.3111171875,10.65301953125,13.64385546875,8.23069921875,13.224328125,5.9574375,10.9246171875,13.882953125,11.58819140625,12.5224296875,14.09459765625,6.4356171875,8.6144921875,12.15151953125
3.932046875,7.18759375,8.98450390625,9.4678203125,9.2676953125,4.4670546875,5.96528125,1.23871875,3.16837109375,7.79300390625,3.2001640625,9.2896796875,5.1969921875,10.38685546875,12.18516796875,11.20243359375,10.1081171875,11.61601953125,15.79485546875,10.62369921875,13.462328125,6.3574375,12.1116171875,16.135953125,13.54119140625,13.1734296875,15.46859765625,6.5346171875,9.4574921875,12.96451953125
4.359046875,7.58059375,13.06150390625,8.0688203125,1.4416953125,4.8170546875,3.41628125,0.85571875,1.25737109375,8.50900390625,3.0991640625,10.9446796875,4.4839921875,12.23885546875,15.84116796875,13.78243359375,10.2161171875,12.71401953125,17.52685546875,13.46169921875,13.528328125,6.7054375,12.8296171875,18.597953125,15.64419140625,14.1854296875,17.08459765625,6.4356171875,10.5334921875,13.87251953125
5.120046875,7.91159375,17.93250390625,5.7448203125,-8.8683046875,5.3610546875,0.264281250000001,0.67371875,-0.77762890625,9.28100390625,2.8841640625,13.2046796875,3.2239921875,14.39585546875,20.04316796875,16.91743359375,10.6161171875,13.96801953125,19.07685546875,16.62469921875,13.575328125,7.0694375,13.3186171875,21.211953125,17.91619140625,15.5414296875,18.91959765625,6.2756171875,11.8204921875,14.89251953125
5.120046875,7.91159375,17.93250390625,5.7448203125,-8.8683046875,5.3610546875,0.264281250000001,0.67371875,-0.77762890625,9.28100390625,2.8841640625,13.2046796875,3.2239921875,14.39585546875,20.04316796875,16.91743359375,10.6161171875,13.96801953125,19.07685546875,16.62469921875,13.575328125,7.0694375,13.3186171875,21.211953125,17.91619140625,15.5414296875,18.91959765625,6.2756171875,11.8204921875,14.89251953125
