"Fp1","Fpz","Fp2","F7","F3","Fz","F4","F8","FC5","FC1","FC2","FC6","T7","C3","Cz","C4","T8","CP5","CP1","CP2","CP6","P7","P3","Pz","P4","P8","POz","O1","Oz","O2"
12.2820390625,0.65345703125,11.3741640625,0.40348828125,8.953671875,14.2361796875,15.33659375,5.6317265625,8.189234375,12.0505,11.2256796875,10.395859375,9.49225,8.63655078125,10.03078125,11.971609375,0.9640078125,5.467640625,0.29549609375,8.4423203125,12.469953125,0.401109375,2.26327734375,1.8174140625,-0.614046875,-8.133453125,-5.3110859375,-10.4000234375,-2.267984375,-12.04426171875
9.0960390625,1.15045703125,9.3861640625,2.85248828125,8.774671875,13.7491796875,12.43559375,7.5977265625,7.560234375,12.7145,11.0376796875,10.841859375,9.10625,8.61755078125,10.59678125,12.437609375,0.9030078125,7.009640625,1.46949609375,10.0433203125,14.024953125,1.617109375,4.95427734375,4.5354140625,2.324953125,-4.490453125,-0.6150859375,-6.4290234375,4.113015625,-7.03826171875
6.8370390625,1.16345703125,7.9161640625,4.28648828125,8.012671875,12.7591796875,10.26459375,8.0627265625,6.484234375,12.3285,10.0376796875,10.612859375,8.84525,7.98955078125,10.07678125,11.896609375,0.3480078125,7.650640625,2.06449609375,10.4533203125,14.538953125,2.155109375,6.55927734375,6.1434140625,3.735953125,-2.674453125,2.6439140625,-3.6180234375,7.831015625,-4.01826171875
5.4090390625,0.71845703125,6.8691640625,4.58048828125,6.699671875,11.2041796875,8.76959375,7.0187265625,5.001234375,10.8675,8.2016796875,9.673859375,8.72025,6.86155078125,8.47278125,10.242609375,-0.6809921875,7.370640625,2.06449609375,9.6233203125,13.980953125,1.914109375,7.02827734375,6.5964140625,3.570953125,-2.616453125,4.4039140625,-2.1500234375,8.853015625,-2.96726171875
4.4460390625,0.00745703124999997,6.0191640625,3.92448828125,5.092671875,9.2121796875,7.68359375,4.9907265625,3.355234375,8.6655,5.7916796875,8.209859375,8.70825,5.58455078125,6.16978125,7.706609375,-1.9439921875,6.458640625,1.65549609375,7.9023203125,12.674953125,1.042109375,6.64627734375,6.2074140625,2.278953125,-3.633453125,5.0469140625,-1.8450234375,7.974015625,-3.20926171875
3.5930390625,-0.70454296875,5.1871640625,2.71648828125,3.571671875,7.0831796875,6.71859375,2.8157265625,1.900234375,6.2665,3.2566796875,6.536859375,8.77525,4.58055078125,3.77078125,4.794609375,-3.0589921875,5.363640625,1.12949609375,5.8863203125,11.157953125,-0.109890625,5.86227734375,5.4884140625,0.583953125,-4.785453125,5.1659140625,-2.2430234375,6.417015625,-3.75626171875
2.7280390625,-1.18854296875,4.3391640625,1.39448828125,2.482671875,5.1831796875,5.70059375,1.2997265625,0.958234375,4.2165,1.0716796875,4.971859375,8.88625,4.14555078125,1.85078125,2.117609375,-3.6479921875,4.489640625,0.749496093749999,4.1803203125,9.958953125,-1.118890625,5.08327734375,4.9134140625,-0.831046875,-5.292453125,5.2839140625,-2.8120234375,5.369015625,-3.75726171875
1.9650390625,-1.34654296875,3.5491640625,0.26548828125,1.985671875,3.7751796875,4.57659375,0.8627265625,0.654234375,2.8775,-0.4433203125,3.704859375,8.99425,4.31055078125,0.74078125,0.161609375,-3.4959921875,4.028640625,0.61549609375,3.1573203125,9.382953125,-1.645890625,4.50827734375,4.7174140625,-1.595046875,-4.847453125,5.6299140625,-3.1760234375,5.554015625,-2.86526171875
1.4700390625,-1.26154296875,2.9171640625,-0.56751171875,1.958671875,2.8881796875,3.34159375,1.3537265625,0.838234375,2.3015,-1.2533203125,2.736859375,9.00625,4.82755078125,0.38978125,-0.900390625,-2.6489921875,3.907640625,0.602496093749999,2.8233203125,9.385953125,-1.553890625,4.07927734375,4.7874140625,-1.765046875,-3.709453125,6.0789140625,-3.2550234375,6.927015625,-1.36526171875
1.2730390625,-1.15554296875,2.5071640625,-1.18151171875,2.022671875,2.3071796875,1.99259375,2.1367265625,1.134234375,2.2235,-1.6363203125,1.919859375,8.79125,5.27855078125,0.39378125,-1.269390625,-1.4019921875,3.853640625,0.42049609375,2.8283203125,9.603953125,-0.947890625,3.55027734375,4.7184140625,-1.742046875,-2.542453125,6.2559140625,-3.2690234375,8.726015625,-0.0192617187500002
1.1720390625,-1.27554296875,2.3261640625,-1.72751171875,1.691671875,1.6841796875,0.51359375,2.4227265625,1.125234375,2.1835,-2.0613203125,1.075859375,8.25025,5.26655078125,0.19778125,-1.396390625,-0.1669921875,3.561640625,-0.238503906250001,2.6603203125,9.543953125,-0.122890625,2.64427734375,4.0294140625,-2.014046875,-2.053453125,5.7659140625,-3.6040234375,9.889015625,0.351738281249999
0.8060390625,-1.74854296875,2.3081640625,-2.32951171875,0.605671875,0.7201796875,-1.12840625,1.6687265625,0.562234375,1.7495,-2.9633203125,0.137859375,7.42125,4.60855078125,-0.62821875,-1.727390625,0.7010078125,2.890640625,-1.51950390625,1.9293203125,8.849953125,0.579109375,1.25127734375,2.4554140625,-2.859046875,-2.606453125,4.4459140625,-4.5840234375,9.631015625,-0.648261718750001
-0.1289609375,-2.52254296875,2.3121640625,-2.98351171875,-1.268328125,-0.6908203125,-2.95740625,-0.1542734375,-0.505765625,0.7165,-4.5173203125,-0.807140625,6.51525,3.43455078125,-2.16821875,-2.472390625,1.0450078125,1.981640625,-3.28750390625,0.5873203125,7.499953125,0.959109375,-0.44272265625,0.1534140625,-4.158046875,-3.998453125,2.5189140625,-6.2340234375,7.843015625,-2.68726171875
-1.6159609375,-3.41854296875,2.1761640625,-3.52351171875,-3.592328125,-2.4298203125,-4.92140625,-2.5612734375,-1.769765625,-0.8165,-6.5573203125,-1.578140625,5.83825,2.12255078125,-4.14621875,-3.538390625,0.9160078125,1.209640625,-5.16650390625,-1.0576796875,5.818953125,1.063109375,-1.98972265625,-2.3245859375,-5.450046875,-5.566453125,0.5319140625,-8.1720234375,5.145015625,-4.81426171875
-3.2239609375,-4.24854296875,1.7741640625,-3.68551171875,-5.813328125,-4.2398203125,-6.85740625,-4.8212734375,-2.833765625,-2.5485,-8.6813203125,-2.024140625,5.60925,1.08555078125,-6.11221875,-4.666390625,0.4820078125,0.956640625,-6.73450390625,-2.5556796875,4.294953125,1.133109375,-2.90572265625,-4.2995859375,-6.213046875,-6.546453125,-0.9030859375,-9.7420234375,2.582015625,-5.95826171875
-4.3199609375,-4.89354296875,1.0351640625,-3.27451171875,-7.437328125,-5.8898203125,-8.54440625,-6.3322734375,-3.431765625,-4.1665,-10.4723203125,-2.131140625,5.82125,0.53855078125,-7.71621875,-5.649390625,-0.1139921875,1.357640625,-7.77250390625,-3.6036796875,3.295953125,1.405109375,-2.94872265625,-5.3225859375,-6.219046875,-6.492453125,-1.4270859375,-10.3520234375,1.088015625,-5.55526171875
-4.4619609375,-5.32554296875,-0.0658359374999997,-2.34251171875,-8.246328125,-7.2848203125,-9.80740625,-6.8772734375,-3.552765625,-5.5095,-11.6993203125,-2.071140625,6.23825,0.38155078125,-8.88021875,-6.474390625,-0.8289921875,2.177640625,-8.38850390625,-4.2166796875,2.885953125,1.901109375,-2.27472265625,-5.3875859375,-5.712046875,-5.496453125,-1.1040859375,-9.8170234375,0.996015625,-3.90726171875
-3.6519609375,-5.57154296875,-1.4648359375,-1.20251171875,-8.350328125,-8.4498203125,-10.55740625,-6.6072734375,-3.402765625,-6.6075,-12.3743203125,-2.154140625,6.54425,0.29255078125,-9.77121875,-7.305390625,-1.6939921875,2.918640625,-8.92150390625,-4.6736796875,2.838953125,2.400109375,-1.35272265625,-4.8845859375,-5.285046875,-4.093453125,-0.3310859375,-8.4630234375,1.911015625,-2.02426171875
-2.3139609375,-5.68154296875,-2.9558359375,-0.26751171875,-8.044328125,-9.4378203125,-10.77940625,-5.8282734375,-3.239765625,-7.5955,-12.6633203125,-2.706140625,6.53625,-0.0534492187499995,-10.62021875,-8.312390625,-2.7169921875,3.093640625,-9.67950390625,-5.2946796875,2.831953125,2.600109375,-0.68872265625,-4.3255859375,-5.521046875,-2.946453125,0.4409140625,-6.8970234375,3.059015625,-1.04926171875
-1.0629609375,-5.70454296875,-4.1938359375,0.18648828125,-7.603328125,-10.2348203125,-10.53240625,-4.8022734375,-3.201765625,-8.5495,-12.7313203125,-3.909140625,6.23425,-0.76944921875,-11.50721875,-9.490390625,-3.8069921875,2.493640625,-10.70750390625,-6.1916796875,2.679953125,2.365109375,-0.53272265625,-4.0225859375,-6.619046875,-2.506453125,0.9899140625,-5.6370234375,3.820015625,-1.60126171875
-0.4469609375,-5.67154296875,-4.8238359375,0.14848828125,-7.141328125,-10.7638203125,-9.96540625,-3.6992734375,-3.237765625,-9.3835,-12.6283203125,-5.679140625,5.83025,-1.68644921875,-12.26821875,-10.578390625,-4.7769921875,1.291640625,-11.72250390625,-7.1596796875,2.453953125,1.846109375,-0.76072265625,-3.9245859375,-8.241046875,-2.829453125,1.4059140625,-4.8420234375,4.030015625,-3.45226171875
-0.7139609375,-5.59254296875,-4.6348359375,-0.15751171875,-6.604328125,-10.9198203125,-9.26940625,-2.6552734375,-3.170765625,-9.8425,-12.2523203125,-7.657140625,5.52225,-2.44044921875,-12.55921875,-11.150390625,-5.4239921875,-0.0663593750000002,-12.25150390625,-7.7606796875,2.423953125,1.381109375,-0.99472265625,-3.6985859375,-9.668046875,-3.625453125,1.9519140625,-4.3080234375,3.906015625,-5.68726171875
-1.6699609375,-5.44654296875,-3.6458359375,-0.41451171875,-5.874328125,-10.6128203125,-8.55040625,-1.8322734375,-2.838765625,-9.6255,-11.3993203125,-9.316140625,5.38525,-2.64644921875,-12.01721875,-10.802390625,-5.6209921875,-1.100359375,-11.87150390625,-7.5416796875,2.893953125,1.264109375,-0.85872265625,-2.9765859375,-10.161046875,-4.470453125,2.8189140625,-3.6840234375,3.790015625,-7.23026171875
-2.7349609375,-5.18754296875,-2.1008359375,-0.36251171875,-4.868328125,-9.7898203125,-7.74040625,-1.3842734375,-2.208765625,-8.5285,-9.8563203125,-10.120140625,5.33925,-2.06444921875,-10.42721875,-9.340390625,-5.3569921875,-1.505359375,-10.42350390625,-6.2606796875,4.030953125,1.546109375,-0.19472265625,-1.5985859375,-9.318046875,-5.034453125,3.9559140625,-2.7430234375,3.929015625,-7.36426171875
-3.2139609375,-4.74654296875,-0.3838359375,0.12148828125,-3.585328125,-8.4438203125,-6.63140625,-1.3632734375,-1.376765625,-6.5415,-7.4963203125,-9.682140625,5.25025,-0.68544921875,-7.80221875,-6.852390625,-4.7079921875,-1.245359375,-8.09750390625,-3.9946796875,5.794953125,2.018109375,0.88427734375,0.3114140625,-7.236046875,-5.194453125,5.0919140625,-1.5400234375,4.354015625,-6.00426171875
-2.6169609375,-4.05454296875,1.0991640625,1.03248828125,-2.089328125,-6.6008203125,-4.99640625,-1.5962734375,-0.495765625,-3.8525,-4.3423203125,-7.862140625,5.03825,1.29055078125,-4.39121875,-3.666390625,-3.7739921875,-0.497359375,-5.34750390625,-1.1046796875,7.983953125,2.351109375,2.10527734375,2.4254140625,-4.437046875,-5.025453125,5.8859140625,-0.3830234375,4.868015625,-3.63126171875
-0.8419609375,-3.08254296875,2.0871640625,2.31948828125,-0.486328125,-4.3068203125,-2.69640625,-1.6572734375,0.340234375,-0.7885,-0.6023203125,-4.815140625,4.74325,3.53955078125,-0.61221875,-0.237390625,-2.6419921875,0.444640624999999,-2.70650390625,1.9033203125,10.310953125,2.292109375,3.17827734375,4.3744140625,-1.635046875,-4.708453125,6.1039140625,0.321976562499999,5.167015625,-1.03226171875
1.8110390625,-1.87354296875,2.5641640625,3.90948828125,1.099671875,-1.6498203125,0.23259375,-1.0112734375,1.135234375,2.2835,3.3356796875,-0.993140625,4.51225,5.72255078125,3.03578125,2.973609375,-1.3929921875,1.304640625,-0.58550390625,4.5443203125,12.485953125,1.788109375,3.91227734375,5.8714140625,0.525953125,-4.425453125,5.7169140625,0.284976562499999,5.052015625,1.01373828125
4.7360390625,-0.55254296875,2.7461640625,5.66948828125,2.536671875,1.1931796875,3.51959375,0.6857265625,1.958234375,5.0465,6.9746796875,2.924859375,4.53025,7.58055078125,6.09278125,5.605609375,-0.1369921875,1.926640625,0.84849609375,6.4973203125,14.280953125,1.019109375,4.27827734375,6.8044140625,1.689953125,-4.244453125,4.9339140625,-0.4870234375,4.588015625,2.03873828125
7.2130390625,0.69545703125,2.9231640625,7.35448828125,3.718671875,3.9431796875,6.70459375,3.3417265625,2.871234375,7.3175,9.8396796875,6.183859375,4.92225,8.99055078125,8.26778125,7.455609375,0.9890078125,2.343640625,1.70149609375,7.6963203125,15.585953125,0.323109375,4.41427734375,7.2614140625,1.875953125,-4.040453125,4.1489140625,-1.6280234375,4.084015625,2.07573828125
8.6970390625,1.69345703125,3.2701640625,8.65648828125,4.596671875,6.2741796875,9.31159375,6.4427265625,3.891234375,9.0725,11.6406796875,8.187859375,5.69025,9.97555078125,9.52778125,8.489609375,1.8520078125,2.744640625,2.28349609375,8.3043203125,16.433953125,0.0611093749999999,4.58627734375,7.4924140625,1.433953125,-3.554453125,3.8269140625,-2.5530234375,3.938015625,1.60873828125
9.0350390625,2.33745703125,3.7531640625,9.32148828125,5.182671875,7.9251796875,11.05859375,9.3227265625,4.987234375,10.4075,12.3736796875,8.717859375,6.69825,10.65255078125,10.07478125,8.812609375,2.3590078125,3.350640625,2.96249609375,8.5913203125,16.955953125,0.450109375,5.06427734375,7.7954140625,0.850953125,-2.578453125,4.3159140625,-2.7530234375,4.446015625,1.27173828125
8.4580390625,2.63045703125,4.1571640625,9.21148828125,5.497671875,8.7651796875,11.93159375,11.4577265625,6.070234375,11.4395,12.2936796875,8.031859375,7.72225,11.14255078125,10.22278125,8.609609375,2.4680078125,4.262640625,3.97749609375,8.7833203125,17.276953125,1.454109375,5.97727734375,8.3684140625,0.511953125,-1.145453125,5.6759140625,-2.0860234375,5.615015625,1.45373828125
7.3770390625,2.66145703125,4.2391640625,8.27048828125,5.510671875,8.8001796875,12.10059375,12.5957265625,6.981234375,12.2015,11.7686796875,6.740859375,8.53225,11.47155078125,10.22878125,8.103609375,2.1800078125,5.375640625,5.31849609375,8.9633203125,17.442953125,2.792109375,7.22527734375,9.2024140625,0.548953125000001,0.446546875,7.6299140625,-0.849023437500001,7.093015625,2.09973828125
6.1730390625,2.54245703125,3.8911640625,6.49448828125,5.136671875,8.1431796875,11.78959375,12.7047265625,7.507234375,12.5995,11.1056796875,5.533859375,8.96125,11.55055078125,10.17678125,7.513609375,1.5500078125,6.402640625,6.71349609375,9.0813203125,17.433953125,4.054109375,8.50127734375,10.0784140625,0.870953125000001,1.786546875,9.6739140625,0.404976562499999,8.309015625,2.83173828125
5.1230390625,2.35445703125,3.2161640625,3.98748828125,4.300671875,7.0081796875,11.20259375,11.8777265625,7.456234375,12.4625,10.4426796875,4.891859375,8.93825,11.22755078125,9.98478125,7.033609375,0.7070078125,7.002640625,7.75049609375,9.0383203125,17.241953125,4.860109375,9.41527734375,10.6734140625,1.300953125,2.549546875,11.2979140625,1.1609765625,8.793015625,3.24073828125
4.3680390625,2.14345703125,2.4591640625,1.07948828125,3.051671875,5.6831796875,10.48259375,10.2967265625,6.758234375,11.6705,9.7566796875,4.957859375,8.49825,10.38555078125,9.50878125,6.799609375,-0.1419921875,6.928640625,8.05349609375,8.7683203125,16.942953125,4.969109375,9.65227734375,10.7034140625,1.708953125,2.616546875,12.1639140625,1.1519765625,8.435015625,3.10773828125
3.8960390625,1.94245703125,1.8281640625,-1.62851171875,1.605671875,4.4691796875,9.69859375,8.2467265625,5.542234375,10.2685,8.9536796875,5.567859375,7.74725,9.02055078125,8.67878125,6.852609375,-0.7759921875,6.114640625,7.42349609375,8.2773203125,16.688953125,4.321109375,9.09427734375,10.0534140625,2.046953125,2.068546875,12.1829140625,0.394976562499999,7.459015625,2.43173828125
3.5750390625,1.78645703125,1.3651640625,-3.41651171875,0.275671875,3.5761796875,8.84059375,6.1037265625,4.122234375,8.4895,7.9766796875,6.367859375,6.83525,7.27655078125,7.57378125,7.106609375,-1.0599921875,4.695640625,5.91949609375,7.6343203125,16.624953125,3.033109375,7.84827734375,8.8184140625,2.287953125,1.141546875,11.4859140625,-0.8940234375,6.214015625,1.37673828125
3.2680390625,1.69945703125,0.9341640625,-3.76551171875,-0.694328125,3.0291796875,7.85059375,4.2617265625,2.881234375,6.6555,6.8316796875,6.906859375,5.92725,5.40055078125,6.37878125,7.340609375,-1.0359921875,2.951640625,3.83649609375,6.9113203125,16.765953125,1.373109375,6.18527734375,7.2494140625,2.353953125,0.135546875,10.3359140625,-2.3870234375,5.028015625,0.189738281249999
2.9280390625,1.65445703125,0.2991640625,-2.68451171875,-1.270328125,2.6331796875,6.63559375,2.9687265625,2.102234375,5.0245,5.5496796875,6.700859375,5.17925,3.64855078125,5.26978125,7.239609375,-0.9379921875,1.218640625,1.59049609375,6.1243203125,16.917953125,-0.301890625,4.43427734375,5.6254140625,2.079953125,-0.704453125,9.0039140625,-3.7290234375,4.159015625,-0.873261718750001
2.5600390625,1.55645703125,-0.7418359375,-0.77751171875,-1.645328125,2.0481796875,5.07359375,2.1927265625,1.824234375,3.6685,4.1226796875,5.334859375,4.68925,2.17255078125,4.29678125,6.491609375,-1.1009921875,-0.216359375000001,-0.44850390625,5.1993203125,16.707953125,-1.639890625,2.86527734375,4.1374140625,1.252953125,-1.312453125,7.6509140625,-4.6220234375,3.734015625,-1.63626171875
2.1360390625,1.26545703125,-2.2328359375,1.01748828125,-2.107328125,0.9581796875,3.06959375,1.6337265625,1.833234375,2.4845,2.5016796875,2.636859375,4.47025,0.96955078125,3.35678125,4.927609375,-1.7809921875,-1.185359375,-2.06750390625,4.0203203125,15.763953125,-2.392890625,1.63227734375,2.8434140625,-0.256046875,-1.827453125,6.3069140625,-4.9000234375,3.663015625,-2.05526171875
1.5780390625,0.66245703125,-3.9868359375,1.88048828125,-2.856328125,-0.7198203125,0.68259375,0.9207265625,1.816234375,1.2865,0.6586796875,-1.151140625,4.43525,-0.0804492187499997,2.27378125,2.631609375,-3.0109921875,-1.661359375,-3.23750390625,2.5153203125,13.949953125,-2.481890625,0.77227734375,1.7064140625,-2.356046875,-2.493453125,4.9399140625,-4.5610234375,3.678015625,-2.18826171875
0.8230390625,-0.27054296875,-5.6408359375,1.42448828125,-3.905328125,-2.7718203125,-1.81740625,-0.1622734375,1.554234375,-0.0685000000000001,-1.3543203125,-5.374140625,4.44525,-1.11844921875,0.91078125,-0.0583906249999999,-4.5789921875,-1.741359375,-4.04950390625,0.7323203125,11.490953125,-1.992890625,0.24727734375,0.6624140625,-4.702046875,-3.498453125,3.5649140625,-3.7340234375,3.535015625,-2.11726171875
-0.1219609375,-1.41254296875,-6.8358359375,-0.28351171875,-5.125328125,-4.7988203125,-4.03140625,-1.5972734375,1.019234375,-1.6115,-3.4123203125,-9.169140625,4.37025,-2.23344921875,-0.75321875,-2.666390625,-6.1599921875,-1.602359375,-4.65050390625,-1.1646796875,8.892953125,-1.127890625,-0.02272265625,-0.3285859375,-6.803046875,-4.858453125,2.2999140625,-2.5950234375,3.195015625,-1.88626171875
-1.1379609375,-2.53554296875,-7.4108359375,-2.90451171875,-6.368328125,-6.4288203125,-5.60840625,-3.2282734375,0.326234375,-3.2635,-5.3703203125,-11.805140625,4.14525,-3.43944921875,-2.62021875,-4.756390625,-7.4959921875,-1.446359375,-5.19750390625,-2.9626796875,6.716953125,-0.128890625,-0.14772265625,-1.2655859375,-8.225046875,-6.391453125,1.3299140625,-1.3020234375,2.814015625,-1.47126171875
-1.9719609375,-3.40354296875,-7.4668359375,-5.98251171875,-7.543328125,-7.4698203125,-6.36640625,-4.9022734375,-0.393765625,-4.8835,-7.1053203125,-12.934140625,3.78525,-4.70244921875,-4.50221875,-6.084390625,-8.4689921875,-1.447359375,-5.81450390625,-4.4586796875,5.363953125,0.790109375,-0.24972265625,-2.1075859375,-8.737046875,-7.755453125,0.8359140625,0.0239765624999988,2.632015625,-0.77926171875
-2.2649609375,-3.86054296875,-7.2668359375,-8.99651171875,-8.618328125,-7.9178203125,-6.33640625,-6.5462734375,-1.086765625,-6.3175,-8.5263203125,-12.623140625,3.37325,-5.96644921875,-6.17321875,-6.639390625,-9.0539921875,-1.693359375,-6.54450390625,-5.4976796875,4.975953125,1.477109375,-0.42772265625,-2.7715859375,-8.338046875,-8.554453125,0.9409140625,1.2659765625,2.880015625,0.30773828125
-1.7539609375,-3.89254296875,-7.0818359375,-11.38851171875,-9.559328125,-7.9028203125,-5.76540625,-8.1472734375,-1.777765625,-7.4595,-9.5703203125,-11.222140625,3.03425,-7.16344921875,-7.42121875,-6.589390625,-9.2299921875,-2.158359375,-7.31050390625,-5.9836796875,5.454953125,1.869109375,-0.70372265625,-3.1485859375,-7.212046875,-8.504453125,1.6519140625,2.2709765625,3.678015625,1.82673828125
-0.5159609375,-3.62254296875,-7.0718359375,-12.69451171875,-10.301328125,-7.6038203125,-5.08940625,-9.6912734375,-2.498765625,-8.2735,-10.2243203125,-9.211140625,2.89225,-8.20944921875,-8.10921875,-6.194390625,-8.9629921875,-2.718359375,-7.94250390625,-5.9036796875,6.519953125,1.987109375,-1.01172265625,-3.1475859375,-5.672046875,-7.618453125,2.8149140625,2.8359765625,4.880015625,3.58973828125
0.9750390625,-3.27854296875,-7.2278359375,-12.74851171875,-10.770328125,-7.2008203125,-4.79440625,-11.0812734375,-3.219765625,-8.7935,-10.5403203125,-7.121140625,3.02125,-9.01244921875,-8.22721875,-5.710390625,-8.2679921875,-3.209359375,-8.24550390625,-5.3556796875,7.791953125,1.928109375,-1.22672265625,-2.7605859375,-4.112046875,-6.275453125,4.1019140625,2.7859765625,6.009015625,5.14373828125
2.0670390625,-3.11154296875,-7.3848359375,-11.79251171875,-10.935328125,-6.8308203125,-5.18640625,-12.1122734375,-3.825765625,-9.0775,-10.6233203125,-5.495140625,3.39425,-9.47444921875,-7.88821875,-5.336390625,-7.2719921875,-3.506359375,-8.08550390625,-4.5426796875,8.904953125,1.826109375,-1.23572265625,-2.1005859375,-2.921046875,-5.067453125,5.0999140625,2.0879765625,6.467015625,5.96073828125
2.2560390625,-3.29054296875,-7.3168359375,-10.37251171875,-10.838328125,-6.5738203125,-6.22840625,-12.5392734375,-4.178765625,-9.1405,-10.5563203125,-4.812140625,3.87825,-9.50544921875,-7.27221875,-5.158390625,-6.2159921875,-3.554359375,-7.43850390625,-3.6926796875,9.611953125,1.807109375,-0.98772265625,-1.3425859375,-2.333046875,-4.494453125,5.4929140625,0.946976562499999,5.925015625,5.77073828125
1.4000390625,-3.82354296875,-6.8668359375,-9.07051171875,-10.560328125,-6.4378203125,-7.57940625,-12.2162734375,-4.185765625,-8.8935,-10.3263203125,-5.321140625,4.27025,-9.03544921875,-6.51621875,-5.123390625,-5.3649921875,-3.354359375,-6.37050390625,-2.9346796875,9.871953125,1.938109375,-0.49072265625,-0.6135859375,-2.305046875,-4.696453125,5.2269140625,-0.217023437500001,4.555015625,4.80473828125
-0.2209609375,-4.52954296875,-6.0428359375,-8.21251171875,-10.127328125,-6.3358203125,-8.74440625,-11.1952734375,-3.825765625,-8.1565,-9.7933203125,-6.883140625,4.40425,-8.02644921875,-5.62921875,-5.065390625,-4.8739921875,-2.911359375,-4.98650390625,-2.2086796875,9.851953125,2.224109375,0.21727734375,0.1024140625,-2.513046875,-5.403453125,4.5669140625,-0.919023437500001,2.929015625,3.72673828125
-1.9909609375,-5.11154296875,-4.9948359375,-7.73551171875,-9.441328125,-6.0638203125,-9.23640625,-9.6662734375,-3.094765625,-6.7275,-8.7433203125,-8.958140625,4.25525,-6.48444921875,-4.48921875,-4.764390625,-4.7009921875,-2.195359375,-3.35950390625,-1.2896796875,9.838953125,2.651109375,1.10927734375,0.9494140625,-2.505046875,-6.130453125,3.9869140625,-0.8060234375,1.724015625,3.27973828125
-3.2069609375,-5.28854296875,-3.9258359375,-7.29651171875,-8.291328125,-5.3538203125,-8.70240625,-7.8132734375,-1.957765625,-4.4925,-7.0003203125,-10.797140625,3.98425,-4.47244921875,-2.91421875,-4.046390625,-4.6329921875,-1.134359375,-1.50250390625,0.0853203124999999,10.102953125,3.229109375,2.21327734375,2.1204140625,-1.927046875,-6.462453125,3.9839140625,0.202976562499999,1.434015625,3.87973828125
-3.3919609375,-4.92354296875,-2.9838359375,-6.55751171875,-6.481328125,-4.0188203125,-7.03240625,-5.7462734375,-0.359765625,-1.5215,-4.5623203125,-11.769140625,3.88425,-2.11844921875,-0.78821875,-2.856390625,-4.4369921875,0.353640625,0.605496093749999,2.0513203125,10.756953125,4.012109375,3.61827734375,3.7454140625,-0.704046875,-6.264453125,4.8999140625,1.9299765625,2.209015625,5.43073828125
-2.4999609375,-4.09154296875,-2.2018359375,-5.43651171875,-3.982328125,-2.0778203125,-4.40140625,-3.5702734375,1.699234375,1.9135,-1.6473203125,-11.599140625,4.24525,0.39755078125,1.85178125,-1.279390625,-4.0129921875,2.303640625,2.96349609375,4.5183203125,11.715953125,5.076109375,5.44127734375,5.8314140625,0.950953125,-5.691453125,6.8479140625,4.0729765625,3.863015625,7.45873828125
-0.8219609375,-3.02754296875,-1.5098359375,-4.14751171875,-1.002328125,0.2261796875,-1.19440625,-1.5092734375,4.098234375,5.3995,1.3616796875,-10.407140625,5.22225,2.87755078125,4.79078125,0.496609375,-3.4489921875,4.647640625,5.50649609375,7.1803203125,12.762953125,6.450109375,7.74227734375,8.2584140625,2.677953125,-5.028453125,9.7159140625,6.3579765625,6.052015625,9.43373828125
1.2520390625,-1.99054296875,-0.8198359375,-3.01351171875,2.070671875,2.5441796875,2.13159375,0.0367265624999999,6.585234375,8.5195,4.0536796875,-8.573140625,6.76325,5.16055078125,7.70278125,2.247609375,-2.9399921875,7.177640625,8.09549609375,9.6343203125,13.691953125,8.025109375,10.42227734375,10.8104140625,4.156953125,-4.504453125,13.2099140625,8.5939765625,8.499015625,11.03073828125
3.4110390625,-1.13754296875,-0.1328359375,-2.22251171875,4.817671875,4.5631796875,5.12959375,0.5987265625,8.843234375,10.9755,6.1266796875,-6.543140625,8.63525,7.16255078125,10.25278125,3.782609375,-2.6489921875,9.571640625,10.53449609375,11.5123203125,14.397953125,9.512109375,13.18127734375,13.2174140625,5.214953125,-4.212453125,16.8909140625,10.6189765625,11.032015625,12.15873828125
5.4420390625,-0.47854296875,0.4271640625,-1.70851171875,6.938671875,6.1081796875,7.40459375,-0.1222734375,10.604234375,12.6575,7.4616796875,-4.679140625,10.51425,8.87355078125,12.18678125,4.980609375,-2.6239921875,11.475640625,12.59649609375,12.6013203125,14.878953125,10.499109375,15.56927734375,15.1944140625,5.804953125,-4.171453125,20.2149140625,12.2239765625,13.392015625,12.79773828125
7.1920390625,0.0464570312500001,0.6961640625,-1.20451171875,8.323671875,7.1721796875,8.68259375,-2.0222734375,11.747234375,13.6295,8.1156796875,-3.191140625,12.08425,10.31655078125,13.38978125,5.796609375,-2.8089921875,12.617640625,14.07349609375,12.8763203125,15.168953125,10.623109375,17.12227734375,16.4694140625,5.933953125,-4.425453125,22.6089140625,13.1459765625,15.091015625,12.82873828125
8.5470390625,0.47645703125,0.6191640625,-0.41451171875,9.045671875,7.8691796875,8.91259375,-4.5262734375,12.332234375,14.0585,8.2606796875,-2.134140625,13.11625,11.49055078125,13.88278125,6.237609375,-3.1089921875,12.890640625,14.82049609375,12.4783203125,15.272953125,9.743109375,17.52127734375,16.8244140625,5.600953125,-5.067453125,23.5929140625,13.1629765625,15.547015625,12.03173828125
9.3780390625,0.78645703125,0.3301640625,0.79448828125,9.280671875,8.3311796875,8.28559375,-6.8012734375,12.524234375,14.1155,8.0896796875,-1.444140625,13.50825,12.33755078125,13.79378125,6.341609375,-3.4409921875,12.374640625,14.79449609375,11.6373203125,15.164953125,8.026109375,16.69827734375,16.1594140625,4.800953125,-6.151453125,22.9349140625,12.2109765625,14.404015625,10.27073828125
9.5100390625,0.91445703125,0.1011640625,2.29548828125,9.207671875,8.6131796875,7.15759375,-8.1332734375,12.493234375,13.9245,7.7576796875,-1.004140625,13.27925,12.76855078125,13.31278125,6.171609375,-3.7159921875,11.297640625,14.06449609375,10.5983203125,14.837953125,5.893109375,14.85727734375,14.5554140625,3.592953125,-7.556453125,20.7629140625,10.4599765625,11.743015625,7.69173828125
8.7830390625,0.83145703125,0.2011640625,3.75648828125,8.950671875,8.6821796875,5.92959375,-8.1942734375,12.345234375,13.5435,7.3566796875,-0.708140625,12.55425,12.72855078125,12.65178125,5.829609375,-3.7929921875,9.985640625,12.82349609375,9.5713203125,14.372953125,3.878109375,12.41927734375,12.2914140625,2.158953125,-8.917453125,17.5839140625,8.2879765625,8.060015625,4.78173828125
7.2070390625,0.58845703125,0.7561640625,4.81848828125,8.579671875,8.4971796875,4.95459375,-7.0632734375,12.143234375,13.0075,6.9416796875,-0.514140625,11.53425,12.27455078125,11.99478125,5.452609375,-3.4699921875,8.791640625,11.35449609375,8.7003203125,13.966953125,2.448109375,9.89527734375,9.7874140625,0.804953125,-9.719453125,14.1629140625,6.1669765625,4.127015625,2.22873828125
5.0650390625,0.30445703125,1.6871640625,5.25948828125,8.160671875,8.0991796875,4.46959375,-5.1012734375,11.961234375,12.3675,6.5466796875,-0.425140625,10.45525,11.59455078125,11.45978125,5.182609375,-2.5779921875,8.017640625,9.97449609375,8.0483203125,13.879953125,1.883109375,7.75527734375,7.4684140625,-0.140046875,-9.552453125,11.2739140625,4.5249765625,0.781015625,0.643738281249999
2.8390390625,0.10245703125,2.7401640625,5.05448828125,7.784671875,7.6181796875,4.52159375,-2.8272734375,11.902234375,11.6945,6.1896796875,-0.432140625,9.55925,10.94155078125,11.05678125,5.105609375,-1.1289921875,7.830640625,8.92049609375,7.5763203125,14.308953125,2.222109375,6.28727734375,5.6154140625,-0.502046875,-8.381453125,9.4249140625,3.6149765625,-1.363984375,0.276738281249999
1.0450390625,0.0344570312500001,3.5941640625,4.33948828125,7.542671875,7.1911796875,4.94359375,-0.8202734375,12.056234375,11.0385,5.8496796875,-0.468140625,9.04225,10.51855078125,10.66978125,5.189609375,0.5850078125,8.188640625,8.24549609375,7.1333203125,15.244953125,3.271109375,5.51527734375,4.2624140625,-0.382046875,-6.668453125,8.6439140625,3.4249765625,-2.187984375,0.87173828125
0.0750390624999999,0.0534570312500002,3.9771640625,3.36348828125,7.458671875,6.8621796875,5.43559375,0.4167265625,12.421234375,10.3675,5.4416796875,-0.449140625,8.99125,10.37555078125,10.08178125,5.248609375,2.0400078125,8.836640625,7.77749609375,6.4803203125,16.384953125,4.648109375,5.18227734375,3.1904140625,-0.154046875,-5.235453125,8.4689140625,3.6739765625,-2.130984375,1.74473828125
0.0810390624999999,0.0494570312500002,3.7471640625,2.42348828125,7.438671875,6.5191796875,5.67859375,0.5927265625,12.851234375,9.5495,4.8116796875,-0.368140625,9.35525,10.37655078125,9.05278125,4.994609375,2.6900078125,9.390640625,7.17749609375,5.3753203125,17.156953125,5.889109375,4.85427734375,2.0494140625,-0.308046875,-4.887453125,8.1659140625,3.8979765625,-1.973984375,2.05973828125
0.9010390625,-0.0645429687500001,2.9061640625,1.79148828125,7.289671875,5.9301796875,5.40959375,-0.3002734375,13.087234375,8.4235,3.7826796875,-0.350140625,9.96125,10.27055078125,7.43078125,4.152609375,2.2190078125,9.503640625,6.09249609375,3.6883203125,16.879953125,6.605109375,4.12427734375,0.5624140625,-1.219046875,-6.014453125,7.0889140625,3.6429765625,-2.484984375,1.20173828125
2.0980390625,-0.29454296875,1.5801640625,1.61748828125,6.800671875,4.8701796875,4.46559375,-2.0302734375,12.862234375,6.9035,2.2586796875,-0.576140625,10.57425,9.81355078125,5.26178125,2.612609375,0.7160078125,9.015640625,4.34849609375,1.5173203125,15.006953125,6.624109375,2.81227734375,-1.3015859375,-2.939046875,-8.353453125,5.0209140625,2.6829765625,-4.117984375,-0.90026171875
3.1710390625,-0.56254296875,0.00816406250000012,1.86048828125,5.833671875,3.2891796875,2.82959375,-4.2162734375,12.039234375,5.0555,0.3166796875,-1.142140625,10.97625,8.86955078125,2.80778125,0.520609375,-1.3489921875,8.005640625,2.05949609375,-0.8026796875,11.365953125,6.054109375,1.05027734375,-3.2935859375,-5.150046875,-11.060453125,2.2959140625,1.1469765625,-6.810984375,-3.67126171875
3.8010390625,-0.75154296875,-1.5028359375,2.30848828125,4.377671875,1.3811796875,0.68159375,-6.4422734375,10.682234375,3.0725,-1.7863203125,-1.965140625,11.02225,7.44855078125,0.44778125,-1.750390625,-3.3249921875,6.708640625,-0.41050390625,-2.8056796875,6.287953125,5.215109375,-0.79072265625,-5.0065859375,-7.287046875,-13.066453125,-0.3570859375,-0.5240234375,-9.932984375,-6.08826171875
3.9650390625,-0.75854296875,-2.6638359375,2.68048828125,2.552671875,-0.4788203125,-1.62040625,-8.3642734375,9.027234375,1.1835,-3.6953203125,-2.804140625,10.66225,5.68355078125,-1.48021875,-3.724390625,-4.6419921875,5.382640625,-2.62250390625,-4.0936796875,0.560953125,4.501109375,-2.27772265625,-6.0795859375,-8.773046875,-13.539453125,-2.1650859375,-1.7610234375,-12.517984375,-7.11926171875
3.8530390625,-0.53454296875,-3.3098359375,2.77648828125,0.581671875,-1.9138203125,-3.62140625,-9.7742734375,7.371234375,-0.4235,-5.0963203125,-3.397140625,9.93825,3.77855078125,-2.80321875,-4.995390625,-4.9829921875,4.213640625,-4.24450390625,-4.4926796875,-4.804046875,4.223109375,-3.09372265625,-6.3475859375,-9.264046875,-12.220453125,-2.6700859375,-2.1060234375,-13.728984375,-6.21026171875
3.7000390625,-0.0945429687499999,-3.4248359375,2.56648828125,-1.260328125,-2.6878203125,-4.88540625,-10.5592734375,5.967234375,-1.6405,-5.8133203125,-3.599140625,8.96125,1.96955078125,-3.55221875,-5.362390625,-4.3389921875,3.299640625,-5.14950390625,-4.1076796875,-8.908046875,4.509109375,-3.12772265625,-5.8895859375,-8.759046875,-9.487453125,-1.9050859375,-1.3850234375,-13.281984375,-3.55826171875
3.6320390625,0.48745703125,-3.0948359375,2.16248828125,-2.715328125,-2.7748203125,-5.14040625,-10.6182734375,4.963234375,-2.4285,-5.8333203125,-3.444140625,7.88225,0.48355078125,-3.88021875,-4.881390625,-2.9639921875,2.679640625,-5.37850390625,-3.2536796875,-11.279046875,5.284109375,-2.47872265625,-4.9535859375,-7.584046875,-6.156453125,-0.3240859375,0.240976562499999,-11.539984375,-0.040261718750001
3.5980390625,1.09145703125,-2.4358359375,1.68648828125,-3.626328125,-2.3358203125,-4.40840625,-9.8692734375,4.400234375,-2.7825,-5.2753203125,-3.094140625,6.83325,-0.49944921875,-3.95221875,-3.812390625,-1.2889921875,2.364640625,-5.03950390625,-2.3136796875,-11.999046875,6.308109375,-1.39272265625,-3.8405859375,-6.245046875,-3.140453125,1.4219140625,2.3419765625,-9.294984375,3.15273828125
3.3890390625,1.59045703125,-1.5778359375,1.13348828125,-3.977328125,-1.6438203125,-3.03240625,-8.3772734375,4.230234375,-2.7175,-4.3163203125,-2.724140625,5.87725,-0.89544921875,-3.85221875,-2.515390625,0.1990078125,2.328640625,-4.23150390625,-1.5886796875,-11.599046875,7.250109375,-0.17672265625,-2.8115859375,-5.226046875,-1.117453125,2.7399140625,4.3499765625,-7.433984375,5.01473828125
2.7990390625,1.90245703125,-0.6758359375,0.36948828125,-3.873328125,-0.9568203125,-1.52540625,-6.4702734375,4.344234375,-2.2645,-3.1413203125,-2.433140625,4.98025,-0.75744921875,-3.57021875,-1.312390625,1.1120078125,2.465640625,-3.04550390625,-1.1976796875,-10.776046875,7.765109375,0.85827734375,-2.0365859375,-4.795046875,-0.293453125,3.2839140625,5.7049765625,-6.608984375,5.15773828125
1.8110390625,2.02745703125,0.1211640625,-0.72251171875,-3.484328125,-0.4088203125,-0.31040625,-4.6892734375,4.601234375,-1.4895,-1.9193203125,-2.244140625,4.05625,-0.27844921875,-3.05221875,-0.394390625,1.3060078125,2.563640625,-1.60250390625,-1.0666796875,-10.079046875,7.555109375,1.44827734375,-1.5885859375,-4.916046875,-0.362453125,3.0289140625,6.0019765625,-6.957984375,3.98573828125
0.6340390625,2.02945703125,0.7171640625,-2.07351171875,-2.985328125,-0.00182031249999981,0.42359375,-3.6042734375,4.836234375,-0.5325,-0.8293203125,-2.167140625,3.06125,0.22455078125,-2.30821875,0.186609375,0.9030078125,2.353640625,-0.11850390625,-1.0126796875,-9.737046875,6.462109375,1.42127734375,-1.4695859375,-5.325046875,-0.696453125,2.2029140625,5.1029765625,-8.033984375,2.46873828125
-0.4439609375,1.96345703125,1.0971640625,-3.38551171875,-2.557328125,0.2961796875,0.65759375,-3.5862734375,4.862234375,0.3555,-0.0893203124999999,-2.260140625,2.04325,0.38355078125,-1.49321875,0.450609375,0.1660078125,1.612640625,1.07849609375,-0.9036796875,-9.711046875,4.560109375,0.72727734375,-1.6675859375,-5.735046875,-0.713453125,1.1129140625,3.1829765625,-9.114984375,1.56373828125
-1.2469609375,1.79645703125,1.3101640625,-4.28351171875,-2.390328125,0.4311796875,0.39559375,-4.6572734375,4.485234375,0.8415,0.0646796875,-2.620140625,1.10125,-0.12044921875,-0.91721875,0.410609375,-0.6869921875,0.273640625,1.60549609375,-0.7946796875,-9.890046875,2.187109375,-0.55672265625,-2.2125859375,-6.038046875,-0.216453125,-0.0450859374999997,0.665976562499999,-9.700984375,1.64473828125
-1.7689609375,1.41045703125,1.4441640625,-4.55451171875,-2.669328125,0.2651796875,-0.35540625,-6.4282734375,3.564234375,0.6195,-0.5033203125,-3.280140625,0.274249999999999,-1.42644921875,-0.92821875,0.0506093750000001,-1.5679921875,-1.535359375,1.17149609375,-0.9126796875,-10.237046875,-0.145890625,-2.24772265625,-3.1735859375,-6.348046875,0.519546875000001,-1.2690859375,-1.9290234375,-9.805984375,2.29173828125
-2.1189609375,0.70845703125,1.6101640625,-4.28251171875,-3.483328125,-0.3058203125,-1.49440625,-8.2032734375,2.097234375,-0.4215,-1.6943203125,-4.115140625,-0.50975,-3.41044921875,-1.71821875,-0.596390625,-2.4509921875,-3.527359375,-0.266503906250001,-1.5016796875,-10.800046875,-1.969890625,-4.09972265625,-4.5745859375,-6.860046875,0.964546875,-2.6710859375,-4.1720234375,-9.841984375,2.60673828125
-2.4429609375,-0.25354296875,1.9101640625,-3.79051171875,-4.746328125,-1.2198203125,-2.74540625,-9.2362734375,0.277234375,-2.0755,-3.1273203125,-4.810140625,-1.36775,-5.68544921875,-3.17021875,-1.361390625,-3.2379921875,-5.350359375,-2.41950390625,-2.6076796875,-11.591046875,-3.060890625,-5.83672265625,-6.2935859375,-7.658046875,0.723546875,-4.3260859375,-5.8550234375,-10.287984375,1.79073828125
-2.8539609375,-1.21854296875,2.4011640625,-3.39451171875,-6.167328125,-2.2098203125,-3.69440625,-9.0712734375,-1.538765625,-3.8445,-4.2433203125,-4.961140625,-2.31575,-7.71544921875,-4.84721875,-1.939390625,-3.7009921875,-6.691359375,-4.71750390625,-3.9706796875,-12.468046875,-3.503890625,-7.20172265625,-8.0205859375,-8.599046875,-0.169453125,-6.1410859375,-6.9990234375,-11.410984375,-0.36826171875
-3.3299609375,-1.81854296875,3.0621640625,-3.20051171875,-7.339328125,-2.8958203125,-3.94340625,-7.7222734375,-2.922765625,-5.1285,-4.5303203125,-4.255140625,-3.17375,-8.99144921875,-6.15521875,-1.996390625,-3.5479921875,-7.348359375,-6.48050390625,-5.1216796875,-13.115046875,-3.567890625,-7.99272265625,-9.3335859375,-9.354046875,-1.215453125,-7.8280859375,-7.7380234375,-13.120984375,-3.37726171875
-3.6629609375,-1.76054296875,3.7891640625,-3.08751171875,-7.902328125,-2.9638203125,-3.29540625,-5.6102734375,-3.532765625,-5.4745,-3.7623203125,-2.653140625,-3.63275,-9.19844921875,-6.59321875,-1.337390625,-2.5829921875,-7.270359375,-7.15350390625,-5.6016796875,-13.165046875,-3.510890625,-8.10072265625,-9.8465859375,-9.545046875,-1.695453125,-8.9740859375,-8.1650234375,-14.942984375,-6.28826171875
-3.5559609375,-0.99154296875,4.4261640625,-2.89351171875,-7.708328125,-2.3358203125,-1.88840625,-3.2982734375,-3.225765625,-4.7695,-2.1283203125,-0.465140625,-3.43875,-8.33244921875,-5.98021875,-0.027390625,-0.8399921875,-6.560359375,-6.51050390625,-5.1976796875,-12.394046875,-3.441890625,-7.54172265625,-9.3705859375,-8.932046875,-1.053453125,-9.2000859375,-8.2430234375,-16.186984375,-8.16026171875
-2.8359609375,0.26045703125,4.8171640625,-2.61451171875,-6.879328125,-1.2148203125,-0.16240625,-1.2292734375,-2.130765625,-3.2745,-0.1843203125,1.763859375,-2.56575,-6.70244921875,-4.52821875,1.604609375,1.3900078125,-5.440359375,-4.74850390625,-4.0456796875,-10.877046875,-3.317890625,-6.46172265625,-7.9995859375,-7.543046875,0.779546875,-8.3240859375,-7.8570234375,-16.300984375,-8.48426171875
-1.6059609375,1.59445703125,4.8761640625,-2.39851171875,-5.737328125,0.0271796875000002,1.36959375,0.4037265625,-0.603765625,-1.5095,1.3856796875,3.497859375,-1.26075,-4.82144921875,-2.73621875,3.087609375,3.6700078125,-4.193359375,-2.41050390625,-2.5696796875,-8.993046875,-3.049890625,-5.11972265625,-6.0965859375,-5.690046875,3.317546875,-6.4630859375,-6.9570234375,-15.191984375,-7.36326171875
-0.2019609375,2.62345703125,4.6481640625,-2.36551171875,-4.648328125,1.0491796875,2.40359375,1.6047265625,0.878234375,-0.0255000000000001,2.0686796875,4.452859375,0.0612499999999994,-3.21844921875,-1.15721875,4.002609375,5.5780078125,-3.095359375,-0.157503906250001,-1.2926796875,-7.271046875,-2.621890625,-3.82072265625,-4.1635859375,-3.848046875,5.734546875,-4.0090859375,-5.6740234375,-13.243984375,-5.38826171875
0.9570390625,3.13045703125,4.2991640625,-2.44451171875,-3.860328125,1.6871796875,2.96559375,2.4277265625,1.873234375,0.8085,1.7426796875,4.682859375,1.00525,-2.25644921875,-0.15421875,4.159609375,6.8480078125,-2.338359375,1.50349609375,-0.6106796875,-6.154046875,-2.132890625,-2.81272265625,-2.6465859375,-2.448046875,7.240546875,-1.4710859375,-4.3240234375,-11.053984375,-3.30726171875
1.5440390625,3.11345703125,4.0271640625,-2.40751171875,-3.427328125,1.9821796875,3.28859375,2.8547265625,2.110234375,0.9325,0.6936796875,4.464859375,1.36225,-2.02544921875,0.22078125,3.660609375,7.4170078125,-1.975359375,2.38749609375,-0.6366796875,-5.825046875,-1.751890625,-2.20272265625,-1.7695859375,-1.707046875,7.421546875,0.6979140625,-3.2760234375,-9.152984375,-1.69326171875
1.4580390625,2.72045703125,3.9581640625,-2.06151171875,-3.232328125,2.0961796875,3.59359375,2.8167265625,1.580234375,0.5795,-0.5463203125,4.069859375,1.16525,-2.33344921875,0.18378125,2.819609375,7.3890078125,-1.914359375,2.63349609375,-1.1926796875,-6.184046875,-1.616890625,-1.93272265625,-1.4845859375,-1.575046875,6.384546875,2.2129140625,-2.7830234375,-7.866984375,-0.790261718750001
0.8670390625,2.15745703125,4.0901640625,-1.39051171875,-3.073328125,2.2261796875,3.94059375,2.3237265625,0.558234375,0.1545,-1.4473203125,3.608859375,0.65125,-2.78844921875,0.07478125,2.006609375,6.9620078125,-1.956359375,2.57949609375,-1.9186796875,-6.941046875,-1.749890625,-1.82572265625,-1.5535859375,-1.807046875,4.656546875,2.9769140625,-2.8600234375,-7.246984375,-0.536261718750001
0.1230390625,1.62445703125,4.2981640625,-0.54051171875,-2.744328125,2.5321796875,4.22359375,1.5607265625,-0.476765625,0.0724999999999999,-1.6813203125,3.047859375,0.14025,-2.93744921875,0.19178125,1.512609375,6.3720078125,-1.846359375,2.59149609375,-2.4266796875,-7.746046875,-2.008890625,-1.64872265625,-1.6755859375,-2.094046875,2.948546875,3.0529140625,-3.2490234375,-7.033984375,-0.67826171875
-0.4109609375,1.29945703125,4.3931640625,0.33048828125,-2.092328125,3.1131796875,4.29459375,0.8257265625,-1.005765625,0.6335,-1.1863203125,2.357859375,-0.0927500000000006,-2.40144921875,0.71378125,1.506609375,5.8470078125,-1.350359375,2.94949609375,-2.4116796875,-8.273046875,-2.104890625,-1.17472265625,-1.5895859375,-2.170046875,1.885546875,2.6499140625,-3.5000234375,-6.763984375,-0.89926171875
-0.5149609375,1.32845703125,4.2311640625,1.17248828125,-1.033328125,4.0001796875,4.13859375,0.3667265625,-0.649765625,1.9445,-0.1083203125,1.676859375,0.0952500000000001,-0.99244921875,1.69578125,2.057609375,5.5740078125,-0.305359375000001,3.80149609375,-1.6966796875,-8.240046875,-1.712890625,-0.22472265625,-1.0985859375,-1.863046875,1.804546875,2.0999140625,-3.1290234375,-5.996984375,-0.901261718750001
-0.1389609375,1.79645703125,3.8421640625,2.02648828125,0.426671875,5.1781796875,3.98259375,0.2557265625,0.692234375,3.9065,1.3106796875,1.317859375,0.69525,1.24355078125,3.10478125,3.162609375,5.6730078125,1.312640625,5.16649609375,-0.2456796875,-7.427046875,-0.611890625,1.27627734375,-0.0835859375,-1.089046875,2.680546875,1.7989140625,-1.8170234375,-4.509984375,-0.467261718750001
0.6150390625,2.68045703125,3.4391640625,2.89448828125,2.159671875,6.5771796875,4.18359375,0.3647265625,2.807234375,6.2225,2.8116796875,1.588859375,1.56125,4.03355078125,4.83178125,4.725609375,6.1560078125,3.348640625,6.93949609375,1.8113203125,-5.751046875,1.155109375,3.23327734375,1.4694140625,0.130953125,4.181546875,2.0749140625,0.413976562499999,-2.361984375,0.48273828125
1.5030390625,3.80845703125,3.2681640625,3.62348828125,3.893671875,8.0261796875,4.93959375,0.4287265625,5.208234375,8.4535,4.1246796875,2.530859375,2.43925,6.93655078125,6.66178125,6.504609375,6.9000078125,5.458640625,8.85849609375,4.1423203125,-3.382046875,3.218109375,5.34827734375,3.3954140625,1.614953125,5.792546875,3.0009140625,3.1159765625,0.0860156249999999,1.83073828125
2.1810390625,4.87045703125,3.4041640625,3.95948828125,5.248671875,9.2371796875,6.04559375,0.1587265625,7.274234375,10.1115,4.9726796875,3.779859375,3.02525,9.42755078125,8.26478125,8.095609375,7.6340078125,7.163640625,10.51149609375,6.2243203125,-0.812046875,4.944109375,7.15527734375,5.3104140625,2.981953125,6.958546875,4.2729140625,5.4889765625,2.172015625,3.23373828125
2.3550390625,5.50645703125,3.6821640625,3.77548828125,5.876671875,9.8951796875,6.95659375,-0.5992734375,8.458234375,10.8365,5.1276796875,4.695859375,3.07725,11.05855078125,9.27278125,9.041609375,8.0170078125,8.008640625,11.44249609375,7.4833203125,1.245953125,5.659109375,8.16727734375,6.6854140625,3.735953125,7.248546875,5.2859140625,6.6499765625,3.111015625,4.21173828125
1.9570390625,5.46745703125,3.8301640625,3.28348828125,5.654671875,9.8511796875,7.12659375,-1.7302734375,8.522234375,10.5675,4.5516796875,4.713859375,2.57325,11.62055078125,9.46978125,9.039609375,7.7810078125,7.778640625,11.38649609375,7.5483203125,2.145953125,4.975109375,8.10927734375,7.0814140625,3.486953125,6.505546875,5.4269140625,6.0349765625,2.406015625,4.35673828125
1.1950390625,4.75745703125,3.6741640625,2.98048828125,4.804671875,9.2481796875,6.37359375,-2.8632734375,7.663234375,9.6355,3.4906796875,3.681859375,1.80225,11.25955078125,8.96178125,8.132609375,6.8900078125,6.665640625,10.45849609375,6.4773203125,1.631953125,3.042109375,7.10427734375,6.4024140625,2.191953125,4.957546875,4.4329140625,3.7389765625,0.213015625000001,3.55373828125
0.4270390625,3.66845703125,3.2621640625,3.32548828125,3.819671875,8.4771796875,5.01559375,-3.5352734375,6.430234375,8.6285,2.4216796875,1.962859375,1.27625,10.40655078125,8.17678125,6.733609375,5.5990078125,5.233640625,9.16049609375,4.7833203125,-0.0150468749999995,0.539109375,5.66527734375,4.9904140625,0.219953125,3.152546875,2.5539140625,0.5449765625,-2.657984375,2.05773828125
-0.0129609374999999,2.65145703125,2.8371640625,4.41548828125,3.225671875,7.9671796875,3.74159375,-3.4342734375,5.448234375,8.0995,1.8286796875,0.228859375,1.47725,9.56255078125,7.64078125,5.432609375,4.3550078125,4.153640625,8.13949609375,3.1963203125,-2.102046875,-1.627890625,4.45227734375,3.4724140625,-1.824046875,1.718546875,0.4309140625,-2.4140234375,-5.117984375,0.37873828125
0.0620390625,2.10545703125,2.7021640625,5.92248828125,3.292671875,7.9531796875,3.27659375,-2.5672734375,5.108234375,8.2735,1.9486796875,-0.893140625,2.57425,9.04755078125,7.66678125,4.706609375,3.6060078125,3.853640625,7.86049609375,2.3023203125,-3.848046875,-2.767890625,3.93327734375,2.4424140625,-3.374046875,1.103546875,-1.2230859375,-4.1860234375,-6.254984375,-0.937261718750001
0.6020390625,2.19245703125,3.0441640625,7.28348828125,3.879671875,8.3461796875,3.96659375,-1.2782734375,5.379234375,8.9265,2.6156796875,-1.096140625,4.28925,8.85855078125,8.14478125,4.684609375,3.6070078125,4.299640625,8.36749609375,2.2693203125,-4.711046875,-2.724890625,4.16227734375,2.1844140625,-4.129046875,1.418546875,-1.9410859375,-4.4140234375,-5.647984375,-1.49926171875
1.2960390625,2.75745703125,3.8251640625,7.97948828125,4.494671875,8.7521796875,5.50059375,-0.1062734375,5.840234375,9.4995,3.3246796875,-0.489140625,6.00325,8.70155078125,8.56678125,5.120609375,4.3200078125,5.035640625,9.25949609375,2.7933203125,-4.566046875,-1.884890625,4.78227734375,2.5634140625,-4.121046875,2.473546875,-1.6730859375,-3.4220234375,-3.504984375,-1.18226171875
1.6880390625,3.39545703125,4.7911640625,7.73148828125,4.546671875,8.6611796875,6.99659375,0.4707265625,5.914234375,9.3705,3.4656796875,0.501859375,7.04125,8.16855078125,8.27678125,5.533609375,5.4360078125,5.454640625,9.88849609375,3.2793203125,-3.689046875,-0.904890625,5.22527734375,3.1174140625,-3.662046875,3.898546875,-0.7590859375,-1.9430234375,-0.594984375,-0.15226171875
1.4350390625,3.63545703125,5.5941640625,6.56148828125,3.656671875,7.7031796875,7.45259375,0.2887265625,5.189234375,8.1555,2.6186796875,1.338859375,6.99125,6.96155078125,6.81178125,5.444609375,6.5040078125,5.121640625,9.66249609375,3.1293203125,-2.598046875,-0.329890625,4.99727734375,3.2654140625,-3.225046875,5.277546875,0.2339140625,-0.717023437500001,2.064015625,1.16473828125
0.5030390625,3.17545703125,5.9331640625,4.70848828125,1.849671875,5.8231796875,6.27959375,-0.4392734375,3.635234375,5.8735,0.7476796875,1.582859375,5.89125,5.06455078125,4.13778125,4.570609375,7.0930078125,3.974640625,8.30949609375,1.9913203125,-1.845046875,-0.354890625,3.88227734375,2.5424140625,-3.302046875,6.228546875,0.7259140625,-0.169023437500001,3.627015625,2.18473828125
-0.8479609375,2.01745703125,5.6371640625,2.49448828125,-0.467328125,3.2881796875,3.57359375,-1.3042734375,1.612234375,2.9315,-1.8033203125,1.032859375,4.18925,2.76255078125,0.67378125,2.904609375,6.9310078125,2.321640625,5.97749609375,-0.1156796875,-1.839046875,-0.819890625,2.00927734375,0.7824140625,-4.232046875,6.449546875,0.3279140625,-0.319023437500001,3.713015625,2.36973828125
-2.2229609375,0.44745703125,4.7221640625,0.22648828125,-2.716328125,0.5361796875,0.02459375,-1.9662734375,-0.313765625,-0.0565000000000001,-4.4813203125,-0.227140625,2.53725,0.53255078125,-2.88821875,0.685609375,5.9800078125,0.669640625,3.16349609375,-2.8346796875,-2.724046875,-1.370890625,-0.20972265625,-1.7955859375,-6.044046875,5.795546875,-1.0030859375,-0.867023437500001,2.471015625,1.48373828125
-3.2239609375,-1.12054296875,3.4151640625,-1.78651171875,-4.394328125,-1.9878203125,-3.40840625,-2.3072734375,-1.622765625,-2.5045,-6.7323203125,-1.875140625,1.53525,-1.14644921875,-5.85521875,-1.683390625,4.4400078125,-0.478359375,0.53049609375,-5.5936796875,-4.323046875,-1.648890625,-2.22472265625,-4.6265859375,-8.370046875,4.381546875,-2.9110859375,-1.3550234375,0.490015625,-0.231261718750001
-3.5359609375,-2.32454296875,2.1121640625,-3.20751171875,-5.244328125,-3.9538203125,-5.85940625,-2.4102734375,-2.052765625,-4.0575,-8.1693203125,-3.471140625,1.50825,-1.97444921875,-7.76521875,-3.751390625,2.6810078125,-0.798359375,-1.33450390625,-7.8096796875,-6.201046875,-1.424890625,-3.52772265625,-6.9825859375,-10.528046875,2.615546875,-4.7540859375,-1.3730234375,-1.381984375,-2.12226171875
-3.0629609375,-2.97254296875,1.2191640625,-3.72151171875,-5.313328125,-5.2138203125,-6.85640625,-2.4472734375,-1.698765625,-4.6765,-8.6713203125,-4.634140625,2.38325,-1.94544921875,-8.52421875,-5.172390625,1.1060078125,-0.265359375000001,-2.14750390625,-9.1026796875,-7.847046875,-0.691890625,-3.85272265625,-8.2745859375,-11.812046875,1.065546875,-5.9010859375,-0.7740234375,-2.357984375,-3.45226171875
-2.0169609375,-3.06854296875,0.9311640625,-3.19051171875,-4.892328125,-5.8118203125,-6.42940625,-2.5922734375,-0.971765625,-4.6185,-8.3933203125,-5.185140625,3.71025,-1.35944921875,-8.41021875,-5.830390625,-0.0119921875,0.806640625,-2.05250390625,-9.4486796875,-8.921046875,0.274109375,-3.30572265625,-8.3365859375,-11.849046875,0.179546875,-6.0800859375,0.178976562499999,-2.139984375,-3.82226171875
-0.8559609375,-2.75754296875,1.1341640625,-1.74451171875,-4.364328125,-5.9208203125,-5.00140625,-2.9472734375,-0.404765625,-4.3075,-7.6883203125,-5.173140625,4.83025,-0.69544921875,-7.92221875,-5.889390625,-0.6219921875,1.854640625,-1.55150390625,-9.1726796875,-9.393046875,0.971109375,-2.36372265625,-7.5305859375,-10.819046875,0.036546875,-5.5530859375,0.852976562499999,-1.133984375,-3.44226171875
-0.0429609375,-2.23354296875,1.4961640625,0.27948828125,-4.015328125,-5.7318203125,-3.12340625,-3.4762734375,-0.381765625,-4.1295,-6.9453203125,-4.786140625,5.17725,-0.384449218749999,-7.54621875,-5.690390625,-0.8649921875,2.295640625,-1.22550390625,-8.7626796875,-9.495046875,0.866109375,-1.66172265625,-6.5565859375,-9.363046875,0.302546875,-4.9810859375,0.543976562499999,-0.226984375,-3.02926171875
0.1720390625,-1.65554296875,1.6791640625,2.49848828125,-3.902328125,-5.3848203125,-1.26840625,-3.9992734375,-0.931765625,-4.2685,-6.4183203125,-4.230140625,4.55125,-0.60744921875,-7.52521875,-5.562390625,-0.9619921875,1.809640625,-1.43650390625,-8.5876796875,-9.526046875,-0.280890625,-1.67872265625,-6.0685859375,-8.223046875,0.442546875000001,-5.0150859375,-1.0970234375,-0.245984375,-3.37426171875
-0.1809609375,-1.11254296875,1.5321640625,4.61248828125,-3.856328125,-4.9478203125,0.23759375,-4.2662734375,-1.729765625,-4.6505,-6.1603203125,-3.664140625,3.21825,-1.22244921875,-7.78021875,-5.655390625,-1.0919921875,0.522640625,-2.15250390625,-8.7136796875,-9.632046875,-2.195890625,-2.48472265625,-6.3125859375,-7.839046875,0.0555468750000001,-5.9020859375,-3.7670234375,-1.485984375,-4.83726171875
-0.8599609375,-0.64354296875,1.1541640625,6.42448828125,-3.630328125,-4.4468203125,1.20659375,-4.0702734375,-2.290765625,-5.0465,-6.0463203125,-3.192140625,1.75925,-1.88844921875,-8.00421875,-5.883390625,-1.3229921875,-1.055359375,-3.03450390625,-8.8976796875,-9.725046875,-4.149890625,-3.72672265625,-7.0355859375,-8.128046875,-0.874453125,-7.3440859375,-6.5800234375,-3.581984375,-7.10426171875
-1.5269609375,-0.28554296875,0.8241640625,7.75548828125,-3.090328125,-3.8988203125,1.57659375,-3.3142734375,-2.260765625,-5.2455,-5.8943203125,-2.862140625,0.75125,-2.28444921875,-7.88621875,-6.011390625,-1.6259921875,-2.302359375,-3.68450390625,-8.7886796875,-9.575046875,-5.333890625,-4.86572265625,-7.7105859375,-8.593046875,-1.982453125,-8.7240859375,-8.5180234375,-5.737984375,-9.35626171875
-1.9159609375,-0.09354296875,0.8361640625,8.35148828125,-2.338328125,-3.3418203125,1.40159375,-2.0472734375,-1.622765625,-5.2075,-5.5943203125,-2.661140625,0.45425,-2.31844921875,-7.32021875,-5.822390625,-1.9149921875,-2.826359375,-3.92250390625,-8.1836796875,-9.004046875,-5.318890625,-5.50472265625,-7.9125859375,-8.667046875,-2.766453125,-9.5360859375,-8.9790234375,-7.167984375,-10.74326171875
-1.9759609375,-0.12854296875,1.3241640625,7.88548828125,-1.680328125,-2.8638203125,0.82659375,-0.4602734375,-0.721765625,-5.0835,-5.1903203125,-2.513140625,0.69625,-2.19044921875,-6.49121875,-5.256390625,-2.0969921875,-2.651359375,-3.88650390625,-7.1786796875,-8.051046875,-4.303890625,-5.60372265625,-7.5915859375,-8.075046875,-2.894453125,-9.6980859375,-8.0590234375,-7.496984375,-10.81826171875
-1.8669609375,-0.38954296875,2.1691640625,6.13348828125,-1.475328125,-2.5628203125,0.0915937499999999,1.1697265625,-0.0697656250000001,-5.1115,-4.8273203125,-2.291140625,0.992249999999999,-2.26444921875,-5.75921875,-4.445390625,-2.0789921875,-2.161359375,-3.91450390625,-6.1116796875,-6.983046875,-2.987890625,-5.42872265625,-7.0435859375,-6.960046875,-2.360453125,-9.5240859375,-6.4030234375,-6.893984375,-9.67726171875
-1.7819609375,-0.75954296875,3.0541640625,3.21948828125,-1.923328125,-2.4638203125,-0.45840625,2.5797265625,-0.061765625,-5.4335,-4.6163203125,-1.851140625,0.81625,-2.83444921875,-5.43321875,-3.614390625,-1.7739921875,-1.847359375,-4.27050390625,-5.3266796875,-6.126046875,-2.166890625,-5.30772265625,-6.6435859375,-5.729046875,-1.410453125,-9.3960859375,-4.7550234375,-5.816984375,-7.75626171875
-1.7919609375,-1.00854296875,3.6021640625,-0.25551171875,-2.944328125,-2.4638203125,-0.46140625,3.5987265625,-0.777765625,-5.9865,-4.4993203125,-1.095140625,-0.13975,-3.91644921875,-5.57321875,-2.945390625,-1.1219921875,-2.042359375,-4.94050390625,-4.9436796875,-5.654046875,-2.320890625,-5.37772265625,-6.5395859375,-4.750046875,-0.332453125,-9.4140859375,-3.5360234375,-4.582984375,-5.50226171875
-1.8709609375,-0.90454296875,3.5191640625,-3.39651171875,-4.219328125,-2.4078203125,0.25459375,4.1127265625,-1.998765625,-6.5275,-4.2713203125,-0.0731406250000001,-1.87475,-5.23144921875,-5.98021875,-2.517390625,-0.1669921875,-2.789359375,-5.64550390625,-4.8176796875,-5.501046875,-3.412890625,-5.51072265625,-6.5675859375,-4.149046875,0.690546875,-9.3300859375,-2.7100234375,-3.173984375,-3.18526171875
-2.0309609375,-0.37354296875,2.6871640625,-5.41651171875,-5.370328125,-2.2288203125,1.48659375,3.9817265625,-3.414765625,-6.8115,-3.7543203125,0.950859375,-4.13275,-6.38444921875,-6.37021875,-2.360390625,0.8830078125,-3.892359375,-6.07850390625,-4.7096796875,-5.473046875,-4.997890625,-5.47172265625,-6.4315859375,-3.836046875,1.561546875,-8.8110859375,-2.0010234375,-1.429984375,-0.96026171875
-2.3719609375,0.40545703125,1.2151640625,-6.03551171875,-6.184328125,-2.0558203125,2.68159375,3.0367265625,-4.832765625,-6.7745,-3.0083203125,1.529859375,-6.53875,-7.10644921875,-6.60521875,-2.557390625,1.6730078125,-5.082359375,-6.14150390625,-4.5356796875,-5.456046875,-6.512890625,-5.17972265625,-6.0005859375,-3.697046875,2.147546875,-7.7910859375,-1.2410234375,0.616015625,0.93473828125
-2.9939609375,1.06245703125,-0.5828359375,-5.59151171875,-6.718328125,-2.1708203125,3.18159375,1.1997265625,-6.227765625,-6.6005,-2.3743203125,1.206859375,-8.69475,-7.40044921875,-6.79121875,-3.273390625,1.8300078125,-6.167359375,-6.02350390625,-4.4776796875,-5.558046875,-7.550890625,-4.83272265625,-5.4715859375,-3.751046875,2.226546875,-6.6360859375,-0.573023437500001,2.615015625,2.07573828125
-3.8859609375,1.22745703125,-2.3008359375,-4.80151171875,-7.201328125,-2.8328203125,2.52659375,-1.3732734375,-7.617765625,-6.5865,-2.3163203125,-0.234140625,-10.23575,-7.48844921875,-7.16721875,-4.655390625,1.1270078125,-7.056359375,-6.04150390625,-4.8696796875,-6.059046875,-7.977890625,-4.80072265625,-5.2615859375,-4.162046875,1.581546875,-5.9440859375,-0.3380234375,4.070015625,1.98773828125
-4.8899609375,0.73345703125,-3.5778359375,-4.28351171875,-7.814328125,-4.0848203125,0.65659375,-4.2492734375,-8.897765625,-6.9175,-3.1283203125,-2.607140625,-10.87475,-7.60644921875,-7.88421875,-6.678390625,-0.3829921875,-7.715359375,-6.39850390625,-5.9376796875,-7.198046875,-7.870890625,-5.35472265625,-5.7155859375,-5.086046875,0.189546875,-6.1690859375,-0.788023437500001,4.609015625,0.455738281249999
-5.7389609375,-0.30054296875,-4.2058359375,-4.15351171875,-8.486328125,-5.6368203125,-2.04240625,-6.8042734375,-9.794765625,-7.5005,-4.7083203125,-5.344140625,-10.48775,-7.82044921875,-8.84221875,-9.041390625,-2.3429921875,-8.104359375,-7.02250390625,-7.5926796875,-8.940046875,-7.406890625,-6.46472265625,-6.8505859375,-6.494046875,-1.652453125,-7.3140859375,-1.8630234375,4.177015625,-2.24626171875
-6.1519609375,-1.51854296875,-4.1428359375,-3.95151171875,-8.886328125,-6.9408203125,-4.85840625,-8.3952734375,-9.973765625,-7.9765,-6.5453203125,-7.699140625,-9.17375,-7.95344921875,-9.70221875,-11.207390625,-4.1869921875,-8.166359375,-7.59550390625,-9.4086796875,-10.881046875,-6.785890625,-7.79772265625,-8.3135859375,-8.100046875,-3.389453125,-8.9270859375,-3.2320234375,3.066015625,-5.39126171875
-5.9709609375,-2.48054296875,-3.4988359375,-3.00451171875,-8.589328125,-7.4298203125,-7.01140625,-8.5802734375,-9.222765625,-7.8965,-7.9183203125,-9.012140625,-7.23575,-7.69744921875,-10.04821875,-12.576390625,-5.3299921875,-7.858359375,-7.73450390625,-10.7956796875,-12.375046875,-6.187890625,-8.88972265625,-9.5465859375,-9.461046875,-4.457453125,-10.3610859375,-4.5150234375,1.741015625,-8.12926171875
-5.2619609375,-2.82754296875,-2.4858359375,-0.96751171875,-7.332328125,-6.7898203125,-7.94340625,-7.2872734375,-7.569765625,-6.9565,-8.1973203125,-8.921140625,-5.07475,-6.79944921875,-9.58421875,-12.698390625,-5.3879921875,-7.175359375,-7.20250390625,-11.2486796875,-12.824046875,-5.746890625,-9.36972265625,-10.0475859375,-10.180046875,-4.581453125,-11.1130859375,-5.4890234375,0.568015625,-9.88726171875
-4.2689609375,-2.39354296875,-1.3408359375,1.83548828125,-5.170328125,-5.0768203125,-7.44540625,-4.8212734375,-5.268765625,-5.1435,-7.0613203125,-7.412140625,-3.05475,-5.20744921875,-8.22321875,-11.405390625,-4.3069921875,-6.159359375,-6.00750390625,-10.5196796875,-11.936046875,-5.478890625,-9.06372265625,-9.5485859375,-10.065046875,-3.915453125,-11.0090859375,-6.1180234375,-0.360984375,-10.57826171875
-3.2239609375,-1.23254296875,-0.2218359375,4.51548828125,-2.448328125,-2.6168203125,-5.60640625,-1.7092734375,-2.679765625,-2.7235,-4.5483203125,-4.726140625,-1.41775,-3.08744921875,-6.06621875,-8.817390625,-2.3389921875,-4.878359375,-4.33550390625,-8.6496796875,-9.821046875,-5.255890625,-7.98772265625,-8.0575859375,-9.144046875,-2.925453125,-10.1700859375,-6.4450234375,-1.130984375,-10.49126171875
-2.2519609375,0.42945703125,0.8221640625,6.07848828125,0.349671875,0.1801796875,-2.72340625,1.5067265625,-0.160765625,-0.1185,-0.9893203125,-1.256140625,-0.28075,-0.74244921875,-3.33421875,-5.283390625,0.0920078124999999,-3.429359375,-2.43250390625,-5.9166796875,-6.910046875,-4.860890625,-6.28372265625,-5.8055859375,-7.590046875,-2.115453125,-8.8610859375,-6.5000234375,-1.783984375,-10.01626171875
-1.4509609375,2.25345703125,1.7891640625,5.95548828125,2.754671875,2.9241796875,0.70259375,4.3527265625,1.970234375,2.2185,3.0716796875,2.502859375,0.30125,1.48255078125,-0.34521875,-1.325390625,2.5320078125,-1.963359375,-0.52750390625,-2.7706796875,-3.807046875,-4.138890625,-4.18472265625,-3.1905859375,-5.649046875,-1.805453125,-7.3880859375,-6.3060234375,-2.234984375,-9.41126171875
-1.0309609375,3.85145703125,2.6291640625,4.27748828125,4.400671875,5.2431796875,3.96259375,6.4137265625,3.411234375,3.8955,6.9336796875,5.935859375,0.28425,3.26555078125,2.47278125,2.391609375,4.5730078125,-0.697359375,1.15849609375,0.2153203125,-1.143046875,-3.130890625,-2.03272265625,-0.7285859375,-3.632046875,-2.075453125,-6.0610859375,-5.9490234375,-2.402984375,-8.75026171875
-1.2609609375,4.85845703125,3.2091640625,1.78848828125,5.066671875,6.7851796875,6.26959375,7.3327265625,3.901234375,4.6345,9.8556796875,8.371859375,-0.36975,4.33855078125,4.61878125,5.158609375,5.9000078125,0.110640625,2.38849609375,2.4483203125,0.551953125,-2.086890625,-0.25172265625,1.0304140625,-1.899046875,-2.841453125,-5.1890859375,-5.6000234375,-2.332984375,-8.03026171875
-2.2539609375,5.03945703125,3.3701640625,-0.56651171875,4.733671875,7.2991796875,7.01959375,6.8957265625,3.323234375,4.3405,11.2526796875,9.279859375,-1.61875,4.53455078125,5.65278125,6.431609375,6.3480078125,0.247640625,2.93149609375,3.4713203125,0.996953125,-1.341890625,0.73727734375,1.6484140625,-0.800046875,-3.939453125,-5.0130859375,-5.4640234375,-2.191984375,-7.28826171875
-3.8019609375,4.39245703125,3.0091640625,-2.09451171875,3.619671875,6.7551796875,6.05259375,5.1637265625,1.828234375,3.1595,10.9136796875,8.521859375,-3.26875,3.84155078125,5.37578125,6.069609375,5.9700078125,-0.364359375,2.62649609375,3.1433203125,0.266953125000001,-1.153890625,0.66627734375,0.9754140625,-0.533046875,-5.152453125,-5.6040859375,-5.7000234375,-2.169984375,-6.62726171875
-5.4109609375,3.18745703125,2.1691640625,-2.58851171875,2.166671875,5.4091796875,3.75159375,2.5477265625,-0.133765625,1.4735,9.1196796875,6.487859375,-4.94875,2.44055078125,3.93578125,4.440609375,5.0720078125,-1.600359375,1.46849609375,1.7243203125,-1.197046875,-1.575890625,-0.44872265625,-0.7545859375,-1.024046875,-6.202453125,-6.7740859375,-6.3290234375,-2.410984375,-6.12926171875
-6.5149609375,1.87045703125,1.0811640625,-2.24351171875,0.908671875,3.7461796875,0.93359375,-0.2402734375,-1.927765625,-0.2175,6.5486796875,3.993859375,-6.20475,0.69455078125,1.80078125,2.314609375,4.1460078125,-3.136359375,-0.34350390625,-0.2086796875,-2.731046875,-2.433890625,-2.27472265625,-2.9755859375,-1.898046875,-6.783453125,-8.0880859375,-7.1950234375,-2.959984375,-5.74026171875
-6.7449609375,0.88045703125,0.1221640625,-1.42051171875,0.252671875,2.2761796875,-1.44040625,-2.3812734375,-2.985765625,-1.4905,4.0046796875,1.946859375,-6.67175,-0.94744921875,-0.43121875,0.543609375,3.6900078125,-4.537359375,-2.43350390625,-1.9876796875,-3.704046875,-3.395890625,-4.24672265625,-4.9765859375,-2.618046875,-6.674453125,-9.0000859375,-7.9880234375,-3.693984375,-5.24626171875
-6.1439609375,0.47645703125,-0.3528359375,-0.49351171875,0.291671875,1.3101796875,-2.67940625,-3.2332734375,-3.058765625,-2.1825,2.0936796875,0.960859375,-6.26275,-2.11044921875,-2.25721875,-0.285390625,3.9790078125,-5.402359375,-4.34950390625,-3.1056796875,-3.768046875,-4.093890625,-5.75672265625,-6.1515859375,-2.718046875,-5.861453125,-9.0560859375,-8.3420234375,-4.302984375,-4.36726171875
-5.1569609375,0.64545703125,-0.2228359375,0.16648828125,0.736671875,0.8261796875,-2.66040625,-2.6042734375,-2.324765625,-2.4385,1.0156796875,1.119859375,-5.23875,-2.64544921875,-3.43821875,-0.067390625,4.9300078125,-5.514359375,-5.71050390625,-3.3866796875,-2.983046875,-4.250890625,-6.35672265625,-6.1915859375,-2.017046875,-4.579453125,-8.0640859375,-7.9650234375,-4.409984375,-2.90626171875
-4.3679609375,1.14145703125,0.2941640625,0.17748828125,1.050671875,0.5351796875,-1.84940625,-0.8532734375,-1.294765625,-2.6115,0.5516796875,2.006859375,-4.10975,-2.67644921875,-4.02621875,0.826609375,6.1340078125,-4.919359375,-6.31250390625,-2.9906796875,-1.750046875,-3.760890625,-5.91072265625,-5.1785859375,-0.690046875,-3.214453125,-6.1610859375,-6.7550234375,-3.757984375,-0.890261718750001
-4.1359609375,1.60345703125,0.7541640625,-0.77151171875,0.716671875,0.0781796875000002,-1.02040625,1.2217265625,-0.568765625,-3.0735,0.2476796875,2.960859375,-3.41875,-2.52944921875,-4.27621875,1.755609375,7.0610078125,-3.924359375,-6.18650390625,-2.3046796875,-0.614046875,-2.721890625,-4.63572265625,-3.5395859375,0.810953125,-2.158453125,-3.7660859375,-4.8450234375,-2.331984375,1.38773828125
-4.4239609375,1.71445703125,0.7231640625,-2.75751171875,-0.511328125,-0.7788203125,-0.87540625,2.6677265625,-0.576765625,-4.0395,-0.3383203125,3.394859375,-3.51375,-2.56644921875,-4.50421875,2.109609375,7.2930078125,-2.977359375,-5.58450390625,-1.7646796875,-0.0590468749999999,-1.399890625,-3.01472265625,-1.8875859375,1.943953125,-1.698453125,-1.4520859375,-2.5870234375,-0.365984375,3.42873828125
-4.9259609375,1.31545703125,0.00216406250000034,-5.48151171875,-2.477328125,-2.0528203125,-1.78340625,2.7527265625,-1.425765625,-5.4815,-1.4443203125,3.011859375,-4.40975,-3.02244921875,-4.94521875,1.549609375,6.6670078125,-2.489359375,-4.89250390625,-1.6916796875,-0.360046875,-0.135890625,-1.60972265625,-0.7905859375,2.271953125,-1.973453125,0.2159140625,-0.441023437500001,1.696015625,4.69073828125
-5.3209609375,0.44945703125,-1.2858359375,-8.27251171875,-4.688328125,-3.5618203125,-3.70340625,1.2717265625,-2.874765625,-7.1565,-3.0263203125,1.858859375,-5.80875,-3.90644921875,-5.67521875,0.122609375,5.2740078125,-2.656359375,-4.48550390625,-2.1836796875,-1.531046875,0.790109375,-0.83872265625,-0.5545859375,1.637953125,-2.952453125,0.8749140625,1.1929765625,3.321015625,4.80673828125
-5.4429609375,-0.68054296875,-2.7628359375,-10.28251171875,-6.526328125,-5.0018203125,-6.22540625,-1.3152734375,-4.463765625,-8.7195,-4.8103203125,0.238859375,-7.24475,-5.02044921875,-6.59621875,-1.792390625,3.3800078125,-3.382359375,-4.56550390625,-3.0856796875,-3.325046875,1.269109375,-0.80972265625,-1.1115859375,0.246953125,-4.410453125,0.5069140625,2.1419765625,4.112015625,3.78073828125
-5.3239609375,-1.78654296875,-3.9658359375,-10.84551171875,-7.505328125,-6.0638203125,-8.69340625,-4.0302734375,-5.715765625,-9.8455,-6.4043203125,-1.415140625,-8.28675,-6.05844921875,-7.47921875,-3.638390625,1.3260078125,-4.325359375,-5.07450390625,-4.0466796875,-5.281046875,1.398109375,-1.28672265625,-2.0595859375,-1.373046875,-5.925453125,-0.5160859375,2.5379765625,4.051015625,2.04373828125
-5.1449609375,-2.58354296875,-4.5378359375,-9.81251171875,-7.435328125,-6.5228203125,-10.39140625,-5.7732734375,-6.323765625,-10.3065,-7.4343203125,-2.665140625,-8.71075,-6.74544921875,-8.04321875,-4.881390625,-0.5239921875,-5.046359375,-5.70850390625,-4.6416796875,-6.828046875,1.421109375,-1.81072265625,-2.8295859375,-2.537046875,-6.976453125,-1.5640859375,2.7299765625,3.520015625,0.298738281249999
-5.0979609375,-2.86754296875,-4.3508359375,-7.65851171875,-6.456328125,-6.2818203125,-10.73540625,-5.8082734375,-6.240765625,-10.0035,-7.6433203125,-3.172140625,-8.56075,-6.93344921875,-8.04321875,-5.170390625,-1.8429921875,-5.194359375,-6.04250390625,-4.5216796875,-7.459046875,1.575109375,-1.92272265625,-2.9335859375,-2.651046875,-7.125453125,-2.0150859375,3.0759765625,3.067015625,-0.77426171875
-5.2019609375,-2.57154296875,-3.4998359375,-5.24251171875,-4.920328125,-5.3498203125,-9.41340625,-4.0942734375,-5.624765625,-8.9555,-6.9483203125,-2.784140625,-8.11275,-6.63344921875,-7.34321875,-4.442390625,-2.4089921875,-4.674359375,-5.72850390625,-3.5616796875,-6.927046875,1.936109375,-1.40472265625,-2.1755859375,-1.455046875,-6.212453125,-1.5570859375,3.7049765625,3.078015625,-0.817261718750001
-5.2269609375,-1.78554296875,-2.2268359375,-3.37951171875,-3.201328125,-3.8108203125,-6.48340625,-1.3112734375,-4.716765625,-7.2755,-5.4413203125,-1.588140625,-7.75075,-5.96344921875,-5.96121875,-2.932390625,-2.1749921875,-3.700359375,-4.65250390625,-1.9296796875,-5.364046875,2.341109375,-0.38872265625,-0.7325859375,0.852953125,-4.439453125,-0.3470859375,4.4099765625,3.608015625,0.0747382812499993
-4.8369609375,-0.71554296875,-0.8388359375,-2.47451171875,-1.520328125,-1.7988203125,-2.42340625,1.4447265625,-3.705765625,-5.1215,-3.3503203125,0.119859375,-7.78675,-5.07244921875,-4.04221875,-1.068390625,-1.3019921875,-2.687359375,-2.97850390625,-0.0246796875,-3.238046875,2.483109375,0.72327734375,0.9524140625,3.678953125,-2.289453125,1.0709140625,4.7579765625,4.411015625,1.45173828125
-3.8559609375,0.39845703125,0.3641640625,-2.42151171875,0.139671875,0.5101796875,1.95359375,3.1607265625,-2.661765625,-2.6275,-0.9553203125,1.943859375,-8.29075,-4.03644921875,-1.78321875,0.692609375,-0.0959921875,-2.021359375,-1.05050390625,1.7023203125,-1.176046875,2.141109375,1.50427734375,2.4034140625,6.279953125,-0.318453125,2.0479140625,4.3649765625,5.073015625,2.76473828125
-2.4149609375,1.35645703125,1.1571640625,-2.74351171875,1.972671875,2.9161796875,5.74259375,3.3697265625,-1.526765625,0.1205,1.4746796875,3.536859375,-9.03075,-2.81844921875,0.63578125,2.013609375,1.0970078125,-1.833359375,0.794496093749999,2.9313203125,0.271953125,1.401109375,1.73827734375,3.3214140625,8.049953125,1.040546875,2.1659140625,3.1619765625,5.215015625,3.60173828125
-0.8699609375,2.05045703125,1.4351640625,-2.87751171875,4.181671875,5.2121796875,8.25459375,2.3237265625,-0.172765625,3.0445,3.7156796875,4.703859375,-9.57075,-1.32344921875,3.05778125,2.745609375,1.9950078125,-1.937359375,2.34449609375,3.5533203125,0.784953125,0.668109375,1.50127734375,3.6564140625,8.722953125,1.564546875,1.3939140625,1.4539765625,4.667015625,3.79473828125
0.3980390625,2.46345703125,1.2231640625,-2.46051171875,6.793671875,7.1841796875,9.23659375,0.7937265625,1.485234375,5.9875,5.6036796875,5.427859375,-9.48875,0.47455078125,5.30478125,2.900609375,2.4450078125,-1.978359375,3.52049609375,3.6463203125,0.331953125,0.445109375,1.06027734375,3.5364140625,8.397953125,1.225546875,0.0349140625000004,-0.251023437500001,3.524015625,3.38773828125
1.1580390625,2.64245703125,0.6541640625,-1.48251171875,9.585671875,8.6311796875,8.89259375,-0.3432734375,3.400234375,8.6785,7.0656796875,5.823859375,-8.59075,2.41255078125,7.16478125,2.625609375,2.4590078125,-1.670359375,4.30449609375,3.3943203125,-0.847046875,1.015109375,0.68327734375,3.1504140625,7.442953125,0.153546875,-1.4630859375,-1.4990234375,2.039015625,2.57273828125
1.4150390625,2.67545703125,-0.0538359374999997,-0.23851171875,12.163671875,9.4301796875,7.76959375,-0.4612734375,5.380234375,10.7945,8.1606796875,6.069859375,-6.97475,4.16755078125,8.45278125,2.185609375,2.1960078125,-0.964359375,4.70649609375,3.0353203125,-2.296046875,2.267109375,0.51727734375,2.6774140625,6.354953125,-1.377453125,-2.6690859375,-2.0470234375,0.493015625,1.64173828125
1.4020390625,2.67045703125,-0.6338359375,0.89648828125,14.154671875,9.6241796875,6.55259375,0.6607265625,7.159234375,12.1035,9.0766796875,6.330859375,-4.94675,5.41355078125,9.11578125,1.930609375,1.9030078125,-0.0433593750000005,4.78149609375,2.8303203125,-3.460046875,3.750109375,0.58027734375,2.2894140625,5.636953125,-2.968453125,-3.2480859375,-1.8710234375,-0.824984375,0.94073828125
1.4470390625,2.75845703125,-0.8548359375,1.70448828125,15.377671875,9.4481796875,5.81959375,2.8387265625,8.510234375,12.6065,10.0656796875,6.709859375,-2.85075,6.01455078125,9.31278125,2.221609375,1.8070078125,0.829640625,4.68049609375,3.0403203125,-3.853046875,4.935109375,0.85127734375,2.1854140625,5.682953125,-4.195453125,-2.9820859375,-1.0570234375,-1.580984375,0.781738281249999
1.7960390625,3.06345703125,-0.6238359375,2.21548828125,15.909671875,9.2431796875,5.85859375,5.5537265625,9.307234375,12.5685,11.3456796875,7.207859375,-0.92275,6.10855078125,9.39478125,3.299609375,1.9990078125,1.495640625,4.64149609375,3.8663203125,-3.242046875,5.500109375,1.35927734375,2.5814140625,6.677953125,-4.750453125,-1.7940859375,0.3189765625,-1.429984375,1.34573828125
2.4880390625,3.65445703125,-0.0288359374999998,2.64048828125,16.018671875,9.3221796875,6.62759375,8.0857265625,9.543234375,12.4045,12.9966796875,7.714859375,0.74125,6.02855078125,9.75278125,5.160609375,2.3800078125,1.977640625,4.91349609375,5.3653203125,-1.744046875,5.472109375,2.17927734375,3.6264140625,8.527953125,-4.557453125,0.1969140625,2.2209765625,-0.197984375,2.61973828125
3.3800390625,4.48545703125,0.7441640625,3.19948828125,16.006671875,9.8251796875,7.87359375,9.7287265625,9.291234375,12.4605,14.8986796875,8.019859375,2.12425,6.10155078125,10.60278125,7.501609375,2.7030078125,2.420640625,5.60749609375,7.3703203125,0.217953125,5.130109375,3.33927734375,5.2674140625,10.856953125,-3.789453125,2.6309140625,4.5699765625,1.967015625,4.38473828125
4.2610390625,5.37445703125,1.5101640625,3.99848828125,16.047671875,10.6381796875,9.28159375,10.0027265625,8.658234375,12.8195,16.7376796875,7.863859375,3.20725,6.45255078125,11.81278125,9.778609375,2.7050078125,2.956640625,6.59249609375,9.4803203125,2.076953125,4.769109375,4.70027734375,7.1764140625,13.092953125,-2.755453125,4.9429140625,7.1209765625,4.577015625,6.26573828125
4.9420390625,6.04345703125,2.1441640625,4.99348828125,16.112671875,11.4051796875,10.53559375,8.7827265625,7.759234375,13.2635,18.0716796875,7.038859375,3.93825,6.94655078125,12.91178125,11.370609375,2.2310078125,3.604640625,7.50549609375,11.1673203125,3.344953125,4.514109375,5.96827734375,8.8274140625,14.645953125,-1.747453125,6.5209140625,9.4619765625,6.953015625,7.86173828125
5.3000390625,6.21445703125,2.5601640625,6.05748828125,16.001671875,11.6691796875,11.31559375,6.3157265625,6.700234375,13.3965,18.4806796875,5.497859375,4.26725,7.26855078125,13.29478125,11.800609375,1.2940078125,4.266640625,7.90549609375,11.9533203125,3.773953125,4.303109375,6.80527734375,9.6884140625,15.099953125,-0.928453125,6.9359140625,11.1779765625,8.489015625,8.89973828125
5.3110390625,5.71845703125,2.6821640625,7.05448828125,15.476671875,11.0841796875,11.31759375,3.1677265625,5.575234375,12.8605,17.7176796875,3.435859375,4.18325,7.09655078125,12.50278125,10.898609375,0.0320078124999998,4.782640625,7.46649609375,11.5763203125,3.410953125,4.019109375,6.97527734375,9.4264140625,14.339953125,-0.342453125,6.1109140625,12.0669765625,8.897015625,9.30173828125
5.0200390625,4.57245703125,2.4331640625,7.83548828125,14.394671875,9.5841796875,10.32559375,0.1007265625,4.452234375,11.4935,15.8186796875,1.271859375,3.72625,6.25655078125,10.44378125,8.862609375,-1.3809921875,4.985640625,6.11149609375,10.0573203125,2.519953125,3.623109375,6.41627734375,7.9964140625,12.533953125,-0.0094531249999994,4.3179140625,12.2079765625,8.312015625,9.10573828125
4.4810390625,2.99945703125,1.7511640625,8.16848828125,12.773671875,7.4071796875,8.30259375,-2.1232734375,3.367234375,9.3745,13.1076796875,-0.483140625,2.96825,4.78055078125,7.41378125,6.166609375,-2.7959921875,4.738640625,4.00249609375,7.6583203125,1.430953125,3.190109375,5.20627734375,5.6194140625,10.019953125,0.00554687500000028,2.0209140625,11.8459765625,7.163015625,8.35373828125
3.7200390625,1.38045703125,0.6271640625,7.74448828125,10.772671875,4.9691796875,5.47959375,-2.9952734375,2.324234375,6.7565,10.0906796875,-1.433140625,2.00125,2.86955078125,3.95478125,3.378609375,-4.1109921875,3.957640625,1.45149609375,4.7773203125,0.400953125,2.835109375,3.48127734375,2.6784140625,7.173953125,-0.380453125,-0.3230859375,11.1879765625,5.874015625,7.03773828125
2.7710390625,0.12145703125,-0.8328359375,6.33248828125,8.601671875,2.6881796875,2.37059375,-2.4312734375,1.305234375,3.9495,7.2826796875,-1.491140625,0.92425,0.80955078125,0.64678125,0.961609375,-5.2299921875,2.647640625,-1.19350390625,1.8253203125,-0.458046875,2.600109375,1.38427734375,-0.3925859375,4.335953125,-1.155453125,-2.4080859375,10.2659765625,4.620015625,5.16773828125
1.7230390625,-0.51954296875,-2.3608359375,4.00448828125,6.436671875,0.8441796875,-0.37340625,-0.7792734375,0.286234375,1.2325,5.0426796875,-0.961140625,-0.164750000000001,-1.12844921875,-2.07621875,-0.852390625,-6.0389921875,0.912640625,-3.60750390625,-0.8616796875,-1.146046875,2.378109375,-0.94772265625,-3.1995859375,1.811953125,-2.131453125,-4.1050859375,8.9469765625,3.343015625,2.88873828125
0.6610390625,-0.54254296875,-3.5898359375,1.23248828125,4.383671875,-0.4958203125,-2.24840625,1.3467265625,-0.765765625,-1.1885,3.4896796875,-0.421140625,-1.19275,-2.75244921875,-3.99621875,-2.061390625,-6.4099921875,-1.050359375,-5.53750390625,-3.0566796875,-1.695046875,1.944109375,-3.34772265625,-5.4455859375,-0.113046875,-2.962453125,-5.4180859375,7.0709765625,1.938015625,0.54373828125
-0.4239609375,-0.19854296875,-4.1988359375,-1.23951171875,2.497671875,-1.4418203125,-3.15240625,3.3257265625,-1.891765625,-3.1815,2.5286796875,-0.441140625,-2.13075,-3.97444921875,-5.10821875,-2.803390625,-6.2469921875,-2.994359375,-6.82050390625,-4.6306796875,-2.096046875,1.080109375,-5.59872265625,-6.9565859375,-1.203046875,-3.266453125,-6.4190859375,4.6189765625,0.408015625,-1.38726171875
-1.5979609375,0.15045703125,-4.0888359375,-2.69451171875,0.822671875,-2.1818203125,-3.37140625,4.7557265625,-3.125765625,-4.6825,1.9516796875,-1.298140625,-2.99375,-4.80644921875,-5.55421875,-3.240390625,-5.5619921875,-4.679359375,-7.40550390625,-5.5236796875,-2.288046875,-0.281890625,-7.45272265625,-7.7045859375,-1.357046875,-2.806453125,-7.2080859375,1.7939765625,-1.126984375,-2.47526171875
-2.8139609375,0.21245703125,-3.4488359375,-2.72951171875,-0.577328125,-2.8758203125,-3.33640625,5.5367265625,-4.431765625,-5.6965,1.5516796875,-2.841140625,-3.80575,-5.31844921875,-5.55821875,-3.486390625,-4.5069921875,-5.923359375,-7.34750390625,-5.7386796875,-2.226046875,-1.991890625,-8.69872265625,-7.8075859375,-0.687046875,-1.614453125,-7.9070859375,-1.0310234375,-2.497984375,-2.58126171875
-3.8079609375,-0.10154296875,-2.7028359375,-1.42451171875,-1.642328125,-3.6058203125,-3.36940625,5.7857265625,-5.673765625,-6.2945,1.1766796875,-4.575140625,-4.57575,-5.60344921875,-5.36621875,-3.594390625,-3.3549921875,-6.631359375,-6.77850390625,-5.3626796875,-1.942046875,-3.730890625,-9.22972265625,-7.4865859375,0.469953125,0.0135468750000003,-8.6420859375,-3.4690234375,-3.554984375,-1.94326171875
-4.2329609375,-0.67954296875,-2.3098359375,0.70648828125,-2.352328125,-4.3958203125,-3.58340625,5.6507265625,-6.644765625,-6.5975,0.7346796875,-5.899140625,-5.30075,-5.74944921875,-5.18121875,-3.594390625,-2.4219921875,-6.803359375,-5.88150390625,-4.5836796875,-1.555046875,-5.145890625,-9.08672265625,-6.9795859375,1.649953125,1.639546875,-9.4910859375,-5.2720234375,-4.231984375,-1.06526171875
-3.9069609375,-1.31254296875,-2.5338359375,2.94348828125,-2.740328125,-5.2378203125,-3.91540625,5.1987265625,-7.154765625,-6.7355,0.1926796875,-6.362140625,-5.97875,-5.81344921875,-5.11321875,-3.534390625,-1.9569921875,-6.521359375,-4.84750390625,-3.6686796875,-1.222046875,-5.972890625,-8.43972265625,-6.4635859375,2.441953125,2.851546875,-10.4270859375,-6.3870234375,-4.589984375,-0.449261718750001
-2.9719609375,-1.82254296875,-3.2768359375,4.66948828125,-2.865328125,-6.0778203125,-4.18340625,4.4647265625,-7.116765625,-6.7995,-0.4113203125,-5.840140625,-6.59975,-5.79844921875,-5.14021875,-3.504390625,-2.0479921875,-5.915359375,-3.81550390625,-2.8806796875,-1.069046875,-6.105890625,-7.50572265625,-5.9885859375,2.648953125,3.381546875,-11.2800859375,-6.8980234375,-4.750984375,-0.37126171875
-1.8499609375,-2.12954296875,-4.1218359375,5.55448828125,-2.769328125,-6.8058203125,-4.16940625,3.5477265625,-6.579765625,-6.8005,-0.9743203125,-4.541140625,-7.12175,-5.63144921875,-5.11921875,-3.600390625,-2.5959921875,-5.107359375,-2.83150390625,-2.3676796875,-1.156046875,-5.572890625,-6.44272265625,-5.4715859375,2.357953125,3.146546875,-11.7640859375,-6.8950234375,-4.763984375,-0.813261718750001
-1.0599609375,-2.23754296875,-4.5728359375,5.55048828125,-2.474328125,-7.2888203125,-3.75540625,2.6487265625,-5.697765625,-6.6885,-1.3643203125,-2.888140625,-7.45775,-5.20144921875,-4.85621875,-3.855390625,-3.3599921875,-4.168359375,-1.85050390625,-2.1056796875,-1.484046875,-4.483890625,-5.28572265625,-4.7405859375,1.875953125,2.230546875,-11.5680859375,-6.3810234375,-4.539984375,-1.53826171875
-0.9629609375,-2.19754296875,-4.3398359375,4.77848828125,-2.030328125,-7.4498203125,-3.04640625,2.0017265625,-4.686765625,-6.4145,-1.5093203125,-1.324140625,-7.50975,-4.44344921875,-4.22221875,-4.197390625,-4.0539921875,-3.122359375,-0.81150390625,-1.9306796875,-2.015046875,-2.992890625,-3.97072265625,-3.6215859375,1.584953125,0.868546875,-10.4890859375,-5.2850234375,-3.927984375,-2.20926171875
-1.5619609375,-2.08554296875,-3.4768359375,3.45848828125,-1.555328125,-7.3288203125,-2.37940625,1.7837265625,-3.766765625,-6.0185,-1.4703203125,-0.175140625,-7.23675,-3.41944921875,-3.24921875,-4.457390625,-4.4289921875,-2.007359375,0.28249609375,-1.6476796875,-2.659046875,-1.286890625,-2.44872265625,-2.0385859375,1.782953125,-0.571453125,-8.5330859375,-3.5550234375,-2.815984375,-2.47626171875
-2.4959609375,-1.99454296875,-2.3018359375,1.89248828125,-1.232328125,-7.0958203125,-2.19840625,2.0507265625,-3.118765625,-5.6475,-1.4583203125,0.409859375,-6.69175,-2.34244921875,-2.14321875,-4.466390625,-4.3119921875,-0.914359375000001,1.31549609375,-1.1506796875,-3.265046875,0.409109375,-0.78772265625,-0.0905859375,2.590953125,-1.636453125,-5.9370859375,-1.2520234375,-1.153984375,-2.04726171875
-3.2689609375,-2.01154296875,-1.2018359375,0.43748828125,-1.244328125,-6.9968203125,-2.83540625,2.7147265625,-2.844765625,-5.5035,-1.7383203125,0.441859375,-6.01175,-1.49844921875,-1.20921875,-4.149390625,-3.6269921875,0.0106406249999997,2.10349609375,-0.4786796875,-3.636046875,1.867109375,0.81127734375,1.9624140625,3.941953125,-1.905453125,-3.1040859375,1.4239765625,1.053015625,-0.77026171875
-3.5289609375,-2.16054296875,-0.4708359375,-0.60351171875,-1.667328125,-7.2418203125,-4.30640625,3.5717265625,-2.949765625,-5.7335,-2.4843203125,0.046859375,-5.36175,-1.11044921875,-0.71121875,-3.570390625,-2.4129921875,0.625640625,2.47649609375,0.2213203125,-3.598046875,2.920109375,2.09827734375,3.7804140625,5.623953125,-1.157453125,-0.474085937499999,4.2009765625,3.679015625,1.27073828125
-3.1789609375,-2.37554296875,-0.2158359375,-1.06151171875,-2.395328125,-7.8718203125,-6.20040625,4.3917265625,-3.342765625,-6.3315,-3.6373203125,-0.561140625,-4.87575,-1.23044921875,-0.74921875,-2.879390625,-0.8389921875,0.856640625,2.37749609375,0.7873203125,-3.093046875,3.491109375,2.88027734375,5.0604140625,7.352953125,0.516546875,1.5929140625,6.8019765625,6.429015625,3.72273828125
-2.3059609375,-2.52254296875,-0.3428359375,-0.90551171875,-3.145328125,-8.6908203125,-7.79740625,5.0117265625,-3.872765625,-7.1155,-4.8733203125,-1.117140625,-4.62775,-1.70644921875,-1.21621875,-2.234390625,0.8030078125,0.717640625,1.89849609375,1.1153203125,-2.231046875,3.577109375,3.09427734375,5.6324140625,8.849953125,2.725546875,2.8979140625,8.9589765625,8.883015625,6.04773828125
-1.0999609375,-2.47454296875,-0.6438359375,-0.19751171875,-3.556328125,-9.3428203125,-8.41540625,5.3677265625,-4.350765625,-7.7835,-5.7293203125,-1.359140625,-4.64275,-2.25044921875,-1.85021875,-1.741390625,2.1450078125,0.303640624999999,1.24549609375,1.1783203125,-1.297046875,3.204109375,2.80027734375,5.4904140625,9.884953125,4.898546875,3.4119140625,10.4019765625,10.615015625,7.68573828125
0.1580390625,-2.18554296875,-0.9358359375,0.95748828125,-3.345328125,-9.5018203125,-7.80140625,5.4477265625,-4.584765625,-8.0285,-5.8223203125,-1.116140625,-4.91375,-2.56644921875,-2.37221875,-1.464390625,2.8400078125,-0.242359375,0.63049609375,0.9873203125,-0.676046874999999,2.432109375,2.14327734375,4.7654140625,10.287953125,6.449546875,3.2419140625,10.8799765625,11.283015625,8.21573828125
1.1410390625,-1.70654296875,-1.1628359375,2.42748828125,-2.438328125,-9.0328203125,-6.25440625,5.2427265625,-4.409765625,-7.6735,-5.0473203125,-0.375140625,-5.41875,-2.46244921875,-2.60521875,-1.454390625,2.6700078125,-0.756359375,0.18749609375,0.5523203125,-0.717046874999999,1.395109375,1.30127734375,3.6704140625,9.975953125,6.957546875,2.5769140625,10.2779765625,10.704015625,7.47173828125
1.5950390625,-1.13554296875,-1.3808359375,4.06648828125,-0.981328125,-8.0188203125,-4.39940625,4.7507265625,-3.727765625,-6.7295,-3.6193203125,0.721859375,-6.12575,-1.89744921875,-2.51321875,-1.726390625,1.6620078125,-1.078359375,-0.0435039062500007,-0.1036796875,-1.558046875,0.332109375,0.46327734375,2.4574140625,9.027953125,6.318546875,1.6559140625,8.7539765625,8.988015625,5.60973828125
1.4720390625,-0.53254296875,-1.6598359375,5.68048828125,0.742671875,-6.6578203125,-2.78240625,4.0407265625,-2.553765625,-5.3605,-1.9283203125,1.975859375,-6.97175,-0.96444921875,-2.14121875,-2.173390625,0.1230078125,-1.085359375,-0.06550390625,-0.8686796875,-3.002046875,-0.470890625,-0.18372265625,1.3964140625,7.742953125,4.855546875,0.7379140625,6.7709765625,6.634015625,3.12673828125
0.9480390625,0.11845703125,-1.9808359375,6.96348828125,2.455671875,-5.1138203125,-1.58440625,3.3057265625,-1.032765625,-3.7825,-0.3143203125,3.241859375,-7.85075,0.16355078125,-1.51021875,-2.515390625,-1.4249921875,-0.714359375,0.13949609375,-1.4946796875,-4.539046875,-0.791890625,-0.47372265625,0.7524140625,6.606953125,3.258546875,0.0629140625000004,4.9449765625,4.412015625,0.776738281249999
0.3400390625,0.87745703125,-2.2098359375,7.51048828125,3.965671875,-3.4468203125,-0.59040625,2.8707265625,0.558234375,-2.1715,1.0936796875,4.482859375,-8.61875,1.28355078125,-0.58521875,-2.362390625,-2.4229921875,-0.00435937500000039,0.60749609375,-1.6636796875,-5.546046875,-0.591890625,-0.32472265625,0.7134140625,6.127953125,2.343546875,-0.220085937499999,3.7649765625,3.011015625,-0.65026171875
-0.0139609375,1.75345703125,-2.1488359375,6.96548828125,5.188671875,-1.6318203125,0.58659375,3.0887265625,1.872234375,-0.6415,2.3726796875,5.702859375,-9.15575,2.20455078125,0.68078125,-1.415390625,-2.4969921875,0.880640625,1.34149609375,-1.1386796875,-5.576046875,-0.0578906250000001,0.19227734375,1.3004140625,6.608953125,2.706546875,-0.1240859375,3.3569765625,2.709015625,-0.627261718750001
0.1180390625,2.64245703125,-1.6628359375,5.28848828125,6.106671875,0.3371796875,2.17859375,4.1527265625,2.589234375,0.7365,3.6796796875,6.828859375,-9.41875,2.78555078125,2.24778125,0.339609375,-1.6069921875,1.680640625,2.25549609375,0.0863203124999999,-4.586046875,0.480109375,0.86227734375,2.3254140625,7.995953125,4.435546875,0.1589140625,3.4569765625,3.298015625,0.86373828125
0.7360390625,3.35445703125,-0.7978359375,2.92148828125,6.747671875,2.3601796875,4.04259375,5.9297265625,2.518234375,1.9035,5.1066796875,7.644859375,-9.44575,2.96055078125,3.95178125,2.565609375,-0.0499921875,2.153640625,3.19349609375,1.7633203125,-2.964046875,0.725109375,1.43127734375,3.4734140625,9.901953125,7.069546875,0.3419140625,3.5999765625,4.227015625,3.30273828125
1.6040390625,3.71745703125,0.1961640625,0.69648828125,7.152671875,4.2261796875,5.72559375,7.9587265625,1.658234375,2.7915,6.6086796875,7.872859375,-9.31175,2.74855078125,5.53078125,4.705609375,1.6770078125,2.192640625,3.98649609375,3.4893203125,-1.344046875,0.576109375,1.73827734375,4.4414140625,11.786953125,9.812546875,0.1739140625,3.4019765625,4.830015625,5.81673828125
2.4090390625,3.67045703125,0.9971640625,-0.50751171875,7.355671875,5.7051796875,6.77659375,9.6467265625,0.193234375,3.3085,8.0146796875,7.333859375,-9.06875,2.22455078125,6.70678125,6.207609375,3.0830078125,1.873640625,4.52349609375,4.8593203125,-0.319046875,0.169109375,1.77927734375,5.0464140625,13.157953125,11.879546875,-0.4560859375,2.7349765625,4.537015625,7.48073828125
2.9660390625,3.28445703125,1.3901640625,-0.19351171875,7.344671875,6.6261796875,7.03159375,10.5357265625,-1.571765625,3.3485,9.0926796875,6.084859375,-8.72075,1.47355078125,7.25778125,6.729609375,3.8590078125,1.376640625,4.76849609375,5.5863203125,-0.217046874999999,-0.250890625,1.64327734375,5.2344140625,13.718953125,12.787546875,-1.5120859375,1.6979765625,3.041015625,7.60573828125
3.2660390625,2.70145703125,1.3531640625,1.50948828125,7.065671875,6.9081796875,6.63159375,10.4627265625,-3.300765625,2.8525,9.6166796875,4.421859375,-8.23875,0.56255078125,7.09078125,6.244609375,3.9340078125,0.870640625,4.74049609375,5.5713203125,-1.010046875,-0.495890625,1.42427734375,5.0364140625,13.400953125,12.467546875,-2.8390859375,0.494976562499999,0.395015625,5.95873828125
3.3740390625,2.06545703125,1.0041640625,3.93348828125,6.476671875,6.5481796875,5.80559375,9.5587265625,-4.703765625,1.8875,9.4426796875,2.757859375,-7.61275,-0.44244921875,6.27478125,5.025609375,3.4520078125,0.431640625,4.49249609375,4.9213203125,-2.370046875,-0.527890625,1.16927734375,4.5454140625,12.354953125,11.217546875,-4.1990859375,-0.658023437500001,-2.994984375,2.89773828125
3.3110390625,1.49045703125,0.4911640625,6.23548828125,5.597671875,5.6241796875,4.69759375,8.1597265625,-5.600765625,0.6715,8.5676796875,1.476859375,-6.87675,-1.43244921875,5.04878125,3.538609375,2.6830078125,0.0426406249999998,4.10949609375,3.9153203125,-3.825046875,-0.420890625,0.89027734375,3.9024140625,10.904953125,9.547546875,-5.2820859375,-1.5330234375,-6.439984375,-0.661261718750001
3.0450390625,1.06545703125,-0.0608359374999998,7.77148828125,4.530671875,4.3211796875,3.34659375,6.6617265625,-5.961765625,-0.4895,7.1546796875,0.820859375,-6.10675,-2.25344921875,3.74778125,2.278609375,1.9220078125,-0.345359375,3.69849609375,2.9023203125,-4.933046875,-0.267890625,0.60127734375,3.2764140625,9.469953125,7.988546875,-5.7700859375,-1.8670234375,-9.091984375,-3.53226171875
2.5340390625,0.85645703125,-0.5588359375,8.26348828125,3.409671875,2.9061796875,1.76959375,5.3727265625,-5.915765625,-1.3395,5.4756796875,0.836859375,-5.37475,-2.75844921875,2.68178125,1.586609375,1.3920078125,-0.763359375,3.36349609375,2.1693203125,-5.434046875,-0.113890625,0.32927734375,2.8154140625,8.425953125,6.948546875,-5.4510859375,-1.4180234375,-10.151984375,-4.72326171875
1.7750390625,0.88345703125,-0.9498359375,7.72348828125,2.325671875,1.6341796875,0.03559375,4.3877265625,-5.709765625,-1.7935,3.8136796875,1.372859375,-4.70675,-2.90644921875,2.01378125,1.523609375,1.1670078125,-1.214359375,3.16049609375,1.8273203125,-5.322046875,0.0451093749999999,0.11227734375,2.5804140625,7.984953125,6.630546875,-4.3220859375,-0.0680234375000008,-9.167984375,-3.83226171875
0.8650390625,1.10045703125,-1.2428359375,6.29848828125,1.299671875,0.6451796875,-1.69140625,3.6117265625,-5.612765625,-1.9665,2.3536796875,2.132859375,-4.09375,-2.81644921875,1.70378125,1.855609375,1.1470078125,-1.677359375,3.07049609375,1.7883203125,-4.822046875,0.228109375,-0.0217226562499999,2.5234140625,8.130953125,7.036546875,-2.6080859375,2.0879765625,-6.265984375,-1.17426171875
0.0270390625000001,1.39545703125,-1.5058359375,4.19148828125,0.289671875,-0.0798203124999998,-3.14140625,2.8947265625,-5.822765625,-2.1185,1.1336796875,2.787859375,-3.54675,-2.74944921875,1.54078125,2.169609375,1.1010078125,-2.138359375,3.01349609375,1.8223203125,-4.287046875,0.421109375,-0.09372265625,2.5044140625,8.647953125,7.991546875,-0.7060859375,4.7049765625,-2.146984375,2.38773828125
-0.4789609375,1.64045703125,-1.8278359375,1.65548828125,-0.748328125,-0.7048203125,-4.01040625,2.1837265625,-6.410765625,-2.5325,0.0756796875000001,3.090859375,-3.15275,-3.00344921875,1.25878125,2.059609375,0.7760078125,-2.611359375,2.86849609375,1.6693203125,-4.054046875,0.528109375,-0.19972265625,2.3544140625,9.224953125,9.187546875,0.9289140625,7.2349765625,2.155015625,5.78973828125
-0.5139609375,1.74245703125,-2.2728359375,-0.99851171875,-1.811328125,-1.4458203125,-4.12640625,1.5627265625,-7.333765625,-3.3855,-0.9323203125,2.961859375,-3.07575,-3.77844921875,0.67778125,1.319609375,0.0420078124999999,-3.141359375,2.51749609375,1.1633203125,-4.323046875,0.382109375,-0.49672265625,1.9504140625,9.583953125,10.262546875,1.9019140625,9.0749765625,5.599015625,8.13273828125
-0.1579609375,1.67545703125,-2.8448359375,-3.40851171875,-2.822328125,-2.4458203125,-3.57340625,1.2037265625,-8.471765625,-4.6385,-1.9223203125,2.495859375,-3.47375,-5.06444921875,-0.17221875,0.045609375,-1.0019921875,-3.764359375,1.90849609375,0.3233203125,-5.070046875,-0.186890625,-1.10972265625,1.2954140625,9.609953125,10.934546875,2.0119140625,9.7899765625,7.450015625,8.97173828125
0.3580390625,1.46945703125,-3.4618359375,-5.19351171875,-3.639328125,-3.6508203125,-2.67940625,1.2867265625,-9.656765625,-6.0265,-2.7913203125,1.879859375,-4.40275,-6.62344921875,-1.04421875,-1.399390625,-2.0359921875,-4.458359375,1.11449609375,-0.6486796875,-6.079046875,-1.225890625,-2.03372265625,0.5274140625,9.384953125,11.119546875,1.3379140625,9.3419765625,7.535015625,8.43473828125
0.7840390625,1.16645703125,-3.9658359375,-6.04551171875,-4.120328125,-4.8018203125,-1.88240625,1.8867265625,-10.694765625,-7.1455,-3.3593203125,1.286859375,-5.77575,-8.07044921875,-1.60121875,-2.563390625,-2.6689921875,-5.121359375,0.33849609375,-1.4626796875,-7.044046875,-2.581890625,-3.07972265625,-0.1445859375,9.116953125,10.961546875,0.2199140625,8.1429765625,6.326015625,7.11573828125
0.9180390625,0.77545703125,-4.1868359375,-5.85751171875,-4.202328125,-5.5748203125,-1.58940625,2.8677265625,-11.408765625,-7.6465,-3.5223203125,0.790859375,-7.42075,-9.04444921875,-1.62221875,-3.135390625,-2.6629921875,-5.609359375,-0.17850390625,-1.8956796875,-7.734046875,-3.941890625,-3.95272265625,-0.5545859375,8.960953125,10.706546875,-0.9040859375,6.8629765625,4.696015625,5.74973828125
0.6220390625,0.25745703125,-4.0408359375,-4.81051171875,-3.966328125,-5.7838203125,-2.06240625,3.8627265625,-11.693765625,-7.4215,-3.3843203125,0.336859375,-9.17975,-9.37944921875,-1.15721875,-3.107390625,-2.0699921875,-5.831359375,-0.28650390625,-1.9176796875,-8.101046875,-4.972890625,-4.40772265625,-0.6765859375,8.869953125,10.520546875,-1.7280859375,6.0719765625,3.389015625,4.81073828125
-0.1309609375,-0.44354296875,-3.5988359375,-3.33551171875,-3.622328125,-5.4988203125,-3.33540625,4.4107265625,-11.566765625,-6.6715,-3.2513203125,-0.207140625,-10.96375,-9.17544921875,-0.51221875,-2.773390625,-1.1999921875,-5.815359375,-0.0155039062500002,-1.7016796875,-8.271046875,-5.493890625,-4.40772265625,-0.6585859375,8.602953125,10.389546875,-2.2460859375,5.9269765625,2.574015625,4.25673828125
-1.2179609375,-1.33454296875,-3.0858359375,-1.96651171875,-3.422328125,-5.0108203125,-5.19940625,4.2127265625,-11.169765625,-5.8195,-3.4893203125,-0.946140625,-12.72375,-8.73544921875,-0.0882187499999998,-2.555390625,-0.4329921875,-5.708359375,0.43849609375,-1.5196796875,-8.429046875,-5.539890625,-4.15072265625,-0.7445859375,7.886953125,10.176546875,-2.7160859375,6.1349765625,1.839015625,3.61373828125
-2.4139609375,-2.31054296875,-2.7948359375,-1.18951171875,-3.538328125,-4.6878203125,-7.29740625,3.3157265625,-10.712765625,-5.2935,-4.3133203125,-1.834140625,-14.38175,-8.41244921875,-0.15721875,-2.743390625,0.0110078124999999,-5.698359375,0.80649609375,-1.5846796875,-8.675046875,-5.319890625,-3.95772265625,-1.1305859375,6.648953125,9.801546875,-3.4540859375,6.1859765625,0.575015625,2.35573828125
-3.5129609375,-3.16254296875,-2.9568359375,-1.32251171875,-3.978328125,-4.8028203125,-9.26440625,2.0767265625,-10.398765625,-5.3305,-5.6593203125,-2.608140625,-15.79875,-8.44844921875,-0.74321875,-3.318390625,0.1870078125,-5.909359375,0.86949609375,-1.9446796875,-8.951046875,-5.117890625,-4.10272265625,-1.8535859375,5.130953125,9.395546875,-4.5770859375,5.6729765625,-1.583984375,0.34173828125
-4.3729609375,-3.64354296875,-3.5998359375,-2.41951171875,-4.595328125,-5.4058203125,-10.78940625,0.9557265625,-10.325765625,-5.9025,-7.1883203125,-2.855140625,-16.79775,-8.89144921875,-1.64621875,-3.954390625,0.3690078125,-6.354359375,0.54349609375,-2.4776796875,-9.090046875,-5.183890625,-4.69272265625,-2.7835859375,3.794953125,9.278546875,-5.8900859375,4.4829765625,-4.527984375,-2.03126171875
-4.8649609375,-3.57354296875,-4.4658359375,-4.20151171875,-5.142328125,-6.2788203125,-11.59340625,0.2867265625,-10.432765625,-6.7615,-8.4203203125,-2.194140625,-17.21175,-9.59144921875,-2.57321875,-4.209390625,0.8740078125,-6.925359375,-0.10250390625,-2.9906796875,-8.925046875,-5.648890625,-5.63972265625,-3.7075859375,3.088953125,9.773546875,-6.9790859375,2.8119765625,-7.675984375,-4.03126171875
-4.8289609375,-2.93154296875,-5.0718359375,-6.09751171875,-5.366328125,-7.0098203125,-11.43240625,0.1497265625,-10.500765625,-7.5655,-8.9303203125,-0.508140625,-16.91475,-10.27444921875,-3.27721875,-3.792390625,1.8620078125,-7.433359375,-0.887503906250001,-3.3366796875,-8.412046875,-6.464890625,-6.70972265625,-4.4405859375,3.202953125,10.993546875,-7.4090859375,1.0669765625,-10.167984375,-4.99626171875
-4.1249609375,-1.89054296875,-4.9168359375,-7.43951171875,-5.084328125,-7.1868203125,-10.19940625,0.3887265625,-10.257765625,-8.0135,-8.5253203125,1.923859375,-15.85975,-10.63744921875,-3.65121875,-2.744390625,3.2410078125,-7.677359375,-1.60750390625,-3.4836796875,-7.658046875,-7.422890625,-7.61772265625,-4.8965859375,3.982953125,12.760546875,-6.9270859375,-0.296023437500001,-11.186984375,-4.63526171875
-2.7419609375,-0.76454296875,-3.7438359375,-7.72851171875,-4.261328125,-6.6118203125,-8.03940625,0.7327265625,-9.529765625,-7.9575,-7.3403203125,4.461859375,-14.11675,-10.48244921875,-3.74721875,-1.446390625,4.7090078125,-7.532359375,-2.12750390625,-3.5266796875,-6.880046875,-8.267890625,-8.14972265625,-5.0945859375,5.017953125,14.697546875,-5.5800859375,-0.960023437500001,-10.350984375,-3.11726171875
-0.8779609375,0.09145703125,-1.7148359375,-6.83351171875,-3.058328125,-5.4228203125,-5.39340625,0.9467265625,-8.373765625,-7.4685,-5.8013203125,6.336859375,-11.92175,-9.80444921875,-3.74721875,-0.450390625,5.8920078125,-7.035359375,-2.43350390625,-3.6426796875,-6.321046875,-8.842890625,-8.25372265625,-5.1465859375,5.819953125,16.381546875,-3.7130859375,-0.916023437500001,-7.976984375,-0.987261718750001
1.0200390625,0.42045703125,0.5561640625,-5.09851171875,-1.807328125,-4.0878203125,-2.97440625,0.8987265625,-7.102765625,-6.8205,-4.4823203125,6.972859375,-9.67875,-8.82644921875,-3.88621875,-0.241390625,6.4920078125,-6.386359375,-2.65250390625,-4.0226796875,-6.206046875,-9.147890625,-8.07072265625,-5.2175859375,5.979953125,17.444546875,-1.8880859375,-0.4950234375,-5.124984375,0.973738281249999
2.2610390625,0.15845703125,2.1351640625,-3.27451171875,-0.914328125,-3.2488203125,-1.66640625,0.5147265625,-6.195765625,-6.3805,-3.8993203125,6.234859375,-7.86475,-7.92944921875,-4.36921875,-1.038390625,6.3890078125,-5.867359375,-3.01350390625,-4.7976796875,-6.716046875,-9.297890625,-7.84972265625,-5.4665859375,5.255953125,17.589546875,-0.720085937499999,-0.238023437500001,-3.404984375,1.90273828125
2.0450390625,-0.56054296875,2.0621640625,-2.27651171875,-0.716328125,-3.4788203125,-2.32240625,-0.2852734375,-6.104765625,-6.4565,-4.3353203125,4.450859375,-6.87775,-7.50944921875,-5.29321875,-2.740390625,5.6480078125,-5.721359375,-3.76150390625,-5.9846796875,-7.965046875,-9.418890625,-7.82172265625,-5.9805859375,3.580953125,16.611546875,-0.6830859375,-0.659023437500001,-4.550984375,1.05973828125
-0.2029609375,-1.49854296875,-0.2598359375,-2.79051171875,-1.359328125,-5.0558203125,-5.42840625,-1.5692734375,-7.064765625,-7.1735,-5.7753203125,2.180859375,-6.88475,-7.80944921875,-6.62121875,-5.030390625,4.4530078125,-6.048359375,-5.04850390625,-7.4886796875,-9.955046875,-9.573890625,-8.09672265625,-6.7505859375,1.054953125,14.452546875,-1.9490859375,-2.0260234375,-9.769984375,-1.93426171875
-4.4679609375,-2.45554296875,-4.7348359375,-4.91051171875,-2.739328125,-7.8418203125,-10.79940625,-3.3072734375,-8.990765625,-8.4445,-7.9633203125,-0.117140625,-7.76375,-8.81044921875,-8.22621875,-7.571390625,3.0120078125,-6.789359375,-6.85050390625,-9.1696796875,-12.548046875,-9.769890625,-8.64972265625,-7.6955859375,-2.091046875,11.287546875,-4.3280859375,-4.2710234375,-19.046984375,-6.87926171875
-9.9889609375,-3.35454296875,-10.5188359375,-8.05351171875,-4.538328125,-11.3288203125,-17.52040625,-5.3132734375,-11.489765625,-10.0225,-10.5183203125,-2.278140625,-9.13575,-10.23744921875,-9.95121875,-10.147390625,1.4900078125,-7.763359375,-8.96350390625,-10.9066796875,-15.472046875,-9.991890625,-9.35872265625,-8.7115859375,-5.538046875,7.554546875,-7.3220859375,-7.0300234375,-30.855984375,-12.95626171875
-9.9889609375,-3.35454296875,-10.5188359375,-8.05351171875,-4.538328125,-11.3288203125,-17.52040625,-5.3132734375,-11.489765625,-10.0225,-10.5183203125,-2.278140625,-9.13575,-10.23744921875,-9.95121875,-10.147390625,1.4900078125,-7.763359375,-8.96350390625,-10.9066796875,-15.472046875,-9.991890625,-9.35872265625,-8.7115859375,-5.538046875,7.554546875,-7.3220859375,-7.0300234375,-30.855984375,-12.95626171875
