"Fp1","Fpz","Fp2","F7","F3","Fz","F4","F8","FC5","FC1","FC2","FC6","T7","C3","Cz","C4","T8","CP5","CP1","CP2","CP6","P7","P3","Pz","P4","P8","POz","O1","Oz","O2"
-3.12067578125,-1.5722890625,-4.11966015625,1.663265625,-3.83485546875,-1.34460546875,-1.00367578125,3.533296875,-3.21171484375,-2.288109375,-1.24365234375,-2.83055859375,9.15537109375,-2.9601640625,0.63116015625,-5.2138046875,-15.04857421875,10.51933984375,0.981984375,-3.95787109375,-10.12717578125,6.05096484375,-2.5055546875,-3.37772265625,-4.7118359375,-9.31196875,-6.462109375,-6.3974140625,-3.8076640625,-2.63450390625
-5.24767578125,-2.3962890625,-4.70266015625,-0.194734375,-7.76885546875,-2.36160546875,-2.93567578125,3.943296875,-6.20371484375,-2.445109375,-2.00165234375,-1.95255859375,6.45037109375,-4.7341640625,-0.93583984375,-5.5778046875,-11.54857421875,8.06633984375,-1.206015625,-4.74987109375,-9.34417578125,3.81096484375,-3.3875546875,-4.61572265625,-4.5048359375,-8.21196875,-5.542109375,-3.8304140625,-1.6646640625,-0.16850390625
-6.76667578125,-3.0742890625,-5.00766015625,-1.601734375,-10.35885546875,-3.44960546875,-4.20467578125,4.440296875,-8.34871484375,-3.034109375,-2.93465234375,-1.38655859375,3.87337109375,-6.2941640625,-2.56383984375,-5.7528046875,-8.62057421875,5.98833984375,-2.949015625,-5.48887109375,-8.53517578125,1.81496484375,-4.3525546875,-5.79772265625,-4.4498359375,-7.08796875,-5.162109375,-2.3954140625,-0.5226640625,1.31949609375
-7.72867578125,-3.6012890625,-5.11666015625,-2.522734375,-11.51885546875,-4.44260546875,-4.88967578125,4.923296875,-9.53371484375,-3.858109375,-3.94665234375,-1.17755859375,1.70737109375,-7.4211640625,-4.05683984375,-5.7338046875,-6.37557421875,4.45833984375,-4.048015625,-6.10987109375,-7.71017578125,0.19696484375,-5.2235546875,-6.84572265625,-4.5268359375,-5.82996875,-5.247109375,-2.1194140625,-0.4436640625,1.75549609375
-8.28267578125,-3.9522890625,-5.14866015625,-2.976734375,-11.47285546875,-5.06860546875,-5.19267578125,5.301296875,-9.82071484375,-4.508109375,-4.80165234375,-1.23655859375,0.310371093750001,-7.8691640625,-5.10783984375,-5.5378046875,-4.78157421875,3.59533984375,-4.361015625,-6.50987109375,-6.86217578125,-0.90503515625,-5.7375546875,-7.61872265625,-4.6248359375,-4.32496875,-5.521109375,-2.6814140625,-1.1416640625,1.39749609375
-8.46667578125,-4.0152890625,-5.07166015625,-2.972734375,-10.54585546875,-5.05560546875,-5.20767578125,5.605296875,-9.34471484375,-4.550109375,-5.18065234375,-1.33355859375,-0.02662890625,-7.4441640625,-5.41083984375,-5.1418046875,-3.70657421875,3.45533984375,-3.825015625,-6.54587109375,-5.93617578125,-1.32903515625,-5.6445546875,-7.90172265625,-4.5628359375,-2.54296875,-5.617109375,-3.5494140625,-2.0766640625,0.75949609375
-8.12067578125,-3.6062890625,-4.64066015625,-2.514734375,-9.04585546875,-4.23160546875,-4.80867578125,6.033296875,-8.23771484375,-3.697109375,-4.77665234375,-1.13055859375,0.79037109375,-6.0911640625,-4.76283984375,-4.4258046875,-2.95957421875,4.02133984375,-2.469015625,-6.03887109375,-4.81717578125,-0.92903515625,-4.7865546875,-7.44772265625,-4.1178359375,-0.58596875,-5.189109375,-4.1444140625,-2.6226640625,0.44649609375
-7.02567578125,-2.5732890625,-3.51966015625,-1.637734375,-7.21985546875,-2.57160546875,-3.69267578125,6.894296875,-6.63071484375,-1.914109375,-3.39265234375,-0.27055859375,2.58837109375,-3.9451640625,-3.12783984375,-3.1848046875,-2.32257421875,5.19533984375,-0.417015624999999,-4.81387109375,-3.36017578125,0.32796484375,-3.1455546875,-6.06172265625,-3.0798359375,1.31903125,-4.012109375,-4.0104140625,-2.3226640625,0.90749609375
-5.12667578125,-0.9242890625,-1.51866015625,-0.412734375,-5.23785546875,-0.206605468749999,-1.55267578125,8.471296875,-4.67671484375,0.573890625,-1.01465234375,1.48944140625,4.95437109375,-1.3201640625,-0.64583984375,-1.2308046875,-1.57357421875,6.78333984375,2.107984375,-2.79687109375,-1.46317578125,2.24196484375,-0.8905546875,-3.72672265625,-1.3358359375,2.90203125,-2.082109375,-2.9814140625,-1.0966640625,2.22449609375
-2.68867578125,1.1387109375,1.22833984375,1.048265625,-3.22385546875,2.59039453125,1.67232421875,10.841296875,-2.59771484375,3.354890625,2.14134765625,4.12944140625,7.32837109375,1.3398359375,2.37216015625,1.4441953125,-0.55057421875,8.46833984375,4.786984375,-0.11587109375,0.83382421875,4.31496484375,1.6044453125,-0.68872265625,1.0431640625,3.96403125,0.349890625,-1.2764140625,0.7163359375,4.06249609375
-0.23867578125,3.2567109375,4.23833984375,2.579265625,-1.31285546875,5.42639453125,5.60832421875,13.729296875,-0.71071484375,5.949890625,5.61534765625,7.27544140625,9.15737109375,3.5708359375,5.47016015625,4.5421953125,0.76342578125,9.82133984375,7.240984375,2.84912890625,3.28482421875,5.83796484375,3.8254453125,2.53627734375,3.7651640625,4.48003125,2.831890625,0.5655859375,2.5243359375,5.83949609375
1.63432421875,5.0097109375,6.83033984375,3.950265625,0.31814453125,7.84739453125,9.46832421875,16.521296875,0.62828515625,7.945890625,8.77734765625,10.24444140625,10.05237109375,5.0108359375,8.12216015625,7.4711953125,2.17142578125,10.42433984375,9.097984375,5.53512890625,5.45982421875,6.15896484375,5.2714453125,5.28527734375,6.3491640625,4.59703125,4.861890625,1.8945859375,3.7843359375,7.02249609375
2.54132421875,6.0287109375,8.37833984375,4.921265625,1.52214453125,9.44139453125,12.33132421875,18.468296875,1.17528515625,9.094890625,10.98634765625,12.26244140625,9.91837109375,5.5158359375,9.83916015625,9.5241953125,3.29542578125,10.05833984375,10.098984375,7.36512890625,6.86682421875,5.00796484375,5.6344453125,6.96127734375,8.2441640625,4.52003125,6.040890625,2.2235859375,4.2233359375,7.33449609375
2.45032421875,6.0957109375,8.54533984375,5.316265625,2.25714453125,9.95139453125,13.53932421875,18.994296875,0.92028515625,9.341890625,11.80034765625,12.75244140625,8.97737109375,5.2018359375,10.31516015625,10.1601953125,3.72542578125,8.84833984375,10.178984375,7.94712890625,7.12882421875,2.66996484375,4.9274453125,7.24127734375,8.9921640625,4.36003125,6.172890625,1.4175859375,3.8813359375,6.79049609375
1.66332421875,5.2127109375,7.38633984375,5.069265625,2.59014453125,9.36239453125,12.95332421875,17.919296875,0.07628515625,8.818890625,11.12234765625,11.57344140625,7.67237109375,4.3768359375,9.53016015625,9.2391953125,3.22342578125,7.22833984375,9.481984375,7.22112890625,6.14682421875,-0.12903515625,3.4824453125,6.20527734375,8.3931640625,4.09003125,5.322890625,-0.2604140625,3.0113359375,5.61949609375
0.63032421875,3.6067109375,5.30933984375,4.253265625,2.62714453125,7.92239453125,10.97332421875,15.526296875,-1.04471484375,7.794890625,9.24234765625,9.09144140625,6.49537109375,3.4148359375,7.78716015625,7.1031953125,1.87342578125,5.76233984375,8.316984375,5.49512890625,4.17682421875,-2.54403515625,1.8334453125,4.30727734375,6.6231640625,3.63503125,3.816890625,-2.2434140625,1.9683359375,4.19149609375
-0.26567578125,1.6807109375,2.94533984375,3.103265625,2.47214453125,6.08539453125,8.39132421875,12.488296875,-2.15871484375,6.619890625,6.76734765625,6.07944140625,5.81537109375,2.6428359375,5.65716015625,4.4781953125,0.0954257812499999,4.92833984375,7.085984375,3.35812890625,1.78982421875,-3.93503515625,0.5394453125,2.23427734375,4.2241640625,3.01103125,2.182890625,-3.8544140625,1.1243359375,2.95849609375
-0.84367578125,-0.0852890625,0.97933984375,1.975265625,2.23114453125,4.39739453125,6.12832421875,9.692296875,-3.06771484375,5.634890625,4.44734765625,3.47344140625,5.76437109375,2.2668359375,3.80616015625,2.2261953125,-1.51357421875,4.95733984375,6.186984375,1.50112890625,-0.29417578125,-4.04103515625,0.0104453125000004,0.66527734375,1.9491640625,2.40103125,1.005890625,-4.5254140625,0.8053359375,2.37549609375
-1.11267578125,-1.2502890625,-0.0486601562499998,1.208265625,1.98314453125,3.31739453125,4.91732421875,7.970296875,-3.66871484375,5.078890625,2.93134765625,2.06844140625,6.19537109375,2.3378359375,2.77016015625,1.0321953125,-2.42757421875,5.77833984375,5.893984375,0.47712890625,-1.45917578125,-2.97103515625,0.4054453125,0.0452773437500001,0.4921640625,2.08703125,0.742890625,-3.9714140625,1.2113359375,2.74549609375
-1.19667578125,-1.5722890625,0.0693398437500002,0.944265625,1.71314453125,3.04239453125,5.00232421875,7.800296875,-3.97271484375,4.999890625,2.51434765625,2.22444140625,6.74837109375,2.7378359375,2.73116015625,1.1591953125,-2.42857421875,7.06233984375,6.241984375,0.49712890625,-1.43517578125,-1.06503515625,1.5994453125,0.42327734375,0.2131640625,2.28603125,1.546890625,-2.2634140625,2.3363359375,4.07549609375
-1.24067578125,-1.1352890625,1.10433984375,1.072265625,1.30514453125,3.41539453125,6.04032421875,9.118296875,-4.08171484375,5.214890625,3.02234765625,3.71644140625,6.99337109375,3.2088359375,3.44516015625,2.3461953125,-1.71157421875,8.34233984375,6.979984375,1.33912890625,-0.40517578125,1.27196484375,3.2414453125,1.44327734375,0.9981640625,2.98503125,3.185890625,0.2115859375,3.9263359375,6.01549609375
-1.35467578125,-0.3562890625,2.45033984375,1.320265625,0.61914453125,3.97939453125,7.26432421875,11.317296875,-4.13371484375,5.369890625,3.88534765625,5.78144140625,6.61137109375,3.4338359375,4.33416015625,3.9121953125,-0.80557421875,9.17533984375,7.643984375,2.43312890625,1.04582421875,3.67596484375,4.8424453125,2.48327734375,2.3051640625,3.87603125,5.087890625,2.8525859375,5.5303359375,7.94649609375
-1.57767578125,0.1887109375,3.36533984375,1.416265625,-0.40485546875,4.17039453125,7.82232421875,13.457296875,-4.24571484375,5.087890625,4.38934765625,7.39044140625,5.51737109375,3.1398359375,4.73616015625,5.0071953125,-0.360574218750001,9.24133984375,7.722984375,3.08312890625,2.13582421875,5.80096484375,5.8984453125,2.88427734375,3.3751640625,4.43703125,6.515890625,4.9755859375,6.5953359375,9.16749609375
-1.86867578125,0.0547109375,3.29033984375,1.209265625,-1.70085546875,3.56239453125,7.14032421875,14.588296875,-4.47571484375,4.161890625,3.99034765625,7.63744140625,3.90237109375,2.1988359375,4.18616015625,4.9391953125,-0.85757421875,8.39133984375,6.864984375,2.74912890625,2.16682421875,7.22496484375,6.0184453125,2.19727734375,3.5231640625,4.14203125,6.819890625,5.9645859375,6.6163359375,9.12049609375
-2.09867578125,-0.8102890625,2.13033984375,0.729265625,-3.05785546875,2.09239453125,5.18732421875,14.139296875,-4.79671484375,2.701890625,2.57134765625,6.12044140625,2.20837109375,0.7218359375,2.65116015625,3.4541953125,-2.38357421875,6.69733984375,5.052984375,1.29812890625,0.81182421875,7.50696484375,5.0724453125,0.37027734375,2.4161640625,2.72303125,5.698890625,5.4675859375,5.3233359375,7.58849609375
-2.05367578125,-1.9892890625,0.35233984375,0.204265625,-4.10285546875,0.14139453125,2.53232421875,12.199296875,-5.05271484375,1.144890625,0.53134765625,3.17344140625,1.02837109375,-0.9061640625,0.59516015625,0.8801953125,-4.56957421875,4.50533984375,2.696984375,-0.90587109375,-1.70417578125,6.44896484375,3.2944453125,-2.17372265625,0.2421640625,0.36003125,3.363890625,3.5885859375,2.8673359375,4.84949609375
-1.48267578125,-2.7622890625,-1.19166015625,-0.00773437499999985,-4.39385546875,-1.59160546875,0.14132421875,9.542296875,-4.98571484375,0.0968906250000003,-1.36465234375,-0.21855859375,0.92637109375,-2.1061640625,-1.18183984375,-1.9658046875,-6.74057421875,2.41133984375,0.536984375,-3.12687109375,-4.63517578125,4.38496484375,1.2644453125,-4.66672265625,-2.3198359375,-2.31896875,0.504890625,0.9245859375,-0.1236640625,1.64849609375
-0.24667578125,-2.4742890625,-1.67166015625,0.404265625,-3.65785546875,-2.41260546875,-1.07067578125,7.304296875,-4.37171484375,0.0528906250000003,-2.35065234375,-2.81255859375,2.19737109375,-2.3431640625,-1.91883984375,-4.1168046875,-8.19657421875,1.05633984375,-0.667015624999999,-4.57987109375,-7.01017578125,2.17896484375,-0.2945546875,-6.32372265625,-4.3818359375,-4.47696875,-1.981109375,-1.6444140625,-2.7566640625,-1.05250390625
1.51632421875,-0.9242890625,-0.72366015625,1.525265625,-2.02985546875,-1.99360546875,-0.69367578125,6.466296875,-3.20371484375,1.125890625,-2.05765234375,-3.63455859375,4.68637109375,-1.4021640625,-1.29683984375,-4.8768046875,-8.49157421875,0.833339843749999,-0.506015625,-4.80887109375,-8.05017578125,0.81596484375,-0.8325546875,-6.71972265625,-5.2478359375,-5.43196875,-3.378109375,-3.3264140625,-4.2546640625,-2.48250390625
3.35132421875,1.4747109375,1.34933984375,3.121265625,-0.0868554687500001,-0.56060546875,0.98832421875,7.430296875,-1.77771484375,2.925890625,-0.71565234375,-2.39755859375,7.79237109375,0.4458359375,0.37716015625,-4.1318046875,-7.58057421875,1.67633984375,0.862984375,-3.89987109375,-7.49817578125,0.85196484375,-0.2395546875,-5.99072265625,-4.7288359375,-4.94796875,-3.452109375,-3.7514140625,-4.2956640625,-2.39050390625
4.65132421875,3.8637109375,3.74733984375,4.706265625,1.38114453125,1.19639453125,3.15132421875,9.877296875,-0.61871484375,4.703890625,0.96034765625,0.416441406250001,10.68137109375,2.5298359375,2.30616015625,-2.3738046875,-5.79557421875,3.06933984375,2.780984375,-2.43287109375,-5.70517578125,2.07596484375,1.1014453125,-4.73872265625,-3.2058359375,-3.32896875,-2.508109375,-3.0614140625,-3.1316640625,-1.13250390625
4.94832421875,5.3617109375,5.58233984375,5.715265625,1.70514453125,2.45139453125,4.81232421875,12.934296875,-0.26771484375,5.673890625,2.11234765625,3.79244140625,12.58637109375,4.0538359375,3.58716015625,-0.4648046875,-3.72257421875,4.27333984375,4.379984375,-1.20487109375,-3.46517578125,3.60596484375,2.4984453125,-3.72372265625,-1.4238359375,-1.29296875,-1.205109375,-1.7984140625,-1.4526640625,0.47849609375
4.14732421875,5.4587109375,6.26033984375,5.731265625,0.59314453125,2.59939453125,5.22632421875,15.539296875,-1.04471484375,5.357890625,2.13134765625,6.60744140625,13.06337109375,4.4198359375,3.61816015625,0.7291953125,-2.00157421875,4.62833984375,4.940984375,-0.87687109375,-1.68117578125,4.35696484375,3.2464453125,-3.51772265625,-0.1658359375,0.28603125,-0.263109375,-0.6714140625,-0.1026640625,1.48649609375
2.55832421875,4.2147109375,5.66833984375,4.672265625,-1.75585546875,1.50139453125,4.16932421875,16.856296875,-2.87571484375,3.766890625,0.89834765625,8.04244140625,12.09737109375,3.4638359375,2.32716015625,0.6801953125,-1.13557421875,3.81333984375,4.161984375,-1.70087109375,-1.01117578125,3.61996484375,2.9104453125,-4.28772265625,0.0381640624999998,0.68603125,-0.195109375,-0.3024140625,0.2543359375,1.16749609375
0.73632421875,2.1847109375,4.13533984375,2.866265625,-4.71685546875,-0.49460546875,2.01432421875,16.576296875,-5.28271484375,1.357890625,-1.19665234375,7.83844140625,10.05137109375,1.4908359375,0.15416015625,-0.6158046875,-1.33857421875,1.96333984375,2.239984375,-3.42987109375,-1.61317578125,1.42596484375,1.4814453125,-5.76172265625,-0.9078359375,-0.38896875,-1.132109375,-0.9844140625,-0.5966640625,-0.64150390625
-0.77167578125,0.1437109375,2.23733984375,0.918265625,-7.47385546875,-2.72160546875,-0.44167578125,14.974296875,-7.55871484375,-1.162109375,-3.43365234375,6.31544140625,7.50937109375,-0.8641640625,-2.16683984375,-2.6538046875,-2.48957421875,-0.419660156250001,-0.236015624999999,-5.43887109375,-3.10617578125,-1.47503515625,-0.6325546875,-7.38072265625,-2.6648359375,-2.68696875,-2.792109375,-2.5524140625,-2.3196640625,-3.42750390625
-1.66867578125,-1.2572890625,0.54233984375,-0.559734375,-9.34285546875,-4.47460546875,-2.32267578125,12.724296875,-9.05971484375,-3.101109375,-5.06065234375,4.19744140625,5.10937109375,-2.9131640625,-3.91183984375,-4.6358046875,-4.18457421875,-2.69466015625,-2.537015625,-7.00587109375,-4.76617578125,-4.00903515625,-2.7785546875,-8.55472265625,-4.6108359375,-5.48196875,-4.613109375,-4.4354140625,-4.1806640625,-6.18350390625
-2.04767578125,-1.7962890625,-0.62366015625,-1.223734375,-10.03385546875,-5.27860546875,-3.03067578125,10.578296875,-9.46471484375,-4.023109375,-5.59565234375,2.29844140625,3.39737109375,-4.1831640625,-4.62783984375,-5.8038046875,-5.90757421875,-4.34366015625,-4.105015625,-7.64887109375,-5.87317578125,-5.28403515625,-4.3425546875,-8.93372265625,-6.1218359375,-7.88096875,-6.020109375,-5.9304140625,-5.4086640625,-7.87850390625
-2.35267578125,-1.7682890625,-1.27566015625,-1.128734375,-9.71285546875,-5.06860546875,-2.46567578125,9.073296875,-8.87171484375,-3.902109375,-5.00965234375,1.20744140625,2.70437109375,-4.5881640625,-4.28883984375,-5.7708046875,-7.22957421875,-5.14466015625,-4.757015625,-7.35187109375,-6.05417578125,-4.94803515625,-5.0105546875,-8.56272265625,-6.8538359375,-9.23696875,-6.712109375,-6.5494140625,-5.6216640625,-7.99350390625
-3.15367578125,-1.7962890625,-1.69666015625,-0.680734375,-8.89485546875,-4.19260546875,-1.03667578125,8.354296875,-7.72271484375,-3.122109375,-3.72865234375,1.07444140625,3.06837109375,-4.4151640625,-3.29183984375,-4.6928046875,-7.97057421875,-5.20566015625,-4.726015625,-6.56887109375,-5.46417578125,-3.24803515625,-4.8835546875,-7.84972265625,-6.8998359375,-9.44296875,-6.809109375,-6.2534140625,-5.0286640625,-6.81650390625
-4.80867578125,-2.4402890625,-2.22166015625,-0.418734375,-8.19885546875,-3.23860546875,0.52532421875,8.202296875,-6.59671484375,-2.297109375,-2.44365234375,1.61644140625,4.21137109375,-4.1401640625,-2.27383984375,-3.1898046875,-8.23457421875,-4.84866015625,-4.495015625,-5.98087109375,-4.68417578125,-0.83303515625,-4.3575546875,-7.33072265625,-6.7048359375,-8.91596875,-6.725109375,-5.4054140625,-4.2716640625,-5.27650390625
-7.19167578125,-3.8262890625,-2.98766015625,-0.693734375,-8.04585546875,-2.73660546875,1.52332421875,8.236296875,-5.93971484375,-1.958109375,-1.76365234375,2.33044140625,5.65837109375,-4.1551640625,-1.79983984375,-2.0258046875,-8.26557421875,-4.42666015625,-4.501015625,-6.10187109375,-4.35717578125,1.55696484375,-3.8695546875,-7.36172265625,-6.7668359375,-8.25696875,-6.850109375,-4.5044140625,-3.9726640625,-4.37350390625
-9.64767578125,-5.5272890625,-3.80166015625,-1.423734375,-8.40885546875,-2.87060546875,1.65932421875,8.199296875,-5.84271484375,-2.272109375,-1.90765234375,2.79944140625,6.95237109375,-4.5261640625,-2.06683984375,-1.7118046875,-8.24357421875,-4.12666015625,-4.864015625,-6.97087109375,-4.78017578125,3.35296484375,-3.6235546875,-7.88672265625,-7.3028359375,-7.82996875,-7.233109375,-3.8774140625,-4.2966640625,-4.55950390625
-11.24367578125,-6.7662890625,-4.22766015625,-2.089734375,-8.79585546875,-3.38560546875,1.16732421875,8.104296875,-6.00571484375,-2.947109375,-2.59565234375,2.89744140625,7.84837109375,-4.9571640625,-2.79083984375,-2.2608046875,-8.15557421875,-3.89766015625,-5.308015625,-8.10687109375,-5.71217578125,4.28496484375,-3.4945546875,-8.44472265625,-8.0898359375,-7.56296875,-7.509109375,-3.5334140625,-4.8326640625,-5.47650390625
-11.18467578125,-6.8232890625,-3.85366015625,-2.038734375,-8.55585546875,-3.75260546875,0.62132421875,8.133296875,-5.92071484375,-3.380109375,-3.23665234375,2.77244140625,8.36437109375,-4.9621640625,-3.36883984375,-3.2298046875,-7.84757421875,-3.53066015625,-5.319015625,-8.77487109375,-6.52017578125,4.38396484375,-3.1215546875,-8.40872265625,-8.5878359375,-7.08596875,-7.102109375,-3.2204140625,-4.8706640625,-6.20550390625
-9.19367578125,-5.4262890625,-2.56466015625,-0.886734375,-7.30385546875,-3.48760546875,0.53532421875,8.396296875,-5.18371484375,-2.991109375,-3.29165234375,2.65844140625,8.67737109375,-4.1551640625,-3.21683984375,-4.0118046875,-7.21657421875,-2.80766015625,-4.464015625,-8.38687109375,-6.57917578125,3.93496484375,-2.1465546875,-7.32572265625,-8.2708359375,-6.06496875,-5.594109375,-2.6124140625,-3.8456640625,-5.82850390625
-5.66167578125,-2.9052890625,-0.65466015625,1.219265625,-5.19685546875,-2.45560546875,1.04732421875,8.769296875,-3.73471484375,-1.572109375,-2.59165234375,2.66244140625,8.93437109375,-2.4981640625,-2.11583984375,-4.1848046875,-6.37957421875,-1.65866015625,-2.666015625,-6.81787109375,-5.63517578125,3.35796484375,-0.4625546875,-5.18672265625,-6.9578359375,-4.47596875,-3.026109375,-1.5134140625,-1.6926640625,-3.96050390625
-1.52867578125,-0.0722890625,1.29233984375,3.601265625,-2.91185546875,-0.98560546875,1.86132421875,8.940296875,-1.94271484375,0.531890625,-1.44565234375,2.68644140625,9.07537109375,-0.3961640625,-0.36583984375,-3.7328046875,-5.67357421875,-0.276660156250001,-0.323015625,-4.49187109375,-3.94817578125,2.98696484375,1.6334453125,-2.50172265625,-4.9648359375,-2.64796875,0.0238906250000002,-0.0334140624999999,1.0613359375,-0.969503906249999
2.06632421875,2.1357109375,2.66533984375,5.273265625,-1.37185546875,0.27339453125,2.44632421875,8.644296875,-0.50971484375,2.527890625,-0.45965234375,2.53544140625,8.77337109375,1.4048359375,1.32616015625,-2.9988046875,-5.44357421875,0.868339843749999,1.800984375,-2.18487109375,-2.11417578125,2.80396484375,3.4754453125,-0.14372265625,-2.9798359375,-1.07096875,2.624890625,1.3565859375,3.4703359375,2.15749609375
4.24032421875,3.0877109375,3.14333984375,5.362265625,-1.31385546875,0.723394531250001,2.40432421875,7.937296875,-0.16871484375,3.572890625,-0.15165234375,2.16544140625,7.59337109375,2.1428359375,2.23916015625,-2.3808046875,-5.72957421875,1.20033984375,2.929984375,-0.62287109375,-0.66517578125,2.41196484375,4.3134453125,1.06227734375,-1.6728359375,-0.08896875,3.935890625,2.0085859375,4.5933359375,4.30449609375
4.78032421875,2.8067109375,2.92433984375,3.591265625,-2.82185546875,0.26639453125,1.85932421875,7.375296875,-1.25071484375,3.311890625,-0.51365234375,1.91644140625,5.35437109375,1.4998359375,2.13616015625,-1.9428046875,-6.04457421875,0.41933984375,2.758984375,-0.0178710937500002,0.34982421875,1.36096484375,3.7864453125,0.86527734375,-1.2228359375,0.39103125,3.698890625,1.5235859375,4.0483359375,4.87149609375
4.26132421875,2.0227109375,2.71633984375,0.587265625,-5.08385546875,-0.45760546875,1.58032421875,7.888296875,-3.33371484375,2.229890625,-0.83065234375,2.51344140625,2.47337109375,-0.0671640624999999,1.56216015625,-1.2048046875,-5.46557421875,-1.13766015625,1.780984375,0.16412890625,1.49982421875,-0.36603515625,2.2774453125,-0.0967226562499999,-1.0748359375,0.93703125,2.512890625,0.1335859375,2.3573359375,4.20949609375
3.73032421875,1.8107109375,3.38633984375,-2.270734375,-6.67485546875,-0.295605468749999,2.64532421875,10.301296875,-5.30671484375,1.529890625,0.0243476562500002,4.72344140625,-0.0356289062499995,-1.4021640625,1.66016015625,0.6341953125,-3.10757421875,-2.50866015625,1.162984375,0.96912890625,3.63982421875,-2.15503515625,0.8604453125,-0.51372265625,-0.1928359375,2.28703125,1.596890625,-1.3324140625,0.7513359375,3.46649609375
4.07032421875,2.9627109375,5.40033984375,-3.473734375,-6.28885546875,1.77039453125,5.74932421875,14.713296875,-5.90671484375,2.498890625,2.90034765625,8.79344140625,-0.99362890625,-1.2081640625,3.52016015625,4.1211953125,1.22842578125,-2.56866015625,2.113984375,3.31712890625,7.24282421875,-3.04803515625,0.7724453125,0.85527734375,2.2521640625,4.78803125,2.101890625,-1.9354140625,0.4323359375,3.80249609375
5.47632421875,5.4597109375,8.43133984375,-2.151734375,-3.50085546875,5.92039453125,10.60032421875,20.180296875,-4.41071484375,5.722890625,7.71034765625,14.04444140625,0.28037109375,1.2258359375,7.45616015625,8.9861953125,6.67642578125,-0.680660156250001,5.139984375,7.32112890625,11.86982421875,-2.31103515625,2.6984453125,4.35127734375,6.2041640625,7.97503125,4.375890625,-1.2474140625,1.7753359375,5.52349609375
7.40532421875,8.4377109375,11.45633984375,1.455265625,0.95514453125,11.22339453125,15.87032421875,25.001296875,-1.06671484375,10.639890625,13.26334765625,18.97144140625,3.51837109375,5.5648359375,12.67316015625,14.0171953125,11.51042578125,2.90033984375,9.665984375,12.04812890625,16.18582421875,0.11596484375,6.3464453125,9.07827734375,10.5691640625,10.64403125,7.699890625,0.3905859375,4.0773359375,7.78749609375
9.01132421875,10.6607109375,13.30533984375,6.071265625,5.52414453125,15.97839453125,19.74432421875,27.463296875,2.99228515625,15.729890625,17.73234765625,21.83444140625,7.54237109375,10.5248359375,17.56816015625,17.5251953125,13.90642578125,7.09133984375,14.279984375,15.90112890625,18.58282421875,3.54896484375,10.5754453125,13.31527734375,13.7251640625,11.47203125,10.700890625,2.1545859375,6.0403359375,9.16349609375
9.68532421875,11.2047109375,13.28433984375,9.964265625,8.55214453125,18.49339453125,20.75432421875,26.614296875,6.26428515625,19.236890625,19.50134765625,21.45344140625,10.79737109375,14.4698359375,20.48516015625,18.1491953125,12.83042578125,10.49433984375,17.429984375,17.42312890625,18.03582421875,6.90196484375,13.9884453125,15.40627734375,14.4071640625,9.80303125,12.160890625,3.3265859375,6.6473359375,8.62549609375
9.35832421875,9.9007109375,11.50433984375,11.744265625,9.00814453125,17.87439453125,18.47332421875,22.660296875,7.56728515625,20.001890625,17.90934765625,17.75644140625,12.10337109375,16.1778359375,20.51216015625,15.5431953125,8.52542578125,12.04833984375,18.175984375,16.04812890625,14.66882421875,9.24296484375,15.6354453125,14.61027734375,12.4001640625,6.09503125,11.708890625,3.7715859375,5.8083359375,6.26549609375
8.43932421875,7.3567109375,8.76233984375,10.992265625,6.90914453125,14.41639453125,13.71332421875,16.819296875,6.57228515625,17.959890625,13.53734765625,11.81844140625,11.20137109375,15.3618359375,17.87516015625,10.5551953125,2.35642578125,11.51233984375,16.575984375,12.36712890625,9.71482421875,10.27696484375,15.4134453125,11.42527734375,8.6391640625,1.74603125,9.958890625,3.9895859375,4.3753359375,3.27349609375
7.52732421875,4.5967109375,6.09333984375,8.372265625,3.22114453125,9.40139453125,8.13632421875,10.774296875,3.90328515625,14.057890625,7.88734765625,5.38744140625,8.82937109375,12.6968359375,13.74716015625,4.8181953125,-3.86357421875,9.50533984375,13.546984375,7.79212890625,4.90382421875,10.46096484375,13.9884453125,7.26427734375,4.6831640625,-1.58496875,8.084890625,4.7495859375,3.5923359375,1.23849609375
7.09132421875,2.5407109375,4.27533984375,5.190265625,-0.68885546875,4.45039453125,3.46832421875,5.984296875,0.74628515625,9.717890625,2.66834765625,0.13944140625,6.28237109375,9.3798359375,9.60216015625,-0.0128046875000001,-8.65357421875,7.10533984375,10.308984375,3.83612890625,1.63982421875,10.65796484375,12.3204453125,3.69427734375,1.9081640625,-2.75296875,7.129890625,6.5605859375,4.3523359375,1.26549609375
7.26732421875,1.5947109375,3.50433984375,2.696265625,-3.73485546875,0.79839453125,0.73132421875,3.196296875,-1.76871484375,6.152890625,-0.93865234375,-2.95455859375,4.75337109375,6.5058359375,6.51516015625,-2.9528046875,-11.34457421875,5.25633984375,7.772984375,1.43812890625,0.42682421875,11.54696484375,11.1244453125,1.70027734375,0.8941640625,-1.60396875,7.463890625,9.3215859375,6.7113359375,3.43349609375
7.83132421875,1.5437109375,3.41533984375,1.545265625,-5.49385546875,-1.12560546875,-0.0636757812499997,2.347296875,-3.04171484375,3.915890625,-2.65465234375,-3.88055859375,4.82137109375,4.6438359375,4.78216015625,-3.9728046875,-12.10557421875,4.36633984375,6.213984375,0.66512890625,0.80582421875,13.17396484375,10.5564453125,1.35927734375,1.3031640625,1.03403125,8.665890625,12.3255859375,9.8873359375,6.80349609375
8.36032421875,1.7787109375,3.38533984375,1.668265625,-6.16785546875,-1.66060546875,0.31132421875,2.828296875,-3.10571484375,2.855890625,-2.99865234375,-3.35955859375,6.31637109375,3.7708359375,4.01116015625,-3.7868046875,-11.61957421875,4.25733984375,5.348984375,0.90012890625,1.75982421875,14.94796484375,10.2704453125,2.02027734375,2.2191640625,3.77703125,9.833890625,14.5735859375,12.6553359375,9.89549609375
8.46632421875,1.6997109375,2.92733984375,2.493265625,-6.27585546875,-1.52760546875,0.85432421875,3.887296875,-2.42671484375,2.426890625,-2.83665234375,-2.37555859375,8.54637109375,3.5148359375,3.54116015625,-3.3508046875,-10.65257421875,4.42633984375,4.690984375,1.31512890625,2.27982421875,16.01496484375,9.7514453125,2.78727734375,2.7001640625,5.29803125,10.100890625,15.2285859375,13.8993359375,11.35649609375
7.95732421875,1.0377109375,1.93233984375,3.333265625,-6.32385546875,-1.36960546875,0.84332421875,4.953296875,-1.57471484375,2.106890625,-2.89265234375,-1.68855859375,10.70237109375,3.4958359375,2.89816015625,-3.3658046875,-9.75457421875,4.40233984375,3.921984375,1.33712890625,1.82682421875,15.77796484375,8.6954453125,3.01227734375,2.2331640625,4.87103125,9.089890625,13.9915859375,13.1003359375,10.54049609375
6.84032421875,-0.0962890625,0.63333984375,3.720265625,-6.58985546875,-1.47960546875,0.0993242187500001,5.766296875,-0.95271484375,1.663890625,-3.45465234375,-1.57155859375,12.21237109375,3.5348359375,2.01516015625,-4.0308046875,-9.15357421875,4.00333984375,3.070984375,0.85612890625,0.47182421875,14.23496484375,7.1994453125,2.53827734375,0.9031640625,2.62203125,7.077890625,11.2545859375,10.5593359375,7.78049609375
5.19532421875,-1.4252890625,-0.64966015625,3.530265625,-7.09285546875,-1.80360546875,-1.07567578125,6.314296875,-0.70271484375,1.144890625,-4.38465234375,-1.86055859375,12.85937109375,3.6378359375,1.13916015625,-5.1238046875,-8.81557421875,3.34233984375,2.393984375,0.11012890625,-1.27617578125,11.90496484375,5.6474453125,1.60127734375,-0.7838359375,-0.61596875,4.772890625,7.9135859375,7.2303359375,4.17849609375
2.99932421875,-2.7982890625,-1.79666015625,2.848265625,-7.75285546875,-2.18760546875,-2.24067578125,6.648296875,-0.81271484375,0.648890625,-5.38965234375,-2.22155859375,12.66837109375,3.7828359375,0.50016015625,-6.3118046875,-8.58657421875,2.58633984375,2.057984375,-0.63587109375,-2.86017578125,9.38296484375,4.3654453125,0.49727734375,-2.2898359375,-3.77896875,2.838890625,4.8885859375,4.1983359375,0.98849609375
0.08432421875,-4.3612890625,-3.02066015625,1.734265625,-8.60685546875,-2.64960546875,-3.19367578125,6.702296875,-1.32971484375,0.0818906250000002,-6.33165234375,-2.48755859375,11.66737109375,3.6958359375,0.0111601562500003,-7.4618046875,-8.34857421875,1.66433984375,1.853984375,-1.38287109375,-4.03417578125,6.86696484375,3.2994453125,-0.74372265625,-3.4248359375,-6.09896875,1.445890625,2.6145859375,2.0813359375,-1.05050390625
-3.72267578125,-6.4672890625,-4.74466015625,0.0932656250000001,-9.88885546875,-3.48460546875,-4.14167578125,6.267296875,-2.45271484375,-0.915109375,-7.37665234375,-2.81855859375,9.77337109375,2.8488359375,-0.78683984375,-8.7578046875,-8.11557421875,0.184339843749999,1.175984375,-2.45387109375,-4.98717578125,4.05196484375,1.9624453125,-2.45372265625,-4.4698359375,-7.40696875,0.159890625,0.8585859375,0.7443359375,-2.03450390625
-8.30967578125,-9.3642890625,-7.27266015625,-2.207734375,-11.85585546875,-5.10760546875,-5.53567578125,5.132296875,-4.42071484375,-2.781109375,-8.87265234375,-3.60255859375,6.89737109375,0.7208359375,-2.45683984375,-10.5488046875,-8.04457421875,-2.31666015625,-0.663015625,-4.28987109375,-6.17017578125,0.52396484375,-0.2685546875,-5.08172265625,-5.9628359375,-8.07196875,-1.756109375,-0.9944140625,-0.4816640625,-2.67950390625
-13.05967578125,-12.8602890625,-10.46066015625,-5.117734375,-14.49685546875,-7.72960546875,-7.68667578125,3.298296875,-7.25871484375,-5.694109375,-11.05065234375,-5.16755859375,3.20237109375,-2.8121640625,-5.26783984375,-13.0308046875,-8.34657421875,-5.96466015625,-3.962015625,-7.09487109375,-7.94817578125,-3.68203515625,-3.6805546875,-8.79572265625,-8.2818359375,-8.66196875,-4.788109375,-3.3904140625,-2.2616640625,-3.75750390625
-16.92767578125,-16.2142890625,-13.61766015625,-8.255734375,-17.38585546875,-11.08860546875,-10.47367578125,1.094296875,-10.60971484375,-9.312109375,-13.75565234375,-7.47855859375,-0.713628906249999,-7.2311640625,-8.90583984375,-15.9738046875,-9.13657421875,-10.27966015625,-8.316015625,-10.57287109375,-10.29917578125,-7.83303515625,-7.8935546875,-13.18572265625,-11.2928359375,-9.55396875,-8.743109375,-6.1974140625,-4.7416640625,-5.54350390625
-18.83967578125,-18.4052890625,-15.75666015625,-10.984734375,-19.78885546875,-14.43060546875,-13.29367578125,-0.888703125000001,-13.78271484375,-12.781109375,-16.39965234375,-10.04355859375,-3.90962890625,-11.4531640625,-12.49183984375,-18.6868046875,-10.30157421875,-14.27366015625,-12.666015625,-13.91787109375,-12.74117578125,-10.77403515625,-11.9115546875,-17.27072265625,-14.2858359375,-10.68796875,-12.701109375,-8.7044140625,-7.3876640625,-7.59550390625
-18.22167578125,-18.6402890625,-16.05666015625,-12.654734375,-20.95985546875,-16.76460546875,-15.28067578125,-2.006703125,-16.00071484375,-15.066109375,-18.16265234375,-12.07555859375,-5.45862890625,-14.2351640625,-14.90983984375,-20.2648046875,-11.45157421875,-16.84566015625,-15.710015625,-16.08887109375,-14.50717578125,-11.53303515625,-14.5415546875,-19.85672265625,-16.2518359375,-11.57796875,-15.410109375,-10.0074140625,-9.2376640625,-8.98950390625
-15.34367578125,-16.7942890625,-14.27566015625,-12.903734375,-20.47785546875,-17.28860546875,-15.67767578125,-1.845703125,-16.73071484375,-15.412109375,-18.35465234375,-12.82955859375,-4.89562890625,-14.7121640625,-15.28983984375,-19.9958046875,-12.02457421875,-17.28566015625,-16.470015625,-16.25187109375,-14.89817578125,-9.83803515625,-14.9475546875,-20.05672265625,-16.3678359375,-11.56996875,-15.904109375,-9.5354140625,-9.4466640625,-8.85950390625
-11.26167578125,-13.5112890625,-10.89066015625,-11.849734375,-18.47685546875,-15.75460546875,-14.18967578125,-0.416703125,-15.92671484375,-13.685109375,-16.74565234375,-11.94155859375,-2.48062890625,-12.7781640625,-13.39683984375,-17.7228046875,-11.52257421875,-15.59666015625,-14.719015625,-14.17287109375,-13.63017578125,-6.28103515625,-13.0525546875,-17.73372265625,-14.4258359375,-10.20696875,-14.006109375,-7.3934140625,-7.7876640625,-6.95750390625
-7.37467578125,-9.8982890625,-6.89766015625,-10.033734375,-15.61585546875,-12.58060546875,-11.13967578125,1.829296875,-14.04071484375,-10.417109375,-13.68865234375,-9.58455859375,0.906371093750001,-9.1101640625,-9.73683984375,-13.9568046875,-9.77057421875,-12.46466015625,-11.065015625,-10.35087109375,-10.99317578125,-2.02203515625,-9.5615546875,-13.60072265625,-10.9588359375,-7.52296875,-10.425109375,-4.3364140625,-4.8286640625,-3.84450390625
-4.83267578125,-7.0322890625,-3.38066015625,-8.137734375,-12.75985546875,-8.65660546875,-7.31667578125,4.214296875,-11.75771484375,-6.552109375,-9.97265234375,-6.36455859375,4.18437109375,-4.8341640625,-5.33883984375,-9.6738046875,-7.05157421875,-8.89166015625,-6.641015625,-5.80687109375,-7.72717578125,1.75696484375,-5.6075546875,-8.92672265625,-7.0118359375,-4.08896875,-6.414109375,-1.3814140625,-1.6486640625,-0.61750390625
-4.08367578125,-5.5092890625,-1.07166015625,-6.643734375,-10.55785546875,-4.95260546875,-3.61667578125,6.147296875,-9.62271484375,-3.048109375,-6.46965234375,-3.02955859375,6.57637109375,-1.0091640625,-1.33183984375,-5.9088046875,-4.01057421875,-5.71666015625,-2.598015625,-1.66587109375,-4.70217578125,4.35296484375,-2.2445546875,-4.98272265625,-3.6668359375,-0.79896875,-3.175109375,0.6775859375,0.6983359375,1.64549609375
-4.76067578125,-5.2542890625,-0.0846601562499997,-5.647734375,-9.18485546875,-2.14260546875,-0.687675781249999,7.377296875,-7.80471484375,-0.524109375,-3.78965234375,-0.16255859375,7.88937109375,1.7558359375,1.47016015625,-3.3518046875,-1.37157421875,-3.31666015625,0.322984375,1.28112890625,-2.56917578125,5.71596484375,-0.0475546874999997,-2.54972265625,-1.6048359375,1.50203125,-1.365109375,1.5885859375,1.6703359375,2.37449609375
-5.92867578125,-5.6292890625,0.0593398437500002,-4.904734375,-8.37085546875,-0.40660546875,1.23232421875,8.058296875,-6.10871484375,0.900890625,-2.09365234375,1.98844140625,8.46337109375,3.4238359375,2.80116015625,-2.1358046875,0.38242578125,-1.60666015625,1.968984375,2.82612890625,-1.55217578125,6.28596484375,1.0284453125,-1.69172265625,-0.8798359375,2.37003125,-0.891109375,1.6705859375,1.4113359375,1.70649609375
-6.54367578125,-5.7732890625,0.14533984375,-4.018734375,-7.62185546875,0.52839453125,2.29632421875,8.632296875,-4.18771484375,1.546890625,-1.12365234375,3.49944140625,8.88137109375,4.3748359375,2.95316015625,-1.8838046875,1.18242578125,-0.256660156250001,2.685984375,3.33912890625,-1.42017578125,6.66496484375,1.4994453125,-1.84972265625,-0.9808359375,1.94903125,-1.067109375,1.6145859375,0.6293359375,0.36549609375
-5.88767578125,-5.0132890625,0.85233984375,-2.687734375,-6.48885546875,1.15739453125,2.87632421875,9.586296875,-1.81571484375,1.922890625,-0.41765234375,4.61344140625,9.61737109375,5.1008359375,2.56116015625,-1.9528046875,1.31342578125,1.02833984375,3.050984375,3.51812890625,-1.63717578125,7.29496484375,2.0244453125,-2.17272265625,-1.1278359375,0.89703125,-0.992109375,2.1605859375,0.2323359375,-0.67350390625
-3.81367578125,-3.1552890625,2.41633984375,-0.883734375,-4.81585546875,1.89139453125,3.33032421875,11.175296875,0.91628515625,2.440890625,0.39734765625,5.53344140625,10.80437109375,5.9048359375,2.27116015625,-1.7818046875,1.18042578125,2.29933984375,3.543984375,4.01012890625,-1.62717578125,8.24496484375,3.0464453125,-1.93272265625,-0.6668359375,0.0780312499999999,-0.0111093749999998,3.7235859375,0.8903359375,-0.60450390625
-0.74567578125,-0.5512890625,4.51633984375,1.099265625,-2.85885546875,2.82839453125,3.78832421875,13.239296875,3.55128515625,3.205890625,1.38434765625,6.27444140625,12.21437109375,6.7388359375,2.43216015625,-1.1568046875,1.07142578125,3.33333984375,4.305984375,5.07612890625,-1.06017578125,9.18196484375,4.5614453125,-0.85972265625,0.6031640625,0.15203125,1.959890625,6.1215859375,2.6863359375,0.84849609375
2.50632421875,2.0587109375,6.43633984375,2.793265625,-1.17685546875,3.72039453125,4.09832421875,15.255296875,5.44628515625,4.002890625,2.27034765625,6.65644140625,13.43237109375,7.2788359375,2.98316015625,-0.2748046875,1.03942578125,3.78333984375,5.102984375,6.47912890625,-0.00617578125000007,9.57396484375,6.1444453125,0.78027734375,2.3391640625,1.25403125,4.389890625,8.5865859375,5.0463359375,3.29549609375
5.04032421875,3.8507109375,7.41033984375,3.826265625,-0.31985546875,4.16239453125,3.96932421875,16.578296875,6.10128515625,4.452890625,2.63234765625,6.42544140625,14.11137109375,7.1838359375,3.57216015625,0.4321953125,0.96442578125,3.43833984375,5.525984375,7.64512890625,1.11582421875,9.03596484375,7.1984453125,2.36427734375,3.8381640625,2.92703125,6.395890625,10.1225859375,7.0253359375,5.85049609375
6.15132421875,4.2387109375,6.98433984375,4.106265625,-0.50485546875,3.86539453125,3.19732421875,16.736296875,5.42228515625,4.255890625,2.17034765625,5.43344140625,14.12637109375,6.3588359375,3.81716015625,0.5701953125,0.69242578125,2.37933984375,5.280984375,8.00412890625,1.77082421875,7.59296484375,7.2934453125,3.25727734375,4.4121640625,4.34703125,7.188890625,10.0265859375,7.7783359375,7.52449609375
5.53532421875,3.0777109375,5.19033984375,3.807265625,-1.53485546875,2.83839453125,1.80532421875,15.591296875,3.74028515625,3.382890625,0.90634765625,3.75644140625,13.55937109375,5.0538359375,3.52816015625,0.0201953125000001,0.15742578125,0.939339843749999,4.374984375,7.29512890625,1.58182421875,5.65896484375,6.3814453125,3.11327734375,3.7341640625,4.71903125,6.453890625,8.2555859375,6.9683359375,7.67749609375
3.32432421875,0.6527109375,2.46333984375,3.204265625,-2.94485546875,1.39439453125,0.0543242187500002,13.332296875,1.62028515625,2.100890625,-0.81465234375,1.70744140625,12.56037109375,3.7348359375,2.78916015625,-1.0158046875,-0.57957421875,-0.490660156250001,3.112984375,5.69212890625,0.51082421875,3.79296484375,4.7864453125,2.01327734375,1.9851640625,3.67303125,4.477890625,5.4205859375,4.9073359375,6.27849609375
-0.0176757812499999,-2.4822890625,-0.59466015625,2.555265625,-4.22385546875,0.00439453125000044,-1.64167578125,10.381296875,-0.37871484375,0.850890625,-2.46965234375,-0.255558593749999,11.22937109375,2.8568359375,1.87816015625,-2.1258046875,-1.36557421875,-1.62566015625,1.930984375,3.71412890625,-1.12017578125,2.39096484375,3.0124453125,0.39327734375,-0.2468359375,1.42703125,1.977890625,2.4515859375,2.3803359375,3.90049609375
-3.83067578125,-5.6862890625,-3.41866015625,2.058265625,-4.97385546875,-0.888605468749999,-2.84067578125,7.274296875,-1.84671484375,0.0598906250000004,-3.55765234375,-1.67755859375,9.59437109375,2.6688359375,1.13616015625,-2.8708046875,-1.99957421875,-2.33266015625,1.211984375,2.00712890625,-2.76517578125,1.55096484375,1.5204453125,-1.15172265625,-2.2308359375,-1.32596875,-0.226109375,0.1545859375,0.2793359375,1.44749609375
-7.33367578125,-8.3232890625,-5.53266015625,1.873265625,-4.98085546875,-0.99060546875,-3.18667578125,4.563296875,-2.55171484375,0.0178906250000002,-3.72965234375,-2.21355859375,7.70537109375,3.1768359375,0.86016015625,-2.9128046875,-2.27157421875,-2.56766015625,1.182984375,1.14112890625,-3.84317578125,1.15796484375,0.6074453125,-2.06972265625,-3.3478359375,-3.72396875,-1.498109375,-1.0664140625,-0.7406640625,-0.21150390625
-9.65867578125,-9.7772890625,-6.49466015625,2.145265625,-4.19885546875,-0.17160546875,-2.47967578125,2.745296875,-2.39571484375,0.857890625,-2.80965234375,-1.67455859375,5.75437109375,4.2418359375,1.27616015625,-2.0368046875,-1.98957421875,-2.26666015625,1.931984375,1.49612890625,-3.89117578125,1.09496484375,0.4464453125,-1.96872265625,-3.2238359375,-5.04096875,-1.491109375,-1.1814140625,-0.4106640625,-0.49550390625
-9.99567578125,-9.5152890625,-5.89466015625,3.000265625,-2.66785546875,1.57539453125,-0.674675781249999,2.206296875,-1.36471484375,2.572890625,-0.76665234375,-0.0185585937499995,4.13337109375,5.7288359375,2.55116015625,-0.1268046875,-1.01557421875,-1.31166015625,3.477984375,3.23812890625,-2.62517578125,1.41696484375,1.1614453125,-0.63672265625,-1.7368359375,-4.85596875,-0.114109375,-0.3144140625,1.2233359375,0.81949609375
-7.86667578125,-7.2592890625,-3.49966015625,4.485265625,-0.47985546875,4.13939453125,2.10232421875,3.135296875,0.45328515625,5.027890625,2.29134765625,2.64744140625,3.34137109375,7.5538359375,4.74816015625,2.8161953125,0.67742578125,0.400339843749999,5.787984375,6.28512890625,0.00782421874999994,2.32696484375,2.8314453125,1.92327734375,1.0181640625,-3.11596875,2.517890625,1.4265859375,3.9393359375,3.64149609375
-3.44667578125,-3.2042890625,0.51833984375,6.476265625,2.17714453125,7.24739453125,5.50132421875,5.396296875,2.79028515625,7.918890625,6.04234765625,6.01944140625,3.75537109375,9.6108359375,7.71816015625,6.5651953125,2.94642578125,2.79833984375,8.687984375,10.25312890625,3.76782421875,3.95296484375,5.3694453125,5.43827734375,4.7121640625,-0.14496875,6.057890625,3.9245859375,7.3593359375,7.56549609375
2.33432421875,1.8967109375,5.46433984375,8.608265625,4.92814453125,10.41239453125,8.90932421875,8.460296875,5.14828515625,10.772890625,9.90034765625,9.56744140625,5.39437109375,11.6578359375,11.00716015625,10.5831953125,5.45342578125,5.51833984375,11.759984375,14.43312890625,8.08082421875,6.11596484375,8.4104453125,9.32127734375,8.7541640625,3.37603125,9.899890625,6.8925859375,10.8993359375,11.83349609375
8.02232421875,6.8957109375,10.24233984375,10.350265625,7.25414453125,13.00839453125,11.56532421875,11.519296875,6.90928515625,13.030890625,13.09334765625,12.60844140625,7.83137109375,13.2878359375,13.91016015625,14.0851953125,7.73242578125,7.98033984375,14.370984375,17.91912890625,12.10982421875,8.29496484375,11.3244453125,12.76727734375,12.3521640625,6.53403125,13.258890625,9.7785859375,13.7803359375,15.41749609375
12.16932421875,10.6317109375,13.73133984375,11.198265625,8.69914453125,14.47839453125,12.85332421875,13.771296875,7.58228515625,14.227890625,14.91934765625,14.52844140625,10.32737109375,14.0668359375,15.71816015625,16.2961953125,9.35442578125,9.63033984375,15.890984375,19.89912890625,14.98382421875,9.85596484375,13.4184453125,15.02127734375,14.7351640625,8.44703125,15.404890625,11.8935859375,15.2463359375,17.31749609375
13.90632421875,12.3887109375,15.25433984375,10.889265625,9.10314453125,14.59239453125,12.61232421875,14.759296875,7.04228515625,14.211890625,15.06534765625,15.05044140625,12.13537109375,13.7668359375,16.05016015625,16.8001953125,10.13542578125,10.22033984375,16.005984375,20.00212890625,16.13782421875,10.39696484375,14.2644453125,15.72027734375,15.4761640625,8.62503125,15.991890625,12.7395859375,14.9233359375,17.01549609375
13.33632421875,12.2157109375,14.91433984375,9.535265625,8.70014453125,13.61739453125,11.27832421875,14.569296875,5.61028515625,13.280890625,13.81334765625,14.42044140625,12.80737109375,12.5608359375,15.11016015625,15.8021953125,10.27442578125,9.94733984375,14.947984375,18.53712890625,15.59482421875,10.00096484375,13.9574453125,15.12327734375,14.7631640625,7.26003125,15.293890625,12.3395859375,13.1203359375,14.83049609375
11.50532421875,10.9317109375,13.61533984375,7.604265625,8.04114453125,12.26239453125,9.75732421875,13.814296875,3.91328515625,12.130890625,11.99534765625,13.36944140625,12.34537109375,11.0368359375,13.67716015625,14.1311953125,10.30942578125,9.36433984375,13.469984375,16.45512890625,14.01482421875,9.19196484375,13.1294453125,14.06027734375,13.3991640625,5.24003125,14.176890625,11.3125859375,10.8073359375,11.91549609375
9.93832421875,9.7657109375,12.70433984375,5.752265625,7.76214453125,11.40139453125,9.07732421875,13.376296875,2.60528515625,11.558890625,10.68434765625,12.82844140625,11.12637109375,9.9648359375,12.78816015625,12.9151953125,10.85842578125,9.09133984375,12.523984375,14.99112890625,12.45582421875,8.61396484375,12.6344453125,13.58327734375,12.4831640625,3.81303125,13.733890625,10.5715859375,9.2213359375,9.79049609375
9.88932421875,9.7677109375,13.34933984375,4.497265625,8.26714453125,11.66639453125,9.92932421875,14.002296875,2.02128515625,12.060890625,10.72434765625,13.51144140625,9.62437109375,9.8948359375,13.22716015625,13.0731953125,12.31142578125,9.45433984375,12.787984375,15.13712890625,11.91382421875,8.61196484375,13.0554453125,14.45427734375,12.8981640625,4.05403125,14.751890625,10.8005859375,9.2763359375,9.65149609375
11.67932421875,11.2697109375,15.93033984375,3.930265625,9.43814453125,13.11639453125,12.30332421875,15.924296875,1.96228515625,13.542890625,12.31734765625,15.56544140625,8.14237109375,10.8208359375,15.09116015625,14.8771953125,14.62342578125,10.25333984375,14.284984375,17.17112890625,12.88382421875,8.99996484375,14.3474453125,16.74927734375,14.8841640625,6.38603125,17.302890625,12.0435859375,11.1183359375,11.82649609375
14.50232421875,13.7017109375,19.79233984375,3.664265625,10.62414453125,15.19239453125,15.44432421875,18.708296875,1.77928515625,15.339890625,14.91534765625,18.48044140625,6.72637109375,12.1458359375,17.70216015625,17.8231953125,17.33942578125,10.84433984375,16.336984375,20.52112890625,15.16182421875,9.20496484375,15.8394453125,19.79927734375,17.9291640625,10.38503125,20.680890625,13.6895859375,14.0733359375,15.65249609375
16.86132421875,15.8917109375,23.53833984375,3.153265625,10.99914453125,17.00239453125,18.21032421875,21.488296875,0.80328515625,16.562890625,17.49134765625,21.35144140625,5.32837109375,13.0238359375,19.95316015625,20.8921953125,19.81742578125,10.54533984375,17.920984375,24.03412890625,17.98582421875,8.70596484375,16.6314453125,22.52327734375,21.0341640625,14.95203125,23.737890625,14.8395859375,17.0003359375,19.80949609375
17.40132421875,16.7127109375,25.73033984375,2.157265625,10.12114453125,17.81939453125,19.65232421875,23.416296875,-1.15171484375,16.605890625,19.07534765625,23.32344140625,4.05637109375,12.8808359375,20.90016015625,23.0681953125,21.50842578125,9.11733984375,18.238984375,26.54112890625,20.43082421875,7.40996484375,16.1324453125,23.98827734375,23.2091640625,18.77003125,25.436890625,14.8295859375,18.8463359375,22.93449609375
15.65432421875,15.6767109375,25.58333984375,0.991265625,8.24914453125,17.45339453125,19.43532421875,24.054296875,-3.55871484375,15.482890625,19.22534765625,23.96044140625,3.25937109375,11.7648359375,20.24016015625,23.7991953125,22.15342578125,6.97633984375,17.140984375,27.37612890625,21.81982421875,5.71296484375,14.4024453125,23.84827734375,23.9111640625,20.82603125,25.329890625,13.5685859375,19.1013359375,24.18949609375
12.25332421875,13.1397109375,23.24633984375,0.355265625,6.19914453125,16.27239453125,17.87332421875,23.451296875,-5.44271484375,13.791890625,18.14234765625,23.32544140625,3.36837109375,10.2858359375,18.37516015625,23.1441953125,21.79342578125,4.99133984375,15.146984375,26.58712890625,21.92682421875,4.21896484375,12.1024453125,22.42627734375,23.2051640625,20.75003125,23.691890625,11.5485859375,17.9473359375,23.52949609375
8.53032421875,10.0147109375,19.58933984375,0.883265625,4.86414453125,14.89839453125,15.61632421875,21.960296875,-5.93571484375,12.316890625,16.42434765625,21.76944140625,4.60637109375,9.2098359375,16.08616015625,21.5761953125,20.64742578125,4.02333984375,13.094984375,24.75112890625,20.92882421875,3.38896484375,10.1144453125,20.42927734375,21.5851640625,18.84103125,21.291890625,9.5535859375,16.0673359375,21.58149609375
5.78232421875,7.2517109375,15.71533984375,2.719265625,4.71914453125,13.78539453125,13.26132421875,19.956296875,-4.78271484375,11.547890625,14.64834765625,19.64944140625,6.78237109375,8.9908359375,14.04216015625,19.6271953125,18.95942578125,4.50133984375,11.647984375,22.56712890625,19.19882421875,3.36296484375,9.0684453125,18.50727734375,19.6201640625,15.83003125,18.948890625,8.2665859375,14.2543359375,19.24449609375
4.63532421875,5.3827109375,12.48333984375,5.351265625,5.57014453125,12.96139453125,11.08132421875,17.661296875,-2.49971484375,11.407890625,13.04234765625,17.15244140625,9.30637109375,9.5118359375,12.46716015625,17.5951953125,16.89542578125,6.23233984375,10.966984375,20.48912890625,17.07782421875,3.98396484375,9.0644453125,16.92027734375,17.6611640625,12.52203125,17.154890625,7.9535859375,13.0243359375,17.23249609375
4.82932421875,4.3607109375,10.24933984375,7.804265625,6.65014453125,12.05239453125,8.98432421875,15.121296875,-0.14171484375,11.325890625,11.43134765625,14.31144140625,11.38637109375,10.1648359375,11.11316015625,15.4731953125,14.54042578125,8.49133984375,10.676984375,18.56712890625,14.75482421875,4.94096484375,9.6754453125,15.47027734375,15.7421640625,9.49003125,15.915890625,8.3825859375,12.4193359375,15.77849609375
5.47432421875,3.7167109375,8.88933984375,9.081265625,7.01914453125,10.55539453125,6.69732421875,12.330296875,1.19728515625,10.585890625,9.43834765625,11.13844140625,12.33737109375,10.1968359375,9.51216015625,13.0861953125,11.96542578125,10.32533984375,10.130984375,16.57412890625,12.28482421875,5.92996484375,10.2144453125,13.71227734375,13.6911640625,6.95403125,14.872890625,8.9965859375,12.0753359375,14.63449609375
5.60232421875,2.9087109375,8.03933984375,8.653265625,6.08314453125,8.19039453125,4.05832421875,9.413296875,0.90728515625,8.740890625,6.82034765625,7.78344140625,11.84637109375,9.1298359375,7.33916015625,10.3441953125,9.33242578125,10.95633984375,8.802984375,14.27012890625,9.71682421875,6.74696484375,10.0864453125,11.30227734375,11.3691640625,4.84503125,13.590890625,9.2295859375,11.4963359375,13.32749609375
4.68932421875,1.6527109375,7.37533984375,6.703265625,3.91014453125,5.12639453125,1.21632421875,6.703296875,-0.89471484375,5.871890625,3.70934765625,4.59544140625,10.11037109375,7.0088359375,4.65516015625,7.4151953125,6.95442578125,10.07733984375,6.590984375,11.64212890625,7.22282421875,7.29696484375,9.0524453125,8.26227734375,8.8471640625,3.00703125,11.845890625,8.7535859375,10.3503359375,11.51749609375
2.85032421875,0.0467109375,6.75233984375,3.992265625,1.16614453125,1.93739453125,-1.40667578125,4.635296875,-3.51371484375,2.575890625,0.60734765625,2.04144140625,7.75237109375,4.3648359375,1.90116015625,4.7331953125,5.22642578125,7.93233984375,3.855984375,8.97312890625,5.11682421875,7.51596484375,7.2824453125,5.02427734375,6.4411640625,1.39303125,9.749890625,7.5565859375,8.6343359375,9.23449609375
0.67432421875,-1.5552890625,6.16533984375,1.463265625,-1.25285546875,-0.65160546875,-3.31667578125,3.523296875,-6.07771484375,-0.319109375,-1.84565234375,0.513441406250001,5.55837109375,1.9368359375,-0.31383984375,2.8101953125,4.46942578125,5.16933984375,1.230984375,6.72412890625,3.74482421875,7.31496484375,5.2164453125,2.22927734375,4.5781640625,0.14303125,7.680890625,5.8765859375,6.6493359375,6.87449609375
-1.14067578125,-2.7682890625,5.63633984375,-0.158734375,-2.61785546875,-2.08560546875,-4.16667578125,3.383296875,-7.93171484375,-2.125109375,-3.16565234375,0.146441406250001,4.17537109375,0.3548359375,-1.50283984375,1.9971953125,4.74542578125,2.58933984375,-0.669015625,5.33112890625,3.32682421875,6.62996484375,3.3514453125,0.44327734375,3.5951640625,-0.49496875,6.081890625,4.0895859375,4.8393359375,4.97449609375
-2.06467578125,-3.3332890625,5.17633984375,-0.580734375,-2.61085546875,-2.18860546875,-3.87467578125,3.904296875,-8.81371484375,-2.558109375,-3.21565234375,0.755441406250001,3.90237109375,-0.0681640624999999,-1.48683984375,2.3231953125,5.78942578125,0.915339843749999,-1.471015625,5.02612890625,3.83882421875,5.57196484375,2.0904453125,-0.06972265625,3.5931640625,-0.34996875,5.262890625,2.6435859375,3.6093359375,3.92849609375
-1.84167578125,-3.1472890625,4.81933984375,0.070265625,-1.38385546875,-1.19060546875,-2.63167578125,4.574296875,-8.82971484375,-1.773109375,-2.21765234375,1.91344140625,4.63437109375,0.6408359375,-0.42483984375,3.4941953125,7.08942578125,0.61333984375,-1.133015625,5.75212890625,5.01882421875,4.50696484375,1.6684453125,0.59627734375,4.4111640625,0.53203125,5.284890625,1.9475859375,3.1623359375,3.79849609375
-0.49167578125,-2.2642890625,4.61533984375,1.389265625,0.54114453125,0.39239453125,-0.84767578125,4.881296875,-8.30671484375,-0.240109375,-0.64865234375,3.12044140625,5.96037109375,2.1768359375,1.26316015625,5.0101953125,8.09742578125,1.77633984375,0.0599843750000004,7.16412890625,6.44482421875,3.92796484375,2.1064453125,2.03627734375,5.6751640625,1.87103125,5.933890625,2.1835859375,3.4063359375,4.29849609375
1.65832421875,-0.9332890625,4.54233984375,2.901265625,2.48514453125,1.94139453125,0.95532421875,4.505296875,-7.63571484375,1.432890625,0.91734765625,3.95944140625,7.33437109375,4.0588359375,3.03416015625,6.3141953125,8.45242578125,4.07133984375,1.580984375,8.70612890625,7.66382421875,4.15496484375,3.1634453125,3.65227734375,6.8851640625,3.24803125,6.750890625,3.1195859375,3.9453359375,4.91149609375
3.94032421875,0.3877109375,4.42433984375,4.203265625,3.85814453125,2.91539453125,2.28432421875,3.445296875,-7.13971484375,2.670890625,1.96334765625,4.20744140625,8.26537109375,5.7408359375,4.34116015625,6.9361953125,8.12542578125,6.81033984375,2.799984375,9.74812890625,8.29782421875,5.07696484375,4.3424453125,4.79327734375,7.5211640625,4.25403125,7.150890625,4.1065859375,4.2143359375,5.08249609375
5.44432421875,1.1277109375,3.95233984375,5.024265625,4.33114453125,3.00039453125,2.80732421875,2.003296875,-7.02171484375,3.070890625,2.15034765625,3.86544140625,8.46037109375,6.7298359375,4.75816015625,6.6021953125,7.41742578125,9.13033984375,3.164984375,9.76812890625,8.12982421875,6.12296484375,5.0134453125,4.93427734375,7.1781640625,4.63503125,6.625890625,4.3485859375,3.7293359375,4.45049609375
5.30232421875,0.8127109375,2.82533984375,5.222265625,3.89114453125,2.17839453125,2.42632421875,0.641296875,-7.35271484375,2.509890625,1.40134765625,3.12544140625,7.90337109375,6.7198359375,4.07216015625,5.2931953125,6.79542578125,10.25733984375,2.391984375,8.52812890625,7.15282421875,6.51796484375,4.6524453125,3.84127734375,5.7001640625,4.36803125,4.975890625,3.3145859375,2.3273359375,3.00449609375
3.08632421875,-0.7152890625,0.92233984375,4.814265625,2.83114453125,0.729394531250001,1.32232421875,-0.191703125,-8.05771484375,1.184890625,-0.0606523437500002,2.29844140625,6.87537109375,5.7018359375,2.38016015625,3.2581953125,6.65542578125,9.77933984375,0.583984375,6.19112890625,5.56982421875,5.70596484375,3.0924453125,1.68927734375,3.2681640625,3.64903125,2.437890625,1.0515859375,0.2633359375,1.09649609375
-0.89967578125,-3.1872890625,-1.55766015625,4.013265625,1.67414453125,-0.83760546875,-0.0626757812499998,-0.195703125000001,-8.90771484375,-0.436109375,-1.74165234375,1.73644140625,5.87737109375,4.0048359375,0.10616015625,0.9751953125,7.15342578125,7.83433984375,-1.757015625,3.31412890625,3.74782421875,3.69996484375,0.6594453125,-0.94372265625,0.3951640625,2.81103125,-0.355109375,-1.7774140625,-1.8826640625,-0.68950390625
-5.62967578125,-5.9512890625,-4.09766015625,3.193265625,0.99614453125,-1.94760546875,-1.14567578125,0.719296875,-9.59271484375,-1.773109375,-3.01065234375,1.74044140625,5.42637109375,2.1868359375,-2.08283984375,-0.9548046875,8.17842578125,5.08433984375,-3.890015625,0.69212890625,2.13682421875,1.12596484375,-1.9145546875,-3.25672265625,-2.2058359375,2.19203125,-2.584109375,-4.1824140625,-3.4466640625,-1.76850390625
-9.72567578125,-8.1792890625,-6.01266015625,2.739265625,1.16214453125,-2.16460546875,-1.43767578125,2.417296875,-9.87571484375,-2.343109375,-3.32565234375,2.48644140625,5.77337109375,0.8078359375,-3.49683984375,-1.9778046875,9.45042578125,2.45033984375,-5.116015625,-0.91387109375,1.15182421875,-1.09903515625,-3.7775546875,-4.51872265625,-3.8378359375,2.02703125,-3.545109375,-5.2924140625,-3.9326640625,-1.76250390625
-12.00667578125,-9.1742890625,-6.68966015625,2.866265625,2.14414453125,-1.35460546875,-0.73867578125,4.583296875,-9.72271484375,-1.953109375,-2.43965234375,3.97344140625,6.69437109375,0.1978359375,-3.67183984375,-1.7458046875,10.66742578125,0.750339843749999,-5.030015625,-1.03787109375,1.06282421875,-2.22003515625,-4.3035546875,-4.33272265625,-4.0468359375,2.39503125,-2.894109375,-4.7204140625,-3.1886640625,-0.62250390625
-11.94967578125,-8.6202890625,-5.82366015625,3.535265625,3.56314453125,0.28039453125,0.81932421875,6.832296875,-9.30571484375,-0.762109375,-0.48165234375,6.03944140625,7.53037109375,0.3618359375,-2.53283984375,-0.2188046875,11.63042578125,0.42533984375,-3.640015625,0.34112890625,1.94982421875,-1.95303515625,-3.3285546875,-2.74472265625,-2.7578359375,3.24703125,-0.762109375,-2.6774140625,-1.4346640625,1.38249609375
-9.83667578125,-6.6962890625,-3.52166015625,4.477265625,4.88714453125,2.29839453125,2.86432421875,8.823296875,-8.89671484375,0.792890625,2.10434765625,8.41144140625,7.47737109375,1.0478359375,-0.40083984375,2.3371953125,12.30442578125,1.44533984375,-1.314015625,2.81512890625,3.68882421875,-0.50803515625,-1.1785546875,-0.18372265625,-0.2808359375,4.47203125,2.303890625,0.1605859375,0.8193359375,3.76549609375
-6.57767578125,-4.0072890625,-0.29166015625,5.312265625,5.65914453125,4.18239453125,4.93032421875,10.301296875,-8.74671484375,2.191890625,4.72734765625,10.75544140625,6.00037109375,1.8928359375,2.13016015625,5.4201953125,12.80242578125,3.38333984375,1.367984375,5.69912890625,5.97382421875,1.56096484375,1.4764453125,2.70427734375,2.7831640625,5.93803125,5.511890625,2.9205859375,2.9263359375,5.95549609375
-3.34167578125,-1.3952890625,3.08733984375,5.691265625,5.64614453125,5.49639453125,6.58532421875,11.086296875,-9.00371484375,3.021890625,6.81634765625,12.72644140625,3.12637109375,2.5718359375,4.39516015625,8.4071953125,13.28642578125,5.56933984375,3.782984375,8.24212890625,8.35882421875,3.55196484375,3.8554453125,5.24927734375,5.7061640625,7.48003125,8.056890625,4.8155859375,4.2943359375,7.45649609375
-1.16267578125,0.3057109375,5.75933984375,5.429265625,4.89614453125,5.98639453125,7.54032421875,11.045296875,-9.67671484375,3.093890625,7.97034765625,14.00744140625,-0.49862890625,2.8778359375,5.85316015625,10.6891953125,13.83742578125,7.30733984375,5.417984375,9.83512890625,10.35782421875,4.79096484375,5.2944453125,6.91227734375,7.8291640625,8.88803125,9.331890625,5.3655859375,4.5793359375,8.00749609375
-0.64967578125,0.5177109375,7.01633984375,4.540265625,3.67114453125,5.60039453125,7.69532421875,10.088296875,-10.64871484375,2.446890625,8.02834765625,14.35744140625,-3.84062890625,2.7408359375,6.22116015625,11.8051953125,14.36542578125,8.06433984375,5.965984375,10.15912890625,11.56582421875,4.78896484375,5.4214453125,7.39927734375,8.7401640625,9.94303125,9.087890625,4.5265859375,3.8183359375,7.69149609375
-1.88367578125,-0.9202890625,6.47433984375,3.169265625,2.29214453125,4.46039453125,7.08732421875,8.171296875,-11.75171484375,1.280890625,7.06834765625,13.64244140625,-5.89062890625,2.1998359375,5.50316015625,11.5381953125,14.60642578125,7.61233984375,5.378984375,9.21712890625,11.76682421875,3.41896484375,4.2494453125,6.69127734375,8.3751640625,10.47903125,7.497890625,2.6865859375,2.4223359375,6.92749609375
-4.51067578125,-3.7202890625,4.15033984375,1.497265625,0.98314453125,2.78939453125,5.80032421875,5.337296875,-12.85471484375,-0.148109375,5.34534765625,11.86044140625,-6.13162890625,1.3598359375,3.93516015625,9.9551953125,14.22642578125,6.06533984375,3.837984375,7.26812890625,10.97182421875,1.01296484375,2.1594453125,5.00527734375,7.0121640625,10.44703125,5.083890625,0.5305859375,1.0153359375,6.29649609375
-7.94167578125,-7.2462890625,0.45133984375,-0.272734375,-0.15885546875,0.852394531250001,3.92032421875,1.783296875,-13.89271484375,-1.613109375,3.20934765625,9.16144140625,-4.79962890625,0.3548359375,1.88516015625,7.3711953125,12.97342578125,3.82133984375,1.685984375,4.70612890625,9.38882421875,-1.70303515625,-0.2535546875,2.71427734375,5.1331640625,9.91303125,2.515890625,-1.2064140625,0.1453359375,6.24049609375
-11.51367578125,-10.6902890625,-3.90666015625,-1.875734375,-1.08985546875,-1.09260546875,1.58532421875,-2.097703125,-14.84271484375,-2.968109375,1.01534765625,5.85144140625,-2.74562890625,-0.6651640625,-0.27183984375,4.2641953125,10.80142578125,1.40133984375,-0.671015625,1.93712890625,7.33482421875,-3.89003515625,-2.4155546875,0.23927734375,3.2241640625,8.98703125,0.346890625,-2.0494140625,-0.0146640625000001,6.75149609375
-14.57567578125,-13.2752890625,-8.05266015625,-2.997734375,-1.75085546875,-2.82560546875,-0.96567578125,-5.766703125,-15.68071484375,-4.137109375,-0.93765234375,2.36544140625,-0.94262890625,-1.5691640625,-2.23483984375,1.1611953125,7.92242578125,-0.752660156250001,-2.861015625,-0.68587109375,5.12982421875,-4.99703515625,-3.9765546875,-2.04172265625,1.6011640625,7.73003125,-1.175109375,-2.0084140625,0.1863359375,7.27449609375
-16.52167578125,-14.4372890625,-11.15566015625,-3.381734375,-2.09585546875,-4.17560546875,-3.38967578125,-8.691703125,-16.38671484375,-5.065109375,-2.44865234375,-0.804558593749999,0.0503710937499999,-2.2561640625,-3.80783984375,-1.4578046875,4.80242578125,-2.40366015625,-4.603015625,-2.85787109375,3.03982421875,-5.01503515625,-4.8715546875,-3.83472265625,0.3791640625,6.14703125,-2.118109375,-1.5794140625,0.0513359374999998,6.95249609375
-16.87667578125,-13.9552890625,-12.63066015625,-2.955734375,-2.12285546875,-5.01260546875,-5.29967578125,-10.483703125,-16.94071484375,-5.674109375,-3.40565234375,-3.19855859375,0.32837109375,-2.6461640625,-4.85583984375,-3.2158046875,2.09942578125,-3.47166015625,-5.692015625,-4.28887109375,1.30882421875,-4.41703515625,-5.2045546875,-4.91172265625,-0.4218359375,4.32103125,-2.679109375,-1.4524140625,-1.0186640625,5.18549609375
-15.38467578125,-11.9722890625,-12.23766015625,-1.840734375,-1.86285546875,-5.24660546875,-6.34867578125,-10.965703125,-17.30071484375,-5.858109375,-3.75165234375,-4.47155859375,0.475371093750001,-2.6441640625,-5.24583984375,-3.8728046875,0.51942578125,-3.87866015625,-5.955015625,-4.69387109375,0.20982421875,-3.76503515625,-5.0625546875,-5.07772265625,-0.7238359375,2.58103125,-2.953109375,-2.0604140625,-3.0396640625,2.15449609375
-12.09567578125,-8.8812890625,-10.07566015625,-0.274734375,-1.34185546875,-4.82860546875,-6.33767578125,-10.174703125,-17.35471484375,-5.514109375,-3.45965234375,-4.45855859375,1.14337109375,-2.1271640625,-4.84283984375,-3.3618046875,0.57942578125,-3.46166015625,-5.256015625,-3.87087109375,0.0288242187499999,-3.27503515625,-4.3895546875,-4.19272265625,-0.3468359375,1.50003125,-2.813109375,-3.2544140625,-5.2976640625,-1.11050390625
-7.39867578125,-5.1722890625,-6.51266015625,1.481265625,-0.57585546875,-3.79460546875,-5.32567578125,-8.368703125,-16.93971484375,-4.593109375,-2.56965234375,-3.24255859375,2.65637109375,-1.0001640625,-3.59683984375,-1.8458046875,2.35342578125,-2.04966015625,-3.577015625,-1.85687109375,0.90882421875,-2.66903515625,-3.0555546875,-2.29672265625,0.8491640625,1.62403125,-2.035109375,-4.3624140625,-6.7266640625,-3.27150390625
-2.01267578125,-1.3462890625,-2.14766015625,3.188265625,0.39814453125,-2.31960546875,-3.66367578125,-6.035703125,-15.90571484375,-3.184109375,-1.25065234375,-1.20055859375,4.85337109375,0.6728359375,-1.68483984375,0.2691953125,5.34942578125,0.330339843749999,-1.152015625,0.95212890625,2.68182421875,-1.46303515625,-1.0575546875,0.26127734375,2.7331640625,3.08603125,-0.568109375,-4.6334140625,-6.5646640625,-3.48650390625
3.12832421875,2.0987109375,2.22933984375,4.630265625,1.50414453125,-0.73560546875,-1.89567578125,-3.839703125,-14.17971484375,-1.563109375,0.17334765625,1.03344140625,7.17637109375,2.5788359375,0.43716015625,2.4001953125,8.65842578125,3.27733984375,1.483984375,3.82012890625,4.83582421875,0.50696484375,1.2684453125,2.82327734375,4.8161640625,5.42703125,1.268890625,-3.7734140625,-4.8446640625,-1.90750390625
7.09432421875,4.6917109375,5.75133984375,5.603265625,2.60114453125,0.53339453125,-0.57267578125,-2.473703125,-11.81071484375,-0.167109375,1.27934765625,2.72844140625,8.90137109375,4.1748359375,2.11816015625,3.9621953125,11.29742578125,6.01433984375,3.603984375,5.89212890625,6.69382421875,2.74596484375,3.2504453125,4.60927734375,6.3811640625,7.78203125,2.829890625,-2.1924140625,-2.3896640625,0.44449609375
9.24832421875,6.0777109375,7.69333984375,5.929265625,3.45714453125,1.08939453125,-0.0836757812499997,-2.443703125,-9.00371484375,0.543890625,1.67834765625,3.29444140625,9.40737109375,4.8678359375,2.73816015625,4.5601953125,12.59642578125,7.61833984375,4.530984375,6.51512890625,7.69182421875,4.23996484375,4.1324453125,5.00927734375,6.8031640625,9.30203125,3.434890625,-0.7744140625,-0.3446640625,2.29749609375
9.45032421875,6.1567109375,7.72933984375,5.516265625,3.79914453125,0.711394531250001,-0.54767578125,-3.858703125,-6.10271484375,0.273890625,1.17234765625,2.49544140625,8.41537109375,4.2678359375,1.96616015625,4.1261953125,12.43042578125,7.40233984375,3.912984375,5.50212890625,7.59382421875,4.02096484375,3.4484453125,3.83827734375,5.8451640625,9.53503125,2.718890625,-0.3574140625,0.4223359375,2.79649609375
8.07532421875,5.1637109375,6.08133984375,4.460265625,3.47114453125,-0.51960546875,-1.75367578125,-6.348703125,-3.50171484375,-0.960109375,-0.11965234375,0.570441406250001,6.13737109375,2.4028359375,-0.0718398437499999,2.9341953125,11.21442578125,5.26233984375,1.895984375,3.22112890625,6.56582421875,1.75896484375,1.2754453125,1.42627734375,3.7841640625,8.56803125,0.815890625,-1.2824140625,-0.3096640625,1.83649609375
5.84832421875,3.6197109375,3.45733984375,3.087265625,2.61414453125,-2.18960546875,-3.19367578125,-9.147703125,-1.47171484375,-2.783109375,-1.74465234375,-1.82255859375,3.26637109375,-0.2351640625,-2.77983984375,1.5181953125,9.67842578125,1.79633984375,-0.900015625,0.46012890625,5.07482421875,-2.01603515625,-1.7695546875,-1.49372265625,1.3011640625,6.90503125,-1.704109375,-3.2644140625,-2.1296640625,-0.0405039062499997
3.57232421875,2.1757109375,0.80833984375,1.879265625,1.68514453125,-3.64360546875,-4.20867578125,-11.380703125,-0.0137148437499999,-4.552109375,-3.03565234375,-3.80555859375,0.728371093750001,-2.8311640625,-5.26483984375,0.5051953125,8.56242578125,-1.87266015625,-3.572015625,-1.84687109375,3.70182421875,-6.13403515625,-4.7665546875,-4.03272265625,-0.7768359375,5.20303125,-4.063109375,-5.5824140625,-4.2716640625,-2.00250390625
1.88432421875,1.4167109375,-1.00566015625,1.323265625,1.29114453125,-4.18360546875,-4.21867578125,-12.398703125,1.17828515625,-5.548109375,-3.33765234375,-4.58655859375,-0.68462890625,-4.5031640625,-6.60783984375,0.4251953125,8.34342578125,-4.45966015625,-5.226015625,-2.91787109375,2.94582421875,-9.27803515625,-6.8075546875,-5.42472265625,-1.7628359375,4.04103125,-5.521109375,-7.3914140625,-5.9206640625,-3.27150390625
1.12032421875,1.7067109375,-1.47266015625,1.753265625,1.93814453125,-3.31260546875,-2.93167578125,-12.010703125,2.58028515625,-5.212109375,-2.23665234375,-3.72755859375,-0.63462890625,-4.5951640625,-6.16983984375,1.5331953125,9.09042578125,-4.94666015625,-5.242015625,-2.34387109375,3.08282421875,-10.45503515625,-7.2695546875,-5.23772265625,-1.3128359375,3.79203125,-5.565109375,-7.9994140625,-6.4236640625,-3.32050390625
1.29332421875,3.0887109375,-0.54466015625,3.225265625,3.80314453125,-0.94360546875,-0.43867578125,-10.498703125,4.57528515625,-3.379109375,0.26834765625,-1.30255859375,0.648371093750001,-2.9151640625,-3.82483984375,3.7121953125,10.49542578125,-2.95266015625,-3.474015625,-0.19787109375,4.12282421875,-9.31103515625,-5.9965546875,-3.47572265625,0.4971640625,4.59603125,-4.035109375,-7.0854140625,-5.4416640625,-1.96150390625
2.16232421875,5.2787109375,1.42233984375,5.437265625,6.60814453125,2.51039453125,2.78932421875,-8.440703125,7.17528515625,-0.394109375,3.72634765625,2.12844140625,2.52237109375,0.1538359375,-0.0538398437500001,6.4961953125,12.05242578125,1.05433984375,-0.313015624999999,2.99112890625,5.82182421875,-6.20903515625,-3.3355546875,-0.56572265625,3.2081640625,6.36903125,-1.186109375,-4.8124140625,-3.0626640625,0.60349609375
3.34632421875,7.7647109375,3.84133984375,7.771265625,9.65814453125,6.24139453125,6.02932421875,-6.456703125,9.91328515625,2.968890625,7.35234765625,5.71744140625,4.25837109375,3.7358359375,4.19916015625,9.2231953125,13.31042578125,5.85733984375,3.415984375,6.41412890625,7.77682421875,-2.08903515625,-0.0205546874999997,2.78727734375,6.1341640625,8.81703125,2.371890625,-1.7884140625,0.1563359375,3.78049609375
4.46532421875,9.9807109375,6.11833984375,9.514265625,12.10814453125,9.33539453125,8.56232421875,-4.991703125,12.02828515625,5.789890625,10.30134765625,8.63644140625,5.39437109375,6.7808359375,7.86716015625,11.2951953125,14.05642578125,9.91733984375,6.752984375,9.26412890625,9.57682421875,1.87696484375,3.0974453125,5.84427734375,8.5971640625,11.50403125,5.858890625,1.1615859375,3.3473359375,6.73049609375
5.29632421875,11.5097109375,7.85333984375,10.179265625,13.34714453125,11.13639453125,9.95432421875,-4.211703125,12.85128515625,7.368890625,11.99134765625,10.37044140625,5.85937109375,8.4908359375,10.18416015625,12.4051953125,14.37742578125,12.00533984375,8.970984375,11.03212890625,10.95582421875,4.70696484375,5.3624453125,8.09927734375,10.1761640625,13.97903125,8.598890625,3.3215859375,5.6563359375,8.66049609375
5.82932421875,12.2117109375,8.93633984375,9.707265625,13.26314453125,11.49139453125,10.20932421875,-4.042703125,12.14828515625,7.511890625,12.32934765625,10.85144140625,5.83037109375,8.6418359375,10.97516015625,12.6371953125,14.54842578125,11.69133984375,9.855984375,11.66512890625,11.88482421875,5.90496484375,6.5504453125,9.43327734375,10.8501640625,15.89903125,10.248890625,4.3535859375,6.5903359375,9.14349609375
6.22532421875,12.2337109375,9.51133984375,8.442265625,12.22814453125,10.76739453125,9.70032421875,-4.301703125,10.21928515625,6.600890625,11.71534765625,10.39644140625,5.46537109375,7.6398359375,10.66516015625,12.3721953125,14.84142578125,9.46233984375,9.720984375,11.53312890625,12.53082421875,5.54096484375,6.8984453125,10.09527734375,10.9601640625,17.07803125,10.876890625,4.3575859375,6.1933359375,8.29749609375
6.67632421875,11.9147109375,9.86033984375,6.935265625,10.86914453125,9.64539453125,8.96432421875,-4.804703125,7.75928515625,5.404890625,10.83234765625,9.50544140625,4.79137109375,6.2848359375,10.02216015625,12.0921953125,15.36642578125,6.41433984375,9.191984375,11.20612890625,13.13982421875,4.10796484375,6.9354453125,10.51327734375,11.0231640625,17.46903125,10.863890625,3.7495859375,4.9853359375,6.72449609375
7.30532421875,11.6507109375,10.28533984375,5.718265625,9.80514453125,8.81639453125,8.48932421875,-5.353703125,5.58728515625,4.719890625,10.34634765625,8.65944140625,3.83437109375,5.3968359375,9.77416015625,12.1711953125,16.02442578125,3.73933984375,8.888984375,11.17912890625,13.90982421875,2.27996484375,7.1854453125,11.06227734375,11.4881640625,17.13803125,10.691890625,3.0285859375,3.7093359375,5.24549609375
8.12132421875,11.7807109375,11.04333984375,5.106265625,9.42814453125,8.70439453125,8.55132421875,-5.703703125,4.35528515625,5.012890625,10.63134765625,8.17644140625,2.78637109375,5.4848359375,10.26916015625,12.7361953125,16.59842578125,2.28033984375,9.168984375,11.64412890625,14.90782421875,0.67696484375,7.9194453125,11.88627734375,12.5501640625,16.25703125,10.724890625,2.5655859375,3.0003359375,4.53949609375
9.04232421875,12.4757109375,12.26733984375,5.114265625,9.78014453125,9.31839453125,9.12232421875,-5.601703125,4.33628515625,6.239890625,11.62034765625,8.16044140625,2.02237109375,6.5828359375,11.34616015625,13.6381953125,16.87342578125,2.31133984375,10.009984375,12.42212890625,16.02582421875,-0.28203515625,9.0664453125,12.84527734375,14.0501640625,15.08103125,11.076890625,2.4925859375,3.1313359375,4.85849609375
9.92532421875,13.6477109375,13.88233984375,5.518265625,10.56014453125,10.28939453125,9.87932421875,-4.929703125,5.36228515625,7.895890625,12.85534765625,8.50144140625,1.97037109375,8.3058359375,12.46216015625,14.5091953125,16.73342578125,3.57933984375,11.076984375,13.06812890625,16.99782421875,-0.43803515625,10.3054453125,13.60727734375,15.5461640625,13.87403125,11.609890625,2.7215859375,3.9523359375,5.96449609375
10.59932421875,14.9367109375,15.56733984375,6.053265625,11.31214453125,11.07439453125,10.37132421875,-3.824703125,6.95128515625,9.278890625,13.72034765625,8.94844140625,2.91337109375,10.0638359375,12.99416015625,14.9231953125,16.20642578125,5.51033984375,11.904984375,13.11412890625,17.49482421875,0.13396484375,11.2514453125,13.82427734375,16.4931640625,12.82103125,12.043890625,3.0625859375,5.0183359375,7.30449609375
10.89532421875,15.8347109375,16.84833984375,6.601265625,11.68414453125,11.23739453125,10.27532421875,-2.655703125,8.53428515625,9.827890625,13.76334765625,9.23844140625,4.77837109375,11.3198359375,12.58116015625,14.5981953125,15.47342578125,7.48833984375,12.135984375,12.32712890625,17.28782421875,1.24896484375,11.6524453125,13.33427734375,16.5081640625,11.98503125,12.135890625,3.3695859375,5.8473359375,8.31049609375
10.68832421875,15.9067109375,17.29233984375,7.201265625,11.60214453125,10.67039453125,9.58032421875,-1.853703125,9.67128515625,9.388890625,12.93434765625,9.24344140625,6.98837109375,11.7948359375,11.30416015625,13.5661953125,14.85642578125,9.09933984375,11.691984375,10.86812890625,16.39182421875,2.78096484375,11.5254453125,12.26927734375,15.5741640625,11.34303125,11.829890625,3.6455859375,6.1533359375,8.65949609375
9.90532421875,14.9667109375,16.68833984375,7.909265625,11.25414453125,9.62639453125,8.57732421875,-1.721703125,10.16728515625,8.262890625,11.60234765625,9.01744140625,8.55437109375,11.5168359375,9.63016015625,12.1871953125,14.73042578125,10.20833984375,10.798984375,9.22712890625,15.10782421875,4.71496484375,11.1394453125,11.01627734375,14.0641640625,10.83003125,11.293890625,4.0395859375,5.9483359375,8.35749609375
8.50932421875,13.0997109375,15.09733984375,8.624265625,10.92314453125,8.53739453125,7.66032421875,-2.324703125,10.06328515625,6.978890625,10.31034765625,8.71944140625,8.53537109375,10.7128359375,8.12416015625,10.9501953125,15.33942578125,10.84733984375,9.811984375,7.96012890625,13.87982421875,6.97896484375,10.8114453125,9.99827734375,12.5411640625,10.35803125,10.773890625,4.6955859375,5.4503359375,7.64449609375
6.50332421875,10.5507109375,12.78233984375,9.035265625,10.77814453125,7.72039453125,7.05832421875,-3.524703125,9.53728515625,5.937890625,9.42834765625,8.42944140625,6.65737109375,9.6108359375,7.10916015625,10.1721953125,16.61542578125,10.97333984375,8.959984375,7.35212890625,13.05282421875,9.16296484375,10.6284453125,9.41827734375,11.4371640625,9.80103125,10.371890625,5.5365859375,4.8723359375,6.78749609375
3.97932421875,7.6007109375,10.09533984375,8.720265625,10.70314453125,7.13939453125,6.64832421875,-5.107703125,8.73028515625,5.143890625,8.89734765625,8.01544140625,3.60737109375,8.2868359375,6.46216015625,9.7621953125,18.12842578125,10.30033984375,8.156984375,7.21012890625,12.66182421875,10.39996484375,10.2974453125,9.09227734375,10.8101640625,9.00203125,9.907890625,6.1435859375,4.2263359375,5.89849609375
1.16132421875,4.5077109375,7.38333984375,7.306265625,10.25814453125,6.38539453125,5.95532421875,-6.895703125,7.60628515625,4.203890625,8.23034765625,7.15344140625,0.66037109375,6.6438359375,5.66416015625,9.2351953125,19.24742578125,8.39033984375,7.025984375,6.92312890625,12.38582421875,9.69296484375,9.2774453125,8.51827734375,10.3061640625,7.83303125,8.979890625,5.8685859375,3.2753359375,4.86849609375
-1.59367578125,1.4987109375,4.94233984375,4.652265625,8.87414453125,4.90139453125,4.40632421875,-8.776703125,5.97228515625,2.598890625,6.78434765625,5.51244140625,-1.16462890625,4.5608359375,4.09616015625,7.9671953125,19.41242578125,5.01533984375,5.152984375,5.77912890625,11.71782421875,6.56596484375,7.1564453125,7.16327734375,9.3671640625,6.25403125,7.195890625,4.1825859375,1.6893359375,3.45049609375
-3.85967578125,-1.1982890625,2.99333984375,0.962265625,6.22214453125,2.35239453125,1.69232421875,-10.653703125,3.68328515625,0.0648906250000003,4.18134765625,3.00644140625,-1.79462890625,2.0928359375,1.42816015625,5.5851953125,18.34342578125,0.54733984375,2.409984375,3.38012890625,10.27082421875,1.61596484375,4.0134453125,4.82127734375,7.5691640625,4.37603125,4.462890625,1.0805859375,-0.6426640625,1.48149609375
-5.27367578125,-3.3592890625,1.64433984375,-3.213734375,2.51514453125,-1.09460546875,-1.96667578125,-12.420703125,0.86628515625,-3.161109375,0.60634765625,-0.0785585937499995,-2.12262890625,-0.4261640625,-2.12783984375,2.2461953125,16.06542578125,-3.96866015625,-0.863015625,-0.0878710937500002,8.01682421875,-3.51403515625,0.5214453125,1.81227734375,4.9031640625,2.45403125,1.146890625,-2.7224140625,-3.3806640625,-0.89050390625
-5.72767578125,-4.8452890625,0.80633984375,-7.132734375,-1.48485546875,-4.76560546875,-5.87067578125,-14.003703125,-2.04971484375,-6.389109375,-3.20265234375,-3.15655859375,-3.33262890625,-2.5221640625,-5.85983984375,-1.3708046875,12.80142578125,-7.22066015625,-3.974015625,-3.88787109375,5.31782421875,-6.84803515625,-2.3475546875,-1.13872265625,1.8191640625,0.78703125,-2.029109375,-6.0204140625,-5.7916640625,-3.19250390625
-5.51367578125,-5.7432890625,0.14433984375,-10.105734375,-4.75685546875,-7.75860546875,-9.14267578125,-15.423703125,-4.49471484375,-8.800109375,-6.27165234375,-5.59955859375,-6.09862890625,-3.8461640625,-8.87383984375,-4.3428046875,8.86042578125,-8.25966015625,-6.218015625,-7.07587109375,2.71482421875,-7.07003515625,-3.8305546875,-3.27672265625,-1.0008359375,-0.43896875,-4.333109375,-7.7044140625,-7.1456640625,-4.86050390625
-5.25567578125,-6.3802890625,-0.82666015625,-11.733734375,-6.37485546875,-9.31860546875,-11.07167578125,-16.765703125,-5.95471484375,-9.806109375,-7.81865234375,-7.00955859375,-10.20062890625,-4.3381640625,-10.46783984375,-5.9068046875,4.63742578125,-6.93266015625,-7.197015625,-8.91687109375,0.66782421875,-4.20603515625,-3.7645546875,-4.18172265625,-2.9698359375,-1.24496875,-5.396109375,-7.3524140625,-7.1516640625,-5.58550390625
-5.56167578125,-7.1262890625,-2.44266015625,-12.040734375,-5.77985546875,-9.10360546875,-11.33467578125,-18.060703125,-6.06071484375,-9.230109375,-7.54365234375,-7.35455859375,-14.68862890625,-4.1251640625,-10.37883984375,-5.7508046875,0.71242578125,-3.88566015625,-6.910015625,-9.14987109375,-0.58717578125,0.39196484375,-2.5905546875,-3.89772265625,-3.8198359375,-1.77896875,-5.367109375,-5.4444140625,-6.1426640625,-5.47950390625
-6.59267578125,-8.0742890625,-4.57566015625,-11.470734375,-2.94485546875,-7.26260546875,-10.05967578125,-19.177703125,-4.64271484375,-7.277109375,-5.70465234375,-6.93955859375,-18.35462890625,-3.3291640625,-8.80983984375,-4.1138046875,-2.12457421875,-0.23166015625,-5.655015625,-8.00787109375,-1.02417578125,4.70096484375,-1.0505546875,-2.80272265625,-3.6228359375,-2.13996875,-4.746109375,-3.0664140625,-4.8556640625,-4.95450390625
-7.93167578125,-8.9282890625,-6.62366015625,-10.750734375,1.52814453125,-4.39560546875,-7.79867578125,-19.868703125,-1.86471484375,-4.458109375,-3.02265234375,-6.27555859375,-20.25862890625,-2.0391640625,-6.35183984375,-1.7198046875,-3.08057421875,2.83933984375,-3.891015625,-6.08787109375,-0.75717578125,6.91996484375,0.1604453125,-1.41472265625,-2.7018359375,-2.25496875,-4.105109375,-1.3574140625,-4.0146640625,-4.44550390625
-8.90967578125,-9.2592890625,-7.88566015625,-10.679734375,6.42214453125,-1.45960546875,-5.41667578125,-19.942703125,1.55828515625,-1.571109375,-0.49565234375,-5.92755859375,-20.17062890625,-0.5441640625,-3.86883984375,0.4231953125,-1.80457421875,4.29833984375,-2.204015625,-4.17987109375,-0.0331757812500002,6.09696484375,0.5284453125,-0.28272265625,-1.5338359375,-1.97096875,-3.892109375,-1.0664140625,-4.0196640625,-4.21450390625
-9.15067578125,-8.9202890625,-8.09366015625,-11.864734375,10.11314453125,0.41939453125,-3.86967578125,-19.458703125,4.30228515625,0.342890625,0.85734765625,-6.34355859375,-18.70362890625,0.4438359375,-2.33483984375,1.3271953125,1.20442578125,3.37333984375,-1.298015625,-3.10287109375,0.74582421875,2.27796484375,-0.3315546875,0.0492773437500001,-0.6818359375,-1.29296875,-4.403109375,-2.4164140625,-4.8986640625,-4.35450390625
-8.84667578125,-8.2502890625,-7.62466015625,-14.467734375,11.05214453125,0.28239453125,-3.87067578125,-18.756703125,4.77828515625,0.256890625,0.32634765625,-7.65655859375,-16.93862890625,-0.0901640624999999,-2.56583984375,0.4081953125,4.57442578125,-0.326660156250001,-1.865015625,-3.46987109375,1.08082421875,-3.71903515625,-2.6855546875,-0.86272265625,-0.6528359375,-0.55396875,-5.792109375,-5.1724140625,-6.4446640625,-4.89350390625
-8.50367578125,-7.8142890625,-7.21366015625,-18.047734375,8.46014453125,-2.21060546875,-5.54567578125,-18.271703125,1.90928515625,-2.347109375,-2.15065234375,-9.55755859375,-15.76062890625,-2.8741640625,-4.84183984375,-2.1938046875,6.61842578125,-6.51766015625,-4.232015625,-5.41387109375,0.58982421875,-10.56403515625,-6.4705546875,-3.12272265625,-1.6738359375,-0.29096875,-7.960109375,-8.7314140625,-8.3126640625,-5.79650390625
-8.38967578125,-7.8992890625,-7.36366015625,-21.632734375,2.94114453125,-6.45960546875,-8.27467578125,-18.257703125,-4.03071484375,-7.009109375,-5.83165234375,-11.34155859375,-15.41962890625,-7.6571640625,-8.62983984375,-5.5898046875,6.22942578125,-13.92866015625,-8.009015625,-8.40087109375,-0.71617578125,-16.60303515625,-11.0035546875,-6.24972265625,-3.4708359375,-0.88396875,-10.416109375,-12.1844140625,-10.0236640625,-6.85850390625
-8.19267578125,-8.2102890625,-7.94666015625,-24.078734375,-3.51485546875,-11.04360546875,-10.91267578125,-18.635703125,-11.19471484375,-12.294109375,-9.40765234375,-12.20455859375,-15.62562890625,-13.0321640625,-12.67383984375,-8.5058046875,3.54942578125,-20.43966015625,-12.054015625,-11.37787109375,-2.36417578125,-20.18103515625,-14.9975546875,-9.23472265625,-5.3268359375,-2.24596875,-12.331109375,-14.4914140625,-11.0106640625,-7.66750390625
-7.24167578125,-8.0692890625,-8.35266015625,-24.593734375,-8.43785546875,-14.37560546875,-12.39667578125,-19.094703125,-16.95671484375,-16.431109375,-11.61465234375,-11.70655859375,-15.93362890625,-17.0991640625,-15.58083984375,-9.9348046875,-0.0615742187500001,-23.93066015625,-14.988015625,-13.26987109375,-3.68117578125,-20.20903515625,-17.0885546875,-10.99372265625,-6.4648359375,-3.84996875,-12.911109375,-14.8634140625,-10.8496640625,-7.80750390625
-5.11867578125,-6.9652890625,-8.03766015625,-23.136734375,-10.25485546875,-15.54260546875,-12.37867578125,-19.352703125,-19.37471484375,-18.268109375,-11.89965234375,-10.09755859375,-16.06762890625,-18.5781640625,-16.56083984375,-9.6778046875,-2.81757421875,-23.36466015625,-15.957015625,-13.56887109375,-4.24317578125,-16.71803515625,-16.5755546875,-10.98672265625,-6.5468359375,-5.08296875,-11.874109375,-13.1554140625,-9.5466640625,-7.17850390625
-2.10167578125,-4.9872890625,-6.98766015625,-20.400734375,-9.13385546875,-14.73960546875,-11.38867578125,-19.331703125,-18.23471484375,-17.841109375,-10.67165234375,-8.23655859375,-16.02562890625,-17.5271640625,-15.81683984375,-8.4108046875,-3.57257421875,-19.30666015625,-15.089015625,-12.59387109375,-4.13917578125,-10.93503515625,-13.8305546875,-9.52672265625,-5.8938359375,-5.64896875,-9.678109375,-9.9784140625,-7.6276640625,-6.14650390625
0.94132421875,-2.7862890625,-5.72066015625,-17.419734375,-6.61585546875,-13.00360546875,-10.38367578125,-19.131703125,-14.89571484375,-16.162109375,-8.94765234375,-7.09655859375,-16.05962890625,-15.1111640625,-14.29783984375,-7.1948046875,-2.49657421875,-13.53066015625,-13.309015625,-11.24487109375,-3.84117578125,-4.80603515625,-10.0885546875,-7.56072265625,-5.2568359375,-5.71496875,-7.300109375,-6.4234140625,-5.8976640625,-5.36050390625
3.05432421875,-1.1502890625,-4.89866015625,-15.103734375,-4.40285546875,-11.48460546875,-10.07367578125,-18.936703125,-11.12971484375,-14.440109375,-7.70965234375,-7.28655859375,-16.58762890625,-12.7181640625,-13.06083984375,-6.8338046875,-0.93257421875,-8.10666015625,-11.723015625,-10.44887109375,-3.85717578125,-0.24503515625,-6.8195546875,-6.11272265625,-5.3428359375,-5.73896875,-5.738109375,-3.5994140625,-5.0316640625,-5.35950390625
3.68132421875,-0.5952890625,-4.95466015625,-13.997734375,-3.34185546875,-10.85160546875,-10.62767578125,-19.004703125,-8.01571484375,-13.394109375,-7.46765234375,-8.96055859375,-18.01462890625,-11.1821640625,-12.73783984375,-7.5568046875,-0.51657421875,-4.58266015625,-11.082015625,-10.74487109375,-4.49617578125,1.49596484375,-5.1175546875,-5.82372265625,-6.4798359375,-6.15996875,-5.578109375,-2.2614140625,-5.2886640625,-6.29250390625
2.77832421875,-1.2512890625,-6.00266015625,-14.293734375,-3.33585546875,-11.21260546875,-11.88567578125,-19.710703125,-5.72871484375,-13.143109375,-8.27365234375,-12.04655859375,-20.44662890625,-10.6551640625,-13.45783984375,-9.1838046875,-2.15957421875,-3.64466015625,-11.629015625,-12.20487109375,-5.90017578125,0.15196484375,-5.4205546875,-6.82772265625,-8.5988359375,-7.19496875,-6.862109375,-2.6454140625,-6.5036640625,-7.92150390625
0.61332421875,-3.0222890625,-7.99666015625,-15.916734375,-3.99785546875,-12.40860546875,-13.69567578125,-21.437703125,-4.15971484375,-13.582109375,-9.96565234375,-16.37655859375,-23.45562890625,-11.0001640625,-15.06383984375,-11.4558046875,-5.56057421875,-5.18166015625,-13.266015625,-14.58787109375,-8.10917578125,-3.61403515625,-7.5555546875,-8.89972265625,-11.4148359375,-8.78396875,-9.224109375,-4.4954140625,-8.2666640625,-9.83450390625
-2.46567578125,-5.7212890625,-10.80966015625,-18.595734375,-5.27685546875,-14.27660546875,-15.99567578125,-24.304703125,-3.54971484375,-14.720109375,-12.33365234375,-21.49555859375,-26.14662890625,-12.1841640625,-17.33983984375,-14.1748046875,-9.48557421875,-8.55266015625,-15.740015625,-17.49987109375,-10.97917578125,-8.55003515625,-10.9375546875,-11.62572265625,-14.5418359375,-10.61496875,-12.096109375,-7.1734140625,-10.1146640625,-11.63450390625
-6.08767578125,-9.0452890625,-14.16366015625,-21.897734375,-7.50585546875,-16.66260546875,-18.63067578125,-27.906703125,-4.46871484375,-16.663109375,-15.08265234375,-26.44355859375,-27.59262890625,-14.2931640625,-20.02983984375,-17.0698046875,-12.53757421875,-12.84766015625,-18.697015625,-20.45087109375,-14.02817578125,-13.28203515625,-14.7575546875,-14.51072265625,-17.5018359375,-12.20096875,-14.869109375,-9.8504140625,-11.6456640625,-13.00750390625
-9.78667578125,-12.4932890625,-17.51766015625,-25.255734375,-10.93885546875,-19.28160546875,-21.18667578125,-31.351703125,-7.23171484375,-19.337109375,-17.75965234375,-29.88555859375,-27.38462890625,-17.2351640625,-22.76483984375,-19.6588046875,-13.87657421875,-17.07266015625,-21.661015625,-22.91687109375,-16.51217578125,-16.68403515625,-18.1605546875,-17.03472265625,-19.7718359375,-13.07296875,-17.014109375,-11.7504140625,-12.5906640625,-13.75050390625
-12.99967578125,-15.4342890625,-20.18366015625,-28.035734375,-15.27685546875,-21.67560546875,-23.05667578125,-33.643703125,-11.36771484375,-22.307109375,-19.82765234375,-30.69755859375,-25.90362890625,-20.5351640625,-25.07883984375,-21.3498046875,-13.50757421875,-20.31966015625,-24.097015625,-24.48987109375,-17.82817578125,-18.12703515625,-20.4525546875,-18.79072265625,-20.9698359375,-13.05296875,-18.230109375,-12.4204140625,-12.8876640625,-13.86050390625
-15.19267578125,-17.3392890625,-21.61466015625,-29.694734375,-19.61485546875,-23.37160546875,-23.75367578125,-34.209703125,-15.65971484375,-24.919109375,-20.88365234375,-28.65455859375,-24.09062890625,-23.4651640625,-26.56583984375,-21.7658046875,-12.09757421875,-21.99766015625,-25.601015625,-25.05587109375,-17.94917578125,-17.60303515625,-21.3295546875,-19.63472265625,-21.0718359375,-12.40296875,-18.560109375,-11.9034140625,-12.7276640625,-13.59950390625
-16.06567578125,-18.0032890625,-21.68166015625,-29.993734375,-22.86285546875,-24.12560546875,-23.23967578125,-33.230703125,-18.71771484375,-26.622109375,-20.88665234375,-24.71055859375,-22.90162890625,-25.4061640625,-27.07483984375,-21.0268046875,-10.55357421875,-22.05866015625,-26.080015625,-24.85287109375,-17.49217578125,-15.73103515625,-20.9865546875,-19.75272265625,-20.4568359375,-11.67196875,-18.350109375,-10.7024140625,-12.4716640625,-13.40350390625
-15.67067578125,-17.5922890625,-20.71066015625,-29.122734375,-24.30885546875,-24.03060546875,-22.02067578125,-31.513703125,-19.65871484375,-27.206109375,-20.19065234375,-20.63355859375,-22.84662890625,-26.1491640625,-26.75383984375,-19.7328046875,-9.64557421875,-21.04066015625,-25.779015625,-24.30387109375,-17.26317578125,-13.56703515625,-20.0145546875,-19.52672265625,-19.6688359375,-11.30496875,-18.037109375,-9.5084140625,-12.4496640625,-13.62450390625
-14.38667578125,-16.4922890625,-19.26466015625,-27.601734375,-23.92085546875,-23.41860546875,-20.86867578125,-29.985703125,-18.49171484375,-26.826109375,-19.34065234375,-18.14955859375,-23.88162890625,-25.9341640625,-25.90783984375,-18.6238046875,-9.82957421875,-19.82766015625,-25.119015625,-23.75187109375,-17.63017578125,-12.21503515625,-19.1035546875,-19.28872265625,-19.0708359375,-11.29696875,-17.895109375,-8.8714140625,-12.7556640625,-14.28050390625
-12.72767578125,-15.0782890625,-17.83866015625,-26.024734375,-22.27685546875,-22.63660546875,-20.34467578125,-29.136703125,-16.04671484375,-25.838109375,-18.73065234375,-18.09755859375,-25.62662890625,-25.2541640625,-24.79083984375,-18.1058046875,-11.22357421875,-19.23666015625,-24.448015625,-23.25687109375,-18.19417578125,-12.36803515625,-18.7275546875,-19.11172265625,-18.6328359375,-11.17196875,-17.913109375,-8.9674140625,-13.2116640625,-15.01750390625
-11.08267578125,-13.5262890625,-16.63766015625,-24.825734375,-20.22585546875,-21.85760546875,-20.45467578125,-28.786703125,-13.53871484375,-24.588109375,-18.38065234375,-20.07055859375,-27.65962890625,-24.5681640625,-23.49383984375,-18.0008046875,-13.61457421875,-19.64666015625,-23.879015625,-22.60087109375,-18.03517578125,-13.97703515625,-18.9575546875,-18.79372265625,-17.9958359375,-10.30896875,-17.862109375,-9.5664140625,-13.4716640625,-15.31650390625
-9.56167578125,-11.7922890625,-15.56766015625,-24.221734375,-18.51885546875,-21.02760546875,-20.68667578125,-28.314703125,-11.98271484375,-23.269109375,-17.97265234375,-22.71055859375,-29.66262890625,-24.0961640625,-21.97083984375,-17.6928046875,-16.44257421875,-20.88566015625,-23.280015625,-21.47787109375,-16.40017578125,-16.26203515625,-19.4755546875,-18.01572265625,-16.7778359375,-8.42296875,-17.470109375,-10.1644140625,-13.2226640625,-14.80350390625
-8.06567578125,-9.7782890625,-14.43966015625,-24.246734375,-17.53485546875,-19.98060546875,-20.38467578125,-27.140703125,-11.72371484375,-21.905109375,-17.11465234375,-24.45655859375,-31.35762890625,-23.7531640625,-20.18583984375,-16.6158046875,-18.86757421875,-22.39566015625,-22.429015625,-19.77487109375,-13.36317578125,-18.11403515625,-19.8035546875,-16.60672265625,-14.9288359375,-5.88996875,-16.631109375,-10.2534140625,-12.3676640625,-13.51350390625
-6.51967578125,-7.5662890625,-13.20566015625,-24.774734375,-17.13885546875,-18.60360546875,-19.17667578125,-25.122703125,-12.25971484375,-20.439109375,-15.66665234375,-24.35055859375,-32.44962890625,-23.2531640625,-18.24483984375,-14.7468046875,-20.05257421875,-23.54466015625,-21.203015625,-17.75187109375,-10.02617578125,-18.67803515625,-19.5985546875,-14.72372265625,-12.9108359375,-3.68696875,-15.532109375,-9.6294140625,-11.1386640625,-11.95950390625
-5.01967578125,-5.4882890625,-12.03166015625,-25.480734375,-16.72285546875,-16.93360546875,-17.20067578125,-22.654703125,-12.44271484375,-18.802109375,-13.86865234375,-22.46755859375,-32.67862890625,-22.2561640625,-16.40083984375,-12.7178046875,-19.64057421875,-23.88966015625,-19.669015625,-15.98287109375,-8.02717578125,-17.75603515625,-18.8365546875,-12.82772265625,-11.5218359375,-2.90796875,-14.590109375,-8.5494140625,-10.0386640625,-10.93850390625
-3.75467578125,-3.9392890625,-11.15466015625,-25.817734375,-15.43685546875,-15.11660546875,-15.01067578125,-20.483703125,-10.95471484375,-16.913109375,-12.20165234375,-19.76055859375,-31.96562890625,-20.4971640625,-14.91383984375,-11.4388046875,-18.11757421875,-23.24766015625,-18.003015625,-15.04887109375,-8.61017578125,-15.79003515625,-17.7355546875,-11.43472265625,-11.4438359375,-4.14696875,-14.205109375,-7.5694140625,-9.5766640625,-11.11550390625
-2.82267578125,-3.1162890625,-10.70766015625,-25.123734375,-12.57685546875,-13.30160546875,-13.25367578125,-19.403703125,-6.88471484375,-14.672109375,-11.09365234375,-17.48655859375,-30.47562890625,-17.8561640625,-13.86283984375,-11.5288046875,-16.65257421875,-21.61666015625,-16.330015625,-15.18287109375,-11.89217578125,-13.50003515625,-16.5285546875,-10.81172265625,-12.8148359375,-7.16696875,-14.488109375,-7.1754140625,-9.9506640625,-12.61450390625
-2.21167578125,-2.9442890625,-10.70066015625,-22.905734375,-7.99085546875,-11.60160546875,-12.37967578125,-19.940703125,-0.23871484375,-12.060109375,-10.72965234375,-16.64955859375,-28.52262890625,-14.4561640625,-13.12083984375,-13.0088046875,-16.39857421875,-19.08966015625,-14.674015625,-16.15787109375,-16.85517578125,-11.45603515625,-15.2975546875,-10.84872265625,-15.1478359375,-11.08196875,-15.186109375,-7.4534140625,-10.8916640625,-14.90550390625
-1.98167578125,-3.2422890625,-11.14366015625,-19.184734375,-2.35985546875,-10.16260546875,-12.54267578125,-22.106703125,7.82028515625,-9.320109375,-11.06565234375,-17.71555859375,-26.39562890625,-10.7521640625,-12.50683984375,-15.4288046875,-17.69857421875,-15.85266015625,-13.057015625,-17.46787109375,-22.01017578125,-9.87403515625,-14.0065546875,-11.17972265625,-17.6268359375,-14.84196875,-15.856109375,-8.0694140625,-11.8186640625,-17.08850390625
-2.39167578125,-3.9162890625,-12.12066015625,-14.678734375,2.84814453125,-9.21560546875,-13.61667578125,-25.293703125,15.18528515625,-7.015109375,-11.92565234375,-20.49855859375,-24.24362890625,-7.5191640625,-11.96583984375,-18.1318046875,-19.83757421875,-12.26366015625,-11.622015625,-18.61687109375,-26.10517578125,-8.69703515625,-12.6385546875,-11.42472265625,-19.4988359375,-17.61896875,-16.131109375,-8.5304140625,-12.1916640625,-18.36250390625
-3.72567578125,-4.9492890625,-13.63766015625,-10.565734375,5.92214453125,-8.94360546875,-15.15867578125,-28.386703125,19.58828515625,-5.795109375,-12.99765234375,-24.04455859375,-22.02662890625,-5.5881640625,-11.57083984375,-20.3558046875,-21.55457421875,-8.86466015625,-10.617015625,-19.23887109375,-28.36017578125,-7.80203515625,-11.2895546875,-11.34272265625,-20.2648359375,-18.92696875,-15.872109375,-8.4854140625,-11.7736640625,-18.37150390625
-5.90667578125,-6.2072890625,-15.38766015625,-7.894734375,5.80314453125,-9.24160546875,-16.33167578125,-30.143703125,19.71228515625,-5.964109375,-13.74565234375,-26.69755859375,-19.57962890625,-5.4131640625,-11.33783984375,-21.2188046875,-21.87657421875,-6.21866015625,-10.201015625,-19.05987109375,-28.33017578125,-7.13003515625,-10.1115546875,-10.82872265625,-19.6688359375,-18.57096875,-15.146109375,-7.8564140625,-10.6766640625,-17.25450390625
-8.28667578125,-7.3182890625,-16.73266015625,-7.010734375,2.76414453125,-9.64260546875,-16.09367578125,-29.768703125,16.00428515625,-7.207109375,-13.49965234375,-26.71755859375,-16.75362890625,-6.7621640625,-11.09983984375,-19.9388046875,-20.65457421875,-4.69066015625,-10.286015625,-17.88887109375,-25.86917578125,-6.71403515625,-9.2205546875,-9.88072265625,-17.6928359375,-16.65596875,-14.138109375,-6.7984140625,-9.2286640625,-15.49350390625
-9.92267578125,-7.8452890625,-17.06166015625,-7.423734375,-1.72285546875,-9.62360546875,-13.80867578125,-27.414703125,10.47828515625,-8.784109375,-11.87665234375,-23.34755859375,-13.63562890625,-8.8671640625,-10.65583984375,-16.3768046875,-18.52357421875,-4.37266015625,-10.625015625,-15.81387109375,-21.39717578125,-6.66803515625,-8.7005546875,-8.66672265625,-14.6818359375,-13.67696875,-13.141109375,-5.6314140625,-7.8666640625,-13.75250390625
-10.16467578125,-7.6492890625,-16.30366015625,-8.205734375,-5.93385546875,-9.10860546875,-9.97267578125,-24.234703125,5.53128515625,-10.088109375,-9.27665234375,-17.64955859375,-10.69262890625,-10.9641640625,-10.10083984375,-11.5378046875,-16.42257421875,-5.19666015625,-11.091015625,-13.43387109375,-16.17017578125,-7.18403515625,-8.7055546875,-7.63972265625,-11.4688359375,-10.55696875,-12.590109375,-4.8034140625,-7.0856640625,-12.75550390625
-9.13367578125,-7.1022890625,-15.12266015625,-8.578734375,-8.88085546875,-8.69660546875,-6.32867578125,-21.793703125,2.65728515625,-11.100109375,-6.97765234375,-12.29955859375,-8.65762890625,-12.7671640625,-9.98183984375,-7.4508046875,-15.03557421875,-7.03066015625,-11.859015625,-11.80387109375,-12.03817578125,-8.44103515625,-9.4915546875,-7.46372265625,-9.2168359375,-8.41396875,-12.990109375,-4.8094140625,-7.3626640625,-13.11950390625
-7.68067578125,-6.9032890625,-14.54366015625,-8.249734375,-10.57385546875,-9.30360546875,-5.04467578125,-21.148703125,1.96428515625,-12.294109375,-6.53165234375,-10.23655859375,-8.17362890625,-14.4471640625,-10.99483984375,-6.2618046875,-14.48457421875,-9.63066015625,-13.243015625,-11.95287109375,-10.65717578125,-10.40703515625,-11.2365546875,-8.66872265625,-8.9168359375,-8.08996875,-14.656109375,-5.9534140625,-8.9406640625,-15.08950390625
-6.85767578125,-7.5682890625,-15.24766015625,-7.332734375,-11.50585546875,-11.41260546875,-7.37567578125,-22.232703125,2.69928515625,-14.062109375,-8.78065234375,-12.93655859375,-9.37762890625,-16.1821640625,-13.41083984375,-8.9958046875,-14.39357421875,-12.49366015625,-15.303015625,-14.21387109375,-12.58617578125,-12.66603515625,-13.7565546875,-11.19972265625,-10.7928359375,-9.69096875,-17.387109375,-8.0784140625,-11.5596640625,-18.27650390625
-7.23567578125,-8.9682890625,-17.03266015625,-6.041734375,-11.89185546875,-14.51360546875,-12.73067578125,-23.932703125,4.19828515625,-16.141109375,-13.15865234375,-19.43355859375,-11.73162890625,-17.7041640625,-16.63983984375,-14.7948046875,-14.21857421875,-14.85766015625,-17.548015625,-17.84187109375,-16.86517578125,-14.47003515625,-16.3535546875,-14.21672265625,-14.0338359375,-12.44596875,-20.341109375,-10.4744140625,-14.3706640625,-21.63950390625
-8.45667578125,-10.2202890625,-18.80866015625,-4.425734375,-11.27785546875,-17.14060546875,-18.80267578125,-24.721703125,6.53328515625,-17.501109375,-17.77565234375,-26.68755859375,-14.18262890625,-18.2301640625,-19.32283984375,-21.1638046875,-13.62157421875,-15.88966015625,-19.002015625,-21.22087109375,-21.37917578125,-15.03903515625,-17.9815546875,-16.34472265625,-17.0718359375,-15.02396875,-22.289109375,-12.1074140625,-16.1776640625,-23.82950390625
-9.25167578125,-10.0352890625,-19.09066015625,-2.273734375,-8.72385546875,-17.52160546875,-22.61867578125,-23.389703125,10.51028515625,-16.782109375,-20.25065234375,-31.00855859375,-15.58162890625,-16.7981640625,-19.88783984375,-25.0818046875,-12.69657421875,-14.97966015625,-18.605015625,-22.55687109375,-23.78017578125,-13.91603515625,-17.6565546875,-16.25872265625,-18.2698359375,-16.14996875,-22.135109375,-12.0634140625,-15.9456640625,-23.77550390625
-7.94467578125,-7.3112890625,-16.71066015625,0.786265625,-3.39185546875,-14.41460546875,-21.88467578125,-19.517703125,17.05028515625,-12.984109375,-18.78365234375,-29.68455859375,-15.14762890625,-12.7801640625,-17.25483984375,-24.3108046875,-11.99157421875,-11.96066015625,-15.693015625,-20.66487109375,-22.47817578125,-11.18603515625,-14.8835546875,-13.27372265625,-16.6318359375,-15.14796875,-19.410109375,-9.9604140625,-13.2966640625,-21.18150390625
-3.29067578125,-1.7072890625,-11.39366015625,5.060265625,4.77214453125,-7.72060546875,-15.93967578125,-13.618703125,26.32928515625,-6.042109375,-12.92365234375,-22.06755859375,-12.80062890625,-6.3041640625,-11.32283984375,-18.2668046875,-12.25157421875,-7.23666015625,-10.351015625,-15.44487109375,-17.24717578125,-7.48903515625,-9.9015546875,-7.65672265625,-12.1888359375,-12.16396875,-14.475109375,-6.1284140625,-8.7246640625,-16.67850390625
4.67332421875,6.0187109375,-4.01566015625,10.503265625,14.64914453125,1.34239453125,-6.01467578125,-6.970703125,37.15628515625,2.946890625,-3.79065234375,-9.85055859375,-9.21862890625,1.5868359375,-3.10183984375,-8.2218046875,-13.96057421875,-1.77866015625,-3.500015625,-7.93887109375,-9.31517578125,-3.84103515625,-3.6805546875,-0.56872265625,-5.9718359375,-8.02396875,-8.389109375,-1.5034140625,-3.4196640625,-11.54750390625
14.25332421875,14.0797109375,3.57633984375,16.511265625,24.10314453125,10.55939453125,5.20232421875,-1.204703125,47.01328515625,11.930890625,6.25934765625,3.43844140625,-5.53462890625,9.1238359375,5.53916015625,3.1081953125,-16.92257421875,3.06433984375,3.308984375,-0.00887109375000021,-0.96317578125,-1.29503515625,2.3344453125,6.31927734375,0.3501640625,-3.90496875,-2.555109375,2.7315859375,1.2133359375,-7.19350390625
22.58132421875,20.2187109375,9.18333984375,21.937265625,30.66914453125,17.42039453125,14.49132421875,2.271296875,52.91028515625,18.520890625,14.39334765625,13.59044140625,-2.83662890625,14.3558359375,12.41116015625,12.4251953125,-20.15557421875,5.97933984375,8.366984375,6.25912890625,5.25382421875,-0.53603515625,6.6724453125,11.36727734375,5.0301640625,-0.96096875,1.728890625,5.5925859375,4.0933359375,-4.63050390625
26.87632421875,22.5957109375,11.09733984375,25.416265625,32.52814453125,20.02439453125,19.22032421875,2.830296875,52.72728515625,20.882890625,18.28434765625,17.27144140625,-1.76362890625,15.8908359375,15.73716015625,16.9701953125,-22.26857421875,6.21533984375,10.411984375,9.25812890625,7.46782421875,-1.58803515625,8.3484453125,13.50527734375,6.8571640625,-0.00996875000000008,3.672890625,6.6355859375,4.8323359375,-4.15750390625
25.76932421875,20.5887109375,8.78933984375,25.933265625,29.30614453125,17.83839453125,18.29232421875,0.866296875,46.35328515625,18.523890625,16.98834765625,13.42544140625,-2.39462890625,13.5008359375,14.80816015625,15.5591953125,-22.14757421875,3.94433984375,9.114984375,8.45112890625,5.23982421875,-3.82503515625,7.2294453125,12.56427734375,5.5731640625,-1.32496875,3.210890625,6.0265859375,3.7733359375,-5.34950390625
19.87432421875,15.0567109375,3.08733984375,23.375265625,22.31814453125,11.94139453125,12.55232421875,-2.425703125,35.94728515625,12.551890625,11.31834765625,3.78944140625,-4.38462890625,8.2718359375,10.28016015625,9.0611953125,-19.56057421875,0.21733984375,5.218984375,4.55012890625,-0.31617578125,-6.28603515625,4.0444453125,9.27427734375,1.9201640625,-4.58996875,0.942890625,4.3465859375,1.7193359375,-7.34750390625
11.34032421875,7.9117109375,-4.23466015625,18.740265625,14.08014453125,4.59439453125,4.42232421875,-5.655703125,25.07928515625,5.222890625,3.50534765625,-7.87555859375,-7.10162890625,2.1488359375,3.89816015625,0.0321953125000001,-15.29557421875,-3.51566015625,0.217984375,-0.81787109375,-7.13717578125,-8.13403515625,0.0404453125000004,4.91927734375,-2.7608359375,-8.99496875,-2.166109375,2.2825859375,-0.4746640625,-9.29550390625
2.80732421875,1.3137109375,-11.16566015625,13.802265625,7.28114453125,-1.69460546875,-3.13367578125,-7.843703125,17.18728515625,-0.993109375,-3.72765234375,-17.49055859375,-9.69762890625,-2.8581640625,-2.21283984375,-8.3638046875,-10.77657421875,-6.04166015625,-4.244015625,-5.80387109375,-13.16117578125,-8.98403515625,-3.5345546875,0.83627734375,-7.1098359375,-13.46096875,-5.172109375,0.3705859375,-2.2616640625,-10.72850390625
-3.53867578125,-3.0532890625,-16.07966015625,10.380265625,3.76614453125,-5.09960546875,-7.79967578125,-8.692703125,14.22828515625,-4.315109375,-8.21265234375,-22.37655859375,-11.23862890625,-5.3751640625,-6.31783984375,-13.6048046875,-7.38957421875,-6.79966015625,-6.949015625,-8.99687109375,-17.04817578125,-8.93203515625,-5.8255546875,-1.99672265625,-10.2068359375,-16.94196875,-7.424109375,-1.0834140625,-3.5326640625,-11.70250390625
-6.42267578125,-4.3282890625,-18.03766015625,9.604265625,4.04414453125,-4.99460546875,-8.66667578125,-8.429703125,16.19628515625,-4.110109375,-9.00965234375,-22.11855859375,-10.98062890625,-4.9651640625,-7.55083984375,-14.6008046875,-5.88857421875,-5.86066015625,-7.378015625,-9.75987109375,-18.39217578125,-8.29503515625,-6.4885546875,-3.11372265625,-11.6808359375,-18.73296875,-8.619109375,-1.9454140625,-4.4846640625,-12.59650390625
-5.51767578125,-2.4652890625,-16.81566015625,11.564265625,7.45114453125,-1.89960546875,-6.24667578125,-7.411703125,21.60528515625,-0.852109375,-6.47165234375,-18.24055859375,-8.67962890625,-2.0371640625,-5.96083984375,-11.7648046875,-6.15757421875,-3.64066015625,-5.679015625,-8.19787109375,-17.51117578125,-7.28903515625,-5.5925546875,-2.48572265625,-11.5468359375,-18.61596875,-8.696109375,-2.1214140625,-5.3046640625,-13.68850390625
-1.30467578125,1.9477109375,-12.79966015625,15.459265625,12.67014453125,2.97839453125,-1.87067578125,-5.786703125,28.40928515625,4.271890625,-1.79465234375,-13.00255859375,-4.71862890625,2.4198359375,-2.27083984375,-6.4968046875,-7.36757421875,-0.64666015625,-2.446015625,-4.90187109375,-15.08117578125,-5.89603515625,-3.4705546875,-0.35772265625,-9.9788359375,-16.80696875,-7.685109375,-1.4924140625,-5.8906640625,-14.79250390625
5.13232421875,7.9037109375,-6.83066015625,20.079265625,18.26914453125,8.30539453125,3.11832421875,-3.375703125,34.80128515625,9.853890625,3.62734765625,-8.01255859375,0.0183710937499999,7.1668359375,2.50716015625,-0.4308046875,-8.40157421875,2.61433984375,1.546984375,-0.63187109375,-11.80817578125,-3.97803515625,-0.5905546875,2.89427734375,-7.1958359375,-13.74496875,-5.640109375,0.0705859375000002,-5.7956640625,-15.20850390625
12.41332421875,14.2307109375,0.0203398437500003,24.366265625,23.12814453125,13.09639453125,7.99232421875,0.247296875,39.63728515625,14.718890625,8.77534765625,-3.41955859375,4.42137109375,11.1078359375,7.44516015625,5.1941953125,-8.30357421875,5.68333984375,5.612984375,3.94212890625,-8.16717578125,-1.47903515625,2.5654453125,6.88127734375,-3.4388359375,-9.89896875,-2.633109375,2.6525859375,-4.3806640625,-13.99350390625
19.27332421875,19.8807109375,6.75833984375,27.803265625,26.72914453125,16.94339453125,12.83832421875,5.567296875,42.53528515625,18.225890625,13.27734765625,1.92544140625,7.46837109375,13.6558359375,11.98216015625,9.8621953125,-6.58557421875,8.26033984375,9.367984375,8.43412890625,-4.28317578125,1.49596484375,5.6394453125,11.32227734375,1.0641640625,-5.64396875,1.235890625,6.2675859375,-1.0866640625,-10.36950390625
24.95632421875,24.2387109375,12.77433984375,30.465265625,29.19714453125,19.98239453125,18.25532421875,12.896296875,43.76528515625,20.335890625,17.32934765625,9.51344140625,8.54737109375,14.8668359375,16.00616015625,13.7141953125,-3.28357421875,10.29233984375,12.789984375,12.76812890625,-0.00917578125000018,4.73896484375,8.4884453125,16.09527734375,6.1311640625,-1.20996875,5.829890625,10.8455859375,4.3183359375,-4.05450390625
29.40932421875,27.3037109375,17.98533984375,32.747265625,31.04614453125,22.62039453125,24.74232421875,22.114296875,43.98528515625,21.455890625,21.34034765625,20.03744140625,7.70537109375,15.2238359375,19.71916015625,17.2131953125,1.17542578125,11.94333984375,16.075984375,17.06312890625,4.82282421875,8.06896484375,11.1604453125,21.17527734375,11.6291640625,3.30903125,10.977890625,16.2005859375,11.5803359375,4.58649609375
33.19332421875,29.6537109375,22.76833984375,35.005265625,32.79914453125,25.24539453125,32.19232421875,32.534296875,43.92628515625,22.189890625,25.57434765625,32.78244140625,5.70437109375,15.2998359375,23.39816015625,20.7721953125,6.17442578125,13.46733984375,19.416984375,21.45412890625,10.15382421875,11.41496484375,13.7924453125,26.50627734375,17.4201640625,7.90203125,16.459890625,22.0125859375,19.9533359375,14.58949609375
33.19332421875,29.6537109375,22.76833984375,35.005265625,32.79914453125,25.24539453125,32.19232421875,32.534296875,43.92628515625,22.189890625,25.57434765625,32.78244140625,5.70437109375,15.2998359375,23.39816015625,20.7721953125,6.17442578125,13.46733984375,19.416984375,21.45412890625,10.15382421875,11.41496484375,13.7924453125,26.50627734375,17.4201640625,7.90203125,16.459890625,22.0125859375,19.9533359375,14.58949609375
