"Fp1","Fpz","Fp2","F7","F3","Fz","F4","F8","FC5","FC1","FC2","FC6","T7","C3","Cz","C4","T8","CP5","CP1","CP2","CP6","P7","P3","Pz","P4","P8","POz","O1","Oz","O2"
2.448375,0.912464843750001,1.79066015625,-4.46205859375,-0.37967578125,-0.180914062500001,-2.05209765625,-3.50570703125,-3.85931640625,1.50462890625,-1.97190625,-6.138078125,-2.91451953125,-3.6689140625,0.631597656250001,-2.03344140625,-14.931765625,-0.0105898437500005,1.82648828125,-4.519796875,-3.567953125,-6.07602734375,2.1403046875,7.2538828125,1.62234765625,-1.31638671875,7.30965234375,12.067671875,8.31507421875,2.2719375
-1.824625,-1.50653515625,-0.82333984375,-6.38405859375,-2.86267578125,-1.5979140625,-5.29309765625,-8.89170703125,-7.13231640625,0.20062890625,-3.55790625,-7.823078125,-4.83051953125,-6.0939140625,-1.87840234375,-2.81044140625,-17.131765625,-1.53958984375,-0.31551171875,-6.698796875,-4.043953125,-6.23002734375,-0.3566953125,4.4908828125,0.61534765625,-0.84338671875,5.52765234375,11.252671875,7.72007421875,2.8479375
-5.420625,-4.28353515625,-3.44733984375,-8.35405859375,-5.54467578125,-3.6369140625,-7.89309765625,-12.56170703125,-9.68831640625,-1.61337109375,-5.33190625,-9.055078125,-6.34051953125,-8.0839140625,-4.06440234375,-3.66744140625,-18.694765625,-3.02558984375,-2.31651171875,-8.285796875,-4.098953125,-7.09002734375,-2.4456953125,2.3258828125,-0.0706523437500004,-0.43038671875,3.86365234375,10.158671875,6.85507421875,2.9379375
-8.398625,-7.39153515625,-6.14433984375,-10.45005859375,-8.46667578125,-6.3729140625,-10.08409765625,-14.72570703125,-11.70431640625,-4.03337109375,-7.49990625,-10.236078125,-7.60951953125,-9.6899140625,-6.11540234375,-4.87444140625,-19.763765625,-4.52358984375,-4.22251171875,-9.436796875,-3.934953125,-8.76902734375,-4.1586953125,0.6898828125,-0.55265234375,-0.19038671875,2.22865234375,8.631671875,5.59807421875,2.4079375
-10.880625,-10.54053515625,-8.85033984375,-12.64405859375,-11.46667578125,-9.5479140625,-12.20809765625,-16.02270703125,-13.49831640625,-6.89037109375,-10.11390625,-11.871078125,-8.85351953125,-11.0239140625,-8.22740234375,-6.65244140625,-20.626765625,-6.03958984375,-6.05651171875,-10.439796875,-3.882953125,-11.06502734375,-5.5856953125,-0.619117187500001,-1.03265234375,-0.22438671875,0.54965234375,6.657671875,3.96807421875,1.3079375
-12.834625,-13.19353515625,-11.25833984375,-14.70805859375,-14.12867578125,-12.5579140625,-14.36609765625,-17.00270703125,-15.24031640625,-9.70537109375,-12.87890625,-14.119078125,-10.09551953125,-12.1349140625,-10.34040234375,-8.94344140625,-21.433765625,-7.45158984375,-7.72451171875,-11.452796875,-4.151953125,-13.45702734375,-6.7386953125,-1.7471171875,-1.63165234375,-0.52838671875,-1.10834765625,4.452671875,2.20007421875,-0.0990624999999996
-14.030625,-14.74053515625,-12.86933984375,-16.26105859375,-15.90967578125,-14.6229140625,-16.28009765625,-17.80970703125,-16.83931640625,-11.79537109375,-15.15990625,-16.573078125,-11.07151953125,-12.9459140625,-12.06340234375,-11.31244140625,-22.047765625,-8.51158984375,-8.98951171875,-12.341796875,-4.684953125,-15.24002734375,-7.4836953125,-2.6651171875,-2.29365234375,-0.951386718749999,-2.49734765625,2.443671875,0.70207421875,-1.4180625
-14.199625,-14.77953515625,-13.21333984375,-16.93805859375,-16.38767578125,-15.0989140625,-17.42909765625,-18.22270703125,-18.02131640625,-12.52737109375,-16.22790625,-18.414078125,-11.37051953125,-13.3029140625,-12.82640234375,-13.08344140625,-22.125765625,-8.92358984375,-9.53651171875,-12.728796875,-5.186953125,-15.78102734375,-7.5756953125,-3.1891171875,-2.80065234375,-1.22638671875,-3.27734765625,1.107671875,-0.10492578125,-2.2680625
-13.255625,-13.35453515625,-12.14033984375,-16.58805859375,-15.47367578125,-13.7819140625,-17.35609765625,-17.92670703125,-18.51331640625,-11.60337109375,-15.61990625,-18.855078125,-10.69451953125,-13.0569140625,-12.18540234375,-13.64144140625,-21.363765625,-8.47358984375,-9.10751171875,-12.203796875,-5.290953125,-14.79502734375,-6.7816953125,-3.0871171875,-2.89865234375,-1.07538671875,-3.18934765625,0.774671875,0.0200742187499996,-2.4310625
-11.446625,-11.02553515625,-9.99233984375,-15.38905859375,-13.49067578125,-11.0559140625,-15.96109765625,-16.82370703125,-18.19831640625,-9.24437109375,-13.40690625,-17.583078125,-9.07651953125,-12.1559140625,-10.07940234375,-12.73444140625,-19.759765625,-7.14958984375,-7.63951171875,-10.573796875,-4.746953125,-12.50202734375,-5.0406953125,-2.2341171875,-2.43165234375,-0.34138671875,-2.20834765625,1.455671875,1.00107421875,-1.9230625
-9.351625,-8.69553515625,-7.55733984375,-13.80105859375,-11.06767578125,-7.7869140625,-13.60509765625,-15.19170703125,-17.19531640625,-6.15137109375,-10.20890625,-14.958078125,-6.92551953125,-10.6999140625,-6.91440234375,-10.58444140625,-17.704765625,-5.20158984375,-5.34151171875,-7.996796875,-3.542953125,-9.59202734375,-2.5706953125,-0.7051171875,-1.41165234375,0.93361328125,-0.61234765625,2.798671875,2.45307421875,-0.9610625
-7.705625,-7.26653515625,-5.76533984375,-12.36505859375,-8.89367578125,-4.9889140625,-10.99109765625,-13.62170703125,-15.83231640625,-3.23637109375,-6.93690625,-11.855078125,-4.87551953125,-8.9419140625,-3.43040234375,-7.77544140625,-15.842765625,-3.09958984375,-2.65051171875,-4.945796875,-1.885953125,-6.98302734375,0.1523046875,1.2208828125,0.00234765624999977,2.51861328125,1.11265234375,4.203671875,3.83507421875,0.1489375
-7.100625,-7.25253515625,-5.28233984375,-11.45705859375,-7.45467578125,-3.4059140625,-8.85009765625,-12.72870703125,-14.50131640625,-1.25437109375,-4.40990625,-9.254078125,-3.52151953125,-7.2179140625,-0.412402343749999,-4.98544140625,-14.757765625,-1.38458984375,-0.10451171875,-2.023796875,-0.0889531250000001,-5.46402734375,2.5263046875,3.1588828125,1.58434765625,4.09961328125,2.46265234375,5.071671875,4.69407421875,1.1579375
-7.693625,-8.55253515625,-6.19233984375,-11.12505859375,-6.87267578125,-3.2269140625,-7.62809765625,-12.81270703125,-13.47331640625,-0.51737109375,-3.04190625,-7.811078125,-3.16651953125,-5.8479140625,1.59559765625,-2.73444140625,-14.679765625,-0.47058984375,1.82548828125,0.255203125,1.565046875,-5.38202734375,4.0423046875,4.7478828125,3.10534765625,5.40561328125,3.12265234375,5.078671875,4.86907421875,1.9729375
-9.116625,-10.51453515625,-7.96433984375,-11.10705859375,-6.91867578125,-4.0629140625,-7.33209765625,-13.70170703125,-12.80931640625,-0.81937109375,-2.76190625,-7.629078125,-3.72751953125,-5.0399140625,2.44759765625,-1.25244140625,-15.372765625,-0.49458984375,2.86848828125,1.623203125,2.906046875,-6.53302734375,4.4673046875,5.7578828125,4.37834765625,6.30561328125,3.09165234375,4.345671875,4.55207421875,2.6759375
-10.659625,-12.25853515625,-9.72033984375,-11.01305859375,-7.18267578125,-5.1889140625,-7.60609765625,-14.88370703125,-12.41931640625,-1.61137109375,-3.14290625,-8.319078125,-4.82551953125,-4.8419140625,2.36159765625,-0.50444140625,-16.294765625,-1.28558984375,2.99748828125,2.099203125,3.878046875,-8.30002734375,3.9063046875,6.1318828125,5.26434765625,6.82461328125,2.64665234375,3.372671875,4.16707421875,3.4419375
-11.616625,-13.10753515625,-10.67033984375,-10.58405859375,-7.30767578125,-5.9229140625,-7.95309765625,-15.79170703125,-12.20631640625,-2.31537109375,-3.67490625,-9.273078125,-6.00251953125,-5.1619140625,1.74559765625,-0.30644140625,-16.892765625,-2.47558984375,2.37548828125,1.902203125,4.483046875,-9.96502734375,2.7133046875,5.9528828125,5.68234765625,7.08561328125,2.16865234375,2.773671875,4.13607421875,4.4149375
-11.608625,-12.89053515625,-10.46933984375,-9.87305859375,-7.16067578125,-5.9349140625,-7.98709765625,-16.06070703125,-12.17531640625,-2.61537109375,-4.00090625,-9.979078125,-6.90051953125,-5.8219140625,0.992597656250001,-0.45044140625,-16.866765625,-3.67558984375,1.25348828125,1.321203125,4.743046875,-11.02202734375,1.3053046875,5.3888828125,5.62934765625,7.21161328125,1.94265234375,2.960671875,4.66607421875,5.6049375
-10.707625,-11.94253515625,-9.32233984375,-9.21405859375,-6.85167578125,-5.3399140625,-7.58009765625,-15.63770703125,-12.42431640625,-2.55837109375,-4.04590625,-10.234078125,-7.32651953125,-6.6169140625,0.334597656250001,-0.77344140625,-16.257765625,-4.61658984375,-0.10451171875,0.591203125000001,4.683046875,-11.31202734375,0.0023046874999999,4.6388828125,5.18734765625,7.26161328125,2.05165234375,3.964671875,5.68207421875,6.8789375
-9.328625,-10.85253515625,-7.81133984375,-9.00805859375,-6.61567578125,-4.5629140625,-6.88609765625,-14.76370703125,-13.03131640625,-2.44737109375,-3.98490625,-10.157078125,-7.22651953125,-7.3439140625,-0.178402343749999,-1.18344140625,-15.344765625,-5.17658984375,-1.44351171875,-0.158796874999999,4.341046875,-10.95402734375,-1.0176953125,3.8918828125,4.51534765625,7.23061328125,2.40865234375,5.485671875,6.91907421875,8.0269375
-7.983625,-10.12653515625,-6.56133984375,-9.44605859375,-6.64967578125,-4.0759140625,-6.23709765625,-13.82770703125,-13.93031640625,-2.60237109375,-4.11590625,-10.052078125,-6.65251953125,-7.8289140625,-0.628402343749999,-1.64544140625,-14.459765625,-5.33258984375,-2.53751171875,-0.892796875,3.772046875,-10.15602734375,-1.6806953125,3.2968828125,3.80534765625,7.09861328125,2.85865234375,7.108671875,8.07707421875,8.8659375
-7.027625,-9.96853515625,-5.94833984375,-10.37705859375,-6.99467578125,-4.1799140625,-5.97309765625,-13.17270703125,-14.87031640625,-3.18337109375,-4.71190625,-10.202078125,-5.75851953125,-7.9719140625,-1.13840234375,-2.18044140625,-13.829765625,-5.10458984375,-3.22851171875,-1.640796875,3.036046875,-9.07502734375,-1.9546953125,2.9278828125,3.20134765625,6.85661328125,3.26565234375,8.504671875,8.94107421875,9.2949375
-6.532625,-10.26153515625,-5.98433984375,-11.37205859375,-7.52167578125,-4.8999140625,-6.28109765625,-12.94470703125,-15.50631640625,-4.12137109375,-5.89790625,-10.722078125,-4.80051953125,-7.7779140625,-1.79140234375,-2.84244140625,-13.516765625,-4.54458984375,-3.48851171875,-2.447796875,2.176046875,-7.77602734375,-1.8326953125,2.7688828125,2.74234765625,6.51161328125,3.54265234375,9.535671875,9.42607421875,9.2999375
-6.346625,-10.71053515625,-6.38233984375,-11.94105859375,-8.01367578125,-6.0259140625,-7.13509765625,-13.07870703125,-15.58031640625,-5.18237109375,-7.58390625,-11.529078125,-4.09851953125,-7.3649140625,-2.58140234375,-3.66144140625,-13.442765625,-3.74258984375,-3.42751171875,-3.319796875,1.235046875,-6.28502734375,-1.3446953125,2.7288828125,2.37134765625,6.09261328125,3.64465234375,10.230671875,9.55707421875,8.9269375
-6.262625,-11.04053515625,-6.77333984375,-11.77105859375,-8.28267578125,-7.2609140625,-8.34309765625,-13.38870703125,-15.06131640625,-6.10337109375,-9.49190625,-12.411078125,-3.93151953125,-6.9229140625,-3.42540234375,-4.59844140625,-13.454765625,-2.84658984375,-3.24051171875,-4.197796875,0.279046875,-4.68602734375,-0.5876953125,2.6948828125,1.99734765625,5.66061328125,3.56165234375,10.685671875,9.41907421875,8.2519375
-6.184625,-11.15353515625,-6.92733984375,-10.88605859375,-8.28567578125,-8.3969140625,-9.66309765625,-13.69570703125,-14.17131640625,-6.74037109375,-11.28290625,-13.160078125,-4.40951953125,-6.6599140625,-4.23140234375,-5.54044140625,-13.423765625,-2.06358984375,-3.13851171875,-4.962796875,-0.590953125,-3.17302734375,0.2593046875,2.5768828125,1.57034765625,5.31861328125,3.31165234375,10.951671875,9.10407421875,7.3729375
-6.195625,-11.16353515625,-6.88533984375,-9.66005859375,-8.16667578125,-9.4259140625,-10.92009765625,-13.91270703125,-13.27931640625,-7.15937109375,-12.72390625,-13.675078125,-5.40951953125,-6.7589140625,-4.98040234375,-6.35744140625,-13.291765625,-1.62858984375,-3.28051171875,-5.505796875,-1.256953125,-2.04202734375,0.9553046875,2.3358828125,1.11034765625,5.18561328125,2.93765234375,10.979671875,8.67107421875,6.4109375
-6.518625,-11.33153515625,-6.93033984375,-8.67605859375,-8.20767578125,-10.5179140625,-12.06409765625,-14.08470703125,-12.74631640625,-7.60737109375,-13.77790625,-13.993078125,-6.63551953125,-7.3259140625,-5.75540234375,-6.97144140625,-13.084765625,-1.71258984375,-3.74151171875,-5.787796875,-1.638953125,-1.58502734375,1.2623046875,1.9968828125,0.70534765625,5.36761328125,2.50165234375,10.651671875,8.15707421875,5.5299375
-7.398625,-11.93153515625,-7.42533984375,-8.47905859375,-8.69867578125,-11.8819140625,-13.16209765625,-14.37070703125,-12.79031640625,-8.37737109375,-14.58290625,-14.250078125,-7.77851953125,-8.3519140625,-6.69540234375,-7.38544140625,-12.865765625,-2.33158984375,-4.50251171875,-5.880796875,-1.732953125,-1.94602734375,1.0373046875,1.6258828125,0.46534765625,5.91961328125,2.08265234375,9.876671875,7.59907421875,4.9429375
-8.962625,-13.12353515625,-8.61233984375,-9.34805859375,-9.80367578125,-13.6289140625,-14.32109765625,-14.94670703125,-13.43631640625,-9.66337109375,-15.35490625,-14.605078125,-8.66551953125,-9.7139140625,-7.91140234375,-7.66544140625,-12.676765625,-3.32158984375,-5.48551171875,-5.947796875,-1.621953125,-3.03602734375,0.2823046875,1.2958828125,0.45634765625,6.81461328125,1.74365234375,8.671671875,7.05107421875,4.8609375
-11.100625,-14.86953515625,-10.46333984375,-11.18105859375,-11.46567578125,-15.6879140625,-15.60309765625,-15.85670703125,-14.52431640625,-11.48237109375,-16.28090625,-15.182078125,-9.30451953125,-11.2119140625,-9.42140234375,-7.91744140625,-12.508765625,-4.41758984375,-6.59851171875,-6.187796875,-1.445953125,-4.56402734375,-0.8676953125,1.0288828125,0.63734765625,7.91361328125,1.48765234375,7.190671875,6.55707421875,5.3959375
-13.437625,-16.89553515625,-12.64533984375,-13.51905859375,-13.40467578125,-17.8099140625,-16.94709765625,-16.92070703125,-15.77731640625,-13.65437109375,-17.42490625,-15.998078125,-9.78951953125,-12.6309140625,-11.12540234375,-8.23344140625,-12.301765625,-5.36958984375,-7.75851171875,-6.751796875,-1.342953125,-6.14602734375,-2.1966953125,0.7898828125,0.85534765625,8.99561328125,1.24265234375,5.672671875,6.12207421875,6.4519375
-15.428625,-18.73853515625,-14.60933984375,-15.70005859375,-15.17767578125,-19.6339140625,-18.16109765625,-17.77470703125,-16.89131640625,-15.82137109375,-18.67490625,-16.941078125,-10.14551953125,-13.7929140625,-12.80240234375,-8.63944140625,-11.983765625,-6.02958984375,-8.86551171875,-7.648796875,-1.397953125,-7.44402734375,-3.4506953125,0.5118828125,0.91434765625,9.81961328125,0.90565234375,4.363671875,5.69807421875,7.7089375
-16.543625,-19.89253515625,-15.80233984375,-17.10105859375,-16.32567578125,-20.7949140625,-18.97809765625,-18.03370703125,-17.60931640625,-17.53737109375,-19.76890625,-17.795078125,-10.24851953125,-14.5819140625,-14.16440234375,-9.08744140625,-11.530765625,-6.36958984375,-9.78551171875,-8.718796875,-1.622953125,-8.27402734375,-4.3886953125,0.142882812499999,0.67234765625,10.19661328125,0.39965234375,3.442671875,5.20907421875,8.7109375
-16.479625,-20.01253515625,-15.90533984375,-17.39705859375,-16.55267578125,-21.0699140625,-19.18009765625,-17.46870703125,-17.78931640625,-18.41937109375,-20.41190625,-18.332078125,-9.88751953125,-14.9569140625,-14.95640234375,-9.48844140625,-11.003765625,-6.45258984375,-10.37551171875,-9.694796875,-1.985953125,-8.62602734375,-4.8406953125,-0.321117187500001,0.10234765625,10.03561328125,-0.26834765625,2.961671875,4.59707421875,9.0409375
-15.289625,-19.07153515625,-14.96633984375,-16.68305859375,-15.84567578125,-20.4679140625,-18.70909765625,-16.12270703125,-17.42531640625,-18.29937109375,-20.41090625,-18.402078125,-8.91851953125,-14.9199140625,-15.05440234375,-9.75644140625,-10.522765625,-6.33958984375,-10.52251171875,-10.314796875,-2.441953125,-8.60702734375,-4.7216953125,-0.8141171875,-0.67665234375,9.36261328125,-0.97034765625,2.875671875,3.88607421875,8.5349375
-13.355625,-17.35753515625,-13.35533984375,-15.36005859375,-14.45267578125,-19.2059140625,-17.69309765625,-14.31070703125,-16.60731640625,-17.25937109375,-19.74090625,-17.974078125,-7.37951953125,-14.4499140625,-14.48540234375,-9.81044140625,-10.175765625,-5.99758984375,-10.15151171875,-10.395796875,-2.920953125,-8.30202734375,-4.0126953125,-1.1821171875,-1.39565234375,8.34461328125,-1.44034765625,3.122671875,3.25007421875,7.4359375
-11.225625,-15.33253515625,-11.57033984375,-13.87505859375,-12.74567578125,-17.5909140625,-16.37309765625,-12.50570703125,-15.45631640625,-15.57037109375,-18.52390625,-17.108078125,-5.50351953125,-13.4809140625,-13.38640234375,-9.56744140625,-9.953765625,-5.28458984375,-9.23451171875,-9.867796875,-3.306953125,-7.69102734375,-2.7366953125,-1.2081171875,-1.69365234375,7.26761328125,-1.35034765625,3.705671875,2.99307421875,6.3559375
-9.410625,-13.45853515625,-10.04433984375,-12.50305859375,-11.08867578125,-15.9299140625,-15.01109765625,-11.16570703125,-14.08831640625,-13.60337109375,-16.99790625,-15.943078125,-3.65451953125,-11.9749140625,-11.96840234375,-8.97344140625,-9.774765625,-4.05958984375,-7.84551171875,-8.798796875,-3.455953125,-6.68202734375,-1.0096953125,-0.7391171875,-1.27465234375,6.43761328125,-0.47834765625,4.678671875,3.42507421875,6.0199375
-8.242625,-12.07253515625,-9.04533984375,-11.32705859375,-9.75567578125,-14.4889140625,-13.82309765625,-10.59370703125,-12.64231640625,-11.77437109375,-15.49190625,-14.686078125,-2.22451953125,-10.0689140625,-10.52040234375,-8.08344140625,-9.582765625,-2.37058984375,-6.24851171875,-7.422796875,-3.274953125,-5.24902734375,0.8783046875,0.1568828125,-0.0896523437500003,6.03361328125,1.10665234375,6.038671875,4.66307421875,6.8769375
-7.820625,-11.30953515625,-8.64233984375,-10.33805859375,-8.90567578125,-13.4679140625,-12.93909765625,-10.87870703125,-11.32931640625,-10.45837109375,-14.35190625,-13.597078125,-1.51051953125,-8.1409140625,-9.39440234375,-7.09144140625,-9.408765625,-0.53258984375,-4.88951171875,-6.110796875,-2.797953125,-3.54902734375,2.4793046875,1.1398828125,1.56934765625,6.02361328125,2.98765234375,7.628671875,6.50407421875,8.8159375
-8.013625,-11.07053515625,-8.71333984375,-9.53305859375,-8.54567578125,-12.9369140625,-12.36809765625,-11.90170703125,-10.39731640625,-9.86437109375,-13.79190625,-12.900078125,-1.59351953125,-6.6959140625,-8.89840234375,-6.26044140625,-9.361765625,0.97541015625,-4.22951171875,-5.237796875,-2.187953125,-1.89902734375,3.3463046875,1.7488828125,3.16934765625,6.19961328125,4.56965234375,9.138671875,8.47007421875,11.1799375
-8.502625,-11.05653515625,-8.99033984375,-8.94605859375,-8.51567578125,-12.7699140625,-11.97109765625,-13.35970703125,-10.01531640625,-9.92537109375,-13.77390625,-12.678078125,-2.27551953125,-6.1279140625,-9.13040234375,-5.78544140625,-9.534765625,1.73741015625,-4.48551171875,-4.999796875,-1.658953125,-0.64802734375,3.2703046875,1.6648828125,4.18734765625,6.29961328125,5.36465234375,10.224671875,10.01507421875,13.0649375
-8.891625,-10.88953515625,-9.16333984375,-8.62205859375,-8.54867578125,-12.6799140625,-11.51309765625,-14.84270703125,-10.14931640625,-10.31137109375,-13.99490625,-12.814078125,-3.14951953125,-6.4929140625,-9.87140234375,-5.68044140625,-9.931765625,1.60741015625,-5.46951171875,-5.296796875,-1.358953125,-0.0230273437499999,2.4203046875,0.9208828125,4.35934765625,6.15161328125,5.23165234375,10.654671875,10.76307421875,13.7499375
-8.879625,-10.29453515625,-9.01733984375,-8.57405859375,-8.37867578125,-12.3349140625,-10.78809765625,-15.97270703125,-10.55931640625,-10.56037109375,-14.02290625,-13.039078125,-3.77551953125,-7.4619140625,-10.63940234375,-5.76344140625,-10.447765625,0.769410156249999,-6.64051171875,-5.774796875,-1.299953125,-0.0640273437500003,1.2923046875,-0.1021171875,3.79534765625,5.75161328125,4.41165234375,10.408671875,10.64307421875,13.0029375
-8.399625,-9.22553515625,-8.52333984375,-8.74005859375,-7.83367578125,-11.5019140625,-9.73909765625,-16.56270703125,-10.89031640625,-10.25837109375,-13.47590625,-13.048078125,-3.87351953125,-8.4469140625,-10.88540234375,-5.73444140625,-10.910765625,-0.356589843750001,-7.33951171875,-5.993796875,-1.356953125,-0.640027343749999,0.4913046875,-0.8781171875,2.90334765625,5.27061328125,3.36765234375,9.668671875,9.86307421875,11.1429375
-7.627625,-7.86753515625,-7.82433984375,-8.95905859375,-6.85767578125,-10.1109140625,-8.47309765625,-16.65770703125,-10.79831640625,-9.18437109375,-12.16490625,-12.609078125,-3.43451953125,-8.8549140625,-10.23240234375,-5.29644140625,-11.140765625,-1.29858984375,-7.09651171875,-5.629796875,-1.317953125,-1.50702734375,0.4543046875,-1.0201171875,2.19234765625,4.98961328125,2.54165234375,8.729671875,8.77507421875,8.8569375
-6.852625,-6.52053515625,-7.12933984375,-8.99405859375,-5.48567578125,-8.2419140625,-7.16609765625,-16.43070703125,-10.06131640625,-7.37937109375,-10.13890625,-11.640078125,-2.67951953125,-8.3319140625,-8.62940234375,-4.27944140625,-11.002765625,-1.73558984375,-5.84051171875,-4.608796875,-0.971953125,-2.39902734375,1.2573046875,-0.4681171875,2.03934765625,5.18561328125,2.15965234375,7.851671875,7.71007421875,6.9059375
-6.305625,-5.43153515625,-6.59733984375,-8.60405859375,-3.80867578125,-6.0719140625,-5.95309765625,-16.04670703125,-8.63931640625,-5.12637109375,-7.65890625,-10.219078125,-1.92651953125,-6.9079140625,-6.37440234375,-2.71444140625,-10.445765625,-1.60758984375,-3.92151171875,-3.114796875,-0.201953125,-3.09102734375,2.5883046875,0.5038828125,2.54834765625,6.02561328125,2.19065234375,7.159671875,6.87207421875,5.8549375
-6.063625,-4.68553515625,-6.26833984375,-7.64805859375,-1.96467578125,-3.8219140625,-4.86909765625,-15.59570703125,-6.71431640625,-2.85537109375,-5.10090625,-8.556078125,-1.44851953125,-4.9769140625,-3.98940234375,-0.84544140625,-9.514765625,-1.11258984375,-1.95051171875,-1.501796875,0.941046875,-3.44902734375,3.8943046875,1.4508828125,3.55534765625,7.50761328125,2.44465234375,6.622671875,6.31307421875,5.9439375
-6.044625,-4.19453515625,-6.06333984375,-6.17305859375,-0.14267578125,-1.7399140625,-3.87809765625,-15.09170703125,-4.64831640625,-1.01637109375,-2.86190625,-6.918078125,-1.38151953125,-3.1309140625,-2.04640234375,0.93955859375,-8.356765625,-0.57958984375,-0.54751171875,-0.156796875,2.238046875,-3.42202734375,4.6263046875,1.9718828125,4.73534765625,9.44461328125,2.71365234375,6.141671875,5.97507421875,7.0749375
-6.079625,-3.78253515625,-5.86533984375,-4.45205859375,1.40832421875,-0.0869140625000009,-2.94709765625,-14.51170703125,-2.88531640625,0.0336289062499997,-1.28890625,-5.553078125,-1.71451953125,-1.9339140625,-0.992402343749999,2.21255859375,-7.194765625,-0.31158984375,-0.13351171875,0.612203125000001,3.351046875,-3.01202734375,4.4573046875,1.8568828125,5.73434765625,11.49661328125,2.86865234375,5.656671875,5.75507421875,8.8789375
-6.013625,-3.31953515625,-5.60433984375,-2.94705859375,2.41532421875,0.885085937499999,-2.12109765625,-13.83670703125,-1.81231640625,0.10762890625,-0.61590625,-4.631078125,-2.32351953125,-1.7219140625,-1.04540234375,2.63355859375,-6.278765625,-0.46258984375,-0.815511718750001,0.628203125000001,3.934046875,-2.25402734375,3.3803046875,1.1038828125,6.25834765625,13.23861328125,2.86365234375,5.215671875,5.55807421875,10.8319375
-5.795625,-2.79853515625,-5.30033984375,-2.14705859375,2.65332421875,1.0130859375,-1.53909765625,-13.09170703125,-1.65831640625,-0.75537109375,-0.88890625,-4.207078125,-3.01851953125,-2.5049140625,-2.14140234375,2.07455859375,-5.809765625,-0.98758984375,-2.39051171875,-0.129796874999999,3.753046875,-1.22102734375,1.6833046875,-0.139117187500001,6.13634765625,14.27961328125,2.69965234375,4.943671875,5.33507421875,12.4079375
-5.508625,-2.33853515625,-5.04533984375,-2.37805859375,2.04532421875,0.305085937499999,-1.36109765625,-12.33970703125,-2.43031640625,-2.29237109375,-1.91490625,-4.216078125,-3.58851953125,-3.9739140625,-3.95240234375,0.70455859375,-5.846765625,-1.66858984375,-4.41351171875,-1.501796875,2.800046875,-0.0390273437499999,-0.1766953125,-1.6311171875,5.37734765625,14.40061328125,2.40265234375,4.968671875,5.08807421875,13.2459375
-5.313625,-2.11753515625,-4.94533984375,-3.65005859375,0.71832421875,-1.0359140625,-1.66209765625,-11.64070703125,-3.90931640625,-4.08337109375,-3.28790625,-4.509078125,-3.88451953125,-5.6219140625,-5.96440234375,-1.04044140625,-6.262765625,-2.20658984375,-6.33251171875,-3.149796875,1.335046875,1.11097265625,-1.7286953125,-3.0711171875,4.17434765625,13.64261328125,2.01365234375,5.316671875,4.85007421875,13.2479375
-5.361625,-2.27653515625,-5.07433984375,-5.64805859375,-1.02367578125,-2.6809140625,-2.35909765625,-11.00870703125,-5.70431640625,-5.68937109375,-4.53190625,-4.919078125,-3.90551953125,-6.9299140625,-7.63240234375,-2.61044140625,-6.783765625,-2.35058984375,-7.65351171875,-4.617796875,-0.204953125,2.02197265625,-2.6426953125,-4.1471171875,2.84534765625,12.28161328125,1.58765234375,5.864671875,4.63207421875,12.5539375
-5.712625,-2.82453515625,-5.42833984375,-7.83305859375,-2.77667578125,-4.2809140625,-3.23009765625,-10.43070703125,-7.37431640625,-6.78137109375,-5.26790625,-5.317078125,-3.82051953125,-7.5389140625,-8.55440234375,-3.54144140625,-7.111765625,-2.00058984375,-8.09051171875,-5.467796875,-1.370953125,2.53097265625,-2.8106953125,-4.5971171875,1.71834765625,10.72661328125,1.17965234375,6.368671875,4.39107421875,11.4199375
-6.279625,-3.59353515625,-5.90233984375,-9.61605859375,-4.13267578125,-5.5429140625,-3.97509765625,-9.88070703125,-8.55031640625,-7.20137109375,-5.33690625,-5.605078125,-3.85351953125,-7.3529140625,-8.58440234375,-3.61044140625,-7.055765625,-1.23658984375,-7.63951171875,-5.418796875,-1.877953125,2.59497265625,-2.3506953125,-4.2981171875,1.02434765625,9.38261328125,0.84465234375,6.574671875,4.04207421875,10.0899375
-6.829625,-4.26153515625,-6.28933984375,-10.52105859375,-4.76867578125,-6.2579140625,-4.29209765625,-9.31070703125,-9.01631640625,-6.96037109375,-4.79390625,-5.679078125,-4.10151953125,-6.5309140625,-7.82940234375,-2.87544140625,-6.583765625,-0.27058984375,-6.54251171875,-4.445796875,-1.675953125,2.32897265625,-1.5266953125,-3.3181171875,0.84534765625,8.54361328125,0.63465234375,6.340671875,3.52107421875,8.7259375
-7.040625,-4.47253515625,-6.33433984375,-10.32805859375,-4.52167578125,-6.2959140625,-3.95609765625,-8.60370703125,-8.72831640625,-6.18437109375,-3.83190625,-5.421078125,-4.43351953125,-5.4049140625,-6.57540234375,-1.61444140625,-5.782765625,0.636410156249999,-5.18651171875,-2.790796875,-0.924953125,1.95197265625,-0.6466953125,-1.9241171875,1.11334765625,8.32961328125,0.58665234375,5.685671875,2.82807421875,7.4029375
-6.642625,-3.98453515625,-5.83333984375,-9.14605859375,-3.44467578125,-5.6169140625,-2.90009765625,-7.59570703125,-7.81831640625,-5.06737109375,-2.66990625,-4.767078125,-4.57051953125,-4.3459140625,-5.16440234375,-0.20544140625,-4.764765625,1.25341015625,-3.97551171875,-0.894796874999999,0.088046875,1.67797265625,0.0183046874999999,-0.5231171875,1.64634765625,8.67361328125,0.69165234375,4.746671875,2.03507421875,6.1399375
-5.549625,-2.78553515625,-4.72433984375,-7.37605859375,-1.80567578125,-4.2869140625,-1.25309765625,-6.15970703125,-6.57931640625,-3.81737109375,-1.47290625,-3.771078125,-4.27451953125,-3.6469140625,-3.90940234375,0.99455859375,-3.595765625,1.43941015625,-3.21251171875,0.744203125,1.059046875,1.60697265625,0.2873046875,0.4678828125,2.21534765625,9.38061328125,0.88665234375,3.692671875,1.25907421875,4.9419375
-3.906625,-1.08853515625,-3.11333984375,-5.58205859375,-0.00867578125000001,-2.4969140625,0.708902343749999,-4.28070703125,-5.39231640625,-2.63837109375,-0.33690625,-2.610078125,-3.50951953125,-3.4289140625,-3.02440234375,1.75855859375,-2.284765625,1.18141015625,-3.01951171875,1.728203125,1.766046875,1.69697265625,0.1163046875,0.7748828125,2.61434765625,10.20161328125,1.08965234375,2.666671875,0.64607421875,3.8499375
-2.008625,0.77046484375,-1.23733984375,-4.27705859375,1.53732421875,-0.544914062500001,2.67990234375,-2.07070703125,-4.58831640625,-1.70337109375,0.68809375,-1.473078125,-2.47051953125,-3.6089140625,-2.58540234375,2.05055859375,-0.813765624999997,0.604410156249999,-3.30151171875,1.896203125,2.133046875,1.80797265625,-0.3826953125,0.4018828125,2.73434765625,10.91461328125,1.26365234375,1.783671875,0.34707421875,2.9669375
-0.173625,2.48246484375,0.635660156249999,-3.72005859375,2.54332421875,1.2280859375,4.43390234375,0.281292968749998,-4.30731640625,-1.13337109375,1.56209375,-0.453078125000001,-1.47051953125,-3.9279140625,-2.51440234375,2.01755859375,0.806234375000003,-0.0575898437500002,-3.77651171875,1.383203125,2.240046875,1.79397265625,-0.9586953125,-0.3551171875,2.60534765625,11.36661328125,1.44365234375,1.151671875,0.47907421875,2.4399375
1.360375,3.86946484375,2.28466015625,-3.80105859375,2.92232421875,2.5240859375,5.85290234375,2.55529296875,-4.42131640625,-0.96237109375,2.24709375,0.511921874999999,-0.75451953125,-4.0549140625,-2.61440234375,1.92155859375,2.498234375,-0.521589843750001,-4.07151171875,0.550203125,2.246046875,1.58697265625,-1.3076953125,-1.0221171875,2.36734765625,11.47561328125,1.70865234375,0.863671875000001,1.06807421875,2.3699375
2.486375,4.89446484375,3.57766015625,-4.09305859375,2.78632421875,3.1600859375,6.89990234375,4.55529296875,-4.58731640625,-1.13337109375,2.70909375,1.581921875,-0.37051953125,-3.7259140625,-2.65640234375,2.01655859375,4.113234375,-0.55158984375,-3.87851171875,-0.169796874999999,2.285046875,1.22397265625,-1.2016953125,-1.1741171875,2.19134765625,11.19661328125,2.09465234375,0.951671875000001,1.98907421875,2.7199375
3.215375,5.59246484375,4.46866015625,-4.06205859375,2.38432421875,3.1010859375,7.57990234375,6.16029296875,-4.39131640625,-1.51437109375,2.92009375,2.895921875,-0.17651953125,-2.8659140625,-2.47640234375,2.42555859375,5.445234375,-0.0605898437500003,-3.08951171875,-0.468796875,2.380046875,0.808972656250001,-0.5906953125,-0.639117187500001,2.18034765625,10.49161328125,2.54065234375,1.355671875,2.98107421875,3.2879375
3.641375,5.99646484375,4.97266015625,-3.32205859375,2.00232421875,2.4540859375,7.91490234375,7.33829296875,-3.54431640625,-1.93237109375,2.88009375,4.457921875,0.0404804687500002,-1.6209140625,-2.03840234375,3.08955859375,6.288234375,0.85541015625,-1.84651171875,-0.268796875,2.446046875,0.45697265625,0.3823046875,0.4308828125,2.33734765625,9.34861328125,2.92765234375,1.941671875,3.75507421875,3.7979375
3.875375,6.10446484375,5.14266015625,-1.82805859375,1.86732421875,1.4390859375,7.92590234375,8.07829296875,-2.05031640625,-2.20437109375,2.62809375,6.072921875,0.40848046875,-0.2909140625,-1.43540234375,3.80555859375,6.491234375,1.93841015625,-0.461511718750001,0.280203125000001,2.357046875,0.25197265625,1.4553046875,1.6568828125,2.59634765625,7.83061328125,3.16665234375,2.576671875,4.13507421875,4.0579375
3.967375,5.89446484375,5.03266015625,0.10094140625,2.05632421875,0.321085937499999,7.60190234375,8.31529296875,-0.246316406250001,-2.19737109375,2.22909375,7.361921875,0.87648046875,0.7790859375,-0.857402343749999,4.30455859375,6.006234375,2.86041015625,0.71248828125,0.876203125,2.017046875,0.22397265625,2.3483046875,2.6018828125,2.84834765625,6.09961328125,3.24865234375,3.171671875,4.13107421875,4.0399375
3.871375,5.35146484375,4.65866015625,1.89394140625,2.44032421875,-0.716914062500001,6.88590234375,7.92829296875,1.31168359375,-1.92637109375,1.71209375,7.856921875,1.24248046875,1.2960859375,-0.542402343749999,4.33355859375,4.902234375,3.31241015625,1.36648828125,1.163203125,1.389046875,0.334972656250001,2.8133046875,2.8988828125,2.93234765625,4.35161328125,3.19265234375,3.658671875,3.87007421875,3.8239375
3.479375,4.49346484375,3.98466015625,2.95794140625,2.70432421875,-1.6719140625,5.69890234375,6.83729296875,2.07168359375,-1.61837109375,1.01609375,7.168921875,1.27148046875,1.0790859375,-0.734402343749999,3.69955859375,3.365234375,3.08341015625,1.27048828125,0.817203125000001,0.473046875,0.487972656249999,2.6503046875,2.3158828125,2.61534765625,2.71761328125,2.93665234375,3.947671875,3.47107421875,3.4589375
2.680375,3.37846484375,2.95766015625,2.91094140625,2.45132421875,-2.7369140625,3.99090234375,5.09129296875,1.70268359375,-1.65437109375,0.00409375000000001,5.179921875,0.85848046875,0.0800859374999998,-1.61740234375,2.32455859375,1.677234375,2.12541015625,0.296488281249999,-0.379796874999999,-0.708953125,0.561972656250001,1.7413046875,0.7708828125,1.63734765625,1.21861328125,2.32065234375,3.922671875,2.96407421875,2.8779375
1.424375,2.09546484375,1.57266015625,1.72394140625,1.34732421875,-4.1949140625,1.79290234375,2.87429296875,0.186683593750001,-2.42537109375,-1.47090625,2.147921875,0.0944804687499996,-1.6159140625,-3.26140234375,0.27055859375,0.161234375000003,0.56941015625,-1.55151171875,-2.471796875,-2.109953125,0.46997265625,0.0973046875000001,-1.6491171875,-0.15865234375,-0.18838671875,1.17165234375,3.503671875,2.32207421875,1.9559375
-0.247625,0.723464843750001,-0.0913398437500001,-0.31905859375,-0.747675781250001,-6.2739140625,-0.775097656250001,0.454292968749998,-2.21631640625,-4.16537109375,-3.49390625,-1.348078125,-0.80051953125,-3.8269140625,-5.59540234375,-2.28044140625,-0.926765624999998,-1.33158984375,-4.11851171875,-5.320796875,-3.649953125,0.17497265625,-2.1056953125,-4.6801171875,-2.68865234375,-1.52138671875,-0.54634765625,2.705671875,1.54407421875,0.6359375
-2.205625,-0.68453515625,-1.88633984375,-2.76205859375,-3.71567578125,-9.0179140625,-3.52409765625,-1.86970703125,-5.06531640625,-6.85737109375,-6.04690625,-4.617078125,-1.61751953125,-6.3249140625,-8.40740234375,-5.07144140625,-1.481765625,-3.29858984375,-7.11051171875,-8.618796875,-5.206953125,-0.32102734375,-4.5456953125,-7.9101171875,-5.57765234375,-2.71938671875,-2.63734765625,1.640671875,0.71707421875,-0.9490625
-4.226625,-2.06553515625,-3.61333984375,-5.11705859375,-7.15667578125,-12.2079140625,-6.23609765625,-3.82170703125,-7.84531640625,-10.18537109375,-8.96890625,-7.095078125,-2.22851953125,-8.8489140625,-11.35940234375,-7.81244140625,-1.567765625,-5.10258984375,-10.11151171875,-11.914796875,-6.597953125,-0.98802734375,-6.8096953125,-10.8291171875,-8.21965234375,-3.62838671875,-4.68234765625,0.489671875,0.0270742187500002,-2.4520625
-6.008625,-3.25953515625,-5.03033984375,-6.93605859375,-10.42667578125,-15.3459140625,-8.65609765625,-5.16370703125,-10.04431640625,-13.56037109375,-11.90790625,-8.494078125,-2.55151953125,-11.0829140625,-13.99640234375,-10.17444140625,-1.325765625,-6.55558984375,-12.61751171875,-14.652796875,-7.571953125,-1.74302734375,-8.4666953125,-12.9061171875,-9.93865234375,-4.03038671875,-6.15134765625,-0.532328124999999,-0.27992578125,-3.3970625
-7.194625,-3.98553515625,-5.85633984375,-7.85105859375,-12.77567578125,-17.7279140625,-10.47209765625,-5.69070703125,-11.23531640625,-16.21437109375,-14.32590625,-8.801078125,-2.46951953125,-12.6489140625,-15.78740234375,-11.76844140625,-0.833765624999998,-7.47058984375,-14.09951171875,-16.236796875,-7.835953125,-2.41202734375,-9.1536953125,-13.6931171875,-10.19365234375,-3.71538671875,-6.56734765625,-1.194328125,0.0310742187499997,-3.3430625
-7.452625,-3.92353515625,-5.82933984375,-7.64605859375,-13.56967578125,-18.6549140625,-11.34109765625,-5.23770703125,-11.16831640625,-17.40737109375,-15.59890625,-8.187078125,-1.82851953125,-13.1579140625,-16.23940234375,-12.20244140625,-0.0497656249999956,-7.65358984375,-14.12751171875,-16.187796875,-7.143953125,-2.75502734375,-8.6676953125,-12.9391171875,-8.76565234375,-2.59538671875,-5.66834765625,-1.287328125,1.08207421875,-2.0820625
-6.610625,-2.88353515625,-4.81333984375,-6.35105859375,-12.54567578125,-17.6869140625,-10.98409765625,-3.75870703125,-9.85831640625,-16.67437109375,-15.22590625,-6.909078125,-0.54851953125,-12.3399140625,-15.04540234375,-11.22044140625,1.129234375,-6.97058984375,-12.52651171875,-14.333796875,-5.450953125,-2.56602734375,-7.0376953125,-10.6981171875,-5.87065234375,-0.82338671875,-3.51634765625,-0.701328125,2.78907421875,0.2049375
-4.774625,-0.94453515625,-2.91333984375,-4.28105859375,-9.92467578125,-14.8269140625,-9.33909765625,-1.44370703125,-7.61731640625,-14.00137109375,-13.03390625,-5.253078125,1.25348046875,-10.1609140625,-12.22440234375,-8.84644140625,2.696234375,-5.43358984375,-9.46851171875,-10.948796875,-3.019953125,-1.79202734375,-4.5496953125,-7.3671171875,-2.12365234375,1.15761328125,-0.51934765625,0.491671875000001,4.82007421875,2.9429375
-2.335625,1.53946484375,-0.48433984375,-1.92605859375,-6.31767578125,-10.5239140625,-6.63409765625,1.24229296875,-4.96131640625,-9.83337109375,-9.28690625,-3.494078125,3.25048046875,-6.8799140625,-8.15140234375,-5.44144140625,4.429234375,-3.24658984375,-5.46351171875,-6.730796875,-0.399953125,-0.59702734375,-1.6846953125,-3.6181171875,1.62634765625,2.71861328125,2.66065234375,1.991671875,6.65707421875,5.3139375
0.181374999999999,4.08346484375,1.97966015625,0.235941406249999,-2.46467578125,-5.5009140625,-3.33109765625,3.71529296875,-2.40431640625,-4.92537109375,-4.62990625,-1.856078125,5.02648046875,-3.0049140625,-3.46640234375,-1.61044140625,5.935234375,-0.771589843750001,-1.23951171875,-2.578796875,1.758046875,0.68797265625,0.9843046875,-0.204117187500001,4.55834765625,3.27161328125,5.28565234375,3.344671875,7.75507421875,6.5519375
2.314375,6.25346484375,4.02466015625,1.91294140625,1.01532421875,-0.535914062500001,0.0129023437499995,5.49329296875,-0.27731640625,-0.13337109375,0.08909375,-0.476078125000001,6.26648046875,0.8240859375,1.08159765625,1.98255859375,6.831234375,1.56241015625,2.43648828125,0.703203125000001,2.953046875,1.69997265625,2.9463046875,2.2688828125,6.13334765625,2.53461328125,6.76865234375,4.101671875,7.74007421875,6.2299375
3.786375,7.79146484375,5.37466015625,3.05594140625,3.75132421875,3.7200859375,2.87390234375,6.35329296875,1.32368359375,3.79262890625,4.04309375,0.587921874999999,6.86748046875,3.9720859375,4.79159765625,4.81155859375,6.947234375,3.37741015625,4.94848828125,2.648203125,3.025046875,2.19297265625,3.8813046875,3.5068828125,6.23934765625,0.68461328125,6.86265234375,3.986671875,6.57207421875,4.4149375
4.508375,8.63246484375,5.97166015625,3.78994140625,5.59332421875,6.8110859375,4.84690234375,6.33129296875,2.47268359375,6.32862890625,6.62509375,1.317921875,6.94048046875,5.9400859375,7.13759765625,6.59855859375,6.410234375,4.42341015625,5.95948828125,3.198203125,2.192046875,2.12197265625,3.7383046875,3.5518828125,5.17334765625,-1.68838671875,5.71465234375,3.005671875,4.54607421875,1.6249375
4.526375,8.83946484375,5.90166015625,4.27194140625,6.52132421875,8.4790859375,5.69690234375,5.65029296875,3.28268359375,7.22762890625,7.56509375,1.689921875,6.73548046875,6.4720859375,7.84259765625,7.31255859375,5.559234375,4.60741015625,5.46048828125,2.607203125,0.918046875,1.61097265625,2.7113046875,2.6738828125,3.45334765625,-3.83438671875,3.76165234375,1.413671875,2.16007421875,-1.4020625
3.954375,8.51346484375,5.30866015625,4.56094140625,6.56632421875,8.6500859375,5.38790234375,4.60529296875,3.81068359375,6.52262890625,6.94309375,1.664921875,6.51148046875,5.6110859375,6.92259765625,7.08455859375,4.750234375,3.96241015625,3.73548828125,1.252203125,-0.317953125,0.84897265625,1.1273046875,1.2008828125,1.57734765625,-5.16638671875,1.51965234375,-0.419328125,-0.0979257812499998,-4.0060625
2.940375,7.76446484375,4.32566015625,4.58894140625,5.79932421875,7.4620859375,4.08690234375,3.46229296875,4.02268359375,4.52462890625,5.13809375,1.223921875,6.42148046875,3.6990859375,4.70359765625,6.11455859375,4.186234375,2.60941015625,1.26448828125,-0.518796875,-1.229953125,-0.031027343749999,-0.6826953125,-0.6011171875,-0.15465234375,-5.48038671875,-0.61434765625,-2.163328125,-1.90592578125,-5.8010625
1.657375,6.71746484375,3.07766015625,4.23094140625,4.37832421875,5.2940859375,2.13890234375,2.40029296875,3.83168359375,1.78662890625,2.71609375,0.419921875,6.44248046875,1.2950859375,1.76359765625,4.62455859375,3.867234375,0.726410156249999,-1.39951171875,-2.450796875,-1.800953125,-1.00902734375,-2.4906953125,-2.5531171875,-1.66765234375,-4.96738671875,-2.44834765625,-3.636328125,-3.16392578125,-6.7260625
0.285375,5.52646484375,1.70966015625,3.40894140625,2.57232421875,2.7130859375,-0.0170976562500016,1.51929296875,3.16668359375,-1.00937109375,0.28309375,-0.613078125000001,6.40348046875,-1.0059140625,-1.20640234375,2.83855859375,3.672234375,-1.46758984375,-3.78551171875,-4.370796875,-2.205953125,-2.16402734375,-4.2076953125,-4.5411171875,-3.01665234375,-4.04538671875,-3.97534765625,-4.820328125,-3.95992578125,-6.9530625
-1.003625,4.34946484375,0.37366015625,2.15494140625,0.710324218749999,0.305085937499999,-1.96609765625,0.887292968749998,2.04068359375,-3.26537109375,-1.68790625,-1.706078125,6.08648046875,-2.7909140625,-3.61540234375,0.96255859375,3.488234375,-3.74258984375,-5.64251171875,-6.157796875,-2.653953125,-3.58602734375,-5.8636953125,-6.4671171875,-4.26565234375,-3.14138671875,-5.27434765625,-5.816328125,-4.48792578125,-6.7510625
-2.089625,3.30446484375,-0.78833984375,0.614941406249999,-0.914675781250001,-1.5229140625,-3.45409765625,0.547292968749998,0.557683593749999,-4.67437109375,-2.98490625,-2.739078125,5.36148046875,-3.9839140625,-5.16540234375,-0.836441406250001,3.290234375,-5.88458984375,-6.98451171875,-7.732796875,-3.266953125,-5.26202734375,-7.5336953125,-8.2431171875,-5.42565234375,-2.54038671875,-6.41734765625,-6.744328125,-4.96292578125,-6.3850625
-2.918625,2.46346484375,-1.66533984375,-0.965058593750001,-2.12767578125,-2.6439140625,-4.44109765625,0.477292968749998,-1.10931640625,-5.28537109375,-3.65490625,-3.669078125,4.27248046875,-4.8209140625,-5.89840234375,-2.44244140625,3.142234375,-7.69858984375,-7.99951171875,-9.039796875,-4.021953125,-6.97902734375,-9.2306953125,-9.7801171875,-6.43565234375,-2.32638671875,-7.39934765625,-7.647328125,-5.53692578125,-6.0510625
-3.460625,1.89546484375,-2.15533984375,-2.26405859375,-2.85167578125,-3.1489140625,-5.04309765625,0.588292968749998,-2.72331640625,-5.37837109375,-3.88890625,-4.473078125,3.05648046875,-5.6409140625,-6.08540234375,-3.75444140625,3.152234375,-8.99658984375,-8.85351171875,-10.002796875,-4.775953125,-8.32702734375,-10.8086953125,-10.9481171875,-7.16565234375,-2.41538671875,-8.10834765625,-8.418328125,-6.22692578125,-5.8480625
-3.640625,1.72446484375,-2.14033984375,-2.93805859375,-3.05167578125,-3.1939140625,-5.38009765625,0.807292968749998,-3.95731640625,-5.23737109375,-3.86390625,-5.054078125,2.07648046875,-6.6209140625,-5.99040234375,-4.66144140625,3.411234375,-9.57658984375,-9.52851171875,-10.486796875,-5.303953125,-8.80802734375,-11.9416953125,-11.5521171875,-7.44265234375,-2.63438671875,-8.35534765625,-8.818328125,-6.89092578125,-5.7700625
-3.325625,2.12146484375,-1.52033984375,-2.71505859375,-2.69667578125,-2.8609140625,-5.46609765625,1.14029296875,-4.44231640625,-4.96837109375,-3.63390625,-5.220078125,1.68548046875,-7.6139140625,-5.70340234375,-5.05244140625,3.939234375,-9.26658984375,-9.78451171875,-10.329796875,-5.384953125,-8.05202734375,-12.2196953125,-11.3611171875,-7.10765234375,-2.83438671875,-7.96234765625,-8.594328125,-7.28592578125,-5.7480625
-2.428625,3.19246484375,-0.297339843750001,-1.52705859375,-1.79067578125,-2.1309140625,-5.23209765625,1.62429296875,-3.90931640625,-4.47737109375,-3.15090625,-4.791078125,2.05348046875,-8.2229140625,-5.13040234375,-4.85544140625,4.622234375,-8.01958984375,-9.30551171875,-9.448796875,-4.901953125,-6.02802734375,-11.3576953125,-10.2371171875,-6.11265234375,-2.97638671875,-6.88934765625,-7.646328125,-7.21092578125,-5.7210625
-1.028625,4.84446484375,1.34266015625,0.424941406249999,-0.43967578125,-0.970914062500001,-4.62009765625,2.23529296875,-2.35131640625,-3.61137109375,-2.35490625,-3.749078125,3.06848046875,-8.0449140625,-4.14440234375,-4.10344140625,5.215234375,-6.01558984375,-7.91951171875,-7.967796875,-3.927953125,-3.14802734375,-9.3906953125,-8.2921171875,-4.62065234375,-3.15538671875,-5.31634765625,-6.161328125,-6.65192578125,-5.7040625
0.588374999999999,6.73446484375,3.02566015625,2.71194140625,1.13032421875,0.564085937499999,-3.65909765625,2.86629296875,-0.0613164062500005,-2.33037109375,-1.28490625,-2.317078125,4.36748046875,-6.9199140625,-2.76140234375,-2.95344140625,5.422234375,-3.66658984375,-5.77251171875,-6.243796875,-2.716953125,-0.159027343749999,-6.7506953125,-5.9491171875,-3.01365234375,-3.54138671875,-3.63534765625,-4.602328125,-5.85992578125,-5.8040625
2.045375,8.38246484375,4.31966015625,4.84494140625,2.64232421875,2.2820859375,-2.47309765625,3.40929296875,2.48968359375,-0.77937109375,-0.10890625,-0.889078125000001,5.52348046875,-5.0429140625,-1.20440234375,-1.66144140625,5.058234375,-1.50158984375,-3.32451171875,-4.756796875,-1.609953125,2.13597265625,-4.1296953125,-3.8381171875,-1.77365234375,-4.24838671875,-2.32434765625,-3.546328125,-5.26292578125,-6.1620625
3.049375,9.39346484375,4.92066015625,6.46294140625,3.88632421875,3.9040859375,-1.22909765625,3.83429296875,4.84768359375,0.78062890625,0.93409375,0.155921874999999,6.25448046875,-2.8749140625,0.171597656250001,-0.50544140625,4.193234375,0.0194101562499998,-1.18351171875,-3.904796875,-0.894953125,3.19397265625,-2.2156953125,-2.5461171875,-1.28865234375,-5.22438671875,-1.75634765625,-3.436328125,-5.27792578125,-6.8620625
3.518375,9.64046484375,4.79266015625,7.45494140625,4.80732421875,5.1700859375,-0.0720976562500013,4.19229296875,6.71768359375,2.10762890625,1.62909375,0.621921875,6.55148046875,-0.9589140625,1.04559765625,0.29855859375,3.156234375,0.65941015625,0.13248828125,-3.842796875,-0.702953125,2.93297265625,-1.4216953125,-2.3771171875,-1.67665234375,-6.23638671875,-2.06134765625,-4.385328125,-6.11192578125,-7.8630625
3.589375,9.28846484375,4.15666015625,7.93294140625,5.48032421875,5.9190859375,0.914902343749999,4.55829296875,8.00368359375,3.06662890625,1.86309375,0.547921875,6.63148046875,0.2680859375,1.26059765625,0.62855859375,2.373234375,0.44641015625,0.376488281249999,-4.465796875,-1.010953125,1.70097265625,-1.7626953125,-3.2531171875,-2.77165234375,-6.99838671875,-3.09834765625,-6.137328125,-7.67592578125,-9.0090625
3.522375,8.65546484375,3.35266015625,8.10594140625,6.01032421875,6.1040859375,1.72090234375,4.93329296875,8.74868359375,3.61462890625,1.63509375,0.125921875,6.78548046875,0.581085937500001,0.867597656250001,0.45255859375,2.120234375,-0.392589843750001,-0.38651171875,-5.514796875,-1.722953125,0.0879726562500007,-2.9186953125,-4.8071171875,-4.24165234375,-7.35838671875,-4.55734765625,-8.201328125,-9.62692578125,-10.1100625
3.534375,8.00646484375,2.64766015625,8.15494140625,6.41732421875,5.7630859375,2.37090234375,5.18429296875,9.04468359375,3.75362890625,1.05209375,-0.456078125000001,7.21548046875,0.0130859375000005,0.0725976562500006,-0.19644140625,2.345234375,-1.52558984375,-1.84051171875,-6.724796875,-2.765953125,-1.32702734375,-4.3996953125,-6.5751171875,-5.76065234375,-7.40938671875,-6.09434765625,-10.041328125,-11.49792578125,-11.0150625
3.683375,7.43046484375,2.12466015625,8.16394140625,6.60732421875,4.9790859375,2.87190234375,5.05229296875,8.95868359375,3.51062890625,0.29709375,-1.116078125,7.95748046875,-1.1559140625,-0.853402343749999,-1.22644140625,2.679234375,-2.59658984375,-3.52651171875,-7.902796875,-4.118953125,-2.15302734375,-5.7126953125,-8.1651171875,-7.09965234375,-7.43638671875,-7.42534765625,-11.244328125,-12.83092578125,-11.6200625
3.847375,6.84346484375,1.68566015625,8.11194140625,6.42732421875,3.8490859375,3.16190234375,4.27229296875,8.52968359375,2.94262890625,-0.43890625,-1.897078125,8.89048046875,-2.4639140625,-1.67340234375,-2.49944140625,2.644234375,-3.27858984375,-4.96751171875,-8.925796875,-5.751953125,-2.24302734375,-6.4736953125,-9.3221171875,-8.12565234375,-7.73838671875,-8.34034765625,-11.585328125,-13.29192578125,-11.8330625
3.822375,6.08346484375,1.14366015625,7.90594140625,5.76232421875,2.4470859375,3.10290234375,2.74229296875,7.80068359375,2.14062890625,-1.04790625,-2.902078125,9.79348046875,-3.4119140625,-2.26440234375,-3.85644140625,1.905234375,-3.36058984375,-5.78351171875,-9.704796875,-7.534953125,-1.67202734375,-6.4746953125,-9.9111171875,-8.75565234375,-8.45438671875,-8.70234765625,-11.038328125,-12.74292578125,-11.5680625
3.449375,5.03046484375,0.34766015625,7.41794140625,4.62832421875,0.836085937499999,2.53590234375,0.626292968749999,6.85368359375,1.21962890625,-1.57590625,-4.197078125,10.40148046875,-3.6549140625,-2.64740234375,-5.15344140625,0.445234375000002,-2.81558984375,-5.79051171875,-10.184796875,-9.203953125,-0.67002734375,-5.7186953125,-9.8961171875,-8.93465234375,-9.48638671875,-8.44534765625,-9.763328125,-11.29092578125,-10.7870625
2.702375,3.69946484375,-0.718339843750001,6.54994140625,3.20632421875,-0.885914062500001,1.37490234375,-1.66470703125,5.80668359375,0.30062890625,-2.17690625,-5.708078125,10.46148046875,-3.1439140625,-2.94740234375,-6.28244140625,-1.412765625,-1.84758984375,-5.05851171875,-10.360796875,-10.409953125,0.42897265625,-4.4196953125,-9.3491171875,-8.66465234375,-10.55038671875,-7.60934765625,-8.084328125,-9.27092578125,-9.5710625
1.716375,2.27246484375,-1.89233984375,5.29594140625,1.79632421875,-2.5359140625,-0.270097656250002,-3.57170703125,4.78668359375,-0.50537109375,-2.98890625,-7.170078125,9.81048046875,-2.1669140625,-3.30940234375,-7.14844140625,-3.119765625,-0.84958984375,-3.89251171875,-10.286796875,-10.833953125,1.26697265625,-2.9666953125,-8.4691171875,-8.03165234375,-11.28638671875,-6.37734765625,-6.441328125,-7.16592578125,-8.1420625
0.759375,1.04646484375,-2.86533984375,3.79794140625,0.717324218749999,-3.8469140625,-2.04009765625,-4.51670703125,3.92468359375,-1.11737109375,-3.99090625,-8.153078125,8.47748046875,-1.2259140625,-3.81240234375,-7.66144140625,-4.093765625,-0.25858984375,-2.73551171875,-10.057796875,-10.296953125,1.54997265625,-1.8156953125,-7.5411171875,-7.19865234375,-11.38838671875,-5.05634765625,-5.269328125,-5.46092578125,-6.8010625
0.146374999999999,0.32846484375,-3.29533984375,2.35094140625,0.194324218749999,-4.5459140625,-3.40409765625,-4.08170703125,3.36568359375,-1.48937109375,-4.96690625,-8.222078125,6.73948046875,-0.8069140625,-4.43440234375,-7.73344140625,-3.933765625,-0.36358984375,-2.00751171875,-9.764796875,-8.838953125,1.16097265625,-1.3346953125,-6.8431171875,-6.35165234375,-10.70938671875,-3.98334765625,-4.858328125,-4.48692578125,-5.8010625
0.0993750000000002,0.29246484375,-2.97533984375,1.32094140625,0.281324218749999,-4.4809140625,-3.88109765625,-2.21970703125,3.22368359375,-1.62637109375,-5.60790625,-7.170078125,5.06748046875,-1.1579140625,-5.08440234375,-7.33544140625,-2.599765625,-1.16858984375,-1.93551171875,-9.462796875,-6.729953125,0.218972656250001,-1.6646953125,-6.5391171875,-5.64265234375,-9.32038671875,-3.40034765625,-5.253328125,-4.32492578125,-5.2560625
0.615375,0.870464843750002,-1.97733984375,0.980941406249999,0.820324218749999,-3.7469140625,-3.29709765625,0.628292968749999,3.50668359375,-1.59937109375,-5.71290625,-5.214078125,3.92648046875,-2.1789140625,-5.69440234375,-6.56244140625,-0.479765624999999,-2.39958984375,-2.49351171875,-9.201796875,-4.438953125,-0.98502734375,-2.6726953125,-6.6421171875,-5.18165234375,-7.51838671875,-3.38634765625,-6.271328125,-4.83092578125,-5.1330625
1.431375,1.75146484375,-0.68533984375,1.33394140625,1.48332421875,-2.7169140625,-1.91609765625,3.63429296875,4.05268359375,-1.57337109375,-5.34890625,-3.007078125,3.54748046875,-3.5099140625,-6.28440234375,-5.66444140625,1.722234375,-3.66858984375,-3.46551171875,-9.067796875,-2.521953125,-2.14102734375,-4.0416953125,-7.0681171875,-5.06065234375,-5.76238671875,-3.87534765625,-7.622328125,-5.74592578125,-5.3290625
2.129375,2.50646484375,0.34266015625,2.05794140625,1.87632421875,-1.9259140625,-0.344097656250002,5.90729296875,4.54868359375,-1.77637109375,-4.85190625,-1.423078125,3.81548046875,-4.7249140625,-6.95640234375,-4.99044140625,3.252234375,-4.68258984375,-4.58851171875,-9.188796875,-1.465953125,-3.07002734375,-5.4356953125,-7.7151171875,-5.34965234375,-4.53338671875,-4.72834765625,-9.029328125,-6.82292578125,-5.7490625
2.327375,2.78746484375,0.62366015625,2.63294140625,1.71132421875,-1.8279140625,0.737902343749999,6.85029296875,4.65468359375,-2.38537109375,-4.64690625,-1.199078125,4.34648046875,-5.5379140625,-7.81740234375,-4.84344140625,3.623234375,-5.36558984375,-5.67551171875,-9.663796875,-1.520953125,-3.77502734375,-6.6286953125,-8.5031171875,-6.05065234375,-4.13338671875,-5.77334765625,-10.293328125,-7.86892578125,-6.3110625
1.860375,2.47346484375,-0.0153398437500005,2.60894140625,0.932324218749999,-2.5619140625,0.86190234375,6.35129296875,4.17068359375,-3.41137109375,-5.01490625,-2.614078125,4.70248046875,-5.8919140625,-8.87440234375,-5.33644140625,2.824234375,-5.82058984375,-6.64851171875,-10.470796875,-2.596953125,-4.36002734375,-7.5316953125,-9.3441171875,-7.02365234375,-4.53938671875,-6.80534765625,-11.273328125,-8.71492578125,-6.8840625
0.853375,1.69646484375,-1.35233984375,1.85094140625,-0.25167578125,-3.8759140625,-0.0480976562500004,4.76929296875,3.16368359375,-4.66037109375,-5.95190625,-5.346078125,4.60848046875,-5.9349140625,-10.00040234375,-6.33544140625,1.305234375,-6.19458984375,-7.51351171875,-11.422796875,-4.277953125,-4.89702734375,-8.1426953125,-10.1001171875,-7.97965234375,-5.39438671875,-7.58234765625,-11.854328125,-9.17592578125,-7.2350625
-0.340625,0.740464843750001,-2.88433984375,0.613941406249999,-1.47467578125,-5.2609140625,-1.68909765625,2.75129296875,1.97268359375,-5.81137109375,-7.20590625,-8.578078125,4.05448046875,-5.8919140625,-10.98540234375,-7.52744140625,-0.237765624999998,-6.54658984375,-8.28651171875,-12.217796875,-5.973953125,-5.35002734375,-8.4716953125,-10.5811171875,-8.56565234375,-6.16338671875,-7.85234765625,-11.931328125,-9.07192578125,-7.0660625
-1.327625,-0.106535156249999,-4.07933984375,-0.581058593750001,-2.37667578125,-6.2169140625,-3.56209765625,0.938292968749998,1.06968359375,-6.56037109375,-8.42090625,-11.342078125,3.24348046875,-5.9399140625,-11.63840234375,-8.56944140625,-1.186765625,-6.80058984375,-8.94551171875,-12.580796875,-7.144953125,-5.58502734375,-8.5236953125,-10.6221171875,-8.52365234375,-6.37738671875,-7.44234765625,-11.461328125,-8.31492578125,-6.1560625
-1.881625,-0.70053515625,-4.64633984375,-1.22305859375,-2.77967578125,-6.5019140625,-5.23409765625,-0.316707031250001,0.81868359375,-6.76037109375,-9.33490625,-12.944078125,2.44448046875,-6.1369140625,-11.89340234375,-9.26144140625,-1.289765625,-6.81958984375,-9.42251171875,-12.412796875,-7.534953125,-5.49102734375,-8.3406953125,-10.2131171875,-7.84365234375,-5.85438671875,-6.37434765625,-10.536328125,-7.02292578125,-4.5440625
-2.064625,-1.10753515625,-4.69133984375,-1.09805859375,-2.75867578125,-6.2459140625,-6.55109765625,-1.08770703125,1.28168359375,-6.50437109375,-9.89390625,-13.287078125,1.83748046875,-6.4519140625,-11.85140234375,-9.65644140625,-0.781765624999997,-6.54058984375,-9.66651171875,-11.877796875,-7.286953125,-5.10102734375,-8.0616953125,-9.5811171875,-6.83665234375,-4.80238671875,-4.93334765625,-9.425328125,-5.55792578125,-2.6200625
-2.177625,-1.55353515625,-4.65633984375,-0.400058593750002,-2.60267578125,-5.8599140625,-7.65909765625,-1.75670703125,2.20568359375,-6.09037109375,-10.25990625,-12.875078125,1.44648046875,-6.8249140625,-11.72340234375,-10.02044140625,-0.247765624999996,-6.06758984375,-9.70451171875,-11.341796875,-6.853953125,-4.63502734375,-7.9106953125,-9.1321171875,-6.01565234375,-3.72238671875,-3.60634765625,-8.514328125,-4.42692578125,-0.9990625
-2.578625,-2.27853515625,-5.06433984375,0.386941406249999,-2.63867578125,-5.7869140625,-8.83009765625,-2.74770703125,3.18868359375,-5.86137109375,-10.65090625,-12.481078125,1.16648046875,-7.2089140625,-11.68740234375,-10.63044140625,-0.289765624999998,-5.63058984375,-9.63351171875,-11.169796875,-6.727953125,-4.38902734375,-8.0976953125,-9.2471171875,-5.83165234375,-3.14838671875,-2.86734765625,-8.139328125,-4.05092578125,-0.2260625
-3.482625,-3.36853515625,-6.21233984375,0.785941406249998,-3.04267578125,-6.2319140625,-10.21709765625,-4.25870703125,3.91368359375,-5.98637109375,-11.14690625,-12.675078125,0.87748046875,-7.5449140625,-11.74940234375,-11.52844140625,-1.171765625,-5.44058984375,-9.54251171875,-11.483796875,-7.146953125,-4.54902734375,-8.6726953125,-10.0381171875,-6.39565234375,-3.34438671875,-2.92934765625,-8.412328125,-4.52692578125,-0.4660625
-4.842625,-4.69253515625,-7.99733984375,0.588941406249999,-3.72567578125,-7.0549140625,-11.69109765625,-6.14570703125,4.30368359375,-6.35237109375,-11.58290625,-13.511078125,0.53048046875,-7.7269140625,-11.70140234375,-12.40344140625,-2.662765625,-5.55658984375,-9.41251171875,-12.038796875,-7.942953125,-5.06002734375,-9.4546953125,-11.2171171875,-7.36965234375,-4.16238671875,-3.60234765625,-9.151328125,-5.53292578125,-1.3930625
-6.363625,-5.97153515625,-9.96833984375,-0.0640585937500013,-4.37467578125,-7.8629140625,-12.86209765625,-7.96170703125,4.53268359375,-6.61037109375,-11.62390625,-14.536078125,0.18748046875,-7.5889140625,-11.20740234375,-12.70244140625,-4.146765625,-5.82958984375,-9.07451171875,-12.300796875,-8.625953125,-5.62402734375,-10.0626953125,-12.1761171875,-8.11265234375,-5.11338671875,-4.36734765625,-9.952328125,-6.44792578125,-2.3400625
-7.619625,-6.90553515625,-11.54133984375,-0.81005859375,-4.60767578125,-8.2349140625,-13.26909765625,-9.14570703125,4.89768359375,-6.35337109375,-10.94290625,-15.083078125,-0.0205195312499997,-6.9339140625,-9.96840234375,-11.89744140625,-4.916765625,-5.94958984375,-8.25351171875,-11.679796875,-8.617953125,-5.84302734375,-10.0526953125,-12.2271171875,-7.97965234375,-5.60638671875,-4.60834765625,-10.357328125,-6.62492578125,-2.6100625
-8.243625,-7.30753515625,-12.25733984375,-1.26305859375,-4.16167578125,-7.9189140625,-12.62109765625,-9.29270703125,5.63468359375,-5.31037109375,-9.40090625,-14.640078125,0.0204804687499998,-5.5999140625,-7.88640234375,-9.76444140625,-4.492765625,-5.57558984375,-6.67951171875,-9.814796875,-7.528953125,-5.39902734375,-9.0856953125,-10.8951171875,-6.61865234375,-5.21338671875,-3.89334765625,-10.033328125,-5.68092578125,-1.7940625
-8.077625,-7.15253515625,-11.95833984375,-1.20605859375,-3.02667578125,-6.9219140625,-10.96809765625,-8.35770703125,6.77868359375,-3.47137109375,-7.12990625,-13.114078125,0.325480468749999,-3.5519140625,-5.14440234375,-6.53544140625,-2.826765625,-4.48858984375,-4.24151171875,-6.762796875,-5.350953125,-4.19202734375,-7.0796953125,-8.1421171875,-4.12965234375,-3.85438671875,-2.17234765625,-8.891328125,-3.67192578125,0.0639375000000002
-7.228625,-6.56553515625,-10.83033984375,-0.67205859375,-1.46967578125,-5.4839140625,-8.70609765625,-6.69170703125,8.14668359375,-1.12337109375,-4.51990625,-10.868078125,0.80648046875,-0.954914062499999,-2.18940234375,-2.87644140625,-0.326765624999997,-2.71958984375,-1.11351171875,-3.039796875,-2.499953125,-2.39702734375,-4.2946953125,-4.4391171875,-1.04265234375,-1.84838671875,0.16165234375,-7.133328125,-1.09292578125,2.4939375
-6.003625,-5.76153515625,-9.32533984375,0.0589414062499998,0.0533242187499994,-3.9849140625,-6.43309765625,-4.88470703125,9.42468359375,1.21762890625,-2.11590625,-8.553078125,1.30248046875,1.8090859375,0.387597656250001,0.30755859375,2.297234375,-0.582589843750001,2.21148828125,0.537203125,0.305046875,-0.396027343749999,-1.2976953125,-0.631117187500001,1.86834765625,0.18461328125,2.40765234375,-5.210328125,1.30907421875,4.7759375
-4.803625,-4.98853515625,-7.99533984375,0.575941406249999,1.07232421875,-2.8219140625,-4.73709765625,-3.54470703125,10.28568359375,2.97062890625,-0.45590625,-6.833078125,1.63548046875,4.2130859375,2.04159765625,2.18255859375,4.291234375,1.42841015625,5.05148828125,3.135203125,2.285046875,1.36297265625,1.2193046875,2.3438828125,3.85834765625,1.56661328125,3.81765234375,-3.684328125,2.82907421875,6.2119375
-3.992625,-4.45853515625,-7.28633984375,0.501941406249999,1.27732421875,-2.2819140625,-4.00009765625,-3.07670703125,10.50368359375,3.71362890625,0.11609375,-6.126078125,1.65448046875,5.7580859375,2.46059765625,2.30655859375,5.136234375,2.84941015625,6.78848828125,4.216203125,2.898046875,2.54297265625,2.7033046875,3.8078828125,4.47834765625,1.84461328125,3.92265234375,-3.027328125,3.08507421875,6.3739375
-3.777625,-4.29253515625,-7.37733984375,-0.317058593750001,0.64532421875,-2.4569140625,-4.27009765625,-3.52670703125,10.02668359375,3.35362890625,-0.42090625,-6.437078125,1.28448046875,6.1580859375,1.69059765625,0.81755859375,4.736234375,3.43941015625,7.12848828125,3.751203125,2.066046875,3.04097265625,2.9643046875,3.6008828125,3.73634765625,1.00161328125,2.74165234375,-3.416328125,2.17807421875,5.2779375
-4.120625,-4.47153515625,-8.09433984375,-1.71805859375,-0.54667578125,-3.2059140625,-5.25309765625,-4.53970703125,9.01968359375,2.17662890625,-1.74390625,-7.360078125,0.58948046875,5.4580859375,0.144597656250001,-1.58744140625,3.453234375,3.27141015625,6.22648828125,2.227203125,0.218046875,3.01797265625,2.2463046875,2.1308828125,2.07234765625,-0.53238671875,0.78865234375,-4.634328125,0.64607421875,3.3769375
-4.746625,-4.82953515625,-8.98033984375,-3.23605859375,-1.81167578125,-4.1879140625,-6.41409765625,-5.50670703125,7.82368359375,0.74462890625,-3.28090625,-8.229078125,-0.22251953125,4.0220859375,-1.54840234375,-3.91444140625,1.941234375,2.67441015625,4.61848828125,0.448203125,-1.879953125,2.80897265625,1.0883046875,0.1808828125,0.16734765625,-2.07538671875,-1.16234765625,-6.139328125,-0.79092578125,1.3699375
-5.258625,-5.11253515625,-9.47933984375,-4.29105859375,-2.62967578125,-4.9499140625,-7.16509765625,-5.85170703125,6.82968359375,-0.32137109375,-4.40390625,-8.380078125,-0.86951953125,2.3960859375,-2.76940234375,-5.25244140625,0.860234375000001,2.06341015625,2.98348828125,-0.801796875,-3.446953125,2.76297265625,0.0683046875,-1.4401171875,-1.33165234375,-3.01638671875,-2.42634765625,-7.299328125,-1.55992578125,-0.1130625
-5.293625,-5.08553515625,-9.18333984375,-4.44005859375,-2.63267578125,-5.0829140625,-7.06409765625,-5.29070703125,6.33468359375,-0.57137109375,-4.63490625,-7.417078125,-1.11351953125,1.1250859375,-3.14240234375,-5.12944140625,0.591234375000003,1.75941015625,1.87948828125,-1.062796875,-3.994953125,3.09897265625,-0.4426953125,-2.2221171875,-2.04865234375,-3.10638671875,-2.70034765625,-7.662328125,-1.48192578125,-0.7720625
-4.651625,-4.63353515625,-7.99233984375,-3.59705859375,-1.73167578125,-4.3689140625,-5.94409765625,-3.89970703125,6.44468359375,0.10562890625,-3.80890625,-5.360078125,-0.85951953125,0.587085937499999,-2.63540234375,-3.66444140625,1.108234375,1.89541015625,1.56448828125,-0.329796875,-3.479953125,3.85297265625,-0.3766953125,-2.0991171875,-1.95865234375,-2.53838671875,-2.12834765625,-7.118328125,-0.79492578125,-0.7240625
-3.335625,-3.78253515625,-6.12933984375,-2.07705859375,-0.12667578125,-2.8499140625,-3.94109765625,-2.00870703125,7.07068359375,1.48962890625,-2.08890625,-2.612078125,-0.174519531250001,0.918085937500001,-1.50040234375,-1.45444140625,2.070234375,2.43041015625,1.99848828125,1.035203125,-2.217953125,4.92097265625,0.1163046875,-1.3571171875,-1.30365234375,-1.78538671875,-1.13334765625,-5.877328125,0.0640742187500001,-0.3420625
-1.543625,-2.66153515625,-4.01433984375,-0.455058593750001,1.77832421875,-0.802914062500001,-1.41609765625,-0.0207070312500015,7.96968359375,3.15962890625,0.13409375,0.242921874999999,0.73648046875,1.9890859375,-0.112402343749999,0.74555859375,3.048234375,3.20841015625,2.94848828125,2.543203125,-0.677953125,6.10797265625,0.8153046875,-0.405117187500001,-0.41965234375,-1.29838671875,-0.14834765625,-4.321328125,0.72207421875,-0.00406249999999986
0.377374999999999,-1.44853515625,-2.08933984375,0.671941406249999,3.49932421875,1.3500859375,1.17590234375,1.73529296875,8.81068359375,4.65962890625,2.39109375,2.690921875,1.57248046875,3.4400859375,1.16459765625,2.36155859375,3.747234375,3.98641015625,4.09848828125,3.796203125,0.738046875,7.13797265625,1.5213046875,0.4148828125,0.39834765625,-1.27038671875,0.54465234375,-2.870328125,1.02607421875,0.0929375000000001
2.004375,-0.33253515625,-0.68133984375,0.899941406249999,4.59432421875,3.1560859375,3.43890234375,3.07929296875,9.25568359375,5.62362890625,4.27009375,4.464921875,1.99448046875,4.7490859375,2.04759765625,3.18755859375,4.120234375,4.44341015625,5.10448828125,4.582203125,1.807046875,7.64497265625,2.0363046875,0.8928828125,0.94834765625,-1.59938671875,0.82865234375,-1.915328125,0.98707421875,-0.0540624999999997
2.964375,0.519464843750001,0.06866015625,0.168941406249999,4.79732421875,4.2760859375,5.14490234375,3.98829296875,9.07368359375,5.85762890625,5.50809375,5.584921875,1.71648046875,5.3830859375,2.35759765625,3.37055859375,4.341234375,4.23341015625,5.62848828125,4.861203125,2.482046875,7.22497265625,2.1373046875,0.9148828125,1.12134765625,-2.01838671875,0.66465234375,-1.770328125,0.64607421875,-0.3690625
3.074375,1.03346484375,0.24166015625,-1.18705859375,4.13832421875,4.6240859375,6.26590234375,4.53729296875,8.25768359375,5.41262890625,6.05609375,6.258921875,0.63848046875,4.9950859375,2.04659765625,3.25655859375,4.682234375,3.13041015625,5.41248828125,4.703203125,2.834046875,5.62397265625,1.6133046875,0.4318828125,0.91034765625,-2.26738671875,0.0546523437499999,-2.592328125,0.00507421874999991,-0.779062499999999
2.445375,1.27146484375,0.111660156249999,-2.53205859375,2.98132421875,4.4220859375,6.92890234375,4.84129296875,7.06468359375,4.57862890625,6.07209375,6.739921875,-1.04551953125,3.5780859375,1.21059765625,3.18155859375,5.362234375,1.19641015625,4.37948828125,4.229203125,2.964046875,2.95297265625,0.3793046875,-0.534117187500001,0.42234765625,-2.19738671875,-0.93834765625,-4.275328125,-0.92392578125,-1.2280625
1.463375,1.40946484375,0.0376601562499994,-3.17405859375,1.88732421875,4.0910859375,7.30390234375,5.01529296875,5.93168359375,3.76862890625,5.81309375,7.199921875,-2.86251953125,1.4880859375,0.0545976562500008,3.28655859375,6.423234375,-1.16858984375,2.68548828125,3.545203125,2.924046875,-0.23402734375,-1.4406953125,-1.8901171875,-0.18465234375,-1.83238671875,-2.18134765625,-6.431328125,-2.05092578125,-1.6480625
0.632375,1.62846484375,0.289660156249999,-2.69505859375,1.36032421875,4.0030859375,7.48690234375,5.15129296875,5.27768359375,3.31362890625,5.45209375,7.659921875,-4.23651953125,-0.7169140625,-1.21540234375,3.42855859375,7.679234375,-3.36658984375,0.655488281249999,2.667203125,2.656046875,-3.10802734375,-3.5506953125,-3.5141171875,-0.82465234375,-1.37838671875,-3.52334765625,-8.512328125,-3.21392578125,-1.9960625
0.334375,1.99246484375,0.89766015625,-1.19005859375,1.58832421875,4.2570859375,7.42390234375,5.26429296875,5.27068359375,3.28962890625,4.96809375,7.997921875,-4.75151953125,-2.5039140625,-2.49740234375,3.24155859375,8.756234375,-4.85958984375,-1.33851171875,1.502203125,2.008046875,-4.91302734375,-5.6036953125,-5.3071171875,-1.57265234375,-1.17938671875,-4.87634765625,-10.047328125,-4.27592578125,-2.3220625
0.639374999999999,2.40646484375,1.63466015625,0.742941406249999,2.34832421875,4.6340859375,6.97490234375,5.27029296875,5.72368359375,3.49662890625,4.18209375,8.041921875,-4.34651953125,-3.5629140625,-3.80040234375,2.34555859375,9.251234375,-5.39158984375,-3.00051171875,-0.0747968749999997,0.839046875,-5.28602734375,-7.3346953125,-7.1951171875,-2.61865234375,-1.56638671875,-6.23634765625,-10.833328125,-5.19592578125,-2.7850625
1.301375,2.66746484375,2.14866015625,2.26194140625,3.11932421875,4.7500859375,6.06390234375,5.06829296875,6.18568359375,3.58762890625,2.94209375,7.719921875,-3.31551953125,-3.8789140625,-5.16540234375,0.60655859375,8.955234375,-5.06658984375,-4.18751171875,-2.080796875,-0.796953125,-4.36402734375,-8.6206953125,-9.0741171875,-4.08565234375,-2.65538671875,-7.61734765625,-10.969328125,-6.00092578125,-3.5500625
1.917375,2.58646484375,2.17566015625,2.64694140625,3.31232421875,4.2800859375,4.81590234375,4.67129296875,6.16368359375,3.22562890625,1.29109375,7.171921875,-2.12951953125,-3.7019140625,-6.57240234375,-1.72544140625,8.005234375,-4.25958984375,-4.92251171875,-4.322796875,-2.556953125,-2.64502734375,-9.4706953125,-10.7651171875,-5.85865234375,-4.21238671875,-8.93834765625,-10.721328125,-6.68892578125,-4.6220625
2.133375,2.09046484375,1.69166015625,1.58094140625,2.51732421875,3.1220859375,3.54390234375,4.25629296875,5.32368359375,2.21662890625,-0.50190625,6.718921875,-1.19651953125,-3.4769140625,-7.93140234375,-4.09144140625,6.869234375,-3.43058984375,-5.38851171875,-6.430796875,-3.889953125,-0.717027343749999,-9.9716953125,-12.0371171875,-7.57065234375,-5.69138671875,-10.00434765625,-10.324328125,-7.15792578125,-5.7610625
1.787375,1.26146484375,0.920660156249999,-0.756058593750002,0.63532421875,1.4270859375,2.58690234375,4.05229296875,3.58568359375,0.54262890625,-2.07290625,6.688921875,-0.71851953125,-3.7179140625,-9.15440234375,-5.89044140625,6.102234375,-2.95658984375,-5.87151171875,-8.024796875,-4.310953125,0.96997265625,-10.2536953125,-12.7311171875,-8.78365234375,-6.49338671875,-10.58834765625,-9.870328125,-7.24892578125,-6.5930625
0.940375,0.303464843750001,0.202660156249999,-3.79705859375,-2.09467578125,-0.490914062500001,2.11390234375,4.17229296875,1.12068359375,-1.64837109375,-3.16390625,7.193921875,-0.68451953125,-4.8609140625,-10.23740234375,-6.78544140625,6.038234375,-3.02658984375,-6.67351171875,-8.912796875,-3.682953125,2.19197265625,-10.4686953125,-12.8771171875,-9.25365234375,-6.28938671875,-10.58934765625,-9.337328125,-6.88192578125,-6.8460625
-0.147625000000001,-0.533535156249998,-0.17633984375,-6.78805859375,-5.17467578125,-2.2859140625,2.05390234375,4.55929296875,-1.68731640625,-4.08537109375,-3.75590625,8.034921875,-0.93451953125,-7.0629140625,-11.25440234375,-6.86244140625,6.600234375,-3.62458984375,-7.97951171875,-9.185796875,-2.329953125,2.90897265625,-10.7646953125,-12.7101171875,-9.08465234375,-5.22738671875,-10.13334765625,-8.702328125,-6.17292578125,-6.5550625
-1.102625,-1.02553515625,-0.0843398437500005,-9.00505859375,-7.96267578125,-3.6779140625,2.18090234375,5.06729296875,-4.30131640625,-6.40937109375,-4.03490625,8.810921875,-1.24851953125,-10.0449140625,-12.25840234375,-6.53044140625,7.369234375,-4.54258984375,-9.72851171875,-9.123796875,-0.887953125,3.19097265625,-11.2086953125,-12.5381171875,-8.65465234375,-3.86738671875,-9.51834765625,-8.014328125,-5.41792578125,-6.0470625
-1.569625,-1.03553515625,0.45066015625,-9.90905859375,-9.84467578125,-4.4929140625,2.27690234375,5.59029296875,-6.15531640625,-8.21137109375,-4.22290625,9.168921875,-1.41151953125,-13.0839140625,-13.16840234375,-6.23644140625,7.860234375,-5.44358984375,-11.55551171875,-8.992796875,0.0340468749999999,3.15997265625,-11.7196953125,-12.5481171875,-8.36465234375,-2.87438671875,-9.05634765625,-7.391328125,-4.94892578125,-5.7410625
-1.348625,-0.552535156249998,1.29366015625,-9.27105859375,-10.40567578125,-4.6679140625,2.26290234375,6.15029296875,-6.83131640625,-9.13237109375,-4.41890625,9.021921875,-1.29551953125,-15.2489140625,-13.75440234375,-6.18944140625,7.822234375,-5.98958984375,-12.91951171875,-8.884796875,0.150046875,2.92297265625,-12.0986953125,-12.7211171875,-8.39965234375,-2.68038671875,-8.92834765625,-6.967328125,-4.97192578125,-5.8990625
-0.486625,0.28046484375,2.26966015625,-7.25705859375,-9.58767578125,-4.2629140625,2.22090234375,6.90929296875,-6.22931640625,-8.99837109375,-4.57090625,8.590921875,-0.91351953125,-15.8199140625,-13.77240234375,-6.27344140625,7.372234375,-6.01658984375,-13.36351171875,-8.699796875,-0.403953125,2.50397265625,-12.1866953125,-12.9051171875,-8.66165234375,-3.30538671875,-9.16034765625,-6.857328125,-5.50492578125,-6.5070625
0.732374999999999,1.19546484375,3.19966015625,-4.41405859375,-7.73867578125,-3.4739140625,2.31590234375,8.08129296875,-4.64831640625,-7.93537109375,-4.55990625,8.278921875,-0.42951953125,-14.6699140625,-13.15440234375,-6.17744140625,6.925234375,-5.65858984375,-12.78551171875,-8.280796875,-1.197953125,1.79697265625,-12.0236953125,-12.9811171875,-8.89465234375,-4.40838671875,-9.69734765625,-7.154328125,-6.42492578125,-7.3280625
1.863375,1.87546484375,3.92066015625,-1.53105859375,-5.52467578125,-2.6129140625,2.65190234375,9.76029296875,-2.71331640625,-6.36837109375,-4.32890625,8.436921875,-0.0895195312499997,-12.3769140625,-12.11140234375,-5.61144140625,6.950234375,-5.31158984375,-11.51751171875,-7.572796875,-1.762953125,0.60797265625,-11.8866953125,-12.9701171875,-8.88165234375,-5.47738671875,-10.48034765625,-7.910328125,-7.55192578125,-8.0520625
2.454375,2.05346484375,4.29966015625,0.611941406249999,-3.68967578125,-2.0259140625,3.17790234375,11.77229296875,-1.15331640625,-4.86937109375,-3.93590625,9.178921875,-0.11051953125,-9.9519140625,-11.06340234375,-4.48044140625,7.705234375,-5.42058984375,-10.15251171875,-6.678796875,-1.813953125,-1.21402734375,-12.1296953125,-12.9851171875,-8.55565234375,-6.05438671875,-11.44234765625,-9.071328125,-8.70092578125,-8.4170625
2.228375,1.61646484375,4.26266015625,1.53694140625,-2.78067578125,-1.9779140625,3.68590234375,13.67829296875,-0.502316406249999,-3.93237109375,-3.52390625,10.312921875,-0.56051953125,-8.3489140625,-10.41140234375,-2.92944140625,9.086234375,-6.21758984375,-9.22051171875,-5.792796875,-1.344953125,-3.62402734375,-12.9256953125,-13.0871171875,-7.99165234375,-5.89338671875,-12.43834765625,-10.415328125,-9.66692578125,-8.2850625
1.207375,0.653464843750001,3.82266015625,1.24194140625,-2.94967578125,-2.5589140625,3.91190234375,14.92329296875,-0.884316406250001,-3.79737109375,-3.24990625,11.409921875,-1.31651953125,-8.0129140625,-10.32240234375,-1.27544140625,10.644234375,-7.54658984375,-8.91651171875,-5.069796875,-0.577953125,-6.28602734375,-14.0946953125,-13.1631171875,-7.31965234375,-5.02538671875,-13.20834765625,-11.545328125,-10.22392578125,-7.6520625
-0.309625,-0.58853515625,3.07066015625,0.16794140625,-3.95967578125,-3.6769140625,3.61290234375,15.02729296875,-1.99931640625,-4.40937109375,-3.24790625,11.942921875,-2.11451953125,-8.7419140625,-10.66940234375,0.0965585937500002,11.763234375,-8.91258984375,-9.03651171875,-4.569796875,0.145046875,-8.62002734375,-15.1456953125,-12.9631171875,-6.64565234375,-3.73638671875,-13.44734765625,-12.012328125,-10.17292578125,-6.6610625
-1.910625,-1.82653515625,2.10966015625,-1.04405859375,-5.37067578125,-5.1509140625,2.62890234375,13.73329296875,-3.33431640625,-5.52237109375,-3.61990625,11.456921875,-2.67451953125,-9.8789140625,-11.17140234375,0.82855859375,11.881234375,-9.70658984375,-9.15751171875,-4.275796875,0.471046875,-9.96702734375,-15.5216953125,-12.2741171875,-6.05765234375,-2.48238671875,-12.96134765625,-11.511328125,-9.44692578125,-5.5920625
-3.255625,-2.87153515625,1.00766015625,-1.85805859375,-6.76367578125,-6.8179140625,0.910902343749999,11.09429296875,-4.39531640625,-6.85337109375,-4.44490625,9.717921875,-2.81951953125,-10.6769140625,-11.60440234375,0.66455859375,10.716234375,-9.46758984375,-8.89851171875,-4.180796875,0.143046875,-9.80502734375,-14.8756953125,-11.1021171875,-5.65865234375,-1.74138671875,-11.79334765625,-10.023328125,-8.17892578125,-4.8020625
-4.141625,-3.67453515625,-0.20033984375,-2.02505859375,-7.84967578125,-8.5539140625,-1.41409765625,7.52329296875,-4.84131640625,-8.15737109375,-5.71790625,6.810921875,-2.51051953125,-10.6079140625,-11.89340234375,-0.46244140625,8.382234375,-8.03758984375,-8.09951171875,-4.319796875,-0.915953125,-7.91802734375,-13.2206953125,-9.7021171875,-5.56865234375,-1.84338671875,-10.22934765625,-7.826328125,-6.66092578125,-4.6010625
-4.462625,-4.25453515625,-1.43133984375,-1.56305859375,-8.43367578125,-10.1919140625,-3.98909765625,3.72529296875,-4.50331640625,-9.19237109375,-7.25990625,3.162921875,-1.80151953125,-9.4829140625,-12.03440234375,-2.37044140625,5.383234375,-5.56258984375,-6.81951171875,-4.720796875,-2.546953125,-4.47402734375,-10.8596953125,-8.4221171875,-5.87565234375,-2.83938671875,-8.64934765625,-5.361328125,-5.20992578125,-5.1080625
-4.143625,-4.59253515625,-2.49533984375,-0.626058593750001,-8.33167578125,-11.4249140625,-6.27109765625,0.492292968749998,-3.34931640625,-9.65737109375,-8.66990625,-0.556078125000001,-0.78451953125,-7.4119140625,-11.94140234375,-4.62044140625,2.433234375,-2.39658984375,-5.21051171875,-5.310796875,-4.393953125,0.0149726562500003,-8.2126953125,-7.4911171875,-6.55865234375,-4.46838671875,-7.35234765625,-3.058328125,-4.03192578125,-6.1850625
-3.156625,-4.58953515625,-3.13433984375,0.610941406249999,-7.36967578125,-11.8279140625,-7.69109765625,-1.55370703125,-1.48331640625,-9.21637109375,-9.41590625,-3.622078125,0.44148046875,-4.7039140625,-11.37340234375,-6.61144140625,0.191234375000004,1.00641015625,-3.41051171875,-5.861796875,-6.008953125,4.80397265625,-5.6416953125,-6.9021171875,-7.45065234375,-6.26438671875,-6.45934765625,-1.218328125,-3.16492578125,-7.4890625
-1.588625,-4.14553515625,-3.15733984375,1.96994140625,-5.49267578125,-11.0369140625,-7.87809765625,-2.14070703125,0.849683593749999,-7.64337109375,-9.05090625,-5.478078125,1.77248046875,-1.7659140625,-10.01640234375,-7.75444140625,-0.967765624999997,4.16541015625,-1.51851171875,-6.029796875,-6.995953125,9.09797265625,-3.3936953125,-6.4581171875,-8.27065234375,-7.74638671875,-5.93534765625,0.013671875,-2.52692578125,-8.6040625
0.275375,-3.27753515625,-2.58233984375,3.24394140625,-2.88467578125,-8.9799140625,-6.84409765625,-1.41270703125,3.28168359375,-4.97737109375,-7.43290625,-5.909078125,3.08948046875,0.979085937500001,-7.66740234375,-7.65544140625,-1.047765625,6.65041015625,0.364488281249999,-5.477796875,-7.123953125,12.23697265625,-1.6136953125,-5.9101171875,-8.69465234375,-8.57938671875,-5.66234765625,0.624671875000001,-2.00592578125,-9.1990625
1.972375,-2.17853515625,-1.66933984375,4.21294140625,0.00832421874999945,-5.9869140625,-5.01009765625,0.145292968749999,5.38968359375,-1.59237109375,-4.80590625,-5.092078125,4.25548046875,3.1770859375,-4.39940234375,-6.24044140625,-0.359765624999998,8.16041015625,2.09848828125,-4.022796875,-6.368953125,13.85097265625,-0.3666953125,-5.0941171875,-8.44765234375,-8.64838671875,-5.50934765625,0.708671875,-1.53292578125,-9.1080625
3.017375,-1.15553515625,-0.79033984375,4.73194140625,2.59232421875,-2.7099140625,-3.04709765625,1.89629296875,6.81168359375,1.89862890625,-1.71690625,-3.504078125,5.14748046875,4.6220859375,-0.592402343749999,-3.77044140625,0.675234375000002,8.59541015625,3.52348828125,-1.724796875,-4.890953125,13.92997265625,0.3643046875,-3.9721171875,-7.38865234375,-8.03938671875,-5.34734765625,0.440671875,-1.08792578125,-8.3490625
3.138375,-0.480535156249999,-0.22933984375,4.82094140625,4.34532421875,0.120085937499999,-1.57809765625,3.32029296875,7.38868359375,4.82862890625,1.20709375,-1.728078125,5.68448046875,5.3030859375,3.16659765625,-0.759441406250001,1.724234375,8.07241015625,4.51648828125,1.120203125,-2.956953125,12.76697265625,0.6753046875,-2.6111171875,-5.55565234375,-6.96738671875,-5.05834765625,0.0556718749999998,-0.66392578125,-7.0720625
2.440375,-0.249535156249999,-0.0353398437500001,4.66694140625,5.00932421875,1.9670859375,-0.903097656250001,4.20829296875,7.21168359375,6.69862890625,3.48309375,-0.248078125000001,5.84748046875,5.3780859375,6.29559765625,2.17955859375,2.654234375,6.86341015625,5.04348828125,4.063203125,-0.870953125,10.80697265625,0.7173046875,-1.1251171875,-3.17965234375,-5.70238671875,-4.54434765625,-0.216328125,-0.23292578125,-5.4960625
1.362375,-0.340535156249999,-0.01633984375,4.52694140625,4.66932421875,2.6730859375,-0.901097656250002,4.67929296875,6.55168359375,7.33962890625,4.92009375,0.703921874999999,5.66248046875,5.0860859375,8.41759765625,4.51755859375,3.504234375,5.28441015625,5.17548828125,6.642203125,1.078046875,8.46097265625,0.6323046875,0.3618828125,-0.62765234375,-4.51038671875,-3.77034765625,-0.230328125,0.25307421875,-3.8540625
0.459375,-0.48953515625,0.12666015625,4.56994140625,3.69232421875,2.4790859375,-1.13309765625,5.02129296875,5.69068359375,6.94962890625,5.64309375,1.190921875,5.15648046875,4.6500859375,9.49359765625,5.96255859375,4.379234375,3.58241015625,5.06348828125,8.515203125,2.652046875,5.98297265625,0.4893046875,1.7288828125,1.67534765625,-3.59938671875,-2.79834765625,0.00667187500000033,0.80407421875,-2.3600625
0.134375,-0.442535156249999,0.60566015625,4.76294140625,2.54532421875,1.8680859375,-1.09609765625,5.51029296875,4.79968359375,5.99262890625,5.96609375,1.504921875,4.34648046875,4.2030859375,9.79059765625,6.51455859375,5.328234375,1.88341015625,4.86548828125,9.547203125,3.688046875,3.45797265625,0.2533046875,2.8508828125,3.34534765625,-3.09038671875,-1.79834765625,0.316671875,1.32107421875,-1.2130625
0.461375,-0.106535156249999,1.40266015625,4.86294140625,1.58832421875,1.3030859375,-0.490097656250001,6.27929296875,3.91768359375,4.97262890625,6.19809375,1.999921875,3.24548046875,3.7770859375,9.70759765625,6.38755859375,6.291234375,0.20741015625,4.67948828125,9.800203125,4.105046875,0.88797265625,-0.1766953125,3.5878828125,4.10534765625,-3.01938671875,-1.03734765625,0.399671875,1.56407421875,-0.6290625
1.173375,0.413464843750001,2.26466015625,4.55694140625,0.95232421875,1.0180859375,0.619902343749999,7.27629296875,3.01868359375,4.22662890625,6.48409375,2.915921875,1.91348046875,3.3450859375,9.55559765625,5.87155859375,7.127234375,-1.44058984375,4.50548828125,9.469203125,3.897046875,-1.68402734375,-0.8946953125,3.7898828125,3.84334765625,-3.35438671875,-0.80534765625,-0.055328125,1.21607421875,-0.8400625
1.821375,0.89246484375,2.84866015625,3.67494140625,0.576324218749999,0.977085937499999,1.84590234375,8.30329296875,2.12168359375,3.85562890625,6.79609375,4.282921875,0.48848046875,2.9040859375,9.43859765625,5.23155859375,7.700234375,-2.95858984375,4.30048828125,8.810203125,3.150046875,-4.06602734375,-1.8626953125,3.3618828125,2.64734765625,-4.00338671875,-1.30734765625,-1.223328125,0.0520742187499996,-2.0200625
2.046375,1.14546484375,2.94466015625,2.36194140625,0.364324218749999,1.0220859375,2.71990234375,9.14129296875,1.37768359375,3.81062890625,7.03709375,5.955921875,-0.78451953125,2.5670859375,9.30959765625,4.68955859375,7.977234375,-4.09158984375,4.08248828125,8.100203125,2.070046875,-5.91202734375,-2.8396953125,2.3718828125,0.83134765625,-4.81938671875,-2.53834765625,-2.992328125,-1.86992578125,-4.1410625
1.803375,1.16046484375,2.62966015625,1.07494140625,0.33432421875,1.0700859375,2.98090234375,9.69729296875,1.06768359375,4.03662890625,7.18109375,7.730921875,-1.59551953125,2.5930859375,9.13159765625,4.45155859375,8.073234375,-4.47558984375,4.01448828125,7.627203125,0.993046875,-6.81502734375,-3.3936953125,1.1238828125,-1.10165234375,-5.62438671875,-4.20434765625,-4.931328125,-4.13392578125,-6.8730625
1.402375,1.12346484375,2.25766015625,0.409941406249999,0.65532421875,1.2430859375,2.73990234375,10.05729296875,1.49968359375,4.58262890625,7.35309375,9.443921875,-1.66351953125,3.3230859375,9.02059765625,4.70355859375,8.184234375,-3.78758984375,4.38948828125,7.654203125,0.323046875,-6.48302734375,-3.0486953125,0.1298828125,-2.58765234375,-6.25738671875,-5.78034765625,-6.416328125,-6.08292578125,-9.6220625
1.333375,1.33246484375,2.27866015625,0.83494140625,1.54932421875,1.8440859375,2.41790234375,10.39929296875,2.85068359375,5.61362890625,7.80509375,11.009921875,-0.85651953125,5.0370859375,9.27459765625,5.57355859375,8.469234375,-1.91058984375,5.51648828125,8.366203125,0.408046875,-4.87702734375,-1.4826953125,-0.0621171875000006,-3.15765234375,-6.60538671875,-6.66634765625,-6.882328125,-7.07692578125,-11.7120625
2.003375,2.06646484375,3.02966015625,2.51294140625,3.15732421875,3.2170859375,2.54790234375,10.87929296875,5.06768359375,7.31862890625,8.82609375,12.419921875,0.74448046875,7.8030859375,10.26159765625,7.08055859375,8.960234375,0.98841015625,7.55548828125,9.808203125,1.427046875,-2.24102734375,1.3073046875,0.9238828125,-2.57165234375,-6.60138671875,-6.40834765625,-6.063328125,-6.75792578125,-12.6170625
3.551375,3.46546484375,4.57966015625,5.25094140625,5.42932421875,5.5470859375,3.55390234375,11.58529296875,7.88868359375,9.76262890625,10.60709375,13.718921875,2.87848046875,11.4040859375,12.23159765625,9.09755859375,9.563234375,4.48141015625,10.39948828125,11.866203125,3.329046875,0.98397265625,4.9723046875,3.1298828125,-0.87065234375,-6.19738671875,-4.86234765625,-4.099328125,-5.17892578125,-12.1190625
5.807375,5.47046484375,6.71766015625,8.57494140625,8.09932421875,8.7090859375,5.57790234375,12.54329296875,10.92968359375,12.76662890625,13.11409375,14.983921875,5.20148046875,15.3640859375,15.15059765625,11.36355859375,10.152234375,8.01041015625,13.65548828125,14.285203125,5.851046875,4.30497265625,8.9163046875,6.2368828125,1.66234765625,-5.34138671875,-2.25134765625,-1.458328125,-2.75292578125,-10.3480625
8.348375,7.82346484375,9.02566015625,11.86394140625,10.73532421875,12.2300859375,8.39590234375,13.69829296875,13.76768359375,15.87862890625,16.02809375,16.258921875,7.36848046875,19.0600859375,18.61359765625,13.53655859375,10.656234375,11.02141015625,16.74648828125,16.716203125,8.570046875,7.28897265625,12.4803046875,9.6528828125,4.58934765625,-3.99438671875,0.90165234375,1.248671875,-0.0699257812500003,-7.6940625
10.623375,10.10246484375,11.00966015625,14.47594140625,12.84232421875,15.3900859375,11.46490234375,14.87829296875,15.98168359375,18.45762890625,18.79709375,17.497921875,9.06448046875,21.8710859375,21.91859765625,15.25955859375,11.090234375,13.07941015625,19.07648828125,18.767203125,11.008046875,9.60597265625,15.1123046875,12.6878828125,7.41734765625,-2.18938671875,3.94665234375,3.485671875,2.30907421875,-4.6880625
12.121375,11.81646484375,12.23466015625,15.88294140625,13.99032421875,17.4470859375,14.09390234375,15.81529296875,17.21068359375,19.86662890625,20.79709375,18.541921875,10.02648046875,23.3370859375,24.28359765625,16.25555859375,11.509234375,13.92641015625,20.20248828125,20.080203125,12.746046875,11.03297265625,16.4733046875,14.7358828125,9.68634765625,-0.0913867187499999,6.29065234375,4.924671875,4.00007421875,-1.8600625
12.541375,12.56246484375,12.46066015625,15.82094140625,13.96232421875,17.9140859375,15.71090234375,16.23829296875,17.24268359375,19.70662890625,21.56509375,19.178921875,10.08448046875,23.2810859375,25.13659765625,16.40755859375,11.945234375,13.50441015625,19.97448828125,20.430203125,13.535046875,11.44397265625,16.4813046875,15.4468828125,11.04834765625,2.00161328125,7.56365234375,5.476671875,4.84307421875,0.3579375
11.898375,12.19646484375,11.73466015625,14.40694140625,12.85132421875,16.7790859375,16.08990234375,16.00129296875,16.08468359375,18.00762890625,20.99809375,19.246921875,9.22648046875,21.8630859375,24.34759765625,15.80055859375,12.354234375,11.95741015625,18.57548828125,19.813203125,13.356046875,10.81897265625,15.3073046875,14.8288828125,11.34134765625,3.74061328125,7.69165234375,5.238671875,4.87807421875,1.7099375
10.515375,10.91346484375,10.39866015625,12.12694140625,11.04432421875,14.5490859375,15.41390234375,15.14129296875,13.97468359375,15.26862890625,19.40709375,18.716921875,7.62148046875,19.5380859375,22.27559765625,14.69155859375,12.631234375,9.60641015625,16.45548828125,18.468203125,12.386046875,9.27297265625,13.3173046875,13.2418828125,10.63434765625,4.86361328125,6.87565234375,4.389671875,4.27607421875,2.1549375
8.897375,9.18546484375,8.96466015625,9.67294140625,9.09332421875,12.0630859375,14.15390234375,13.89229296875,11.32468359375,12.27862890625,17.37809375,17.712921875,5.58048046875,16.9030859375,19.60359765625,13.39755859375,12.660234375,6.89041015625,14.16448828125,16.798203125,10.918046875,7.07997265625,10.9683046875,11.2648828125,9.20134765625,5.29461328125,5.49365234375,3.127671875,3.27507421875,1.8649375
7.559375,7.56546484375,7.92266015625,7.67094140625,7.51132421875,10.1600859375,12.83990234375,12.61829296875,8.63168359375,9.80362890625,15.50909375,16.466921875,3.49348046875,14.5130859375,17.05059765625,12.16355859375,12.390234375,4.29541015625,12.16048828125,15.213203125,9.276046875,4.67297265625,8.6953046875,9.4928828125,7.45134765625,5.15461328125,3.97565234375,1.654671875,2.12807421875,1.1649375
6.871375,6.49346484375,7.57966015625,6.47694140625,6.61432421875,9.3650859375,11.86190234375,11.70029296875,6.36568359375,8.32462890625,14.18309375,15.263921875,1.75548046875,12.7360859375,15.11659765625,11.10755859375,11.893234375,2.26841015625,10.69748828125,13.998203125,7.759046875,2.57997265625,6.8383046875,8.3538828125,5.81434765625,4.68061328125,2.71265234375,0.201671875000001,1.08607421875,0.4229375
6.982375,6.19846484375,8.00066015625,6.12094140625,6.46732421875,9.7550859375,11.38590234375,11.41729296875,4.86968359375,7.92962890625,13.50609375,14.385921875,0.70948046875,11.7180859375,13.97959765625,10.26255859375,11.366234375,1.14341015625,9.82348828125,13.271203125,6.616046875,1.30897265625,5.6233046875,8.0108828125,4.65234765625,4.11761328125,1.99165234375,-0.952328125,0.36807421875,-0.0810624999999998
7.828375,6.69746484375,9.06566015625,6.39494140625,6.92232421875,11.0230859375,11.40290234375,11.88829296875,4.28968359375,8.38962890625,13.38009375,14.050921875,0.57148046875,11.4340859375,13.55359765625,9.66055859375,11.073234375,1.07341015625,9.46548828125,13.026203125,6.018046875,1.19997265625,5.1723046875,8.3828828125,4.18434765625,3.62261328125,1.95865234375,-1.520328125,0.11307421875,-0.2650625
9.222375,7.85846484375,10.56966015625,6.99694140625,7.72432421875,12.6770859375,11.83990234375,13.09529296875,4.55568359375,9.33662890625,13.64309375,14.367921875,1.36448046875,11.7720859375,13.62759765625,9.37755859375,11.247234375,1.97841015625,9.51848828125,13.204203125,6.021046875,2.30897265625,5.5063046875,9.2278828125,4.43634765625,3.21061328125,2.59565234375,-1.295328125,0.32407421875,-0.2560625
10.945375,9.47646484375,12.31666015625,7.66594140625,8.61332421875,14.2810859375,12.63590234375,14.90729296875,5.42368359375,10.43962890625,14.18209375,15.287921875,2.87848046875,12.5910859375,14.01259765625,9.50455859375,11.978234375,3.56941015625,9.90048828125,13.734203125,6.524046875,4.37497265625,6.5443046875,10.2738828125,5.24534765625,2.77161328125,3.73465234375,-0.244328125,0.83507421875,-0.3210625
12.805375,11.32746484375,14.16566015625,8.26694140625,9.42832421875,15.6290859375,13.75190234375,17.07429296875,6.56168359375,11.52562890625,14.98409375,16.597921875,4.71148046875,13.7490859375,14.62059765625,10.07855859375,13.154234375,5.43941015625,10.56548828125,14.525203125,7.276046875,6.89797265625,8.1133046875,11.3178828125,6.30534765625,2.14361328125,5.10265234375,1.452671875,1.36107421875,-0.7110625
14.658375,13.19146484375,16.00866015625,8.81194140625,10.14532421875,16.7810859375,15.12390234375,19.21429296875,7.66768359375,12.58762890625,16.08209375,17.958921875,6.39948046875,15.1160859375,15.45759765625,11.00455859375,14.485234375,7.19841015625,11.47848828125,15.441203125,7.940046875,9.28897265625,9.9673046875,12.2608828125,7.26634765625,1.19961328125,6.40365234375,3.443671875,1.61907421875,-1.5240625
16.390375,14.84946484375,17.71566015625,9.41294140625,10.85832421875,17.9330859375,16.61790234375,20.87529296875,8.58268359375,13.69262890625,17.46209375,18.978921875,7.56848046875,16.5710859375,16.54559765625,12.05455859375,15.594234375,8.58641015625,12.58948828125,16.299203125,8.216046875,11.03597265625,11.8263046875,13.0828828125,7.83934765625,-0.0793867187499999,7.39665234375,5.321671875,1.46507421875,-2.6270625
17.907375,16.10346484375,19.10666015625,10.19994140625,11.71432421875,19.2340859375,18.02390234375,21.67129296875,9.34768359375,14.87962890625,18.99009375,19.338921875,8.08148046875,18.0170859375,17.85959765625,12.95655859375,16.170234375,9.53841015625,13.81548828125,16.930203125,7.966046875,11.85597265625,13.4483046875,13.8018828125,7.90834765625,-1.56138671875,7.98165234375,6.783671875,1.00807421875,-3.6590625
19.116375,16.82446484375,19.99066015625,11.25094140625,12.83032421875,20.6710859375,19.12290234375,21.41929296875,10.15468359375,16.12862890625,20.44009375,18.921921875,8.07648046875,19.4080859375,19.30259765625,13.53955859375,16.099234375,10.18441015625,15.07248828125,17.269203125,7.285046875,11.78297265625,14.7143046875,14.4558828125,7.60634765625,-2.95138671875,8.26765234375,7.768671875,0.61207421875,-4.1030625
19.933375,17.00246484375,20.24266015625,12.54794140625,14.21632421875,22.0640859375,19.77590234375,20.21229296875,11.20768359375,17.37362890625,21.58009375,17.875921875,7.89148046875,20.7430859375,20.73259765625,13.81955859375,15.486234375,10.77441015625,16.30448828125,17.410203125,6.480046875,11.15497265625,15.6733046875,15.1128828125,7.29834765625,-3.83238671875,8.54865234375,8.473671875,0.77507421875,-3.4450625
20.309375,16.73546484375,19.86066015625,13.93194140625,15.72632421875,23.1500859375,19.97090234375,18.42129296875,12.57868359375,18.51662890625,22.24309375,16.535921875,7.86948046875,22.0210859375,21.98859765625,13.95455859375,14.576234375,11.54141015625,17.48448828125,17.548203125,5.931046875,10.47697265625,16.4773046875,15.8488828125,7.41834765625,-3.79438671875,9.16965234375,9.225671875,1.89007421875,-1.3890625
20.252375,16.17546484375,18.96366015625,15.10494140625,17.06532421875,23.6970859375,19.79590234375,16.56829296875,14.11068359375,19.41662890625,22.34609375,15.240921875,8.16548046875,23.1700859375,22.90059765625,14.07955859375,13.599234375,12.54841015625,18.55948828125,17.840203125,5.905046875,10.19097265625,17.2493046875,16.6768828125,8.22634765625,-2.63438671875,10.31265234375,10.260671875,3.99207421875,1.9449375
19.829375,15.46846484375,17.74866015625,15.71294140625,17.87932421875,23.6050859375,19.35090234375,15.10829296875,15.44568359375,19.89262890625,21.88509375,14.145921875,8.64048046875,24.0000859375,23.29359765625,14.16855859375,12.639234375,13.61741015625,19.39848828125,18.271203125,6.398046875,10.47797265625,17.9553046875,17.4938828125,9.61634765625,-0.51038671875,11.84465234375,11.550671875,6.66207421875,5.9579375
19.140375,14.72346484375,16.43966015625,15.49694140625,17.89432421875,22.9560859375,18.68490234375,14.22229296875,16.14068359375,19.78162890625,20.93209375,13.167921875,8.93148046875,24.2270859375,23.01859765625,14.01955859375,11.611234375,14.38041015625,19.78548828125,18.615203125,7.108046875,11.18797265625,18.3823046875,18.0718828125,11.10734765625,2.03461328125,13.32765234375,12.786671875,9.14507421875,9.6999375
18.278375,14.01146484375,15.24166015625,14.42494140625,17.04032421875,21.9720859375,17.78190234375,13.76529296875,15.85168359375,19.01762890625,19.62609375,12.097921875,8.66048046875,23.5780859375,22.01259765625,13.37755859375,10.347234375,14.44441015625,19.48148828125,18.521203125,7.559046875,11.93397265625,18.2273046875,18.1258828125,12.03034765625,4.24561328125,14.19265234375,13.505671875,10.63607421875,12.1699375
17.302375,13.36146484375,14.28066015625,12.71594140625,15.47732421875,20.8950859375,16.63090234375,13.41729296875,14.48768359375,17.67562890625,18.14909375,10.812921875,7.64648046875,21.9230859375,20.35959765625,12.11155859375,8.756234375,13.57441015625,18.32648828125,17.690203125,7.338046875,12.28897265625,17.2473046875,17.4258828125,11.83334765625,5.42961328125,13.98865234375,13.292671875,10.59707421875,12.6519375
16.209375,12.75346484375,13.56966015625,10.74294140625,13.53032421875,19.8820859375,15.29490234375,12.89229296875,12.26768359375,15.95962890625,16.69909375,9.448921875,6.02748046875,19.3730859375,18.32959765625,10.35655859375,6.952234375,11.81641015625,16.35848828125,16.063203125,6.333046875,11.97297265625,15.4053046875,15.9228828125,10.36034765625,5.24561328125,12.58765234375,11.945671875,8.94607421875,10.9749375
14.957375,12.10746484375,13.00966015625,8.90394140625,11.57832421875,18.9790859375,13.96290234375,12.08829296875,9.65068359375,14.16462890625,15.47909375,8.404921875,4.20948046875,16.3070859375,16.33459765625,8.54155859375,5.267234375,9.51441015625,13.87648828125,13.944203125,4.848046875,10.96797265625,12.9403046875,13.8278828125,7.97034765625,3.86261328125,10.26665234375,9.575671875,6.07407421875,7.5909375
13.530375,11.32046484375,12.46766015625,7.50394140625,9.95832421875,18.1860859375,12.92890234375,11.11129296875,7.20468359375,12.60362890625,14.68809375,8.177921875,2.68948046875,13.3020859375,14.80859765625,7.25355859375,4.122234375,7.21341015625,11.39848828125,11.935203125,3.505046875,9.50797265625,10.3523046875,11.5938828125,5.42234765625,1.89361328125,7.62365234375,6.599671875,2.70107421875,3.4479375
12.025375,10.31946484375,11.86766015625,6.70794140625,8.88832421875,17.5120859375,12.50390234375,10.20229296875,5.43968359375,11.50862890625,14.45209375,9.094921875,1.82648046875,10.9650859375,14.01959765625,6.96955859375,3.815234375,5.47441015625,9.49048828125,10.692203125,2.947046875,7.97497265625,8.2473046875,9.7718828125,3.55134765625,0.12061328125,5.36065234375,3.635671875,-0.37292578125,-0.3430625
10.664375,9.11446484375,11.24166015625,6.52994140625,8.41932421875,16.9820859375,12.86490234375,9.59029296875,4.66068359375,10.94162890625,14.74209375,11.083921875,1.65748046875,9.7240859375,13.90959765625,7.78755859375,4.334234375,4.67441015625,8.52048828125,10.586203125,3.491046875,6.73497265625,7.1173046875,8.7718828125,2.88334765625,-0.86838671875,4.01465234375,1.307671875,-2.52492578125,-2.9060625
9.695375,7.81446484375,10.70266015625,6.84994140625,8.40332421875,16.5860859375,13.90390234375,9.34029296875,4.83868359375,10.75262890625,15.31809375,13.624921875,1.86348046875,9.6480859375,14.08159765625,9.31355859375,5.307234375,4.85641015625,8.47548828125,11.471203125,4.911046875,5.98897265625,7.1173046875,8.6578828125,3.37334765625,-0.935386718749999,3.75765234375,0.0416718750000005,-3.49792578125,-3.9040625
9.229375,6.57346484375,10.34366015625,7.43194140625,8.50532421875,16.2220859375,15.18690234375,9.28729296875,5.58668359375,10.61762890625,15.77009375,15.896921875,1.89548046875,10.3890859375,13.95959765625,10.78555859375,6.118234375,5.69341015625,8.93548828125,12.707203125,6.504046875,5.69697265625,7.9613046875,9.0888828125,4.41334765625,-0.42338671875,4.33465234375,-0.0893281249999998,-3.45792578125,-3.6130625
9.138375,5.49746484375,10.13066015625,7.94094140625,8.27932421875,15.6820859375,16.08090234375,9.09729296875,6.25668359375,10.14862890625,15.64609375,17.079921875,1.22048046875,11.2840859375,13.06359765625,11.38455859375,6.135234375,6.57841015625,9.23848828125,13.430203125,7.398046875,5.57597265625,8.9963046875,9.4508828125,5.11234765625,0.0316132812500003,5.17365234375,0.597671875000001,-2.89892578125,-2.7380625
9.065375,4.55946484375,9.85866015625,8.01194140625,7.32832421875,14.7140859375,16.00890234375,8.42129296875,6.17868359375,9.04162890625,14.63009375,16.661921875,-0.432519531250001,11.6060859375,11.24759765625,10.58355859375,4.963234375,6.84341015625,8.77348828125,12.951203125,6.951046875,5.21197265625,9.4603046875,9.1338828125,4.72234765625,-0.17938671875,5.62165234375,1.522671875,-2.44192578125,-2.0760625
8.585375,3.62746484375,9.24166015625,7.39694140625,5.50132421875,13.1560859375,14.70290234375,7.02829296875,4.94168359375,7.24062890625,12.71109375,14.621921875,-2.94051953125,10.8820859375,8.79159765625,8.38555859375,2.595234375,6.03941015625,7.26948828125,11.090203125,5.040046875,4.24897265625,8.8233046875,7.8248828125,3.00234765625,-1.33738671875,5.22265234375,2.080671875,-2.57492578125,-2.1630625
7.426375,2.58946484375,8.07866015625,6.12694140625,3.02032421875,11.0750859375,12.33790234375,4.90929296875,2.60968359375,4.99862890625,10.22809375,11.434921875,-5.82651953125,9.1190859375,6.29359765625,5.32255859375,-0.580765624999998,4.15841015625,4.93448828125,8.264203125,2.101046875,2.58897265625,7.0403046875,5.6668828125,0.33434765625,-3.26438671875,3.90165234375,1.901671875,-3.47492578125,-3.0780625
5.637375,1.47646484375,6.40666015625,4.55694140625,0.431324218749999,8.7820859375,9.46090234375,2.33729296875,-0.253316406250001,2.78862890625,7.73809375,7.879921875,-8.44351953125,6.8020859375,4.40059765625,2.21455859375,-3.919765625,1.66541015625,2.35348828125,5.293203125,-1.074953125,0.481972656250001,4.5683046875,3.1888828125,-2.47865234375,-5.42538671875,1.97565234375,0.988671875000001,-4.95992578125,-4.4790625
3.599375,0.48846484375,4.52266015625,3.23194140625,-1.62367578125,6.7140859375,6.75990234375,-0.173707031250002,-2.79731640625,1.07662890625,5.77709375,4.760921875,-10.22551953125,4.6620859375,3.51759765625,-0.17344140625,-6.734765625,-0.691589843750001,0.21648828125,3.026203125,-3.683953125,-1.55702734375,2.1403046875,1.0658828125,-4.59565234375,-7.19738671875,-0.00234765625,-0.317328125,-6.58592578125,-5.8100625
1.848375,-0.0995351562499991,2.85966015625,2.63994140625,-2.66667578125,5.2440859375,4.78990234375,-2.06070703125,-4.23431640625,0.13762890625,4.65209375,2.664921875,-10.88051953125,3.3600859375,3.65959765625,-1.40144140625,-8.515765625,-2.18858984375,-0.964511718750001,2.000203125,-5.194953125,-2.95902734375,0.4533046875,-0.1491171875,-5.47965234375,-8.14138671875,-1.44234765625,-1.515328125,-7.82792578125,-6.5530625
0.823375,-0.0985351562499996,1.79766015625,3.00494140625,-2.54967578125,4.5470859375,3.79390234375,-2.96670703125,-4.15531640625,-0.0103710937499999,4.38509375,1.837921875,-10.44851953125,3.2450859375,4.51559765625,-1.41544140625,-9.060765625,-2.39358984375,-0.98951171875,2.309203125,-5.457953125,-3.31602734375,-0.0656953124999999,-0.187117187500001,-5.03465234375,-8.12638671875,-1.88734765625,-2.135328125,-8.23492578125,-6.3860625
0.692375,0.482464843750002,1.50966015625,4.22894140625,-1.44467578125,4.5620859375,3.70090234375,-2.88070703125,-2.64531640625,0.46162890625,4.79609375,2.212921875,-9.20451953125,4.2760859375,5.67659765625,-0.445441406250001,-8.485765625,-1.29358984375,0.0414882812499995,3.684203125,-4.628953125,-2.51502734375,0.6563046875,0.9298828125,-3.51565234375,-7.28438671875,-1.11134765625,-1.895328125,-7.55792578125,-5.2260625
1.343375,1.44246484375,1.92966015625,5.98594140625,0.28332421875,5.0500859375,4.25790234375,-2.06070703125,-0.17131640625,1.31262890625,5.63309375,3.528921875,-7.48051953125,6.1110859375,6.85259765625,1.16455859375,-7.115765625,0.74741015625,1.84848828125,5.695203125,-3.012953125,-0.755027343749999,2.3833046875,2.9668828125,-1.34465234375,-5.88138671875,0.84065234375,-0.768328125,-5.82392578125,-3.2090625
2.506375,2.50446484375,2.82966015625,7.89794140625,2.25932421875,5.7310859375,5.18890234375,-0.849707031250002,2.65168359375,2.35062890625,6.67909375,5.454921875,-5.50951953125,8.2840859375,7.97859765625,3.09255859375,-5.338765625,3.17341015625,4.10148828125,7.935203125,-0.935953125,1.54597265625,4.7093046875,5.5888828125,1.06134765625,-4.19738671875,3.65465234375,1.028671875,-3.34592578125,-0.6450625
3.900375,3.47546484375,3.95466015625,9.68894140625,4.23532421875,6.4340859375,6.29390234375,0.458292968749999,5.29868359375,3.49962890625,7.80509375,7.676921875,-3.37651953125,10.3900859375,9.17059765625,5.10555859375,-3.495765625,5.46241015625,6.52548828125,10.121203125,1.310046875,3.91297265625,7.2233046875,8.4608828125,3.37534765625,-2.46338671875,6.82665234375,3.121671875,-0.64592578125,2.0409375
5.334375,4.32846484375,5.12966015625,11.25194140625,6.14332421875,7.1750859375,7.46290234375,1.66629296875,7.47868359375,4.79462890625,8.96909375,9.921921875,-1.10351953125,12.2040859375,10.57259765625,7.05155859375,-1.842765625,7.31041015625,8.92348828125,12.112203125,3.460046875,5.97797265625,9.6153046875,11.2988828125,5.38834765625,-0.86338671875,9.79265234375,5.106671875,1.70907421875,4.3899375
6.720375,5.16846484375,6.28666015625,12.60394140625,8.02132421875,8.0980859375,8.62490234375,2.67329296875,9.14368359375,6.28462890625,10.15509375,11.950921875,1.21048046875,13.6690859375,12.20259765625,8.81855859375,-0.547765624999997,8.65941015625,11.13448828125,13.840203125,5.265046875,7.57097265625,11.7103046875,13.8738828125,6.98334765625,0.45361328125,12.08065234375,6.670671875,3.30007421875,6.0319375
7.997375,6.08946484375,7.39566015625,13.78594140625,9.87232421875,9.3040859375,9.68090234375,3.43029296875,10.37668359375,7.91462890625,11.29009375,13.547921875,3.28348046875,14.8040859375,13.87859765625,10.27855859375,0.288234375000002,9.60041015625,12.96648828125,15.237203125,6.499046875,8.69497265625,13.3993046875,15.9738828125,8.10034765625,1.37161328125,13.42165234375,7.644671875,3.97507421875,6.7889375
9.022375,7.03446484375,8.35766015625,14.75994140625,11.54832421875,10.6800859375,10.45690234375,3.87029296875,11.21768359375,9.44962890625,12.20409375,14.522921875,4.67648046875,15.5940859375,15.26159765625,11.26955859375,0.630234375000004,10.22441015625,14.17348828125,16.186203125,7.008046875,9.41797265625,14.5673046875,17.3688828125,8.70334765625,1.83261328125,13.76865234375,7.991671875,3.84407421875,6.7299375
9.541375,7.76146484375,8.96066015625,15.38594140625,12.73632421875,11.8660859375,10.73390234375,3.88429296875,11.57768359375,10.53162890625,12.65509375,14.757921875,4.96748046875,15.9590859375,16.00859765625,11.63155859375,0.508234375000004,10.52741015625,14.52248828125,16.540203125,6.777046875,9.76497265625,15.0653046875,17.8338828125,8.77734765625,1.86761328125,13.26265234375,7.751671875,3.16907421875,6.1239375
9.303375,7.95146484375,8.95666015625,15.48794140625,13.10532421875,12.4080859375,10.36390234375,3.41429296875,11.30168359375,10.84162890625,12.45109375,14.274921875,3.98848046875,15.8180859375,15.94759765625,11.28655859375,0.0402343750000043,10.42741015625,13.91148828125,16.200203125,5.975046875,9.68997265625,14.7763046875,17.2378828125,8.34834765625,1.60561328125,12.14565234375,7.012671875,2.24707421875,5.3179375
8.253375,7.41346484375,8.24466015625,14.98794140625,12.52032421875,12.0330859375,9.39990234375,2.56629296875,10.34968359375,10.30062890625,11.59409375,13.286921875,1.95348046875,15.1880859375,15.18959765625,10.32655859375,-0.565765624999997,9.86841015625,12.48648828125,15.214203125,4.929046875,9.13197265625,13.7303046875,15.6698828125,7.53634765625,1.25361328125,10.71265234375,5.922671875,1.34307421875,4.6149375
6.646375,6.23946484375,7.01066015625,14.01394140625,11.18832421875,10.8700859375,8.14490234375,1.61529296875,8.90668359375,9.18062890625,10.37209375,12.174921875,-0.60551953125,14.2470859375,14.11859765625,9.03855859375,-1.050765625,8.92041015625,10.65848828125,13.835203125,4.022046875,8.10197265625,12.1923046875,13.5038828125,6.58934765625,1.01961328125,9.28665234375,4.698671875,0.68307421875,4.1859375
4.987375,4.80946484375,5.71966015625,12.88294140625,9.62032421875,9.4640859375,7.05990234375,0.878292968749999,7.34868359375,8.02862890625,9.29909375,11.378921875,-3.06751953125,13.2930859375,13.24559765625,7.82655859375,-1.182765625,7.80741015625,8.99348828125,12.475203125,3.549046875,6.72097265625,10.6313046875,11.3328828125,5.85434765625,1.03761328125,8.19665234375,3.613671875,0.45407421875,4.0559375
3.817375,3.61946484375,4.92766015625,11.96294140625,8.40732421875,8.5270859375,6.57790234375,0.565292968749999,6.09268359375,7.43462890625,8.92209375,11.254921875,-4.98251953125,12.6250859375,13.00259765625,7.05555859375,-0.839765624999997,6.82941015625,8.01148828125,11.562203125,3.615046875,5.18197265625,9.5533046875,9.7588828125,5.67634765625,1.31161328125,7.71665234375,2.923671875,0.78607421875,4.1529375
3.491375,3.03946484375,5.01166015625,11.50294140625,7.95032421875,8.5830859375,6.92490234375,0.734292968749999,5.42068359375,7.75462890625,9.56109375,11.953921875,-6.19751953125,12.4160859375,13.58159765625,6.90455859375,-0.0337656249999974,6.22741015625,7.97648828125,11.365203125,4.133046875,3.66197265625,9.2913046875,9.1538828125,6.25134765625,1.74161328125,7.97865234375,2.776671875,1.70507421875,4.3659375
4.021375,3.14246484375,6.00066015625,11.52694140625,8.29332421875,9.7100859375,8.04190234375,1.30629296875,5.36768359375,8.97062890625,11.17209375,13.375921875,-6.83351953125,12.6470859375,14.88259765625,7.31355859375,1.116234375,6.06141015625,8.81448828125,11.875203125,4.923046875,2.24797265625,9.8473046875,9.5018828125,7.53234765625,2.20661328125,8.89865234375,3.141671875,3.10807421875,4.6029375
5.083375,3.69046484375,7.55166015625,11.85094140625,9.13332421875,11.5230859375,9.60990234375,2.10229296875,5.70668359375,10.72662890625,13.36309375,15.203921875,-7.16951953125,13.1370859375,16.58659765625,8.03755859375,2.436234375,6.17941015625,10.15448828125,12.812203125,5.809046875,0.91697265625,10.9003046875,10.4208828125,9.22834765625,2.64161328125,10.18365234375,3.806671875,4.77107421875,4.8129375
5.083375,3.69046484375,7.55166015625,11.85094140625,9.13332421875,11.5230859375,9.60990234375,2.10229296875,5.70668359375,10.72662890625,13.36309375,15.203921875,-7.16951953125,13.1370859375,16.58659765625,8.03755859375,2.436234375,6.17941015625,10.15448828125,12.812203125,5.809046875,0.91697265625,10.9003046875,10.4208828125,9.22834765625,2.64161328125,10.18365234375,3.806671875,4.77107421875,4.8129375
