"Fp1","Fpz","Fp2","F7","F3","Fz","F4","F8","FC5","FC1","FC2","FC6","T7","C3","Cz","C4","T8","CP5","CP1","CP2","CP6","P7","P3","Pz","P4","P8","POz","O1","Oz","O2"
-14.243,-15.55605859375,-23.1846640625,-27.97081640625,-3.187265625,-0.00800000000000001,-14.4897578125,-27.52532421875,-4.0980390625,-1.29743359375,-2.2521796875,-30.0486875,-10.38426171875,0.672828125,2.10441796875,-11.7016875,-0.00673437500000063,-3.66853515625,-1.15028125,-1.401421875,-2.72313671875,-1.29807421875,-1.65328515625,-4.42587109375,-2.8806640625,4.47071484375,-8.18691796875,5.48486328125,7.194140625,-0.0870117187499995
-9.358,-9.92905859375,-14.6666640625,-26.01181640625,0.0947343749999998,0.996,-14.1117578125,-22.39932421875,-1.6430390625,0.775566406249999,-2.5281796875,-31.9486875,-9.91726171875,2.482828125,3.22441796875,-10.8386875,-5.627734375,-2.04653515625,-0.34828125,-1.412421875,-3.87313671875,-0.0690742187499995,-0.38228515625,-3.65387109375,-3.6616640625,0.490714843749999,-7.40591796875,5.94586328125,7.227140625,-1.01701171875
-6.81,-6.96105859375,-11.6566640625,-25.07481640625,1.785734375,1.423,-14.0807578125,-19.76432421875,0.1739609375,1.62756640625,-3.1221796875,-33.6866875,-9.18226171875,4.044828125,3.39141796875,-11.0686875,-10.311734375,-0.67553515625,0.10071875,-1.938421875,-5.47013671875,1.31992578125,0.65871484375,-3.18687109375,-4.5306640625,-2.63028515625,-6.69891796875,6.73586328125,7.230140625,-2.06101171875
-6.356,-6.75405859375,-14.3026640625,-25.00481640625,1.724734375,1.132,-14.2527578125,-19.66332421875,1.1709609375,1.15256640625,-4.0841796875,-35.1356875,-8.25926171875,5.182828125,2.54641796875,-12.4266875,-13.778734375,0.27046484375,0.05171875,-3.075421875,-7.49913671875,2.65692578125,1.30571484375,-3.17487109375,-5.5496640625,-4.82128515625,-6.24491796875,7.57986328125,7.010140625,-3.32801171875
-7.06,-8.60505859375,-20.8426640625,-25.29081640625,0.225734375,0.128,-14.4757578125,-21.38932421875,1.3129609375,-0.39843359375,-5.3681796875,-36.2206875,-7.32126171875,5.715828125,0.91141796875,-14.5836875,-15.860734375,0.64846484375,-0.57928125,-4.739421875,-9.73213671875,3.59992578125,1.40671484375,-3.69987109375,-6.7416640625,-6.16928515625,-6.25491796875,7.99686328125,6.347140625,-4.85101171875
-7.949,-11.42905859375,-28.4366640625,-25.34881640625,-2.095265625,-1.449,-14.7687578125,-23.90632421875,0.7279609375,-2.56543359375,-6.8561796875,-36.9826875,-6.53226171875,5.519828125,-1.13358203125,-17.0136875,-16.495734375,0.42046484375,-1.78128125,-6.684421875,-11.78913671875,3.84792578125,0.87571484375,-4.71587109375,-8.0456640625,-6.78928515625,-6.86191796875,7.56586328125,5.156140625,-6.50101171875
-8.498,-14.18805859375,-34.2646640625,-24.78481640625,-4.573265625,-3.376,-15.3277578125,-26.26632421875,-0.3170390625,-4.87343359375,-8.4061796875,-37.5586875,-5.98226171875,4.563828125,-3.22458203125,-19.2036875,-15.769734375,-0.31453515625,-3.43928125,-8.589421875,-13.27413671875,3.29392578125,-0.28428515625,-6.04887109375,-9.3156640625,-6.78028515625,-8.02891796875,6.17886328125,3.584140625,-7.98601171875
-8.716,-16.14405859375,-36.4426640625,-23.53281640625,-6.722265625,-5.406,-16.3897578125,-27.89132421875,-1.4850390625,-6.96843359375,-9.9011796875,-38.0916875,-5.70626171875,2.929828125,-5.11158203125,-20.8236875,-13.995734375,-1.36653515625,-5.35628125,-10.173421875,-13.91513671875,2.06292578125,-1.97228515625,-7.44887109375,-10.3506640625,-6.26428515625,-9.53191796875,4.12086328125,1.979140625,-8.96001171875
-8.894,-16.93405859375,-34.4816640625,-21.85981640625,-8.341265625,-7.307,-18.0877578125,-28.65032421875,-2.4830390625,-8.66543359375,-11.2591796875,-38.6286875,-5.74426171875,0.798828125,-6.67858203125,-21.7746875,-11.743734375,-2.53153515625,-7.28128125,-11.264421875,-13.64113671875,0.437925781250001,-3.98928515625,-8.66887109375,-10.9476640625,-5.43228515625,-11.03591796875,1.94786328125,0.740140625,-9.17401171875
-9.226,-16.52705859375,-29.2386640625,-20.22881640625,-9.465265625,-8.881,-20.3137578125,-28.71132421875,-3.1440390625,-9.90943359375,-12.4151796875,-39.0666875,-6.13626171875,-1.576171875,-7.88758203125,-22.1386875,-9.733734375,-3.65953515625,-8.96528125,-11.823421875,-12.60813671875,-1.25307421875,-6.05128515625,-9.54087109375,-10.9696640625,-4.52528515625,-12.21591796875,0.22686328125,0.134140625,-8.59601171875
-9.57,-15.17505859375,-22.5196640625,-19.08081640625,-10.222265625,-9.981,-22.6717578125,-28.27632421875,-3.4560390625,-10.71843359375,-13.3141796875,-39.2136875,-6.87726171875,-3.908171875,-8.72758203125,-22.1026875,-8.588734375,-4.65553515625,-10.21628125,-11.920421875,-11.16913671875,-2.70907421875,-7.83328515625,-10.01187109375,-10.4286640625,-3.76728515625,-12.87491796875,-0.70713671875,0.193140625,-7.44901171875
-9.507,-13.34605859375,-16.5076640625,-18.66081640625,-10.712265625,-10.534,-24.5637578125,-27.44532421875,-3.5440390625,-11.14543359375,-13.9111796875,-38.9216875,-7.84926171875,-5.931171875,-9.19958203125,-21.8786875,-8.554734375,-5.45353515625,-10.94028125,-11.698421875,-9.80013671875,-3.69707421875,-9.04728515625,-10.15087109375,-9.5266640625,-3.30728515625,-13.00491796875,-0.85813671875,0.704140625,-6.14101171875
-8.638,-11.60805859375,-13.1406640625,-18.94781640625,-10.970265625,-10.568,-25.4167578125,-26.29732421875,-3.6110390625,-11.26743359375,-14.1821796875,-38.1996875,-8.82226171875,-7.437171875,-9.32958203125,-21.6556875,-9.394734375,-5.98853515625,-11.14228125,-11.319421875,-8.96313671875,-4.09007421875,-9.54028515625,-10.10787109375,-8.6146640625,-3.23328515625,-12.78091796875,-0.52513671875,1.293140625,-5.13701171875
-6.881,-10.44805859375,-13.4566640625,-19.69481640625,-10.998265625,-10.214,-24.9257578125,-25.01032421875,-3.8430390625,-11.17443359375,-14.1361796875,-37.2156875,-9.53526171875,-8.313171875,-9.18258203125,-21.5476875,-10.549734375,-6.20853515625,-10.91328125,-10.931421875,-8.95213671875,-3.92407421875,-9.36828515625,-10.06087109375,-8.0826640625,-3.61128515625,-12.48791796875,-0.16013671875,1.538140625,-4.82601171875
-4.516,-10.07105859375,-17.1236640625,-20.49781640625,-10.820265625,-9.666,-23.1807578125,-23.83232421875,-4.3190390625,-10.95443359375,-13.8311796875,-36.1746875,-9.83126171875,-8.564171875,-8.85758203125,-21.5696875,-11.471734375,-6.12653515625,-10.40328125,-10.644421875,-9.79113671875,-3.43407421875,-8.79828515625,-10.16487109375,-8.2116640625,-4.50128515625,-12.41291796875,-0.20113671875,1.097140625,-5.42201171875
-2.013,-10.32005859375,-22.4706640625,-20.90581640625,-10.492265625,-9.125,-20.6547578125,-22.91532421875,-4.9480390625,-10.66243359375,-13.3751796875,-35.1776875,-9.75126171875,-8.308171875,-8.45958203125,-21.6566875,-11.910734375,-5.85153515625,-9.78428125,-10.519421875,-11.23313671875,-2.99407421875,-8.20328515625,-10.49687109375,-9.0576640625,-5.89328515625,-12.71191796875,-0.89213671875,-0.155859375,-6.90301171875
0.182999999999999,-10.78305859375,-27.1856640625,-20.56981640625,-10.056265625,-8.721,-18.0777578125,-22.23632421875,-5.5000390625,-10.29843359375,-12.8901796875,-34.1896875,-9.53426171875,-7.720171875,-8.06158203125,-21.7016875,-11.950734375,-5.54753515625,-9.18528125,-10.540421875,-12.84613671875,-2.94107421875,-7.87428515625,-11.00287109375,-10.3926640625,-7.61428515625,-13.31491796875,-2.13213671875,-2.023859375,-9.00101171875
1.787,-11.01805859375,-29.3566640625,-19.38681640625,-9.487265625,-8.449,-16.1637578125,-21.65332421875,-5.6870390625,-9.78843359375,-12.4411796875,-33.1296875,-9.48026171875,-6.940171875,-7.66658203125,-21.5996875,-11.821734375,-5.33253515625,-8.62628125,-10.590421875,-14.15313671875,-3.37707421875,-7.85528515625,-11.47787109375,-11.7476640625,-9.30728515625,-13.91591796875,-3.48213671875,-4.009859375,-11.25101171875
2.741,-10.74005859375,-28.3026640625,-17.54481640625,-8.700265625,-8.17,-15.2657578125,-21.03832421875,-5.2850390625,-9.01443359375,-12.0051796875,-31.9936875,-9.77426171875,-6.030171875,-7.20558203125,-21.2686875,-11.648734375,-5.20053515625,-8.02328125,-10.478421875,-14.75813671875,-4.11607421875,-7.93128515625,-11.62587109375,-12.5686640625,-10.53828515625,-14.08691796875,-4.37413671875,-5.493859375,-13.12501171875
3.22,-9.87605859375,-24.7096640625,-15.43681640625,-7.632265625,-7.701,-15.1997578125,-20.34232421875,-4.2510390625,-7.88143359375,-11.4881796875,-30.9186875,-10.36826171875,-5.001171875,-6.58858203125,-20.6696875,-11.325734375,-5.03953515625,-7.26428125,-10.022421875,-14.45513671875,-4.80507421875,-7.78628515625,-11.20187109375,-12.4236640625,-10.96028515625,-13.46891796875,-4.41113671875,-5.999859375,-14.19401171875
3.519,-8.49805859375,-20.0736640625,-13.51481640625,-6.352265625,-6.928,-15.3977578125,-19.59632421875,-2.7820390625,-6.40743359375,-10.7921796875,-30.1116875,-11.00526171875,-3.892171875,-5.77758203125,-19.8226875,-10.604734375,-4.72553515625,-6.31028125,-9.146421875,-13.26813671875,-5.12707421875,-7.21528515625,-10.14687109375,-11.1716640625,-10.41928515625,-11.93591796875,-3.54613671875,-5.387859375,-14.25001171875
3.87,-6.74905859375,-15.8526640625,-12.14781640625,-5.088265625,-5.903,-15.3267578125,-18.84532421875,-1.2570390625,-4.77343359375,-9.8901796875,-29.6886875,-11.36426171875,-2.839171875,-4.84358203125,-18.8206875,-9.305734375,-4.22653515625,-5.26028125,-7.929421875,-11.42213671875,-4.96507421875,-6.25728515625,-8.64887109375,-9.0136640625,-8.94628515625,-9.66591796875,-2.05613671875,-3.871859375,-13.31501171875
4.337,-4.82205859375,-12.8116640625,-11.54281640625,-4.167265625,-4.848,-14.8127578125,-18.04932421875,-0.0920390625,-3.30343359375,-8.8781796875,-29.5366875,-11.24026171875,-2.080171875,-3.97958203125,-17.8176875,-7.500734375,-3.64553515625,-4.34228125,-6.609421875,-9.27613671875,-4.43107421875,-5.19128515625,-7.09987109375,-6.4326640625,-6.70528515625,-7.08991796875,-0.37413671875,-1.899859375,-11.59001171875
4.81,-3.02605859375,-10.9436640625,-11.74881640625,-3.878265625,-4.075,-14.0617578125,-17.04932421875,0.4019609375,-2.37243359375,-7.9621796875,-29.3206875,-10.65226171875,-1.863171875,-3.43958203125,-16.9956875,-5.524734375,-3.16853515625,-3.83628125,-5.516421875,-7.23413671875,-3.78507421875,-4.40228515625,-5.96487109375,-4.0506640625,-3.95628515625,-4.73891796875,1.09586328125,0.028140625,-9.37601171875
5.026,-1.81505859375,-9.8996640625,-12.71181640625,-4.353265625,-3.842,-13.4237578125,-15.70332421875,0.1179609375,-2.25143359375,-7.3731796875,-28.6726875,-9.82326171875,-2.304171875,-3.43658203125,-16.4926875,-3.780734375,-2.96953515625,-3.94228125,-4.946421875,-5.64813671875,-3.29107421875,-4.19528515625,-5.58987109375,-2.4096640625,-1.05528515625,-3.04491796875,2.10886328125,1.514140625,-7.02101171875
4.591,-1.72405859375,-9.5346640625,-14.34081640625,-5.472265625,-4.204,-13.1097578125,-14.10432421875,-0.8240390625,-2.96243359375,-7.2151796875,-27.4266875,-9.05626171875,-3.277171875,-4.01158203125,-16.3256875,-2.478734375,-3.09953515625,-4.64028125,-5.010421875,-4.72113671875,-3.07807421875,-4.61628515625,-6.01587109375,-1.7686640625,1.55971484375,-2.17391796875,2.63586328125,2.370140625,-4.86901171875
3.103,-3.15105859375,-10.1426640625,-16.50781640625,-6.864265625,-4.945,-12.9987578125,-12.64632421875,-2.0950390625,-4.20643359375,-7.3611796875,-25.7356875,-8.58926171875,-4.409171875,-4.94858203125,-16.3336875,-1.516734375,-3.44353515625,-5.63128125,-5.538421875,-4.46013671875,-3.07407421875,-5.40028515625,-6.92687109375,-2.0046640625,3.43171484375,-1.98191796875,2.82786328125,2.619140625,-3.22301171875
0.406,-6.10105859375,-12.2206640625,-18.99881640625,-8.012265625,-5.645,-12.6437578125,-11.82932421875,-3.2610390625,-5.44943359375,-7.4741796875,-23.9666875,-8.50926171875,-5.248171875,-5.83058203125,-16.2136875,-0.643734374999999,-3.77453515625,-6.45128125,-6.135421875,-4.70113671875,-3.07307421875,-6.10328515625,-7.78387109375,-2.7066640625,4.19171484375,-2.12091796875,2.88486328125,2.413140625,-2.29601171875
-3.212,-10.05905859375,-16.0036640625,-21.48781640625,-8.460265625,-5.886,-11.5457578125,-11.96032421875,-3.9460390625,-6.14043359375,-7.1701796875,-22.4946875,-8.75326171875,-5.489171875,-6.21358203125,-15.6526875,0.220265625,-3.88453515625,-6.69528125,-6.371421875,-5.19513671875,-2.88907421875,-6.33828515625,-8.10187109375,-3.4056640625,3.68171484375,-2.23691796875,2.92986328125,1.918140625,-2.16801171875
-7.076,-14.11505859375,-21.0556640625,-23.60081640625,-8.015265625,-5.46,-9.5627578125,-12.96032421875,-3.9940390625,-5.96343359375,-6.2351796875,-21.5406875,-9.16226171875,-5.135171875,-5.84858203125,-14.5086875,0.796265625,-3.71353515625,-6.22628125,-6.001421875,-5.71013671875,-2.49007421875,-5.98428515625,-7.69887109375,-3.7966640625,2.02871484375,-2.16091796875,2.92786328125,1.228140625,-2.78001171875
-10.426,-17.29205859375,-26.1666640625,-25.05581640625,-6.848265625,-4.479,-7.1707578125,-14.39332421875,-3.5330390625,-4.98343359375,-4.7691796875,-21.1676875,-9.54426171875,-4.476171875,-4.80958203125,-12.9276875,0.594265625,-3.37653515625,-5.24028125,-5.089421875,-6.09913671875,-2.01907421875,-5.25028515625,-6.78487109375,-3.8476640625,-0.38828515625,-1.96391796875,2.72986328125,0.359140625,-3.96801171875
-12.759,-18.93705859375,-29.6566640625,-25.75981640625,-5.437265625,-3.328,-5.3017578125,-15.63532421875,-2.8990390625,-3.60943359375,-3.1841796875,-21.3356875,-9.72626171875,-3.930171875,-3.46258203125,-11.3146875,-0.695734375000001,-3.10453515625,-4.17428125,-3.984421875,-6.33613671875,-1.71307421875,-4.56528515625,-5.85387109375,-3.7546640625,-3.06828515625,-1.88091796875,2.16786328125,-0.718859375,-5.52501171875
-14.05,-18.97505859375,-30.1086640625,-25.82881640625,-4.387265625,-2.486,-4.8527578125,-16.15632421875,-2.4800390625,-2.41443359375,-2.0101796875,-21.9396875,-9.59926171875,-3.829171875,-2.31158203125,-10.1496875,-2.865734375,-3.13053515625,-3.50828125,-3.144421875,-6.49313671875,-1.79407421875,-4.37028515625,-5.44587109375,-3.7876640625,-5.53128515625,-2.15791796875,1.16586328125,-2.028859375,-7.24001171875
-14.752,-17.91905859375,-27.1876640625,-25.53181640625,-4.194265625,-2.303,-6.1727578125,-15.76332421875,-2.5580390625,-1.88243359375,-1.6281796875,-22.7716875,-9.16826171875,-4.283171875,-1.78458203125,-9.7326875,-5.170734375,-3.57953515625,-3.55428125,-2.901421875,-6.65313671875,-2.38607421875,-4.89928515625,-5.88287109375,-4.1046640625,-7.39128515625,-2.89891796875,-0.19913671875,-3.535859375,-8.89801171875
-15.508,-16.57605859375,-21.9926640625,-25.17981640625,-5.035265625,-2.83,-8.8277578125,-14.67832421875,-3.2240390625,-2.19943359375,-2.0571796875,-23.4756875,-8.55526171875,-5.150171875,-2.05158203125,-10.0056875,-6.664734375,-4.39953515625,-4.31428125,-3.276421875,-6.79313671875,-3.45807421875,-6.05528515625,-7.09187109375,-4.6206640625,-8.34328515625,-3.98991796875,-1.69013671875,-5.102859375,-10.23301171875
-16.704,-15.62905859375,-16.6246640625,-24.99481640625,-6.697265625,-3.801,-11.7637578125,-13.35532421875,-4.3710390625,-3.19343359375,-2.9571796875,-23.6326875,-7.96126171875,-6.131171875,-2.96358203125,-10.5896875,-6.658734375,-5.36953515625,-5.50028125,-3.987421875,-6.75613671875,-4.79607421875,-7.45228515625,-8.63987109375,-5.0316640625,-8.15928515625,-5.14091796875,-2.97113671875,-6.473859375,-10.94201171875
-18.161,-15.36705859375,-13.2046640625,-25.03581640625,-8.677265625,-4.786,-13.7817578125,-12.19432421875,-5.7730390625,-4.44443359375,-3.8341796875,-22.9676875,-7.56826171875,-6.927171875,-4.14858203125,-11.0196875,-5.049734375,-6.20753515625,-6.69128125,-4.636421875,-6.33413671875,-6.04607421875,-8.60928515625,-9.94887109375,-4.9986640625,-6.75028515625,-6.02191796875,-3.69513671875,-7.341859375,-10.78601171875
-19.274,-15.70605859375,-12.9596640625,-25.22481640625,-10.406265625,-5.399,-14.0777578125,-11.37332421875,-7.1760390625,-5.50543359375,-4.3031796875,-21.5286875,-7.46226171875,-7.369171875,-5.18658203125,-11.0116875,-2.354734375,-6.70853515625,-7.52628125,-4.933421875,-5.42913671875,-6.82707421875,-9.17128515625,-10.57687109375,-4.3596640625,-4.28028515625,-6.43091796875,-3.62813671875,-7.465859375,-9.73401171875
-19.498,-16.42205859375,-15.8256640625,-25.46081640625,-11.479265625,-5.466,-12.5727578125,-10.86632421875,-8.3830390625,-6.08343359375,-4.2291796875,-19.6786875,-7.59026171875,-7.451171875,-5.78158203125,-10.5806875,0.555265625000001,-6.83053515625,-7.83628125,-4.825421875,-4.14113671875,-6.88007421875,-9.04528515625,-10.41287109375,-3.2336640625,-1.20728515625,-6.37591796875,-2.74713671875,-6.782859375,-8.02701171875
-18.811,-17.36205859375,-20.6226640625,-25.70981640625,-11.784265625,-5.053,-9.8477578125,-10.54432421875,-9.2620390625,-6.12343359375,-3.7261796875,-17.8856875,-7.79326171875,-7.285171875,-5.84658203125,-9.9686875,2.851265625,-6.68453515625,-7.66328125,-4.471421875,-2.74013671875,-6.19807421875,-8.40028515625,-9.68787109375,-1.9686640625,1.81971484375,-6.05591796875,-1.31713671875,-5.471859375,-6.11301171875
-17.836,-18.50805859375,-25.6546640625,-26.03081640625,-11.485265625,-4.405,-6.8247578125,-10.27932421875,-9.7530390625,-5.77743359375,-3.0571796875,-16.4976875,-7.88226171875,-7.034171875,-5.50858203125,-9.4626875,4.091265625,-6.45353515625,-7.21128125,-4.132421875,-1.54713671875,-5.04207421875,-7.57228515625,-8.84087109375,-0.981664062500001,4.16271484375,-5.75491796875,0.13086328125,-3.929859375,-4.48001171875
-17.582,-19.89805859375,-29.4146640625,-26.55481640625,-10.885265625,-3.825,-4.4177578125,-10.02632421875,-9.8640390625,-5.30143359375,-2.5071796875,-15.6436875,-7.70926171875,-6.835171875,-5.03358203125,-9.2376875,4.340265625,-6.29453515625,-6.73528125,-4.034421875,-0.799136718750001,-3.84407421875,-6.91028515625,-8.29387109375,-0.570664062500001,5.40271484375,-5.70991796875,0.98686328125,-2.633859375,-3.48101171875
-18.962,-21.53205859375,-31.1536640625,-27.40881640625,-10.252265625,-3.552,-3.2957578125,-9.87432421875,-9.6710390625,-4.93543359375,-2.2801796875,-15.2986875,-7.21126171875,-6.742171875,-4.70058203125,-9.2976875,4.055265625,-6.26053515625,-6.42728125,-4.265421875,-0.56913671875,-2.99007421875,-6.62828515625,-8.27387109375,-0.781664062500001,5.45971484375,-6.00591796875,0.86586328125,-1.932859375,-3.22101171875
-22.297,-23.29805859375,-31.0626640625,-28.60481640625,-9.699265625,-3.686,-3.7467578125,-9.99432421875,-9.2850390625,-4.81443359375,-2.4421796875,-15.4156875,-6.40826171875,-6.716171875,-4.68758203125,-9.5376875,3.816265625,-6.27953515625,-6.34728125,-4.764421875,-0.776136718750001,-2.61707421875,-6.72728515625,-8.73887109375,-1.4166640625,4.59071484375,-6.54691796875,-0.13513671875,-1.887859375,-3.55601171875
-27.036,-24.97005859375,-30.0466640625,-29.94181640625,-9.199265625,-4.184,-5.5827578125,-10.50932421875,-8.8110390625,-4.94043359375,-2.9331796875,-16.0096875,-5.37626171875,-6.676171875,-5.01558203125,-9.8416875,4.058265625,-6.21253515625,-6.44928125,-5.392421875,-1.27513671875,-2.55007421875,-7.04228515625,-9.45987109375,-2.1596640625,3.26971484375,-7.11891796875,-1.44813671875,-2.257859375,-4.20401171875
-31.916,-26.26005859375,-29.2196640625,-31.04081640625,-8.696265625,-4.893,-8.1537578125,-11.41332421875,-8.3220390625,-5.21143359375,-3.5931796875,-17.1086875,-4.22826171875,-6.572171875,-5.54958203125,-10.1426875,4.912265625,-5.95653515625,-6.63228125,-6.018421875,-1.93613671875,-2.46107421875,-7.35828515625,-10.15987109375,-2.7456640625,2.02271484375,-7.49591796875,-2.33913671875,-2.652859375,-4.89101171875
-35.487,-26.91305859375,-29.3776640625,-31.52281640625,-8.207265625,-5.609,-10.5567578125,-12.59032421875,-7.8500390625,-5.47443359375,-4.2011796875,-18.5926875,-3.10526171875,-6.422171875,-6.05858203125,-10.3986875,6.189265625,-5.53653515625,-6.78828125,-6.544421875,-2.65213671875,-2.13207421875,-7.51728515625,-10.61887109375,-3.0706640625,1.24171484375,-7.53891796875,-2.36013671875,-2.750859375,-5.46501171875
-36.702,-26.77505859375,-30.6206640625,-31.18981640625,-7.844265625,-6.119,-11.9687578125,-13.85432421875,-7.3990390625,-5.58743359375,-4.5281796875,-20.0876875,-2.16126171875,-6.290171875,-6.30158203125,-10.5496875,7.468265625,-5.09353515625,-6.81528125,-6.891421875,-3.32413671875,-1.64207421875,-7.45228515625,-10.71987109375,-3.2056640625,1.03671484375,-7.23791796875,-1.61313671875,-2.449859375,-5.91301171875
-35.265,-25.83105859375,-32.2946640625,-30.09281640625,-7.743265625,-6.273,-11.9837578125,-14.93332421875,-6.9630390625,-5.48443359375,-4.4441796875,-21.0216875,-1.52226171875,-6.235171875,-6.13158203125,-10.5316875,8.245265625,-4.80553515625,-6.64128125,-7.004421875,-3.87513671875,-1.31507421875,-7.16628515625,-10.44987109375,-3.3586640625,1.17271484375,-6.69991796875,-0.69013671875,-1.882859375,-6.32501171875
-31.66,-24.21405859375,-33.3126640625,-28.46981640625,-7.957265625,-6.039,-10.7697578125,-15.45032421875,-6.5480390625,-5.21643359375,-4.0041796875,-20.9026875,-1.23726171875,-6.284171875,-5.56058203125,-10.3326875,8.137265625,-4.76253515625,-6.25228125,-6.878421875,-4.29713671875,-1.45707421875,-6.69528515625,-9.88387109375,-3.7736640625,1.17271484375,-6.08691796875,-0.29813671875,-1.289859375,-6.79201171875
-26.959,-22.18405859375,-32.7146640625,-26.64981640625,-8.402265625,-5.51,-9.0067578125,-15.01632421875,-6.2020390625,-4.93043359375,-3.4371796875,-19.6166875,-1.25326171875,-6.410171875,-4.74958203125,-10.0336875,7.061265625,-4.90253515625,-5.70528125,-6.571421875,-4.64213671875,-2.07807421875,-6.06728515625,-9.13887109375,-4.6006640625,0.586714843749999,-5.53491796875,-0.79413671875,-0.831859375,-7.31401171875
-22.466,-20.08305859375,-30.1696640625,-24.95781640625,-8.887265625,-4.858,-7.5787578125,-13.42332421875,-6.0050390625,-4.80043359375,-3.0321796875,-17.5576875,-1.42926171875,-6.540171875,-3.93458203125,-9.7886875,5.285265625,-5.03453515625,-5.10628125,-6.175421875,-4.96613671875,-2.82307421875,-5.30328515625,-8.33787109375,-5.7676640625,-0.72628515625,-5.09191796875,-1.92113671875,-0.465859375,-7.74201171875
-19.272,-18.26105859375,-26.1196640625,-23.62081640625,-9.205265625,-4.27,-7.1637578125,-10.77532421875,-6.0200390625,-4.93843359375,-3.0081796875,-15.4626875,-1.57926171875,-6.585171875,-3.33758203125,-9.7546875,3.303265625,-4.95453515625,-4.58128125,-5.794421875,-5.25913671875,-3.16807421875,-4.45328515625,-7.59787109375,-6.9816640625,-2.46028515625,-4.72691796875,-2.92113671875,0.0351406249999999,-7.80901171875
-17.854,-16.97605859375,-21.5356640625,-22.73581640625,-9.216265625,-3.891,-7.9207578125,-7.47632421875,-6.2360390625,-5.34743359375,-3.4321796875,-14.0466875,-1.52126171875,-6.484171875,-3.11258203125,-10.0246875,1.623265625,-4.56353515625,-4.24828125,-5.522421875,-5.44613671875,-2.75507421875,-3.63228515625,-7.03187109375,-7.8596640625,-3.97628515625,-4.37491796875,-2.95913671875,0.918140625,-7.25301171875
-17.981,-16.33705859375,-17.5016640625,-22.31681640625,-8.877265625,-3.789,-9.4557578125,-4.10432421875,-6.5520390625,-5.91543359375,-4.2171796875,-13.6896875,-1.12126171875,-6.230171875,-3.31058203125,-10.5776875,0.597265625,-3.92653515625,-4.17528125,-5.415421875,-5.42713671875,-1.61407421875,-2.99128515625,-6.73987109375,-8.1196640625,-4.59028515625,-3.98991796875,-1.59713671875,2.273140625,-5.96001171875
-18.971,-16.28405859375,-14.8326640625,-22.38781640625,-8.238265625,-3.929,-11.0837578125,-1.27232421875,-6.8260390625,-6.46343359375,-5.1511796875,-14.3356875,-0.333261718749998,-5.870171875,-3.86058203125,-11.2736875,0.363265625,-3.21853515625,-4.35428125,-5.466421875,-5.12513671875,-0.14807421875,-2.64728515625,-6.75887109375,-7.6976640625,-3.88928515625,-3.56091796875,0.95886328125,3.948140625,-4.05701171875
-20.104,-16.64705859375,-13.8376640625,-23.00981640625,-7.437265625,-4.207,-12.2017578125,0.520675781249999,-6.9660390625,-6.83543359375,-6.0021796875,-15.6416875,0.75573828125,-5.500171875,-4.60158203125,-11.9246875,0.858265625,-2.64053515625,-4.71328125,-5.620421875,-4.53013671875,1.10492578125,-2.62528515625,-7.05187109375,-6.7596640625,-1.94128515625,-3.11491796875,3.96286328125,5.594140625,-1.91501171875
-20.938,-17.23905859375,-14.2636640625,-24.18981640625,-6.698265625,-4.513,-12.5827578125,1.04567578125,-6.9860390625,-6.96943359375,-6.6061796875,-17.1826875,1.90573828125,-5.241171875,-5.33658203125,-12.3756875,1.868265625,-2.33853515625,-5.17628125,-5.814421875,-3.70513671875,1.75092578125,-2.86528515625,-7.51787109375,-5.6036640625,0.72371484375,-2.70491796875,6.47586328125,6.809140625,-0.0210117187499996
-21.379,-17.91605859375,-15.4056640625,-25.74081640625,-6.273265625,-4.775,-12.4267578125,0.433675781249999,-7.0070390625,-6.92143359375,-6.9111796875,-18.5846875,2.78673828125,-5.196171875,-5.90158203125,-12.5546875,3.127265625,-2.36853515625,-5.69328125,-6.003421875,-2.76913671875,1.69092578125,-3.25228515625,-8.02187109375,-4.5046640625,3.36371484375,-2.37591796875,7.76086328125,7.326140625,1.22698828125
-21.534,-18.56405859375,-16.3736640625,-27.23481640625,-6.327265625,-4.962,-12.1727578125,-0.834324218750002,-7.1760390625,-6.78643359375,-6.9271796875,-19.5176875,3.12673828125,-5.377171875,-6.18358203125,-12.4426875,4.440265625,-2.67653515625,-6.20228125,-6.134421875,-1.83813671875,1.10192578125,-3.65128515625,-8.40287109375,-3.5776640625,5.38171484375,-2.12591796875,7.54286328125,7.123140625,1.69298828125
-21.441,-19.01905859375,-16.3956640625,-28.06781640625,-6.805265625,-5.04,-12.1647578125,-2.08032421875,-7.5560390625,-6.60743359375,-6.6541796875,-19.6636875,2.85573828125,-5.652171875,-6.11358203125,-12.0266875,5.784265625,-3.10653515625,-6.57128125,-6.108421875,-0.97313671875,0.276925781250001,-3.92028515625,-8.49187109375,-2.7436640625,6.57271484375,-1.88291796875,6.04786328125,6.433140625,1.54498828125
-20.873,-19.00605859375,-15.0666640625,-27.65181640625,-7.391265625,-4.943,-12.3627578125,-2.64632421875,-8.0300390625,-6.30943359375,-6.0501796875,-18.7526875,2.15973828125,-5.768171875,-5.64158203125,-11.2786875,7.277265625,-3.43653515625,-6.59028125,-5.789421875,-0.164136718750001,-0.53007421875,-3.92928515625,-8.14187109375,-1.8096640625,7.15271484375,-1.51491796875,3.87986328125,5.638140625,1.14498828125
-19.393,-18.19405859375,-12.4876640625,-25.65881640625,-7.593265625,-4.574,-12.3157578125,-2.11832421875,-8.2830390625,-5.71643359375,-5.0591796875,-16.6916875,1.38973828125,-5.436171875,-4.73558203125,-10.1866875,9.038265625,-3.44453515625,-6.04128125,-5.037421875,0.653863281249999,-1.18107421875,-3.58128515625,-7.26487109375,-0.5856640625,7.55771484375,-0.87391796875,1.79686328125,5.125140625,0.86998828125
-16.684,-16.36005859375,-9.2576640625,-22.21681640625,-6.945265625,-3.83,-11.4417578125,-0.495324218750003,-7.9050390625,-4.63443359375,-3.6581796875,-13.6696875,0.904738281250001,-4.449171875,-3.40858203125,-8.7946875,11.013265625,-2.97553515625,-4.80328125,-3.766421875,1.57386328125,-1.63007421875,-2.81828515625,-5.84787109375,1.0163359375,8.15671484375,0.14908203125,0.45886328125,5.153140625,0.945988281250001
-12.884,-13.56805859375,-6.2616640625,-17.96681640625,-5.229265625,-2.654,-9.4107578125,1.82967578125,-6.5840390625,-2.96543359375,-1.8981796875,-10.1226875,0.92573828125,-2.776171875,-1.74558203125,-7.2016875,12.917265625,-1.99153515625,-2.92828125,-1.985421875,2.68386328125,-1.88007421875,-1.63428515625,-3.95687109375,2.9513359375,9.04271484375,1.56608203125,0.20986328125,5.758140625,1.36598828125
-8.653,-10.22305859375,-4.2896640625,-13.87381640625,-2.597265625,-1.1,-6.3657578125,4.29767578125,-4.3170390625,-0.81043359375,0.0598203124999976,-6.60668750000001,1.46573828125,-0.610171875,0.0744179687500006,-5.5466875,14.338265625,-0.59253515625,-0.66528125,0.160578124999999,4.01386328125,-1.96207421875,-0.12028515625,-1.75487109375,5.0423359375,9.98171484375,3.26408203125,0.96786328125,6.741140625,1.92198828125
-4.905,-6.94405859375,-3.6236640625,-10.87781640625,0.449734375,0.622,-2.8937578125,6.45967578125,-1.5130390625,1.49456640625,1.9498203125,-3.66768750000001,2.35073828125,1.645828125,1.79241796875,-3.9756875,14.962265625,0.98546484375,1.58371875,2.386578125,5.47386328125,-1.94707421875,1.51471484375,0.491128906249999,7.0113359375,10.55171484375,5.00008203125,2.27986328125,7.736140625,2.32398828125
-2.416,-4.32805859375,-3.8376640625,-9.52281640625,3.220734375,2.165,0.187242187500001,8.10167578125,1.0989609375,3.45256640625,3.4598203125,-1.76868750000001,3.31273828125,3.492828125,3.12341796875,-2.6226875,14.760265625,2.42846484375,3.37371875,4.318578125,6.83586328125,-1.94807421875,2.95971484375,2.42412890625,8.5303359375,10.37371484375,6.45608203125,3.51586328125,8.353140625,2.35198828125
-1.516,-2.71705859375,-3.9646640625,-9.73881640625,5.073734375,3.148,2.1162421875,9.17767578125,2.7269609375,4.58356640625,4.3328203125,-1.21568750000001,4.10573828125,4.493828125,3.85041796875,-1.5926875,14.001265625,3.43046484375,4.35271875,5.601578125,7.77686328125,-2.08307421875,3.88771484375,3.66812890625,9.2993359375,9.32071484375,7.32508203125,4.11086328125,8.316140625,1.95998828125
-2.011,-2.12305859375,-3.0286640625,-10.86381640625,5.630734375,3.301,2.4842421875,9.72367578124999,2.8399609375,4.61456640625,4.4498203125,-2.05068750000001,4.58073828125,4.420828125,3.88441796875,-0.946687499999999,13.059265625,3.78846484375,4.34671875,5.999578125,7.99886328125,-2.41107421875,4.05871484375,3.93212890625,9.1323359375,7.59271484375,7.41308203125,3.77886328125,7.556140625,1.27698828125
-3.334,-2.32805859375,-0.691664062499999,-11.92481640625,4.880734375,2.571,1.3962421875,9.83967578125,1.3879609375,3.58656640625,3.8598203125,-3.94968750000001,4.70673828125,3.327828125,3.28341796875,-0.697687500000001,12.177265625,3.46246484375,3.39171875,5.463578125,7.35986328125,-2.90607421875,3.38971484375,3.10912890625,8.0353359375,5.63571484375,6.70808203125,2.60186328125,6.230140625,0.52498828125
-4.894,-3.08605859375,2.3593359375,-12.07781640625,3.138734375,1.15,-0.6127578125,9.68767578125,-1.1810390625,1.83456640625,2.7558203125,-6.25668750000001,4.56173828125,1.522828125,2.21841796875,-0.8076875,11.357265625,2.58046484375,1.71471875,4.146578125,5.95986328125,-3.45307421875,1.99071484375,1.34412890625,6.2363359375,3.95171484375,5.39508203125,0.98286328125,4.667140625,-0.10501171875
-6.389,-4.27005859375,4.6103359375,-11.01181640625,0.887734375,-0.600000000000001,-2.8537578125,9.41667578125,-4.1220390625,-0.16543359375,1.4138203125,-8.20768750000001,4.30573828125,-0.531171875,0.91141796875,-1.2006875,10.466265625,1.38446484375,-0.32128125,2.362578125,4.12986328125,-3.89607421875,0.15171484375,-0.98287109375,4.1563359375,2.89471484375,3.78708203125,-0.52113671875,3.263140625,-0.52401171875
-7.87,-5.87205859375,4.4843359375,-9.10481640625,-1.410265625,-2.286,-4.7507578125,9.08067578125,-6.6900390625,-1.98343359375,0.120820312499998,-9.25668750000001,4.13273828125,-2.385171875,-0.42458203125,-1.7796875,9.431265625,0.14146484375,-2.31028125,0.492578124999998,2.32686328125,-4.09607421875,-1.74528515625,-3.37087109375,2.2693359375,2.55771484375,2.21608203125,-1.44013671875,2.337140625,-0.736011718749999
-9.527,-7.86305859375,1.2443359375,-7.22081640625,-3.450265625,-3.62,-5.9547578125,8.64567578125,-8.3980390625,-3.37243359375,-0.904179687500003,-9.30968750000001,4.19173828125,-3.764171875,-1.63158203125,-2.4466875,8.382265625,-0.94553515625,-3.91628125,-1.141421875,0.96586328125,-3.98507421875,-3.35328515625,-5.37087109375,0.928335937499999,2.80171484375,0.923082031250001,-1.57113671875,2.031140625,-0.77501171875
-11.442,-10.04805859375,-4.4936640625,-6.27081640625,-5.097265625,-4.488,-6.3587578125,8.05167578125,-9.1330390625,-4.28243359375,-1.5481796875,-8.71568750000001,4.51273828125,-4.628171875,-2.60858203125,-3.1056875,7.650265625,-1.78653515625,-4.96128125,-2.350421875,0.27986328125,-3.59207421875,-4.47028515625,-6.71987109375,0.2533359375,3.37171484375,0.0130820312500006,-1.01013671875,2.270140625,-0.65401171875
-13.519,-12.05805859375,-11.0006640625,-6.76181640625,-6.300265625,-4.933,-6.0647578125,7.27167578125,-9.1080390625,-4.77843359375,-1.7941796875,-8.00868750000001,4.97973828125,-5.115171875,-3.29058203125,-3.6436875,7.624265625,-2.38853515625,-5.43828125,-3.081421875,0.27386328125,-3.04207421875,-5.06928515625,-7.37587109375,0.1343359375,4.01671484375,-0.51791796875,-0.0561367187500001,2.818140625,-0.36701171875
-15.554,-13.50305859375,-16.2716640625,-8.52681640625,-7.009265625,-5.084,-5.3327578125,6.34467578125,-8.6970390625,-4.93943359375,-1.6951796875,-7.60568750000001,5.36973828125,-5.417171875,-3.62758203125,-3.9266875,8.533265625,-2.79853515625,-5.46728125,-3.370421875,0.752863281249999,-2.51907421875,-5.25728515625,-7.45787109375,0.341335937499999,4.54071484375,-0.72991796875,0.93386328125,3.371140625,0.07098828125
-17.297,-14.17605859375,-18.9716640625,-10.77081640625,-7.153265625,-5.079,-4.4407578125,5.39767578125,-8.2440390625,-4.82143359375,-1.3541796875,-7.61568750000001,5.44473828125,-5.668171875,-3.59258203125,-3.8416875,10.267265625,-3.05953515625,-5.23128125,-3.298421875,1.41786328125,-2.22007421875,-5.21828515625,-7.17687109375,0.6353359375,4.80571484375,-0.704917968749999,1.63186328125,3.657140625,0.58698828125
-18.495,-14.17005859375,-18.9416640625,-12.44781640625,-6.712265625,-5.012,-3.5677578125,4.62667578125,-7.9360390625,-4.47743359375,-0.912179687500002,-7.84768750000001,5.06973828125,-5.917171875,-3.21058203125,-3.3566875,12.333265625,-3.19153515625,-4.91828125,-2.973421875,1.97286328125,-2.29107421875,-5.13128515625,-6.74787109375,0.8463359375,4.73071484375,-0.525917968749999,1.79586328125,3.516140625,1.05698828125
-18.996,-13.83405859375,-17.0376640625,-12.77981640625,-5.772265625,-4.901,-2.7777578125,4.22567578125,-7.7860390625,-3.99043359375,-0.496179687500002,-7.95268750000001,4.30773828125,-6.135171875,-2.56458203125,-2.5416875,13.994265625,-3.19053515625,-4.65528125,-2.501421875,2.22986328125,-2.75707421875,-5.09228515625,-6.33187109375,0.9173359375,4.32371484375,-0.253917968750001,1.34186328125,2.965140625,1.36698828125
-18.871,-13.56305859375,-14.4846640625,-11.64981640625,-4.536265625,-4.698,-2.1077578125,4.30367578125,-7.6910390625,-3.45543359375,-0.171179687500002,-7.60368750000001,3.42473828125,-6.244171875,-1.78258203125,-1.5316875,14.559265625,-3.04153515625,-4.47128125,-1.957421875,2.16886328125,-3.49907421875,-5.06828515625,-5.97887109375,0.8983359375,3.69871484375,0.10008203125,0.40686328125,2.207140625,1.49298828125
-18.397,-13.57705859375,-12.2146640625,-9.58181640625,-3.258265625,-4.337,-1.6247578125,4.87067578125,-7.5100390625,-2.95243359375,0.0718203124999981,-6.65568750000001,2.77173828125,-6.154171875,-1.00158203125,-0.479687500000001,13.680265625,-2.71853515625,-4.30228125,-1.395421875,1.91186328125,-4.28507421875,-4.93028515625,-5.63787109375,0.8883359375,3.05371484375,0.56808203125,-0.65413671875,1.570140625,1.53098828125
-17.905,-13.80905859375,-10.5926640625,-7.37981640625,-2.158265625,-3.804,-1.4197578125,5.84267578125,-7.1210390625,-2.51043359375,0.265820312499999,-5.25868750000001,2.59573828125,-5.799171875,-0.348582031249999,0.464312499999998,11.547265625,-2.20253515625,-4.04628125,-0.890421875000001,1.62986328125,-4.84507421875,-4.54828515625,-5.21887109375,0.953335937499999,2.59471484375,1.18608203125,-1.38213671875,1.376140625,1.65898828125
-17.632,-14.01105859375,-9.6176640625,-5.70481640625,-1.372265625,-3.177,-1.5737578125,7.00967578125,-6.4730390625,-2.10843359375,0.420820312499998,-3.84068750000001,2.90973828125,-5.166171875,0.0834179687500001,1.1613125,8.835265625,-1.49053515625,-3.62928125,-0.547421875000001,1.45286328125,-4.96707421875,-3.87928515625,-4.66287109375,1.0783359375,2.45171484375,1.95608203125,-1.37113671875,1.811140625,2.05298828125
-17.644,-13.96305859375,-9.2606640625,-4.87081640625,-0.932265624999999,-2.588,-2.1077578125,8.03067578125,-5.6200390625,-1.69543359375,0.523820312499998,-2.91468750000001,3.51573828125,-4.301171875,0.26241796875,1.5073125,6.430265625,-0.60253515625,-3.03528125,-0.465421875000001,1.43186328125,-4.56207421875,-2.98128515625,-3.97687109375,1.2043359375,2.63171484375,2.85508203125,-0.41913671875,2.869140625,2.81498828125
-17.8,-13.62005859375,-9.5586640625,-4.87581640625,-0.783265624999999,-2.148,-2.9337578125,8.54767578125,-4.7130390625,-1.21843359375,0.569820312499997,-2.78768750000001,4.12373828125,-3.306171875,0.231417968750001,1.4713125,5.020265625,0.40146484375,-2.32228125,-0.661421875000001,1.54486328125,-3.69707421875,-1.99428515625,-3.22587109375,1.2903359375,3.02871484375,3.83708203125,1.37386328125,4.358140625,3.92398828125
-17.77,-13.09105859375,-10.4256640625,-5.51981640625,-0.828265624999999,-1.901,-3.8327578125,8.38867578125,-3.9410390625,-0.67243359375,0.569820312499997,-3.38568750000001,4.48173828125,-2.338171875,0.0974179687500003,1.1183125,4.805265625,1.40246484375,-1.61728125,-1.057421875,1.70886328125,-2.57707421875,-1.09428515625,-2.53787109375,1.3373359375,3.46771484375,4.82808203125,3.60886328125,5.955140625,5.22298828125
-17.198,-12.54705859375,-11.4806640625,-6.49581640625,-0.972265624999999,-1.822,-4.5287578125,7.64967578125,-3.4500390625,-0.12743359375,0.538820312499999,-4.31368750000001,4.44473828125,-1.579171875,-0.0195820312499997,0.584312499999999,5.472265625,2.22946484375,-1.09128125,-1.508421875,1.80286328125,-1.48207421875,-0.45328515625,-2.08787109375,1.3663359375,3.76171484375,5.69608203125,5.69086328125,7.297140625,6.42498828125
-16,-12.14405859375,-12.1916640625,-7.45681640625,-1.139265625,-1.852,-4.8127578125,6.59567578125,-3.2810390625,0.30156640625,0.486820312499997,-5.10368750000001,3.97673828125,-1.173171875,-0.0355820312499997,0.0233124999999994,6.451265625,2.70946484375,-0.88728125,-1.858421875,1.72586328125,-0.69707421875,-0.18928515625,-2.04087109375,1.3833359375,3.77771484375,6.23708203125,7.01986328125,8.058140625,7.16798828125
-14.521,-12.01105859375,-12.2286640625,-8.09181640625,-1.250265625,-1.92,-4.6127578125,5.50967578125,-3.3450390625,0.53156640625,0.440820312499998,-5.46068750000001,3.13973828125,-1.153171875,0.0854179687500007,-0.4236875,7.245265625,2.74046484375,-1.04028125,-1.988421875,1.46586328125,-0.43907421875,-0.32328515625,-2.46387109375,1.3743359375,3.48171484375,6.22408203125,7.17886328125,8.033140625,7.11798828125
-13.348,-12.20805859375,-11.7006640625,-8.19081640625,-1.192265625,-1.935,-3.9597578125,4.65167578125,-3.4330390625,0.59656640625,0.462820312499998,-5.36468750000001,2.09073828125,-1.393171875,0.356417968750001,-0.633687500000001,7.633265625,2.35946484375,-1.42928125,-1.827421875,1.13586328125,-0.79507421875,-0.76028515625,-3.24287109375,1.3283359375,2.96571484375,5.53108203125,6.08686328125,7.209140625,6.11398828125
-12.904,-12.66905859375,-11.0726640625,-7.66681640625,-0.818265625,-1.784,-2.9407578125,4.27267578125,-3.2740390625,0.67856640625,0.654820312499998,-5.01468750000001,1.07773828125,-1.626171875,0.79741796875,-0.503687500000002,7.686265625,1.77046484375,-1.79528125,-1.356421875,0.948863281249999,-1.66607421875,-1.29728515625,-4.06887109375,1.2843359375,2.43971484375,4.25308203125,4.07986328125,5.821140625,4.30598828125
-13.144,-13.15305859375,-10.8126640625,-6.55581640625,-0.0132656249999998,-1.353,-1.7067578125,4.57067578125,-2.6410390625,1.02956640625,1.1098203125,-4.67868750000001,0.404738281250001,-1.538171875,1.42641796875,0.0223125000000017,7.638265625,1.27746484375,-1.83028125,-0.599421875000002,1.11786328125,-2.75807421875,-1.67128515625,-4.54187109375,1.3343359375,2.16571484375,2.74108203125,1.84386328125,4.328140625,2.18698828125
-13.59,-13.30305859375,-11.0236640625,-5.01181640625,1.194734375,-0.602,-0.506757812499998,5.59867578125,-1.4830390625,1.81556640625,1.8248203125,-4.53668750000001,0.333738281250001,-0.922171875,2.21441796875,0.873312500000001,7.706265625,1.14946484375,-1.33328125,0.349578124999999,1.71486328125,-3.70207421875,-1.67628515625,-4.37787109375,1.5653359375,2.34871484375,1.46608203125,0.13986328125,3.232140625,0.42198828125
-13.625,-12.80005859375,-11.3176640625,-3.31881640625,2.572734375,0.358,0.359242187500001,7.20367578125,-0.00903906249999986,2.97856640625,2.6348203125,-4.61068750000001,0.96473828125,0.181828125,3.03841796875,1.8003125,7.940265625,1.45246484375,-0.34828125,1.287578125,2.57586328125,-4.23907421875,-1.29028515625,-3.59787109375,1.9443359375,2.99171484375,0.75408203125,-0.58813671875,2.815140625,-0.48701171875
-12.888,-11.56405859375,-11.0606640625,-1.85781640625,3.733734375,1.269,0.6662421875,9.02567578125,1.3579609375,4.21856640625,3.2598203125,-4.78168750000001,2.16173828125,1.479828125,3.69341796875,2.4363125,8.165265625,2.00046484375,0.82871875,1.931578125,3.32686328125,-4.37507421875,-0.72628515625,-2.55587109375,2.2733359375,3.83371484375,0.580082031250001,-0.47313671875,2.962140625,-0.50601171875
-11.554,-9.88405859375,-9.8186640625,-1.01881640625,4.319734375,1.853,0.3842421875,10.55067578125,2.1529609375,5.14556640625,3.4588203125,-4.88068750000001,3.58473828125,2.560828125,4.00141796875,2.4813125,8.081265625,2.45246484375,1.80671875,2.051578125,3.56186328125,-4.35307421875,-0.30428515625,-1.74587109375,2.2793359375,4.42571484375,0.602082031249999,-0.12213671875,3.251140625,-0.0920117187500002
-10.295,-8.35705859375,-7.7076640625,-1.03881640625,4.190734375,1.967,-0.2957578125,11.25267578125,2.1169609375,5.48656640625,3.2098203125,-4.77568750000001,4.81973828125,3.116828125,3.92141796875,1.9053125,7.459265625,2.53346484375,2.32271875,1.621578125,3.06086328125,-4.45907421875,-0.23928515625,-1.50387109375,1.7973359375,4.34271484375,0.41208203125,-0.18513671875,3.253140625,0.10098828125
-9.879,-7.59305859375,-5.3526640625,-1.84281640625,3.482734375,1.698,-1.0227578125,10.84267578125,1.3519609375,5.22356640625,2.7298203125,-4.40968750000001,5.53273828125,3.080828125,3.59541796875,0.991312499999999,6.318265625,2.20346484375,2.36571875,0.877578124999999,1.92286328125,-4.81007421875,-0.49728515625,-1.80887109375,0.896335937499999,3.40471484375,-0.15891796875,-0.90613671875,2.845140625,-0.37601171875
-10.656,-7.85205859375,-3.5066640625,-3.00381640625,2.528734375,1.306,-1.4227578125,9.45967578125,0.2919609375,4.57356640625,2.3508203125,-3.78968750000001,5.58073828125,2.621828125,3.26541796875,0.193312500000001,4.937265625,1.68146484375,2.13571875,0.208578124999999,0.54886328125,-5.26207421875,-0.83028515625,-2.32187109375,-0.126664062500001,1.79271484375,-0.923917968750001,-1.95713671875,2.289140625,-1.51901171875
-12.325,-8.86305859375,-2.6336640625,-3.88381640625,1.688734375,1.077,-1.2727578125,7.62667578125,-0.5230390625,3.84956640625,2.3208203125,-2.97668750000001,5.05773828125,2.021828125,3.13941796875,-0.1096875,3.713265625,1.30646484375,1.88871875,-0.0274218750000017,-0.504136718750001,-5.51507421875,-0.94428515625,-2.60087109375,-0.884664062500001,-0.00328515625000048,-1.46491796875,-2.64813671875,2.065140625,-2.91301171875
-14.135,-9.97505859375,-2.7346640625,-3.89981640625,1.210734375,1.165,-0.628757812499998,5.97667578125,-0.7210390625,3.30256640625,2.6788203125,-2.08768750000001,4.25273828125,1.535828125,3.26841796875,0.206312499999999,2.977265625,1.34346484375,1.78571875,0.330578124999999,-0.734136718750001,-5.31907421875,-0.67928515625,-2.36687109375,-1.0746640625,-1.36428515625,-1.42491796875,-2.36213671875,2.557140625,-4.00701171875
-15.289,-10.52205859375,-3.4306640625,-2.73781640625,1.162734375,1.518,0.2012421875,4.99767578125,-0.2630390625,3.01756640625,3.2318203125,-1.28568750000001,3.55573828125,1.275828125,3.52341796875,0.976312499999999,2.897265625,1.84146484375,1.81371875,1.175578125,0.10986328125,-4.64707421875,-0.0972851562499999,-1.65187109375,-0.614664062500001,-1.79028515625,-0.74791796875,-0.95313671875,3.811140625,-4.40301171875
-15.257,-10.14605859375,-4.1996640625,-0.446816406250001,1.448734375,1.912,0.869242187499999,4.95567578125,0.5829609375,2.91256640625,3.6698203125,-0.731687500000007,3.30173828125,1.192828125,3.67341796875,1.8723125,3.496265625,2.61046484375,1.81471875,2.188578125,1.91686328125,-3.72707421875,0.56071484375,-0.77287109375,0.322335937499999,-1.08428515625,0.269082031250001,1.12186328125,5.480140625,-4.02401171875
-13.91,-8.90605859375,-4.6106640625,2.57418359375,1.880734375,2.09,1.2172421875,5.94367578125,1.4189609375,2.82456640625,3.7418203125,-0.479687500000011,3.63973828125,1.140828125,3.53641796875,2.6003125,4.708265625,3.31446484375,1.60971875,3.009578125,4.26186328125,-2.93407421875,1.01471484375,-0.12787109375,1.4133359375,0.594714843749999,1.14708203125,3.01186328125,6.993140625,-3.07101171875
-11.544,-7.15905859375,-4.4986640625,5.65018359375,2.269734375,1.914,1.3622421875,7.91067578125,1.9089609375,2.62356640625,3.4178203125,-0.414687500000007,4.46673828125,0.987828125,3.10241796875,3.0613125,6.398265625,3.63446484375,1.13671875,3.427578125,6.60586328125,-2.60307421875,1.10771484375,0.0461289062499999,2.3643359375,2.84071484375,1.50508203125,3.92286328125,7.846140625,-1.83501171875
-8.814,-5.35605859375,-3.9986640625,7.99518359375,2.486734375,1.452,1.6082421875,10.65567578125,1.9139609375,2.28656640625,2.9268203125,-0.26668750000001,5.49573828125,0.705828125,2.55641796875,3.3883125,8.368265625,3.40446484375,0.52571875,3.488578125,8.51186328125,-2.87107421875,0.88271484375,-0.18887109375,3.0693359375,5.18471484375,1.28008203125,3.53386328125,7.845140625,-0.51601171875
-6.513,-3.86505859375,-3.4326640625,8.97418359375,2.493734375,0.936999999999999,2.2472421875,13.81567578125,1.4969609375,1.89156640625,2.6268203125,0.267312499999989,6.39273828125,0.369828125,2.17841796875,3.8343125,10.390265625,2.68246484375,0.0367187500000004,3.437578125,9.77186328125,-3.61607421875,0.54671484375,-0.50287109375,3.6233359375,7.24971484375,0.74808203125,2.15086328125,7.179140625,0.849988281250001
-5.269,-2.89705859375,-3.0786640625,8.37618359375,2.321734375,0.629,3.3632421875,16.90867578125,0.8509609375,1.55956640625,2.7958203125,1.36731249999999,6.92373828125,0.0948281250000003,2.19941796875,4.6053125,12.263265625,1.71446484375,-0.0832812499999998,3.550578125,10.39486328125,-4.53207421875,0.34271484375,-0.50687109375,4.2133359375,8.81271484375,0.346082031250001,0.51186328125,6.291140625,2.30698828125
-5.282,-2.46905859375,-2.9276640625,6.54918359375,2.050734375,0.683999999999999,4.7462421875,19.41567578125,0.1999609375,1.38956640625,3.4748203125,2.99631249999999,7.02773828125,-0.0351718750000001,2.67441796875,5.7233125,13.840265625,0.83746484375,0.26671875,3.973578125,10.50786328125,-5.27607421875,0.42271484375,0.0281289062499992,4.9573359375,9.79271484375,0.429082031250001,-0.62413671875,5.632140625,3.84798828125
-6.218,-2.40005859375,-2.5586640625,4.32418359375,1.793734375,1.088,5.9782421875,20.93467578125,-0.2690390625,1.41856640625,4.4338203125,4.89131249999999,6.80273828125,-0.00417187499999994,3.46041796875,7.0043125,14.982265625,0.35146484375,0.98571875,4.639578125,10.26486328125,-5.60307421875,0.78971484375,1.03412890625,5.8043359375,10.21971484375,1.09708203125,-0.84813671875,5.454140625,5.34298828125
-7.314,-2.35105859375,-1.3206640625,2.72018359375,1.674734375,1.676,6.6652421875,21.33267578125,-0.4440390625,1.61156640625,5.2638203125,6.64331249999999,6.42873828125,0.131828125,4.26141796875,8.1133125,15.508265625,0.41546484375,1.81171875,5.299578125,9.77486328125,-5.43707421875,1.31671484375,2.16812890625,6.5403359375,10.20371484375,2.18108203125,-0.23213671875,5.738140625,6.55798828125
-7.704,-1.97405859375,1.1853359375,2.55418359375,1.771734375,2.208,6.6272421875,20.78367578125,-0.3140390625,1.87256640625,5.5498203125,7.81831249999999,6.07873828125,0.276828125,4.74341796875,8.6803125,15.210265625,0.99046484375,2.42971875,5.633578125,9.08986328125,-4.85807421875,1.82271484375,2.98512890625,6.8953359375,9.89671484375,3.36108203125,0.82486328125,6.267140625,7.25198828125
-6.871,-1.13205859375,4.6323359375,4.11318359375,2.064734375,2.467,5.9212421875,19.62367578125,0.0309609375000002,2.07656640625,5.0538203125,8.07931249999999,5.85873828125,0.332828125,4.65441796875,8.4343125,13.974265625,1.86046484375,2.60471875,5.408578125,8.21986328125,-4.03707421875,2.16871484375,3.16012890625,6.6903359375,9.45171484375,4.31708203125,1.86286328125,6.762140625,7.28898828125
-4.972,-0.0320585937500013,7.9233359375,7.02918359375,2.413734375,2.332,4.7342421875,18.12867578125,0.4469609375,2.11956640625,3.8338203125,7.27231249999999,5.78673828125,0.246828125,3.92441796875,7.3183125,11.930265625,2.72246484375,2.26871875,4.591578125,7.17786328125,-3.16107421875,2.30271484375,2.63612890625,5.9373359375,8.95871484375,4.82808203125,2.57386328125,6.999140625,6.69298828125
-2.807,0.84094140625,9.7053359375,10.41518359375,2.628734375,1.817,3.2972421875,16.41767578125,0.8059609375,1.96556640625,2.2178203125,5.47631249999999,5.81573828125,0.024828125,2.70241796875,5.5463125,9.500265625,3.30646484375,1.53471875,3.359578125,5.99786328125,-2.39207421875,2.24271484375,1.62812890625,4.8393359375,8.40671484375,4.79508203125,2.84586328125,6.855140625,5.64898828125
-1.409,0.97894140625,9.1083359375,13.18218359375,2.586734375,1.064,1.8582421875,14.51667578125,1.0489609375,1.68356640625,0.672820312499997,3.01531249999999,5.87073828125,-0.276171875,1.31541796875,3.5633125,7.248265625,3.46046484375,0.63871875,2.027578125,4.75786328125,-1.83107421875,2.03171484375,0.51312890625,3.7013359375,7.69871484375,4.24008203125,2.70486328125,6.317140625,4.44798828125
-1.522,0.13594140625,6.1643359375,14.45118359375,2.336734375,0.321,0.6752421875,12.49367578125,1.1849609375,1.44556640625,-0.347179687500002,0.43731249999999,5.88073828125,-0.560171875,0.186417968750001,1.9223125,5.599265625,3.19146484375,-0.11928125,0.948578124999999,3.58486328125,-1.51107421875,1.72371484375,-0.330871093750001,2.8233359375,6.75871484375,3.30708203125,2.25986328125,5.482140625,3.41198828125
-3.239,-1.53305859375,1.7003359375,13.88718359375,2.106734375,-0.111000000000001,-0.0317578125000004,10.52867578125,1.2479609375,1.47856640625,-0.523179687500003,-1.58968750000001,5.77373828125,-0.705171875,-0.29158203125,1.1063125,4.626265625,2.64646484375,-0.43928125,0.425578124999999,2.64986328125,-1.38407421875,1.40471484375,-0.638871093750001,2.4113359375,5.63271484375,2.24608203125,1.68486328125,4.549140625,2.80898828125
-5.947,-3.54005859375,-3.1106640625,11.84218359375,2.197734375,0.0270000000000001,-0.1127578125,8.90467578125,1.2599609375,1.96456640625,0.240820312499999,-2.48968750000001,5.46873828125,-0.611171875,0.104417968750001,1.3493125,4.088265625,2.04246484375,-0.11428125,0.639578124999998,2.11386328125,-1.34907421875,1.20271484375,-0.32887109375,2.5153359375,4.53371484375,1.36008203125,1.20386328125,3.769140625,2.76598828125
-8.611,-5.25305859375,-7.1886640625,9.19018359375,2.810734375,0.835999999999999,0.485242187499999,7.95767578125,1.2179609375,2.93656640625,1.7678203125,-2.03268750000001,4.88873828125,-0.268171875,1.33741796875,2.5533125,3.660265625,1.59146484375,0.88271875,1.573578125,2.05286328125,-1.28907421875,1.23371484375,0.49012890625,3.0173359375,3.76471484375,0.90508203125,1.04786328125,3.359140625,3.22698828125
-10.246,-6.11405859375,-9.7336640625,6.91518359375,3.945734375,2.197,1.6762421875,7.94767578125,1.1169609375,4.24356640625,3.6538203125,-0.494687500000012,4.01073828125,0.222828125,3.10941796875,4.3193125,3.163265625,1.43746484375,2.35571875,3.010578125,2.42886328125,-1.11207421875,1.54871484375,1.58612890625,3.6933359375,3.56971484375,1.00008203125,1.38886328125,3.431140625,3.97398828125
-10.35,-5.80105859375,-10.2616640625,5.66218359375,5.398734375,3.818,3.1882421875,8.89667578125,0.9789609375,5.61256640625,5.4088203125,1.44031249999999,2.92973828125,0.705828125,4.98641796875,6.1163125,2.629265625,1.64046484375,3.95271875,4.607578125,3.11186328125,-0.78207421875,2.11671484375,2.70612890625,4.3283359375,4.00571484375,1.60008203125,2.27686328125,3.954140625,4.72198828125
-9.029,-4.33305859375,-8.6386640625,5.50518359375,6.860734375,5.351,4.6102421875,10.50867578125,0.8799609375,6.78256640625,6.6538203125,3.01431249999999,1.86173828125,1.060828125,6.57441796875,7.4873125,2.186265625,2.18846484375,5.31371875,6.028578125,3.92986328125,-0.33507421875,2.84471484375,3.67512890625,4.8093359375,4.88571484375,2.52708203125,3.58986328125,4.768140625,5.22498828125
-6.76,-2.07005859375,-5.1936640625,6.03518359375,8.045734375,6.528,5.6032421875,12.26967578125,0.9299609375,7.61356640625,7.2568203125,3.79331249999999,1.08073828125,1.287828125,7.65541796875,8.2133125,1.908265625,3.01746484375,6.19471875,7.048578125,4.70086328125,0.12092578125,3.61371484375,4.43212890625,5.1383359375,5.83971484375,3.53608203125,5.01486328125,5.624140625,5.36298828125
-4.046,0.37994140625,-0.806664062500001,6.66118359375,8.774734375,7.253,6.0892421875,13.67567578125,1.2229609375,8.13556640625,7.3558203125,3.85431249999999,0.78773828125,1.492828125,8.21941796875,8.3613125,1.747265625,4.02646484375,6.54671875,7.603578125,5.26786328125,0.44092578125,4.31771484375,5.01512890625,5.3753359375,6.46671484375,4.39108203125,6.11486328125,6.249140625,5.15898828125
-1.258,2.37294140625,3.2223359375,6.90218359375,9.019734375,7.614,6.2602421875,14.39767578125,1.7729609375,8.51056640625,7.2668203125,3.64131249999999,1.00573828125,1.832828125,8.41041796875,8.2113125,1.575265625,5.10146484375,6.50671875,7.793578125,5.54086328125,0.52392578125,4.90271484375,5.52312890625,5.5863359375,6.52171484375,4.93608203125,6.49186328125,6.446140625,4.76198828125
1.333,3.48994140625,5.6373359375,6.55718359375,8.884734375,7.817,6.3802421875,14.34667578125,2.5129609375,8.93656640625,7.3168203125,3.62431249999999,1.57373828125,2.433828125,8.41941796875,8.0983125,1.301265625,6.14546484375,6.32571875,7.814578125,5.54986328125,0.381925781250001,5.38571484375,6.05912890625,5.8283359375,6.02871484375,5.13308203125,5.99886328125,6.173140625,4.38698828125
3.505,3.74194140625,5.8343359375,5.74818359375,8.561734375,8.077,6.5942421875,13.68067578125,3.3329609375,9.54756640625,7.6778203125,3.98831249999999,2.23073828125,3.330828125,8.39841796875,8.2333125,0.940265625,7.09946484375,6.25171875,7.864578125,5.43586328125,0.15992578125,5.84971484375,6.67912890625,6.1353359375,5.25471484375,5.06708203125,4.84286328125,5.558140625,4.22998828125
5.126,3.58094140625,4.2413359375,4.85718359375,8.260734375,8.527,6.8562421875,12.77067578125,4.1329609375,10.35756640625,8.2988203125,4.56531249999999,2.75273828125,4.459828125,8.43841796875,8.6313125,0.607265625,7.94846484375,6.45071875,8.063578125,5.38086328125,0.0769257812500004,6.39871484375,7.36812890625,6.5213359375,4.55771484375,4.89808203125,3.52386328125,4.835140625,4.37398828125
6.223,3.68694140625,2.1213359375,4.34218359375,8.150734375,9.197,7.0012421875,12.07867578125,4.8409609375,11.26756640625,8.9918203125,4.99831249999999,3.05673828125,5.692828125,8.59641796875,9.1513125,0.416265624999999,8.70746484375,6.98471875,8.443578125,5.51886328125,0.32392578125,7.12071484375,8.06512890625,6.9763359375,4.20671484375,4.79208203125,2.61686328125,4.237140625,4.74398828125
6.983,4.61094140625,0.898335937500001,4.49618359375,8.321734375,10.047,6.8862421875,11.94167578125,5.3949609375,12.13556640625,9.5898203125,4.99331249999999,3.21173828125,6.893828125,8.94941796875,9.6313125,0.386265625,9.39246484375,7.84771875,8.990578125,5.86886328125,0.96192578125,8.04871484375,8.71112890625,7.4783359375,4.25871484375,4.84108203125,2.50586328125,3.890140625,5.13798828125
7.642,6.46794140625,1.3993359375,5.27518359375,8.772734375,11.007,6.5352421875,12.41567578125,5.7399609375,12.84956640625,10.0598203125,4.49531249999999,3.34073828125,7.953828125,9.58641796875,10.0013125,0.425265625,9.98746484375,8.98371875,9.678578125,6.33586328125,1.87792578125,9.12571484375,9.26412890625,7.9903359375,4.56071484375,5.02608203125,3.20686328125,3.763140625,5.31498828125
8.3,8.84194140625,3.4893359375,6.32018359375,9.422734375,11.995,6.1932421875,13.29367578125,5.8429609375,13.37256640625,10.4928203125,3.71331249999999,3.51473828125,8.799828125,10.55841796875,10.3123125,0.415265625,10.44246484375,10.27271875,10.460578125,6.77386328125,2.83092578125,10.18871484375,9.70012890625,8.4703359375,4.85971484375,5.23908203125,4.35986328125,3.709140625,5.11798828125
8.776,10.96094140625,6.2263359375,7.15318359375,10.143734375,12.922,6.2072421875,14.24667578125,5.7209609375,13.74456640625,11.0298203125,3.06231249999999,3.70073828125,9.405828125,11.81241796875,10.7013125,0.340265625000001,10.69346484375,11.54771875,11.267578125,7.08586328125,3.56692578125,11.03271484375,10.00512890625,8.8813359375,4.96071484375,5.36508203125,5.43586328125,3.569140625,4.57298828125
8.654,12.07794140625,8.4153359375,7.45318359375,10.801734375,13.709,6.8302421875,14.99267578125,5.4589609375,14.04756640625,11.7768203125,3.01731249999999,3.81873828125,9.813828125,13.17141796875,11.3283125,0.342265625,10.72546484375,12.62871875,12.018578125,7.30086328125,3.96392578125,11.51371484375,10.18212890625,9.2173359375,4.84571484375,5.37008203125,6.02686328125,3.288140625,3.90998828125
7.588,11.84694140625,9.2233359375,7.23818359375,11.298734375,14.28,8.0742421875,15.41267578125,5.1949609375,14.33256640625,12.7178203125,3.91531249999999,3.81373828125,10.114828125,14.35341796875,12.2813125,0.639265625,10.59746484375,13.36771875,12.631578125,7.53686328125,4.11892578125,11.62771484375,10.25012890625,9.4913359375,4.65171484375,5.31908203125,6.03086328125,2.931140625,3.45698828125
5.659,10.48394140625,8.5423359375,6.84918359375,11.563734375,14.536,9.6972421875,15.59067578125,5.0629609375,14.54656640625,13.6738203125,5.74831249999999,3.68873828125,10.378828125,15.01541796875,13.4953125,1.360265625,10.40646484375,13.63571875,12.996578125,7.88586328125,4.28192578125,11.47571484375,10.20112890625,9.6913359375,4.54771484375,5.29908203125,5.63286328125,2.604140625,3.45598828125
3.466,8.61994140625,6.9313359375,6.70518359375,11.529734375,14.34,11.2922421875,15.74967578125,5.1199609375,14.51056640625,14.3298203125,8.08331249999999,3.45373828125,10.568828125,14.84441796875,14.7303125,2.437265625,10.19646484375,13.31771875,12.972578125,8.32086328125,4.69092578125,11.16171484375,9.96712890625,9.7473359375,4.61071484375,5.32708203125,5.10986328125,2.352140625,3.91598828125
1.805,6.92794140625,5.2013359375,6.99118359375,11.126734375,13.571,12.4202421875,16.10867578125,5.2899609375,14.00056640625,14.3748203125,10.2243125,3.06273828125,10.524828125,13.67841796875,15.6483125,3.638265625,9.90446484375,12.35171875,12.444578125,8.70786328125,5.40592578125,10.71271484375,9.44612890625,9.5813359375,4.80671484375,5.31508203125,4.64686328125,2.138140625,4.61098828125
1.19,5.77994140625,3.9223359375,7.51018359375,10.307734375,12.229,12.7952421875,16.77567578125,5.3709609375,12.89956640625,13.6778203125,11.5463125,2.39273828125,10.049828125,11.62341796875,15.9863125,4.714265625,9.38646484375,10.81071875,11.416578125,8.91986328125,6.23992578125,10.06871484375,8.58112890625,9.1833359375,5.06471484375,5.13108203125,4.25886328125,1.892140625,5.22698828125
1.6,5.15894140625,3.1863359375,7.82318359375,9.108734375,10.514,12.4682421875,17.73467578125,5.1189609375,11.30156640625,12.3888203125,11.8043125,1.28673828125,9.028828125,9.09241796875,15.7043125,5.531265625,8.49946484375,8.94671875,10.070578125,8.93886328125,6.84992578125,9.15271484375,7.43312890625,8.6593359375,5.36471484375,4.71408203125,3.83886328125,1.586140625,5.53798828125
2.567,4.83394140625,2.7173359375,7.55018359375,7.692734375,8.806,11.8812421875,18.89167578125,4.3659609375,9.52756640625,10.9138203125,11.2393125,-0.35626171875,7.529828125,6.70641796875,15.0413125,6.095265625,7.21246484375,7.16471875,8.745578125,8.86886328125,6.90392578125,7.95871484375,6.20312890625,8.2133359375,5.76571484375,4.14308203125,3.27386328125,1.254140625,5.50798828125
3.461,4.62294140625,2.1663359375,6.62218359375,6.348734375,7.547,11.6852421875,20.07067578125,3.1279609375,8.00356640625,9.7668203125,10.4333125,-2.47826171875,5.830828125,5.08941796875,14.4213125,6.499265625,5.67146484375,5.91171875,7.839578125,8.86786328125,6.23592578125,6.60771484375,5.19012890625,8.0673359375,6.33771484375,3.62308203125,2.53486328125,0.967140625,5.27098828125
3.758,4.52594140625,1.3653359375,5.31518359375,5.414734375,7.057,12.4032421875,20.97567578125,1.6409609375,7.08156640625,9.3638203125,10.0073125,-4.81226171875,4.332828125,4.64141796875,14.2643125,6.831265625,4.17246484375,5.50871875,7.671578125,9.04786328125,4.91192578125,5.33571484375,4.68112890625,8.3643359375,7.06971484375,3.37808203125,1.69586328125,0.766140625,5.00298828125
3.244,4.68994140625,0.4213359375,4.11018359375,5.140734375,7.385,14.1412421875,21.24167578125,0.2919609375,6.89056640625,9.8448203125,10.2983125,-6.93926171875,3.393828125,5.38441796875,14.7833125,7.115265625,3.04746484375,6.01071875,8.332578125,9.39786328125,3.17392578125,4.38871484375,4.83412890625,9.0753359375,7.81171484375,3.51608203125,0.86186328125,0.616140625,4.79798828125
2.135,5.28094140625,-0.309664062500001,3.45618359375,5.571734375,8.281,16.4902421875,20.62367578125,-0.5400390625,7.28956640625,10.9868203125,11.2003125,-8.45626171875,3.160828125,6.96141796875,15.8673125,7.317265625,2.50246484375,7.15071875,9.628578125,9.78786328125,1.31492578125,3.90871484375,5.60712890625,9.9883359375,8.31871484375,3.95408203125,0.09386328125,0.410140625,4.61698828125
1.077,6.40794140625,-0.318664062500002,3.54718359375,6.516734375,9.308,18.6482421875,19.19367578125,-0.6560390625,7.95956640625,12.2928203125,12.2353125,-9.15926171875,3.514828125,8.78641796875,17.1193125,7.385265625,2.53246484375,8.45271875,11.141578125,10.04886328125,-0.41507421875,3.87871484375,6.77012890625,10.8013359375,8.37771484375,4.46208203125,-0.62013671875,0.0331406249999999,4.34698828125
0.962,8.09694140625,0.907335937500001,4.24918359375,7.636734375,10.036,19.7252421875,17.40367578125,-0.1250390625,8.56456640625,13.2048203125,12.7983125,-9.11526171875,4.151828125,10.26441796875,18.0333125,7.296265625,2.94746484375,9.43271875,12.402578125,10.07086328125,-1.85807421875,4.15871484375,8.00512890625,11.2563359375,7.91671484375,4.79408203125,-1.31213671875,-0.554859375,3.89398828125
2.576,10.29294140625,3.6773359375,5.21918359375,8.587734375,10.206,19.1772421875,15.93167578125,0.7799609375,8.89556640625,13.3278203125,12.4463125,-8.58626171875,4.752828125,10.98941796875,18.2003125,7.065265625,3.49246484375,9.79371875,13.052578125,9.83686328125,-2.93407421875,4.55671484375,8.99412890625,11.2313359375,7.03271484375,4.80208203125,-1.98313671875,-1.304859375,3.23898828125
6.217,12.83894140625,7.8783359375,6.15518359375,9.148734375,9.797,17.1222421875,15.35267578125,1.7489609375,8.91956640625,12.5688203125,11.0763125,-7.85526171875,5.135828125,10.83341796875,17.4543125,6.699265625,3.97946484375,9.51071875,12.929578125,9.39486328125,-3.60907421875,4.90671484375,9.50512890625,10.7373359375,5.89771484375,4.48108203125,-2.59513671875,-2.119859375,2.41298828125
11.47,15.46694140625,12.9203359375,6.99418359375,9.273734375,8.98,14.3002421875,15.79067578125,2.5979609375,8.74156640625,11.1358203125,8.95931249999999,-7.08126171875,5.315828125,9.93041796875,15.9163125,6.157265625,4.36846484375,8.79971875,12.075578125,8.79186328125,-3.86207421875,5.11971484375,9.43212890625,9.8683359375,4.66271484375,3.93908203125,-3.08713671875,-2.911859375,1.47698828125
17.313,17.87094140625,17.9593359375,7.91318359375,9.077734375,8.02,11.6742421875,16.81467578125,3.3459609375,8.51656640625,9.4338203125,6.64031249999999,-6.26526171875,5.469828125,8.58841796875,13.9263125,5.364265625,4.75846484375,8.00171875,10.703578125,8.04386328125,-3.67007421875,5.22571484375,8.83012890625,8.7553359375,3.40871484375,3.33608203125,-3.39813671875,-3.621859375,0.50898828125
22.522,19.82094140625,22.2903359375,9.15218359375,8.782734375,7.18,9.9682421875,17.70767578125,4.1779609375,8.39156640625,7.9118203125,4.77931249999999,-5.30426171875,5.826828125,7.18141796875,11.9323125,4.297265625,5.31146484375,7.45071875,9.136578125,7.14786328125,-3.02407421875,5.34771484375,7.89512890625,7.5483359375,2.16771484375,2.84308203125,-3.48013671875,-4.204859375,-0.38801171875
26.168,21.26094140625,25.6343359375,10.79018359375,8.667734375,6.656,9.4792421875,17.95667578125,5.3249609375,8.48256640625,6.9298203125,3.97531249999999,-4.08526171875,6.539828125,6.05241796875,10.3683125,3.077265625,6.13546484375,7.36171875,7.737578125,6.13186328125,-1.96207421875,5.64071484375,6.90412890625,6.4003359375,0.97371484375,2.59508203125,-3.30613671875,-4.606859375,-1.09301171875
27.908,22.30694140625,28.0823359375,12.63818359375,9.002734375,6.543,10.1472421875,17.56067578125,6.9169609375,8.86656640625,6.6718203125,4.55331249999999,-2.56926171875,7.614828125,5.44141796875,9.5573125,1.994265625,7.21446484375,7.79171875,6.821578125,5.08986328125,-0.60207421875,6.20971484375,6.14112890625,5.4643359375,-0.11128515625,2.68008203125,-2.86913671875,-4.768859375,-1.49301171875
28.023,23.17694140625,29.8153359375,14.33118359375,9.942734375,6.842,11.7192421875,16.95467578125,8.8759609375,9.55256640625,7.1368203125,6.42131249999999,-0.83026171875,8.905828125,5.44241796875,9.6433125,1.398265625,8.39946484375,8.65971875,6.592578125,4.20686328125,0.877925781250001,7.07171484375,5.84212890625,4.8843359375,-0.98728515625,3.13208203125,-2.17813671875,-4.625859375,-1.50201171875
27.3,24.10494140625,30.9113359375,15.56618359375,11.417734375,7.466,13.8282421875,16.69167578125,10.9169609375,10.43056640625,8.1368203125,9.06331249999999,0.95473828125,10.168828125,5.98341796875,10.5643125,1.490265625,9.47846484375,9.79371875,7.083578125,3.70786328125,2.28992578125,8.16071484375,6.15212890625,4.7793359375,-1.54428515625,3.93608203125,-1.25713671875,-4.133859375,-1.07001171875
26.834,25.28994140625,31.4553359375,16.30218359375,13.070734375,8.256,16.0122421875,17.15267578125,12.6319609375,11.24556640625,9.3168203125,11.7183125,2.55173828125,11.135828125,6.83141796875,12.0443125,2.147265625,10.24746484375,10.95671875,8.120578125,3.75686328125,3.49192578125,9.33071484375,7.08112890625,5.1833359375,-1.70728515625,5.01808203125,-0.16313671875,-3.304859375,-0.21301171875
27.683,26.85494140625,31.7993359375,16.75618359375,14.333734375,8.978,17.7062421875,18.40167578125,13.6289609375,11.63856640625,10.2048203125,13.6383125,3.72973828125,11.559828125,7.63041796875,13.6353125,2.912265625,10.55546484375,11.85871875,9.332578125,4.33786328125,4.40192578125,10.35971484375,8.45812890625,5.9853359375,-1.48828515625,6.22508203125,0.98486328125,-2.241859375,0.96098828125
30.388,28.78494140625,32.6033359375,17.15518359375,14.630734375,9.358,18.3172421875,20.14667578125,13.6529609375,11.27556640625,10.3518203125,14.3143125,4.33473828125,11.254828125,7.99141796875,14.8173125,3.220265625,10.31246484375,12.19471875,10.243578125,5.20486328125,4.97592578125,10.97871484375,9.91912890625,6.9183359375,-1.01628515625,7.31208203125,2.02586328125,-1.134859375,2.25698828125
34.609,30.86394140625,34.5093359375,17.50218359375,13.632734375,9.145,17.4562421875,21.78767578125,12.6669609375,9.99856640625,9.5138203125,13.6093125,4.33773828125,10.145828125,7.62241796875,15.1613125,2.704265625,9.49446484375,11.73471875,10.450578125,5.95686328125,5.19792578125,10.94271484375,10.98612890625,7.6323359375,-0.501285156250001,7.97908203125,2.81986328125,-0.199859375,3.44698828125
39.166,32.64694140625,37.6193359375,17.53918359375,11.435734375,8.223,15.2492421875,22.61567578125,10.8769609375,7.93956640625,7.7948203125,11.7853125,3.83273828125,8.313828125,6.45641796875,14.5073125,1.401265625,8.15846484375,10.41771875,9.773578125,6.22386328125,5.08892578125,10.13971484375,11.23112890625,7.8343359375,-0.155285156250001,7.96308203125,3.31286328125,0.415140625,4.34298828125
42.491,33.54094140625,41.1753359375,16.94218359375,8.563734375,6.683,12.4562421875,22.10967578125,8.6799609375,5.49956640625,5.6328203125,9.42931249999999,2.99073828125,6.017828125,4.70241796875,13.0393125,-0.241734375,6.46046484375,8.41071875,8.335578125,5.84486328125,4.72592578125,8.65971484375,10.45712890625,7.4063359375,-0.09228515625,7.14708203125,3.53686328125,0.684140625,4.84098828125
43.254,33.00494140625,43.7763359375,15.54818359375,5.759734375,4.825,10.1722421875,20.20567578125,6.5469609375,3.20656640625,3.6228203125,7.29031249999999,1.99773828125,3.657828125,2.77441796875,11.2203125,-1.544734375,4.62846484375,6.08271875,6.510578125,4.96586328125,4.23292578125,6.79371484375,8.81412890625,6.4673359375,-0.27828515625,5.63008203125,3.54086328125,0.666140625,4.90198828125
40.93,30.86194140625,44.1663359375,13.47918359375,3.672734375,3.055,9.2692421875,17.39967578125,4.8779609375,1.50756640625,2.2718203125,6.07331249999999,1.00973828125,1.658828125,1.12141796875,9.6013125,-1.859734375,2.90346484375,3.90371875,4.783578125,3.98986328125,3.71192578125,4.93671484375,6.76312890625,5.3303359375,-0.54528515625,3.71208203125,3.31286328125,0.442140625,4.52698828125
36.152,27.58394140625,42.1683359375,11.16218359375,2.614734375,1.752,9.9472421875,14.68767578125,3.8759609375,0.62356640625,1.8018203125,6.24531249999999,0.14073828125,0.340828125,0.0654179687500003,8.6193125,-0.844734375,1.48446484375,2.30471875,3.584578125,3.40086328125,3.19192578125,3.46671484375,4.92012890625,4.3893359375,-0.67428515625,1.81608203125,2.74086328125,0.0451406249999999,3.75098828125
30.638,24.31494140625,39.0803359375,9.25318359375,2.506734375,1.163,11.7202421875,13.28267578125,3.5159609375,0.53556640625,2.1158203125,7.90631249999999,-0.52926171875,-0.164171875,-0.268582031249999,8.4843125,1.365265625,0.50046484375,1.55771875,3.157578125,3.56386328125,2.61692578125,2.64571484375,3.82912890625,3.9783359375,-0.485285156250001,0.37308203125,1.66286328125,-0.528859375,2.68298828125
26.573,22.49994140625,37.1343359375,8.42118359375,3.030734375,1.369,13.7582421875,14.17467578125,3.6049609375,1.09156640625,2.9228203125,10.7743125,-0.928261718749999,0.0988281250000003,0.0764179687500004,9.1963125,4.182265625,0.02146484375,1.74171875,3.531578125,4.58386328125,1.90892578125,2.57971484375,3.79612890625,4.2733359375,0.0917148437499993,-0.29591796875,0.00486328125000002,-1.274859375,1.54098828125
25.646,23.23394140625,38.2653359375,9.06218359375,3.856734375,2.301,15.3292421875,17.67067578125,3.9089609375,2.11356640625,3.9308203125,14.2943125,-0.981261718749999,0.985828125,0.984417968750001,10.6113125,6.806265625,0.0854648437500001,2.75571875,4.565578125,6.28486328125,1.05792578125,3.23171484375,4.82112890625,5.2483359375,1.01071484375,-0.054917968749999,-2.06813671875,-2.109859375,0.62298828125
28.277,26.67894140625,42.9383359375,11.11318359375,4.791734375,3.762,16.1092421875,23.18667578125,4.2779609375,3.43956640625,4.9538203125,17.8003125,-0.64526171875,2.306828125,2.31241796875,12.4913125,8.600265625,0.68346484375,4.36371875,6.020578125,8.29586328125,0.16592578125,4.42471484375,6.62212890625,6.6913359375,2.11771484375,1.00008203125,-4.11813671875,-2.880859375,0.20598828125
33.466,31.86694140625,49.7233359375,14.08518359375,5.734734375,5.433,16.2362421875,29.38267578125,4.6659609375,4.87256640625,5.8928203125,20.6653125,0.0297382812500011,3.815828125,3.86741796875,14.5133125,9.370265625,1.70046484375,6.20271875,7.601578125,10.16586328125,-0.58707421875,5.84071484375,8.71612890625,8.2473359375,3.16771484375,2.55508203125,-5.59213671875,-3.433859375,0.39298828125
39.266,37.01294140625,55.8613359375,17.26718359375,6.540734375,6.887,16.0702421875,34.55067578125,5.0409609375,6.10756640625,6.6458203125,22.4213125,0.84273828125,5.175828125,5.34741796875,16.2773125,9.361265625,2.85646484375,7.81471875,8.968578125,11.47086328125,-1.05507421875,7.05071484375,10.52612890625,9.4963359375,3.85171484375,4.13308203125,-6.12213671875,-3.725859375,1.03398828125
43.543,40.19194140625,58.5563359375,19.93618359375,6.927734375,7.678,15.8382421875,37.10167578125,5.2659609375,6.75456640625,7.0658203125,22.8493125,1.48473828125,5.984828125,6.35141796875,17.3863125,8.984265625,3.73946484375,8.72871875,9.783578125,11.89186328125,-1.21007421875,7.62171484375,11.52712890625,10.0603359375,3.88271484375,5.23308203125,-5.73813671875,-3.855859375,1.77798828125
44.666,40.07994140625,56.3153359375,21.51918359375,6.567734375,7.49,15.4362421875,36.07367578125,5.0999609375,6.48056640625,6.9998203125,22.0223125,1.64573828125,5.909828125,6.49841796875,17.5663125,8.498265625,3.95246484375,8.60971875,9.783578125,11.27286328125,-1.13407421875,7.29171484375,11.39912890625,9.7193359375,3.12471484375,5.49908203125,-4.82713671875,-3.999859375,2.24398828125
41.978,36.45694140625,49.6453359375,21.71318359375,5.308734375,6.283,14.5512421875,31.51567578125,4.3419609375,5.19056640625,6.3638203125,20.2443125,1.18173828125,4.866828125,5.60341796875,16.7683125,7.874265625,3.31246484375,7.40271875,8.874578125,9.65386328125,-0.92707421875,6.08671484375,10.14812890625,8.4813359375,1.68471484375,4.87008203125,-3.86113671875,-4.276859375,2.20398828125
35.937,30.25194140625,40.7383359375,20.55518359375,3.352734375,4.342,12.9852421875,24.54067578125,3.0179609375,3.13256640625,5.2168203125,17.9253125,0.20773828125,3.118828125,3.80041796875,15.1793125,6.877265625,1.95746484375,5.39471875,7.180578125,7.27286328125,-0.61307421875,4.34271484375,8.11312890625,6.5953359375,-0.0982851562500002,3.59908203125,-3.10913671875,-4.657859375,1.65598828125
27.914,23.15594140625,32.3553359375,18.36918359375,1.241734375,2.19,10.8582421875,16.91467578125,1.4299609375,0.84656640625,3.7688203125,15.4563125,-0.91026171875,1.208828125,1.51741796875,13.1423125,5.281265625,0.30346484375,3.13871875,5.035578125,4.53786328125,-0.11807421875,2.58471484375,5.86212890625,4.4923359375,-1.79528515625,2.14308203125,-2.54813671875,-4.966859375,0.78498828125
19.722,16.99394140625,26.6193359375,15.63218359375,-0.370265625,0.403,8.5802421875,10.38567578125,0.0379609375000003,-1.03643359375,2.3208203125,13.1893125,-1.71426171875,-0.253171875,-0.683582031249999,11.0333125,3.082265625,-1.13053515625,1.26171875,2.900578125,1.94286328125,0.64992578125,1.34271484375,3.99012890625,2.6553359375,-3.07128515625,0.96608203125,-2.00713671875,-4.989859375,-0.15101171875
13.091,13.13294140625,24.3233359375,12.83718359375,-1.013265625,-0.611000000000001,6.6792421875,6.11967578125,-0.7730390625,-2.04243359375,1.1498203125,11.4413125,-1.87426171875,-0.847171875,-2.31758203125,9.1483125,0.598265625,-1.93453515625,0.21871875,1.210578125,-0.0531367187500003,1.69992578125,0.94271484375,2.90112890625,1.4533359375,-3.81328515625,0.34708203125,-1.39213671875,-4.619859375,-0.92701171875
9.204,12.12594140625,24.9693359375,10.44218359375,-0.612265625,-0.744000000000001,5.5932421875,4.46567578125,-0.8840390625,-2.03743359375,0.386820312499998,10.4693125,-1.35726171875,-0.503171875,-3.14158203125,7.6423125,-1.608734375,-1.94753515625,0.12471875,0.227578124999999,-1.17113671875,2.87992578125,1.39371484375,2.68312890625,1.0163359375,-4.10128515625,0.295082031250001,-0.80613671875,-3.930859375,-1.40601171875
8.38,13.64194140625,27.2713359375,8.82118359375,0.490734375000001,-0.192,5.4992421875,5.00567578125,-0.4990390625,-1.27143359375,-0.0121796875000015,10.3563125,-0.445261718749999,0.500828125,-3.20558203125,6.5433125,-2.966734375,-1.27553515625,0.73771875,-0.0354218750000017,-1.37813671875,3.91492578125,2.40371484375,3.11612890625,1.2093359375,-4.07628515625,0.60108203125,-0.49113671875,-3.141859375,-1.52501171875
9.99,16.64994140625,29.7753359375,8.19118359375,1.687734375,0.649999999999999,6.2152421875,6.78567578125,-0.0460390624999998,-0.26243359375,-0.222179687500002,10.9353125,0.392738281250001,1.689828125,-2.78958203125,5.8093125,-3.156734375,-0.22253515625,1.60471875,0.218578124999999,-0.86413671875,4.50592578125,3.52171484375,3.81412890625,1.7423359375,-3.83328515625,0.97808203125,-0.65713671875,-2.496859375,-1.26401171875
12.711,19.78594140625,31.3573359375,8.48718359375,2.361734375,1.329,7.2302421875,8.66767578125,0.0159609375,0.392566406249999,-0.463179687500002,11.8303125,0.71773828125,2.572828125,-2.29458203125,5.3773125,-2.260734375,0.81246484375,2.23671875,0.652578124999998,0.0538632812499991,4.46492578125,4.29671484375,4.38712890625,2.2983359375,-3.43828515625,1.19408203125,-1.34413671875,-2.160859375,-0.64701171875
15.028,21.80994140625,31.5043359375,9.31918359375,2.113734375,1.463,7.9062421875,9.75267578125,-0.6050390625,0.23456640625,-0.940179687500002,12.6463125,0.298738281250001,2.777828125,-2.11158203125,5.1743125,-0.707734374999999,1.43246484375,2.26571875,0.918578124999998,1.04786328125,3.78792578125,4.39571484375,4.55612890625,2.6403359375,-3.02428515625,1.13608203125,-2.39913671875,-2.180859375,0.218988281250001
15.745,22.00194140625,30.3263359375,10.09018359375,0.915734375,0.862,7.7592421875,9.66867578124999,-1.9360390625,-0.905433593750001,-1.7711796875,13.2023125,-0.81126171875,2.140828125,-2.49558203125,5.1113125,0.917265625000001,1.35746484375,1.54271875,0.767578124999998,1.86986328125,2.67492578125,3.69771484375,4.22612890625,2.6493359375,-2.83028515625,0.807082031249999,-3.53613671875,-2.494859375,1.13598828125
14.334,20.36594140625,28.3393359375,10.27718359375,-0.888265625,-0.395,6.6962421875,8.60667578125,-3.7380390625,-2.82543359375,-2.9121796875,13.6143125,-2.30526171875,0.761828125,-3.45158203125,5.0933125,2.086265625,0.53846484375,0.19471875,0.154578124999999,2.40986328125,1.48092578125,2.35571484375,3.50712890625,2.3373359375,-3.09228515625,0.304082031250001,-4.42913671875,-2.951859375,1.87698828125
11.088,17.58794140625,26.1723359375,9.71418359375,-2.711265625,-1.969,5.0932421875,7.13167578125,-5.5930390625,-5.03243359375,-4.1521796875,14.1603125,-3.72426171875,-0.996171875,-4.72158203125,5.0473125,2.472265625,-0.77453515625,-1.40928125,-0.751421875000001,2.67986328125,0.63392578125,0.77971484375,2.67212890625,1.8113359375,-3.88128515625,-0.207917968749999,-4.79613671875,-3.331859375,2.30098828125
7.058,14.73094140625,24.3253359375,8.68118359375,-3.972265625,-3.394,3.6362421875,5.90067578125,-7.0390390625,-6.94143359375,-5.1911796875,14.9913125,-4.60626171875,-2.615171875,-5.90258203125,4.9193125,2.008265625,-2.11253515625,-2.79728125,-1.675421875,2.73286328125,0.49292578125,-0.49528515625,2.03512890625,1.2083359375,-5.01028515625,-0.54991796875,-4.49713671875,-3.415859375,2.39898828125
3.669,12.79394140625,23.0533359375,7.71418359375,-4.363265625,-4.291,2.9452421875,5.39167578125,-7.7270390625,-8.12743359375,-5.8091796875,15.9303125,-4.64526171875,-3.627171875,-6.65958203125,4.6603125,0.885265625000001,-2.99053515625,-3.59828125,-2.394421875,2.58186328125,1.19792578125,-1.03228515625,1.79112890625,0.617335937499999,-6.10828515625,-0.602917968749999,-3.61113671875,-3.088859375,2.25798828125
2.121,12.31094140625,22.3763359375,7.26218359375,-3.992265625,-4.532,3.1852421875,5.74167578125,-7.5560390625,-8.48643359375,-5.9761796875,16.5273125,-3.79626171875,-3.803171875,-6.89658203125,4.2243125,-0.493734375000001,-3.12653515625,-3.69728125,-2.844421875,2.19286328125,2.58792578125,-0.67028515625,1.92812890625,0.0593359374999993,-6.79128515625,-0.36791796875,-2.43413671875,-2.404859375,1.98898828125
2.875,13.18694140625,22.1923359375,7.43118359375,-3.315265625,-4.266,3.9442421875,6.76767578125,-6.7170390625,-8.24243359375,-5.8541796875,16.3823125,-2.28626171875,-3.239171875,-6.78258203125,3.5983125,-1.624734375,-2.55453515625,-3.25728125,-3.109421875,1.55386328125,4.25992578125,0.41771484375,2.25812890625,-0.478664062500001,-6.82428515625,0.0350820312500009,-1.37213671875,-1.570859375,1.67998828125
5.522,14.82094140625,22.3613359375,7.99018359375,-2.889265625,-3.81,4.5092421875,8.14967578125,-5.6210390625,-7.79543359375,-5.6911796875,15.4863125,-0.528261718749999,-2.289171875,-6.62358203125,2.8533125,-2.065734375,-1.58153515625,-2.62328125,-3.336421875,0.733863281249999,5.72392578125,1.79771484375,2.53312890625,-1.0036640625,-6.17828515625,0.41108203125,-0.76613671875,-0.855859375,1.38898828125
9.048,16.40194140625,22.7153359375,8.58018359375,-3.071265625,-3.48,4.3512421875,9.59567578124999,-4.7320390625,-7.51843359375,-5.6861796875,14.3293125,0.994738281250001,-1.402171875,-6.66958203125,2.1483125,-1.604734375,-0.63553515625,-2.15128125,-3.635421875,-0.11713671875,6.57892578125,2.94171484375,2.57512890625,-1.4986640625,-4.98628515625,0.57108203125,-0.75913671875,-0.487859375,1.14698828125
12.29,17.23594140625,23.0513359375,8.93218359375,-3.834265625,-3.45,3.4352421875,10.85167578125,-4.3560390625,-7.59543359375,-5.8821796875,13.6523125,1.86873828125,-0.927171875,-6.98058203125,1.6893125,-0.360734375,-0.07153515625,-2.05628125,-4.011421875,-0.821136718750001,6.63292578125,3.41971484375,2.33912890625,-1.9316640625,-3.47428515625,0.39508203125,-1.28013671875,-0.594859375,0.951988281249999
14.369,17.01294140625,23.2633359375,8.96318359375,-4.790265625,-3.7,2.1932421875,11.64367578125,-4.5040390625,-7.97443359375,-6.1511796875,14.0333125,1.88473828125,-0.983171875,-7.40958203125,1.6523125,1.231265625,-0.0245351562499998,-2.31728125,-4.359421875,-1.23713671875,5.93992578125,3.06871484375,1.90512890625,-2.2746640625,-1.92728515625,-0.13091796875,-2.12613671875,-1.206859375,0.77798828125
14.956,15.90894140625,23.4733359375,8.75418359375,-5.395265625,-4.056,1.2252421875,11.72267578125,-4.8820390625,-8.42343359375,-6.2761796875,15.5833125,1.13373828125,-1.434171875,-7.69758203125,2.1083125,2.561265625,-0.37253515625,-2.71328125,-4.516421875,-1.30213671875,4.76292578125,2.03371484375,1.41412890625,-2.5056640625,-0.66628515625,-0.91591796875,-3.06813671875,-2.262859375,0.59298828125
14.277,14.47094140625,23.9543359375,8.48818359375,-5.224265625,-4.288,0.958242187500002,11.01567578125,-5.0500390625,-8.66443359375,-6.0801796875,17.9003125,-0.00126171874999947,-1.962171875,-7.61558203125,2.9793125,3.070265625,-0.82253515625,-2.94728125,-4.355421875,-1.04913671875,3.47392578125,0.69471484375,0.995128906249999,-2.6206640625,0.0147148437499993,-1.80191796875,-3.90513671875,-3.627859375,0.38498828125
12.829,13.29394140625,24.7893359375,8.37818359375,-4.169265625,-4.226,1.4402421875,9.69167578125,-4.6480390625,-8.50443359375,-5.5171796875,20.2623125,-0.966261718749999,-2.208171875,-7.07758203125,4.0503125,2.492265625,-1.06553515625,-2.79228125,-3.849421875,-0.610136718750001,2.42992578125,-0.50728515625,0.713128906249999,-2.6366640625,-0.0502851562500002,-2.62291796875,-4.47313671875,-5.107859375,0.15798828125
11.011,12.69194140625,25.6003359375,8.57118359375,-2.478265625,-3.822,2.3372421875,8.05767578125,-3.5670390625,-7.90643359375,-4.6811796875,21.9323125,-1.25826171875,-1.903171875,-6.16258203125,5.0373125,0.997265625000001,-0.91753515625,-2.20028125,-3.083421875,-0.18813671875,1.84592578125,-1.23728515625,0.58312890625,-2.5976640625,-0.82028515625,-3.26791796875,-4.66513671875,-6.504859375,-0.0830117187499999
8.934,12.53294140625,25.6203359375,9.05118359375,-0.646265625,-3.169,3.1552421875,6.35167578125,-1.9860390625,-6.98243359375,-3.7501796875,22.4553125,-0.631261718749998,-0.991171875,-5.05858203125,5.6863125,-0.855734374999999,-0.39453515625,-1.30928125,-2.228421875,-0.010136718750001,1.73092578125,-1.37828515625,0.588128906249999,-2.5806640625,-2.06528515625,-3.70591796875,-4.50413671875,-7.673859375,-0.353011718749999
6.503,12.31894140625,24.0903359375,9.62118359375,0.773734375,-2.444,3.5572421875,4.61967578125,-0.2760390625,-5.94843359375,-2.8971796875,21.8223125,0.79773828125,0.334828125,-3.97858203125,5.8633125,-2.348734375,0.30146484375,-0.39228125,-1.484421875,-0.234136718750001,1.91092578125,-1.04728515625,0.70712890625,-2.6826640625,-3.46128515625,-3.98091796875,-4.18013671875,-8.562859375,-0.68601171875
3.642,11.42094140625,20.6773359375,9.98918359375,1.343734375,-1.847,3.5312421875,2.73167578125,1.1489609375,-5.04843359375,-2.2311796875,20.4233125,2.59773828125,1.679828125,-3.09958203125,5.5963125,-2.892734375,0.86046484375,0.25671875,-1.025421875,-0.88013671875,2.14692578125,-0.51728515625,0.91012890625,-2.9776640625,-4.73328515625,-4.16091796875,-4.00413671875,-9.195859375,-1.13001171875
0.475999999999999,9.39194140625,15.6613359375,9.91918359375,0.860734375,-1.525,3.3312421875,0.494675781249999,1.9849609375,-4.47943359375,-1.7611796875,18.8483125,4.21873828125,2.607828125,-2.52558203125,5.0463125,-2.244734375,0.99646484375,0.43771875,-0.933421875000001,-1.80313671875,2.26392578125,-0.0772851562500003,1.15712890625,-3.4716640625,-5.75228515625,-4.30091796875,-4.26513671875,-9.618859375,-1.73301171875
-2.583,6.24094140625,9.8833359375,9.37818359375,-0.587265625,-1.512,3.2672421875,-2.14132421875,2.1539609375,-4.31943359375,-1.4221796875,17.6363125,5.22073828125,2.837828125,-2.27158203125,4.4343125,-0.583734375000001,0.57546484375,0.13771875,-1.175421875,-2.73713671875,2.24292578125,0.10171484375,1.39712890625,-4.0776640625,-6.55728515625,-4.41691796875,-5.08513671875,-9.861859375,-2.52201171875
-4.87,2.56094140625,4.5303359375,8.61018359375,-2.623265625,-1.722,3.5432421875,-4.91232421875,1.8399609375,-4.48943359375,-1.1401796875,17.1233125,5.44473828125,2.373828125,-2.26858203125,3.9453125,1.524265625,-0.31253515625,-0.47628125,-1.617421875,-3.40113671875,2.19192578125,0.0197148437500001,1.57412890625,-4.6576640625,-7.27528515625,-4.48691796875,-6.35213671875,-9.932859375,-3.47301171875
-5.68,-0.616058593750001,0.8193359375,8.06218359375,-4.687265625,-1.982,4.1662421875,-7.23332421875,1.4189609375,-4.78743359375,-0.896179687500002,17.3953125,5.04173828125,1.507828125,-2.38158203125,3.6493125,3.296265625,-1.38753515625,-1.13228125,-2.098421875,-3.61113671875,2.24192578125,-0.19728515625,1.63612890625,-5.1016640625,-8.00228515625,-4.48491796875,-7.75313671875,-9.862859375,-4.49301171875
-4.645,-2.25805859375,-0.402664062500001,8.17318359375,-6.203265625,-2.121,4.9272421875,-8.47232421875,1.2999609375,-4.96643359375,-0.733179687500002,18.3213125,4.37673828125,0.670828125,-2.46658203125,3.4903125,4.009265625,-2.29853515625,-1.56528125,-2.490421875,-3.36413671875,2.44992578125,-0.38428515625,1.54812890625,-5.3866640625,-8.70828515625,-4.40291796875,-8.88113671875,-9.725859375,-5.41301171875
-2.045,-1.84205859375,0.960335937499998,9.15418359375,-6.769265625,-2.046,5.4922421875,-8.31032421875,1.7529609375,-4.83943359375,-0.716179687500002,19.6073125,3.86673828125,0.231828125,-2.42658203125,3.3263125,3.319265625,-2.76653515625,-1.62028125,-2.742421875,-2.84013671875,2.79992578125,-0.42528515625,1.33112890625,-5.5786640625,-9.24028515625,-4.25791796875,-9.35813671875,-9.611859375,-6.01401171875
1.208,0.370941406249999,4.1433359375,10.88818359375,-6.264265625,-1.775,5.5892421875,-6.92032421875,2.8109609375,-4.35043359375,-0.874179687500002,20.8553125,3.81473828125,0.331828125,-2.24358203125,3.0153125,1.452265625,-2.68053515625,-1.29428125,-2.864421875,-2.32113671875,3.26892578125,-0.27928515625,1.06712890625,-5.7616640625,-9.39128515625,-4.06291796875,-8.96113671875,-9.546859375,-6.07401171875
3.986,3.49294140625,7.8083359375,12.99118359375,-4.868265625,-1.424,5.1662421875,-4.83932421875,4.2539609375,-3.60443359375,-1.1811796875,21.6683125,4.29573828125,0.847828125,-1.98258203125,2.4743125,-0.904734375,-2.11353515625,-0.73028125,-2.899421875,-2.04213671875,3.90392578125,0.0347148437499998,0.885128906249999,-5.9486640625,-8.99028515625,-3.78991796875,-7.68913671875,-9.446859375,-5.44301171875
5.464,6.46994140625,10.6463359375,14.96818359375,-3.005265625,-1.155,4.3672421875,-2.71732421875,5.6699609375,-2.85243359375,-1.5931796875,21.7553125,5.13573828125,1.465828125,-1.77858203125,1.6733125,-2.962734375,-1.26853515625,-0.16528125,-2.899421875,-2.08413671875,4.80092578125,0.45771484375,0.89612890625,-6.0516640625,-7.97928515625,-3.36791796875,-5.74813671875,-9.135859375,-4.09101171875
5.463,8.54294140625,11.9233359375,16.36518359375,-1.228265625,-1.137,3.3762421875,-1.10632421875,6.5769609375,-2.42743359375,-2.1071796875,21.0343125,5.99573828125,1.822828125,-1.81458203125,0.6023125,-4.228734375,-0.41053515625,0.13871875,-2.930421875,-2.35913671875,6.00692578125,0.90171484375,1.11112890625,-5.9456640625,-6.44428515625,-2.72691796875,-3.46013671875,-8.432859375,-2.13401171875
4.446,9.43594140625,11.6583359375,16.87618359375,-0.0902656249999998,-1.526,2.3072421875,-0.387324218750003,6.5729609375,-2.65943359375,-2.7871796875,19.6433125,6.52073828125,1.622828125,-2.28058203125,-0.727687499999998,-4.684734375,0.17946484375,-0.06528125,-3.090421875,-2.69813671875,7.41692578125,1.22171484375,1.39112890625,-5.5796640625,-4.63128515625,-1.85591796875,-1.13813671875,-7.264859375,0.18198828125
3.213,9.23594140625,10.3463359375,16.41318359375,-0.0042656249999995,-2.43,1.2362421875,-0.803324218750003,5.4949609375,-3.74443359375,-3.7171796875,17.8853125,6.48573828125,0.710828125,-3.30258203125,-2.2386875,-4.680734375,0.26546484375,-0.94528125,-3.504421875,-2.97013671875,8.75492578125,1.22671484375,1.48512890625,-5.0566640625,-2.92828515625,-0.84391796875,0.97786328125,-5.739859375,2.49298828125
2.435,8.14494140625,8.4343359375,15.10818359375,-1.112265625,-3.845,0.254242187500001,-2.53532421875,3.4969609375,-5.63843359375,-4.9011796875,16.1013125,5.89873828125,-0.882171875,-4.85858203125,-3.7286875,-4.678734375,-0.26353515625,-2.51228125,-4.266421875,-3.16113671875,9.69492578125,0.74971484375,1.15212890625,-4.5926640625,-1.80128515625,0.134082031249999,2.72386328125,-4.127859375,4.37298828125
2.294,6.30394140625,5.9523359375,13.28518359375,-3.215265625,-5.608,-0.543757812500001,-5.69732421875,1.0149609375,-8.01843359375,-6.1981796875,14.5483125,4.99173828125,-2.918171875,-6.72558203125,-4.9096875,-5.046734375,-1.32653515625,-4.56728125,-5.363421875,-3.35713671875,10.02092578125,-0.25428515625,0.31012890625,-4.4006640625,-1.67728515625,0.86108203125,3.98386328125,-2.777859375,5.42798828125
2.509,3.83894140625,2.6483359375,11.43018359375,-5.809265625,-7.42,-1.1497578125,-10.14932421875,-1.3970390625,-10.37543359375,-7.3751796875,13.3203125,4.09473828125,-5.011171875,-8.53458203125,-5.5316875,-5.979734375,-2.66853515625,-6.72228125,-6.647421875,-3.66913671875,9.72092578125,-1.66328515625,-0.90087109375,-4.5896640625,-2.77528515625,1.15008203125,4.64586328125,-1.988859375,5.41698828125
2.691,1.03794140625,-1.4846640625,10.13718359375,-8.241265625,-8.952,-1.6977578125,-15.23432421875,-3.2700390625,-12.20843359375,-8.2481796875,12.3703125,3.46073828125,-6.772171875,-9.91058203125,-5.5366875,-7.496734375,-3.98653515625,-8.55028125,-7.902421875,-4.17013671875,8.94792578125,-3.24428515625,-2.19287109375,-5.1486640625,-4.97128515625,0.90208203125,4.59986328125,-1.916859375,4.33298828125
2.681,-1.58505859375,-5.8286640625,9.94918359375,-9.943265625,-9.981,-2.4327578125,-19.76432421875,-4.3580390625,-13.21543359375,-8.8041796875,11.5963125,3.13673828125,-7.952171875,-10.63558203125,-5.1226875,-9.436734375,-5.06353515625,-9.75328125,-8.936421875,-4.85913671875,7.89492578125,-4.75928515625,-3.28387109375,-5.9956640625,-7.74528515625,0.147082031250001,3.78986328125,-2.530859375,2.42898828125
2.546,-3.47805859375,-9.3766640625,11.08518359375,-10.618265625,-10.456,-3.5607578125,-22.44532421875,-4.6580390625,-13.37043359375,-9.1701796875,10.9853125,2.98473828125,-8.505171875,-10.72358203125,-4.6516875,-11.425734375,-5.82753515625,-10.25328125,-9.648421875,-5.68413671875,6.71092578125,-6.03528515625,-4.01387109375,-7.0306640625,-10.29628515625,-0.951917968749999,2.30386328125,-3.621859375,0.170988281250001
2.324,-4.40905859375,-11.4586640625,13.24718359375,-10.301265625,-10.463,-5.0087578125,-22.57732421875,-4.3130390625,-12.86943359375,-9.4701796875,10.6983125,2.81573828125,-8.527171875,-10.37658203125,-4.4356875,-12.957734375,-6.31153515625,-10.16428125,-10.022421875,-6.56213671875,5.48992578125,-6.98128515625,-4.37187109375,-8.1546640625,-11.80628515625,-2.14591796875,0.44286328125,-4.861859375,-1.87901171875
1.86,-4.65305859375,-12.2526640625,15.70318359375,-9.274265625,-10.122,-6.2987578125,-20.51232421875,-3.4850390625,-11.98743359375,-9.6791796875,11.0223125,2.53473828125,-8.156171875,-9.83258203125,-4.5226875,-13.632734375,-6.55653515625,-9.68428125,-10.080421875,-7.39013671875,4.32292578125,-7.56728515625,-4.43287109375,-9.2426640625,-11.76228515625,-3.17191796875,-1.32513671875,-5.904859375,-3.21101171875
0.888999999999999,-4.80805859375,-12.5636640625,17.62618359375,-7.891265625,-9.506,-6.7457578125,-17.52932421875,-2.2920390625,-10.94343359375,-9.6121796875,12.1313125,2.20373828125,-7.492171875,-9.23258203125,-4.6556875,-13.427734375,-6.54853515625,-8.98028125,-9.832421875,-8.03513671875,3.33292578125,-7.78628515625,-4.28187109375,-10.1286640625,-10.18028515625,-3.82591796875,-2.51013671875,-6.480859375,-3.52301171875
-0.730000000000001,-5.35405859375,-13.0486640625,18.48718359375,-6.450265625,-8.633,-5.9327578125,-15.19032421875,-0.8430390625,-9.84843359375,-9.0631796875,13.8413125,1.98473828125,-6.594171875,-8.57458203125,-4.4646875,-12.755734375,-6.23253515625,-8.14328125,-9.275421875,-8.33813671875,2.63692578125,-7.64028515625,-3.95487109375,-10.6106640625,-7.59028515625,-3.99991796875,-2.81713671875,-6.480859375,-2.80401171875
-2.827,-6.31505859375,-13.6076640625,18.25918359375,-5.160265625,-7.544,-4.1107578125,-14.55032421875,0.6819609375,-8.75143359375,-8.0071796875,15.5623125,2.04273828125,-5.543171875,-7.79358203125,-3.7926875,-12.202734375,-5.59953515625,-7.22128125,-8.446421875,-8.18213671875,2.25892578125,-7.17128515625,-3.46287109375,-10.5256640625,-4.78328515625,-3.70791796875,-2.33313671875,-6.009859375,-1.34301171875
-4.897,-7.26505859375,-13.4736640625,17.38818359375,-4.170265625,-6.389,-2.1397578125,-15.66832421875,2.0249609375,-7.70543359375,-6.7081796875,16.5683125,2.45673828125,-4.499171875,-6.88458203125,-2.8826875,-12.141734375,-4.77153515625,-6.29128125,-7.482421875,-7.59413671875,2.05492578125,-6.50428515625,-2.84787109375,-9.8476640625,-2.47428515625,-3.10091796875,-1.57913671875,-5.371859375,0.37398828125
-6.249,-7.63305859375,-11.9176640625,16.53918359375,-3.554265625,-5.396,-0.960757812499999,-17.67632421875,2.9519609375,-6.78143359375,-5.5921796875,16.4253125,3.17773828125,-3.681171875,-5.94358203125,-2.2256875,-12.504734375,-3.99853515625,-5.47728125,-6.582421875,-6.78113671875,1.75292578125,-5.83628515625,-2.19887109375,-8.7256640625,-1.05028515625,-2.41291796875,-1.30613671875,-4.953859375,1.85298828125
-6.261,-7.04705859375,-8.9476640625,16.27518359375,-3.244265625,-4.709,-0.951757812499999,-19.34232421875,3.3939609375,-5.97843359375,-4.9351796875,15.3333125,4.02673828125,-3.230171875,-5.06358203125,-2.1316875,-12.886734375,-3.52553515625,-4.85728125,-5.855421875,-5.98813671875,1.13492578125,-5.32028515625,-1.57487109375,-7.3866640625,-0.49428515625,-1.84391796875,-2.07713671875,-5.002859375,2.79398828125
-4.615,-5.47505859375,-5.4326640625,16.81518359375,-2.989265625,-4.228,-1.6247578125,-19.77132421875,3.5029609375,-5.13943359375,-4.5901796875,14.1063125,4.72873828125,-3.073171875,-4.19458203125,-2.3666875,-12.879734375,-3.42553515625,-4.34028125,-5.179421875,-5.29413671875,0.23592578125,-4.92928515625,-0.91387109375,-5.9846640625,-0.48928515625,-1.42391796875,-3.85513671875,-5.431859375,3.22898828125
-1.393,-3.16305859375,-2.5936640625,18.00918359375,-2.448265625,-3.611,-1.8917578125,-18.81132421875,3.5599609375,-3.99143359375,-4.0241796875,13.7233125,5.01073828125,-2.924171875,-3.12458203125,-2.2086875,-12.368734375,-3.53653515625,-3.67028125,-4.231421875,-4.52913671875,-0.60207421875,-4.45428515625,-0.0418710937500002,-4.5276640625,-0.62528515625,-0.970917968749999,-5.92613671875,-5.821859375,3.45998828125
2.92,-0.520058593750001,-1.3186640625,19.48818359375,-1.384265625,-2.502,-0.752757812500001,-16.99832421875,3.8089609375,-2.32243359375,-2.6841796875,14.6973125,4.72173828125,-2.451171875,-1.63258203125,-0.946687499999999,-11.587734375,-3.57153515625,-2.58328125,-2.738421875,-3.44313671875,-0.92107421875,-3.65428515625,1.19412890625,-2.9756640625,-0.62128515625,-0.23291796875,-7.27813671875,-5.674859375,3.82798828125
7.475,1.95494140625,-1.7756640625,20.85818359375,0.168734375000001,-0.804,1.9972421875,-15.19732421875,4.3549609375,-0.15343359375,-0.419179687500002,16.7393125,3.92373828125,-1.485171875,0.29741796875,1.5503125,-10.963734375,-3.31553515625,-1.00828125,-0.732421875000002,-1.98813671875,-0.46707421875,-2.46528515625,2.75512890625,-1.4016640625,-0.450285156250001,0.90808203125,-7.20513671875,-4.767859375,4.45298828125
11.184,3.72694140625,-3.4606640625,21.82018359375,1.914734375,1.199,5.5392421875,-14.17132421875,5.1819609375,2.22056640625,2.3468203125,18.9563125,2.89273828125,-0.108171875,2.39141796875,4.6173125,-10.856734375,-2.75053515625,0.84771875,1.376578125,-0.47713671875,0.595925781250001,-1.08328515625,4.37612890625,-0.0816640625000007,-0.328285156250001,2.30608203125,-5.74213671875,-3.334859375,5.13798828125
13.042,4.36294140625,-5.5206640625,22.22018359375,3.455734375,2.971,8.4392421875,-14.24832421875,6.2419609375,4.36556640625,4.8038203125,20.3963125,2.00473828125,1.404828125,4.17841796875,7.0893125,-11.375734375,-2.04453515625,2.58571875,2.974578125,0.51686328125,1.75392578125,0.12571484375,5.67612890625,0.5803359375,-0.56228515625,3.59708203125,-3.62913671875,-1.955859375,5.49398828125
12.535,3.71994140625,-7.1586640625,22.05418359375,4.494734375,4.009,9.4982421875,-15.19032421875,7.4659609375,5.91056640625,6.1738203125,20.5743125,1.55473828125,2.733828125,5.23141796875,7.9253125,-12.340734375,-1.43453515625,3.80771875,3.549578125,0.45886328125,2.43292578125,0.81571484375,6.34212890625,0.2573359375,-1.38428515625,4.39708203125,-1.86413671875,-1.216859375,5.18898828125
9.884,2.05994140625,-7.9456640625,21.43818359375,4.972734375,4.121,8.4442421875,-16.37532421875,8.7219609375,6.72856640625,6.1278203125,19.6453125,1.59973828125,3.665828125,5.39441796875,6.8133125,-13.426734375,-1.08553515625,4.32571875,2.980578125,-0.82213671875,2.31992578125,0.84971484375,6.30712890625,-1.0786640625,-2.81028515625,4.51908203125,-1.15613671875,-1.375859375,4.18198828125
5.962,0.00294140624999883,-7.9306640625,20.56818359375,5.086734375,3.551,6.0342421875,-17.22932421875,9.7959609375,6.99656640625,4.9798203125,18.1903125,1.92573828125,4.208828125,4.89441796875,4.3623125,-14.370734375,-0.97953515625,4.26771875,1.632578125,-2.97413671875,1.52492578125,0.39171484375,5.80612890625,-3.0436640625,-4.60028515625,4.10008203125,-1.57713671875,-2.213859375,2.79098828125
1.974,-1.70105859375,-7.4886640625,19.67918359375,5.170734375,2.847,3.5232421875,-17.59632421875,10.4449609375,7.09056640625,3.4978203125,16.8143125,2.16173828125,4.573828125,4.23141796875,1.7823125,-15.091734375,-0.94253515625,4.01071875,0.195578124999999,-5.26013671875,0.48792578125,-0.16628515625,5.27112890625,-4.9636640625,-6.31928515625,3.53408203125,-2.61613671875,-3.181859375,1.55898828125
-0.897000000000001,-2.45505859375,-7.0016640625,19.01818359375,5.489734375,2.547,1.9372421875,-17.77632421875,10.4759609375,7.34256640625,2.4648203125,15.8423125,1.97773828125,5.001828125,3.90441796875,0.2153125,-15.693734375,-0.79453515625,3.94271875,-0.671421875000002,-6.91513671875,-0.29707421875,-0.42428515625,5.09212890625,-6.1906640625,-7.52528515625,3.24508203125,-3.55613671875,-3.718859375,0.964988281250001
-1.754,-2.04305859375,-6.5906640625,18.79718359375,6.070734375,2.874,1.6082421875,-18.26532421875,9.8239609375,7.83456640625,2.2548203125,15.3193125,1.26473828125,5.568828125,4.13141796875,0.165312499999999,-16.398734375,-0.52953515625,4.22171875,-0.668421875000002,-7.51913671875,-0.56607421875,-0.21028515625,5.38312890625,-6.4326640625,-8.00528515625,3.45408203125,-3.91813671875,-3.571859375,1.14798828125
-0.191000000000001,-0.653058593750002,-6.0346640625,19.10518359375,6.707734375,3.649,2.1712421875,-19.45032421875,8.6499609375,8.36656640625,2.7118203125,15.2063125,0.182738281250002,6.134828125,4.76041796875,1.3393125,-17.476734375,-0.33053515625,4.70971875,0.0375781249999987,-7.15113671875,-0.38607421875,0.35671484375,5.93212890625,-5.8686640625,-7.88328515625,4.08508203125,-3.67513671875,-2.891859375,1.83198828125
3.563,1.26894140625,-4.9136640625,19.84718359375,7.135734375,4.456,2.9342421875,-21.40832421875,7.3819609375,8.63456640625,3.3488203125,15.5403125,-0.925261718749999,6.464828125,5.39841796875,2.9203125,-19.083734375,-0.40053515625,5.11371875,0.977578124999999,-6.27113671875,-0.0270742187499997,0.99171484375,6.35612890625,-4.9956640625,-7.51528515625,4.86908203125,-3.13413671875,-2.069859375,2.53098828125
8.657,3.25694140625,-2.9146640625,20.74718359375,7.227734375,4.901,3.3482421875,-23.83132421875,6.5899609375,8.44556640625,3.6518203125,16.3423125,-1.68226171875,6.385828125,5.63941796875,4.0223125,-21.058734375,-0.77453515625,5.18371875,1.656578125,-5.43513671875,0.284925781250001,1.45271484375,6.34712890625,-4.3276640625,-7.20828515625,5.52708203125,-2.63613671875,-1.464859375,2.89098828125
13.867,5.01494140625,-0.133664062499999,21.42918359375,7.058734375,4.787,3.2692421875,-26.07832421875,6.6599609375,7.81856640625,3.2978203125,17.3753125,-1.81526171875,5.835828125,5.25441796875,4.0683125,-22.826734375,-1.28253515625,4.82171875,1.762578125,-5.04213671875,0.52992578125,1.65571484375,5.83912890625,-4.1526640625,-7.01628515625,5.91108203125,-2.32113671875,-1.207859375,2.92298828125
18.039,6.49494140625,2.8203359375,21.53218359375,6.829734375,4.149,2.9042421875,-27.39532421875,7.5159609375,6.93256640625,2.2208203125,18.0383125,-1.20426171875,4.836828125,4.24441796875,2.9583125,-23.607734375,-1.69353515625,4.07171875,1.249578125,-5.20813671875,0.857925781250001,1.66271484375,5.01612890625,-4.4546640625,-6.73628515625,6.02008203125,-2.11913671875,-1.199859375,2.95798828125
20.548,7.86194140625,5.1153359375,20.85518359375,6.752734375,3.203,2.5672421875,-27.23032421875,8.6529609375,6.03656640625,0.600820312499998,17.6263125,0.115738281250001,3.503828125,2.83141796875,1.0373125,-22.832734375,-1.86353515625,3.08571875,0.316578124999999,-5.77813671875,1.42992578125,1.59671484375,4.20112890625,-4.9856640625,-6.10228515625,5.94408203125,-1.89413671875,-1.255859375,3.37798828125
21.498,9.37194140625,6.2303359375,19.47918359375,6.986734375,2.274,2.4772421875,-25.50932421875,9.4859609375,5.38056640625,-1.1841796875,15.8453125,1.96173828125,2.089828125,1.38741796875,-1.0656875,-20.533734375,-1.77053515625,2.10871875,-0.665421875000002,-6.42213671875,2.25892578125,1.58671484375,3.73012890625,-5.3926640625,-5.01428515625,5.80808203125,-1.59313671875,-1.255859375,4.33098828125
21.474,11.14994140625,6.3173359375,17.79818359375,7.624734375,1.727,2.6942421875,-22.76532421875,9.7409609375,5.18556640625,-2.6141796875,13.2023125,3.97873828125,1.006828125,0.354417968750001,-2.6376875,-17.422734375,-1.45953515625,1.47471875,-1.241421875,-6.76613671875,3.17992578125,1.75771484375,3.86212890625,-5.3356640625,-3.65728515625,5.74808203125,-1.26513671875,-1.189859375,5.60898828125
20.976,12.99994140625,6.0943359375,16.38518359375,8.690734375,1.896,3.1242421875,-20.09832421875,9.5729609375,5.62056640625,-3.1241796875,10.9503125,5.64573828125,0.729828125,0.133417968750001,-3.0766875,-14.606734375,-0.97853515625,1.56271875,-0.969421875000001,-6.48413671875,3.92092578125,2.24871484375,4.76512890625,-4.5316640625,-2.44128515625,5.92808203125,-0.97013671875,-1.088859375,6.76398828125
19.966,14.37394140625,6.3393359375,15.73918359375,10.140734375,3.006,3.5332421875,-18.91232421875,9.3829609375,6.77056640625,-2.2441796875,10.5513125,6.37073828125,1.629828125,0.979417968750001,-2.0306875,-13.080734375,-0.36053515625,2.71971875,0.493578124999999,-5.37313671875,4.22492578125,3.22271484375,6.52712890625,-2.7746640625,-1.80228515625,6.52908203125,-0.67113671875,-0.933859375,7.35098828125
17.943,14.64094140625,7.4383359375,16.06718359375,11.871734375,5.104,3.6292421875,-20.37832421875,9.5099609375,8.60656640625,0.235820312499998,12.9813125,5.71973828125,3.823828125,2.92941796875,0.5293125,-13.309734375,0.36646484375,5.11871875,3.281578125,-3.39613671875,3.95992578125,4.79471484375,9.14012890625,0.018335937499999,-2.00328515625,7.68408203125,-0.24313671875,-0.641859375,7.14298828125
14.539,13.52894140625,9.3023359375,17.23318359375,13.761734375,8.023,3.2382421875,-24.76532421875,10.0629609375,10.98356640625,4.1338203125,18.2253125,3.68073828125,7.113828125,5.77741796875,4.2963125,-15.112734375,1.16546484375,8.63771875,7.228578125,-0.70713671875,3.16792578125,6.94371484375,12.46112890625,3.7223359375,-3.01828515625,9.37608203125,0.40586328125,-0.153859375,6.20098828125
10.088,11.43894140625,11.5943359375,18.85718359375,15.708734375,11.392,2.4612421875,-31.07232421875,10.9269609375,13.64856640625,8.8508203125,25.2243125,0.779738281250001,11.024828125,9.11241796875,8.7003125,-17.814734375,1.99946484375,12.81971875,11.839578125,2.36586328125,2.05192578125,9.44271484375,16.17612890625,7.9503359375,-4.53628515625,11.39308203125,1.21686328125,0.468140625,4.81298828125
10.088,11.43894140625,11.5943359375,18.85718359375,15.708734375,11.392,2.4612421875,-31.07232421875,10.9269609375,13.64856640625,8.8508203125,25.2243125,0.779738281250001,11.024828125,9.11241796875,8.7003125,-17.814734375,1.99946484375,12.81971875,11.839578125,2.36586328125,2.05192578125,9.44271484375,16.17612890625,7.9503359375,-4.53628515625,11.39308203125,1.21686328125,0.468140625,4.81298828125
